#   1 NUMBER                 Running object number                                     
#   2 MAG_AUTO               Kron-like elliptical aperture magnitude                    [mag]
#   3 X_IMAGE                Object position along x                                    [pixel]
#   4 Y_IMAGE                Object position along y                                    [pixel]
#   5 X_WORLD                Barycenter position along world x axis                     [deg]
#   6 Y_WORLD                Barycenter position along world y axis                     [deg]
#   7 A_WORLD                Profile RMS along major axis (world units)                 [deg]
#   8 B_WORLD                Profile RMS along minor axis (world units)                 [deg]
#   9 THETA_WORLD            Position angle (CCW/world-x)                               [deg]
#  10 FWHM_WORLD             FWHM assuming a gaussian core                              [deg]
#  11 ELONGATION             A_IMAGE/B_IMAGE                                           
#  12 ELLIPTICITY            1 - B_IMAGE/A_IMAGE                                       
         1 -12.8108     43.6597     46.0776   7.8940537398e+01   6.3099115569e+01     1.318332    0.8534657  44.86  0.001159547    2.012    0.503
         2 -12.1343    119.6484     57.3054   5.7023476175e+01   4.7063938092e+01     2.783279     1.510984 -67.50  0.008179603    5.380    0.814
         3 -12.4709    125.0288     27.7812   4.6216594432e+01   4.9779976199e+01    0.8319102    0.5112137  49.08  0.002884693    1.474    0.321
         4 -11.3699    106.0640     20.5599   4.7867662935e+01   5.4881709322e+01    0.5232708    0.4396525 -47.93  0.002366269    1.409    0.290
         5 -11.3524    145.6532     46.6848   4.7983636567e+01   4.2579981349e+01      1.04186    0.3787645 -28.53  0.003724954    3.391    0.705
         6 -11.5718    165.4250     17.6860   3.6729590827e+01   4.1383704347e+01    0.6728663    0.3983088  24.24  0.003093852    3.022    0.669
         7 -12.6004    119.6293     37.8348   5.0669945634e+01   4.9827432301e+01     0.809525    0.5620239 -79.98  0.002801345    2.110    0.526
         8 -10.3614    125.0971     20.9077   4.3982167093e+01   5.0499445073e+01    0.9693551    0.5514433 -78.86  0.004087911    3.015    0.668
         9 -10.5790    147.9560     16.2526   3.8726268418e+01   4.5613022824e+01    0.5683669    0.2798872  34.28   0.00239153    3.132    0.681
        10 -11.0749    139.6548     30.0252   4.4130483198e+01   4.6099339713e+01    0.5661339    0.2912137 -14.69 0.0008746854    2.944    0.660
        11 -11.5982    135.7913     23.0592   4.2699116123e+01   4.7777405739e+01     1.201888     0.880641 -79.44  0.006720494    1.570    0.363
        12 -12.1321    133.9508     15.2592   4.0623106582e+01   4.8992282428e+01     1.606661    0.6463496  78.29   0.00584753    3.523    0.716
        13 -10.8027     59.8487     23.7408   6.3016555817e+01   6.3904101269e+01    0.4539616    0.2000225 -24.43  0.002062087    2.571    0.611
        14 -10.2572     47.1333     19.2194   6.6129825897e+01   6.6588062390e+01    0.3073538    0.2076405 -18.23  0.001400659    1.439    0.305
        15 -11.8255     27.3459     27.8844   7.9300706481e+01   6.8121446706e+01    0.5606671    0.4060415   4.70   0.00239687    1.194    0.163
        16 -12.3481     36.1253     17.3652   7.0215947564e+01   6.8477816663e+01    0.5776233    0.3835964 -31.13    0.0018922    1.548    0.354
        17 -11.9476     48.3970     12.8391   6.2630358178e+01   6.7128620494e+01    0.6530834    0.2944148  45.34  0.003286561    2.099    0.524
        18 -12.0395     20.2017     21.6243   8.0267616481e+01   6.9876022358e+01    0.6522119    0.2407212 -37.64  0.002494498    2.449    0.592
        19 -12.6544     17.0340     12.5892   7.7761043769e+01   7.1517631492e+01    0.7130033    0.4656889 -10.65    0.0036807    1.304    0.233
        20 -12.0453     23.1909     11.4088   7.3812199089e+01   7.0957574217e+01    0.4735605    0.2773064  14.45  0.002012738    1.573    0.364
        21 -10.8462     86.5051      7.3571   4.7673287828e+01   6.0370889873e+01    0.5886539    0.2950577  59.30   0.00299952    1.788    0.441
        22 -11.1067     90.8601     20.7305   5.1740783086e+01   5.8183214123e+01    0.5753248    0.3451546 -30.66  0.002519927    1.846    0.458
        23 -11.5056     85.8055     14.5397   5.0706152136e+01   5.9871391529e+01    0.6583186    0.3842829  15.91  0.002542231    2.158    0.537
        24 -11.0991     75.0523      3.4652   4.9167073619e+01   6.3063753119e+01     0.540063    0.2613205  50.95   0.00280964    1.666    0.400
        25 -10.9158    178.8968     20.9628   3.5922411718e+01   3.7926853275e+01    0.4957109    0.2356592  47.72  0.001759496    2.521    0.603
        26 -11.9007     68.1839     18.0977   5.7574961206e+01   6.3034733774e+01    0.4829547    0.3932631  33.33  0.001488608    1.074    0.069
        27 -12.0195    246.9529      6.8032   2.7136548498e+01   2.5183682893e+01     0.897317    0.5525472 -14.50  0.004954319    3.280    0.695
        28 -11.3081    240.7101      3.9908   2.6999833373e+01   2.6666012997e+01    0.6891009    0.1959732  61.40  0.003139403    3.729    0.732
        29 -10.5393    232.6729      7.4826   2.8170949258e+01   2.7858966402e+01    0.2859502     0.170845 -69.30  0.001205005    1.399    0.285
        30 -10.0966    233.1370      3.0449   2.7293588474e+01   2.8232564593e+01    0.1909916    0.1490632 -72.43 0.0007183577    1.050    0.048
        31 -11.8529    237.3405     16.0858   2.9500644160e+01   2.6000075758e+01    0.4223728    0.3073327  67.44  0.002844555    1.527    0.345
        32 -10.3051    211.2398     16.7227   3.1681263212e+01   3.1245162269e+01    0.2741379    0.1415263 -36.86 0.0009747733    1.914    0.478
        33 -11.5954    211.8147      9.9223   3.0191882547e+01   3.1855278719e+01    0.4793936      0.34523   6.01  0.002785922    2.606    0.616
        34 -10.7722    218.7824      3.1688   2.8278497501e+01   3.1101292458e+01     0.318378    0.2392205 -43.23  0.001078728    1.387    0.279
        35 -10.2099    228.3755      2.7983   2.7553387571e+01   2.9199315323e+01    0.2935227    0.1933661 -27.32  0.001899558    1.935    0.483
        36 -10.8037    224.0072      2.1881   2.7724117395e+01   3.0137176876e+01    0.2960744    0.1846098  83.92 0.0007734428    1.396    0.284
        37 -11.6818    191.8585      8.7627   3.1658971147e+01   3.6282520989e+01    0.9454578    0.4964846 -32.07  0.004200287    2.067    0.516
        38 -10.6141    183.7238      5.4590   3.1657439795e+01   3.8412912434e+01    0.3475689    0.2530188 -51.36  0.001280608    1.349    0.259
        39 -11.5788    227.7728     15.5352   3.0095828149e+01   2.7958634467e+01    0.4631079    0.2783955 -85.51  0.001269291    1.511    0.338
        40 -12.3590    105.1220     12.9907   4.5381206608e+01   5.5822543851e+01    0.5342648    0.4389664 -15.47  0.001757106    1.388    0.279
        41  -9.5782     98.4982     11.9752   4.6509402812e+01   5.7382422515e+01    0.2043995    0.1867931  -6.94  0.001012805    1.230    0.187
        42 -10.0144    116.8535      2.3682   3.9423258980e+01   5.4052901196e+01    0.2474851    0.2106411  15.68  0.001158159    1.347    0.258
        43 -10.0952    111.2931      2.4461   4.0445676360e+01   5.5310712583e+01    0.4745543    0.2051681  68.52  0.002206014    2.119    0.528
        44 -10.8626    104.7092      1.8646   4.1500258079e+01   5.6835167819e+01    0.5448745    0.2290225  70.62  0.001811623    2.449    0.592
        45  -9.9893      5.1894     12.5488   8.4671773818e+01   7.2677623968e+01    0.2913694    0.1609691  19.79  0.001822618    1.712    0.416
        46  -9.0936      5.3116      9.3411   8.3056503228e+01   7.3135126422e+01    0.1894853    0.1049849 -29.23   0.00076142    1.500    0.333
        47  -9.7903    163.1203      9.1722   3.4778227020e+01   4.2755827458e+01     0.410397    0.1838039 -23.02   0.00192698    2.807    0.644
        48  -9.8796    168.6091      9.8412   3.4311782942e+01   4.1426811526e+01    0.3858228    0.1346137  55.28  0.001662233    2.656    0.623
        49  -9.4338     78.2470      7.4354   4.9928556048e+01   6.2082760886e+01    0.2518404    0.1821868  64.53 0.0008043695    1.498    0.333
        50 -10.1375     65.9500     10.3995   5.4980533096e+01   6.4245463215e+01    0.2719756    0.1782308  45.46  0.001158121    1.321    0.243
        51  -9.6542     62.7819      6.8299   5.4450080272e+01   6.5178747830e+01     0.250203    0.1649269  33.55  0.001522937    1.264    0.209
        52  -9.4074     12.4116      1.6977   7.4790003095e+01   7.3437756030e+01    0.4041199    0.1370526  32.20  0.002006668    2.723    0.633
        53  -9.5534      1.1368      7.4511   8.4741684654e+01   7.3760905496e+01    0.2259105   0.07548397 -44.91 0.0005850527    2.815    0.645
        54 -11.0676      2.6019      1.9725   8.0999201435e+01   7.4395091173e+01    0.3154579    0.1603312   8.30  0.001873391    1.893    0.472
        55  -9.4536    157.6551      7.0787   3.4882201911e+01   4.4213310906e+01    0.2099199    0.1623628  18.86 0.0005003905    1.756    0.431
        56 -10.0257    157.1739      2.2286   3.3644088450e+01   4.4748537950e+01     0.310692    0.2590814  79.65  0.001782851    1.015    0.014
        57 -10.9584    176.8627      5.8446   3.2425727458e+01   3.9920818067e+01    0.3883203    0.1810882  81.42 0.0009558234    2.031    0.508
        58  -9.8807    143.6240      3.7829   3.5766516026e+01   4.7756891608e+01    0.4728435    0.2135756  81.98  0.002115478    2.412    0.585
        59 -10.9111    205.8382      2.4884   2.9093326950e+01   3.3871865977e+01    0.4485863    0.2156683  89.45  0.002001004    1.977    0.494
        60 -11.7023    134.3189      2.8147   3.6784460487e+01   4.9995689117e+01    0.4981522    0.2560542  75.73  0.001990823    1.810    0.448
        61 -10.2874     41.1880      4.4952   6.1606451048e+01   6.9180708367e+01    0.3282874    0.1823144   4.00  0.001774651    2.086    0.521
        62  -9.0482     33.6911      1.6020   6.3485621653e+01   7.0638347415e+01    0.1763331    0.1034337  15.76  0.000940759    1.601    0.375
        63  -9.1992    152.2191      1.3144   3.3983675382e+01   4.5969000491e+01     0.179022   0.09722007  80.83 0.0005842526    1.695    0.410
        64  -9.3626    122.5114      1.4094   3.8161915142e+01   5.2830636945e+01    0.2708987    0.1007951  66.03  0.000951231    2.206    0.547
        65 -10.4492     82.1902      1.3187   4.6353104856e+01   6.1760432148e+01    0.1960049    0.0930604  56.23 0.0003250561    1.730    0.422
        66  -9.5511     74.7514    154.0143   9.6022208467e+01   3.4038489789e+01    0.2353164    0.2012188  80.03 0.0007718512    1.255    0.203
        67 -10.4487    143.0646    249.0297   9.3987820968e+01   2.1838513326e+00    0.3117459    0.1711903 -43.22  0.001600564    2.061    0.515
        68 -10.1965     73.8171    146.7301   9.4948413335e+01   3.6052280349e+01    0.4693886    0.1882675 -45.62  0.001638677    2.610    0.617
        69 -12.2369     22.6133    149.2111   1.1061846631e+02   4.1309665209e+01    0.6779253    0.3507919 -34.61  0.002364623    2.532    0.605
        70 -10.9205     16.0961    147.8363   1.1233408895e+02   4.2192011528e+01    0.3737072    0.2869076 -68.42  0.001696012    1.109    0.098
        71 -11.8479     12.8213    139.0441   1.1226192432e+02   4.4672342210e+01    0.7753897    0.4744878 -84.28   0.00403699    1.535    0.349
        72 -10.5381      3.5858    153.0825   1.1637425461e+02   4.1770563467e+01     0.400747     0.235189  76.65  0.001975251    1.733    0.423
        73 -12.2710      3.1616    143.5616   1.1557014207e+02   4.4181615319e+01    0.7059596    0.4436653  82.32  0.001687401    1.570    0.363
        74 -10.6613     63.2706    150.5148   9.8792791251e+01   3.6543053347e+01    0.4574992    0.2914251   7.38  0.001424601    2.192    0.544
        75  -9.6479    233.8954    150.4331   5.7688672765e+01   5.9607511908e+00    0.2475699    0.1676219  23.73  0.001301901    1.862    0.463
        76 -10.6382     41.6277    149.0714   1.0501437814e+02   3.9517770554e+01    0.3635664    0.2299023  22.75 0.0005031946    1.812    0.448
        77 -10.1256     49.7081    146.0077   1.0211103729e+02   3.9408000383e+01    0.2781181    0.1992955 -66.02 0.0001596709    1.272    0.214
        78 -10.7301     46.5436    145.7203   1.0302333172e+02   3.9846100627e+01    0.5755327     0.265994 -61.69  0.001899408    1.890    0.471
        79 -10.9455    249.0214    142.7206   5.3773169749e+01   4.8859328235e+00    0.5585157    0.2546564 -29.83  0.002426888    2.360    0.576
        80 -10.2647    239.4630    146.6758   5.6028088785e+01   5.7202770076e+00    0.2478504    0.2004009 -24.45 0.0007182431    1.142    0.125
        81 -10.9822     33.4835    144.4074   1.0677088648e+02   4.1556357328e+01    0.4337495    0.2862444  52.04  0.001555112    1.681    0.405
        82  -9.0488    233.9769    143.4726   5.6241414135e+01   7.1841889702e+00    0.1640337    0.1196688  83.83 0.0008075265    2.378    0.580
        83  -9.1941     33.4939    154.5125   1.0815410505e+02   3.8947643430e+01     0.246182    0.1953993 -24.58 0.0009488438    1.526    0.345
        84  -8.5544     59.2736    142.6811   9.8620584162e+01   3.9097443506e+01    0.1461995    0.1098827  76.25 0.0006975228    1.568    0.362
        85  -9.4778    132.5064    140.5341   7.6846238262e+01   2.7293595769e+01    0.2786619    0.1516831 -58.90 0.0009572845    2.190    0.543
        86 -10.4970    217.0567    138.3484   5.7977585495e+01   1.1060296457e+01    0.3361694    0.2475863 -47.94  0.001062165    1.281    0.220
        87  -9.8687     79.9967    137.2750   9.1180054519e+01   3.7548313129e+01     0.399458    0.2667659 -29.38  0.001739879    1.816    0.449
        88 -10.4178     46.5093    134.7067   1.0119672445e+02   4.2703769663e+01    0.4603489    0.3411433  83.93   0.00204018    1.558    0.358
        89 -10.0528     39.5099    137.5816   1.0388510477e+02   4.2717121973e+01    0.3650473    0.1982674  46.92  0.001629744    2.102    0.524
        90  -9.4677     38.6111    133.1508   1.0344549305e+02   4.3953499497e+01    0.2637898     0.202567  68.62 0.0008551722    1.487    0.327
        91 -10.5039     22.8885    126.9824   1.0751581958e+02   4.6975593314e+01    0.3641926    0.1899788  30.40 0.0003020726    2.116    0.527
        92  -9.7135     32.3776    137.6688   1.0612010304e+02   4.3401661078e+01    0.3261869    0.2437914  46.69  0.001308713    1.475    0.322
        93 -11.4497     22.8924    135.6608   1.0876795774e+02   4.4758554248e+01    0.6192386    0.4881182  35.66  0.003298656    1.431    0.301
        94 -11.4216     30.1266    132.9622   1.0611078862e+02   4.4822228421e+01    0.4401865    0.3427577 -76.84 0.0004881288    1.196    0.164
        95  -9.8072     92.9278    134.7924   8.6703707103e+01   3.6069828870e+01      0.34485    0.2291272  84.34   0.00100709    2.520    0.603
        96  -9.5298     92.9843    129.4655   8.5470768146e+01   3.7386555944e+01    0.3545989    0.2249934 -62.71  0.001500931    1.717    0.418
        97  -9.9486    245.2197    134.6036   5.2695587776e+01   6.8800849247e+00    0.1584229    0.1233926  27.99 0.0004176321    1.591    0.371
        98 -10.4322     74.0925    132.5826   9.2027038125e+01   3.9641266503e+01    0.3333079    0.2201286 -27.92  0.001447561    1.866    0.464
        99  -9.9865     61.2425    132.5835   9.6103444291e+01   4.1448106372e+01    0.4441157    0.2861918  10.25   0.00197765    2.007    0.502
       100  -9.5826    103.8182    130.9113   8.2564221064e+01   3.5104784164e+01    0.2313498    0.2041841 -20.25 0.0003097676    1.200    0.167
       101 -10.9706      9.4348    128.6720   1.1202115380e+02   4.7528832738e+01     0.431748     0.291207 -65.50  0.002441409    1.214    0.176
       102  -9.8441    241.2777    127.9888   5.1918873565e+01   8.6736118389e+00    0.2171937    0.1520761  -8.47  0.001117729    2.008    0.502
       103  -9.8586     81.5262    125.5364   8.8123846564e+01   4.0270530143e+01    0.2660486     0.153026  19.07 0.0007871697    2.267    0.559
       104  -9.4084     53.5018    125.4404   9.7201252483e+01   4.4263826712e+01    0.3142763    0.1766989 -67.92  0.001245204    1.820    0.450
       105 -10.0550     49.5424    123.0384   9.8039239046e+01   4.5350301813e+01    0.3231983    0.2584236  -0.05  0.001058775    1.442    0.307
       106 -10.3840     45.0368    120.0380   9.8963390427e+01   4.6626050502e+01    0.3592274    0.2615858  65.03   0.00107407    1.727    0.421
       107 -10.2459     43.5100    116.4960   9.8782489880e+01   4.7688609921e+01    0.3801136    0.2242092  25.16  0.001793983    1.872    0.466
       108  -9.6758      2.0329    125.8755   1.1398477041e+02   4.8677734089e+01    0.2421065    0.1574356 -75.91  0.001128325    1.293    0.227
       109 -12.9164    103.8121    122.3625   8.0492430727e+01   3.7175340597e+01    0.4180122    0.3771798  -7.83 0.0004688373    1.175    0.149
       110  -9.7837     19.0278    122.7354   1.0813390593e+02   4.8355721732e+01    0.3027822    0.1565835 -61.79  0.001036578    1.574    0.365
       111  -8.9520    143.4994    122.4485   6.9618114194e+01   2.9163855993e+01    0.1553242    0.1514142 -29.00 0.0001444844    1.007    0.007
       112  -9.4703     56.8145    122.1523   9.5431802863e+01   4.4685804089e+01    0.2155541    0.1981596 -82.24 0.0007663703    1.153    0.133
       113  -9.2624     71.3308    120.8987   9.0349710550e+01   4.3000717408e+01    0.2147584    0.1813688 -47.18  0.000531694    1.104    0.094
       114  -8.9872    221.4776    120.4845   5.3354565316e+01   1.3525658458e+01     0.139418    0.1210321 -43.79 0.0001712606    1.013    0.013
       115  -9.2032     57.7907    118.1934   9.4260796003e+01   4.5558756768e+01     0.207801     0.163438 -30.66 0.0005405516    1.308    0.235
       116 -11.8139     49.5896     97.8254   9.2451607533e+01   5.1572111334e+01     1.806563    0.6803184 -47.28  0.006919969    2.330    0.571
       117 -10.9279     15.9642    109.5462   1.0709734431e+02   5.1881131676e+01    0.3819052    0.2293686  47.99 0.0009299247    2.064    0.515
       118 -12.0116      7.2771     89.0592   1.0672128338e+02   5.7380166447e+01    0.6811447    0.4487182  22.29  0.001814676    1.772    0.436
       119 -11.9619      9.5033     97.2940   1.0735156983e+02   5.5290757056e+01    0.4928271    0.4467664  -0.37 0.0004698383    1.270    0.213
       120 -10.4217     18.6210    106.0192   1.0555583924e+02   5.2563014514e+01    0.2295001    0.2057835 -11.35 0.0001350127    1.232    0.188
       121 -11.8281     42.1446     85.7247   9.2209257690e+01   5.5256534892e+01     1.050677    0.5415575  17.26   0.00392685    2.253    0.556
       122 -11.7045     17.2671    100.7220   1.0509547970e+02   5.3956465765e+01    0.4260391    0.2682009 -48.09 0.0006014667    1.340    0.253
       123 -12.0671     34.7730     94.0790   9.7133642035e+01   5.4085437010e+01      1.09358    0.6505688 -56.33  0.004777953    1.476    0.323
       124 -11.2848     26.5859     86.1404   9.8487269751e+01   5.6701033800e+01    0.7434479    0.5464619  11.73  0.003370078    1.487    0.328
       125 -11.4596     22.9551     94.8145   1.0181306830e+02   5.4956284610e+01    0.4075634    0.2879205 -11.37  0.001165232    1.566    0.362
       126 -11.4028     18.3527     90.5079   1.0269731528e+02   5.6329298034e+01    0.4986669    0.2839459 -58.88  0.001224777    1.468    0.319
       127 -12.9515     24.7046    106.9056   1.0353688638e+02   5.1874475913e+01      1.19206    0.9863782  72.90  0.006983494    1.438    0.305
       128 -11.6710     21.9144    114.1722   1.0580320462e+02   5.0289808910e+01     0.490227    0.2786876   1.09  0.001909329    2.285    0.562
       129 -11.0757     28.1622    113.1878   1.0346812772e+02   5.0021138498e+01    0.3503286    0.2743832 -14.63 0.0009623304    1.427    0.299
       130  -9.3981    113.7060    116.1578   7.6009370667e+01   3.6731128951e+01    0.3099574    0.1902639 -43.77   0.00130127    1.596    0.373
       131 -10.3802      7.1955    114.4154   1.1084504728e+02   5.1235702469e+01     0.308154    0.2340658 -69.23  0.001856033    1.111    0.100
       132 -12.4469      2.2699    111.6062   1.1211002239e+02   5.2203685211e+01    0.4822269    0.2745396 -77.65 0.0005863649    1.586    0.369
       133 -11.2557      4.0727    104.8428   1.1052828880e+02   5.3765795572e+01     0.417362     0.353879  46.97  0.001978606    1.421    0.296
       134 -10.6674    108.1939    112.3120   7.6610316648e+01   3.8701531918e+01     1.002154    0.5086414 -64.72  0.003167629    3.429    0.708
       135  -9.0401    103.6999    112.3672   7.7967973936e+01   3.9555408555e+01    0.2460508    0.1905352  88.25 0.0005848116    1.822    0.451
       136 -10.7433    101.5943    109.3586   7.7809366371e+01   4.0651511068e+01    0.5501143    0.4114898   4.77  0.001681029    1.705    0.413
       137  -9.4486     79.1792    114.4570   8.6244468594e+01   4.3378797954e+01    0.2933223    0.2044952 -49.97  0.001374146    1.353    0.261
       138  -9.5095     67.0268    114.4967   9.0301444416e+01   4.5218099591e+01    0.3354274    0.1957367  51.31  0.001394076    2.192    0.544
       139 -10.1036     66.2326    110.4039   8.9597035444e+01   4.6336307044e+01    0.4207514    0.3340818 -24.00  0.001832684    1.326    0.246
       140 -10.6726    132.2277    110.8203   6.9494640311e+01   3.4110774217e+01    0.5546349    0.4209859  83.61  0.002441056    1.861    0.463
       141  -8.9763    126.5392    113.5205   7.1728201878e+01   3.4715488297e+01    0.1560811    0.1511992 -22.34 0.0001648384    1.017    0.016
       142  -9.8817     94.3557    112.2918   8.0822681919e+01   4.1307512046e+01    0.3156284    0.2772634 -34.74  0.001332424    1.106    0.096
       143  -9.8700     48.9245    112.5570   9.6087237269e+01   4.8062766149e+01    0.2688977    0.2407825  71.32 0.0009329334    1.296    0.228
       144 -10.7309    170.4977    110.5357   6.0384320749e+01   2.5843034951e+01     0.433019    0.3086105 -40.42   0.00138719    1.349    0.259
       145 -10.2980    120.9266    109.2111   7.2122176904e+01   3.6839648565e+01    0.4647471    0.3151778  24.52  0.001690834    1.790    0.441
       146 -11.6693     79.1035    108.1098   8.4670134089e+01   4.4918619318e+01    0.6799285    0.3712216  25.72  0.002758187    2.119    0.528
       147 -11.6825     88.6113    104.6259   8.0623996568e+01   4.4123962995e+01    0.4963923    0.3367457  34.67  0.002289538    1.520    0.342
       148 -10.5215    147.0818    111.6597   6.5966980517e+01   3.0727393479e+01    0.3278701      0.22753 -36.09  0.001472348    1.466    0.318
       149 -10.4201    143.1682    105.8985   6.5400543578e+01   3.2792369918e+01    0.3613157    0.3120053 -65.78   0.00106403    1.259    0.206
       150 -11.5962    145.4787    100.1582   6.3296181077e+01   3.3460370940e+01    0.4559621    0.3663515 -31.22 0.0004461744    1.293    0.227
       151 -10.1699     57.1929    102.8756   9.0928229921e+01   4.9404008314e+01    0.3495237    0.1976705 -54.26  0.001240453    1.627    0.386
       152 -11.3237     89.5875     89.7795   7.6108812411e+01   4.7259384297e+01     0.654906     0.385719 -29.66  0.002379625    1.987    0.497
       153 -10.0940     80.5138     98.5001   8.1631876788e+01   4.6926701194e+01     0.300129    0.2452205 -14.54  0.000910051    1.306    0.235
       154  -9.4678     77.6942     96.6904   8.2090210073e+01   4.7808021378e+01    0.2287521    0.1992159  -4.08  0.000482281    1.175    0.149
       155 -10.0220     82.7912     93.3848   7.9422005109e+01   4.7688031748e+01    0.3462793    0.2385364  23.49 0.0007611322    1.585    0.369
       156 -11.0802     78.8878     93.1307   8.0678056503e+01   4.8410485649e+01     0.504873    0.4498877  18.56  0.002757576    1.133    0.117
       157  -9.8843    210.1824     97.9864   5.0106931475e+01   1.9750930417e+01    0.2502417    0.2096409  48.20  0.000753309    1.354    0.261
       158 -11.3053     67.7511     96.3015   8.5456001922e+01   4.9463805813e+01    0.7427081    0.4983684 -23.47  0.003109888    1.720    0.419
       159  -9.8021    120.5038    101.5095   7.0131101947e+01   3.8607261803e+01    0.2830788    0.1436577 -33.93  0.001030036    2.300    0.565
       160  -9.8055    181.3101    103.9173   5.6552804570e+01   2.4778296916e+01    0.2478035    0.1754183 -56.30  0.001025009    1.468    0.319
       161 -10.3887     42.8691     94.7544   9.4213573846e+01   5.3079705349e+01     0.350909    0.3116326  -6.18  0.001452355    1.154    0.133
       162  -9.0207    183.3760     95.2183   5.4003078882e+01   2.5949268010e+01    0.2118122    0.1256099 -49.75 0.0004055303    1.660    0.398
       163 -11.3850    124.9772     93.9625   6.6777664758e+01   3.9232612872e+01    0.6661237    0.3409204  47.48  0.001386493    1.975    0.494
       164 -11.2965    120.9973     89.0153   6.6428157804e+01   4.1092545318e+01    0.3506279    0.2839182  -6.54  0.001218664    1.464    0.317
       165  -9.4965    160.6174     93.9059   5.8187245159e+01   3.1284891328e+01    0.3631469    0.2096416  68.38  0.001411314    2.397    0.583
       166 -10.8053    153.0796     91.9049   5.9296178375e+01   3.3373599596e+01    0.4903861    0.3263675  43.12  0.001575778    1.568    0.362
       167  -9.2080    104.3726     93.5492   7.2550633387e+01   4.3616996220e+01    0.3022906    0.1351712 -57.19  0.000952412    3.359    0.702
       168 -11.2909     98.4685     91.0297   7.3631762677e+01   4.5313616384e+01    0.3014793    0.2689193  30.29 -5.642044e-05    1.121    0.108
       169 -10.1057     66.3103     88.8933   8.3914517773e+01   5.1360375766e+01    0.3837807    0.2494696   0.72  0.001487825    2.064    0.515
       170 -10.6064    183.2751     85.3850   5.1561560797e+01   2.7730078001e+01    0.7716832    0.2654238 -47.57  0.002620126    3.020    0.669
       171 -10.5164    104.8217     87.2726   7.0562336117e+01   4.4835349108e+01    0.4540245     0.294364 -17.68  0.001875984    2.135    0.532
       172 -11.9211    112.5083     83.0881   6.7041442773e+01   4.4080386128e+01    0.7360571    0.5217935  62.94  0.003369355    1.739    0.425
       173 -10.9539    142.5810     84.4658   5.9633536375e+01   3.7165952099e+01    0.4996709    0.3192336  39.49  0.001091844    1.681    0.405
       174 -10.6273     80.5310     83.7504   7.7346801541e+01   5.0162039030e+01    0.4568864    0.3434497 -17.79  0.002267409    1.456    0.313
       175 -11.7109     75.1566     80.0116   7.8081684116e+01   5.1863815364e+01    0.7154626    0.5678917  67.83   0.00200397    1.799    0.444
       176 -10.0326     75.5205     75.4682   7.6524209722e+01   5.2731358528e+01    0.2642604    0.2197288  -9.29  0.001299238    1.200    0.167
       177 -10.1668    165.5308     83.6728   5.4450664326e+01   3.2051172003e+01    0.3293195    0.2545901 -60.93  0.001094761    1.370    0.270
       178 -10.4127     66.9860     82.0511   8.1662787391e+01   5.2752373856e+01    0.3836461    0.3179877 -24.55  0.001988524    1.141    0.123
       179 -10.6903     60.6443     83.5832   8.4477804538e+01   5.3367049073e+01    0.2914056    0.2431993 -44.09 0.0002914744    1.156    0.135
       180  -9.7726     47.2502     75.3968   8.7282389924e+01   5.6936340223e+01    0.4122251    0.2201229 -43.15  0.001200279    1.681    0.405
       181 -11.6866     53.3401     75.9637   8.5024302682e+01   5.6025856364e+01    0.6432378    0.3971476 -49.81  0.003174573    1.561    0.360
       182 -10.9705     58.3787     77.6556   8.3574652956e+01   5.4968280958e+01    0.3328097    0.2636378 -40.04 0.0007539733    1.178    0.151
       183  -9.6176    127.5159     83.0693   6.2944821105e+01   4.0823736129e+01    0.2476668    0.1954571  47.28 0.0008419242    1.254    0.202
       184  -9.5439      1.2629     80.3379   1.0747509403e+02   5.9716336628e+01    0.4021534    0.1286433 -68.00  0.001061068    2.739    0.635
       185 -11.6196      2.1305     71.3952   1.0532133067e+02   6.1696019618e+01    0.6819802    0.2078296 -65.28  0.002766905    2.823    0.646
       186 -10.7056     12.9638     58.0081   9.7148694673e+01   6.3938845543e+01    0.4008892    0.3183281 -13.91  0.002180154    1.177    0.150
       187 -13.1447      4.3559     61.8128   1.0214212876e+02   6.3671711197e+01     0.362043    0.2830465 -46.17 0.0006258698    1.070    0.065
       188 -11.6472     10.0118     62.4031   9.9705608122e+01   6.3214305653e+01    0.3301214    0.2747123 -42.34  0.001201184    1.088    0.081
       189  -9.5227    103.0000     79.9589   6.8884272077e+01   4.6668175838e+01    0.3084756    0.1928948 -37.91   0.00085807    1.616    0.381
       190 -10.6970    103.3831     74.9753   6.7207133485e+01   4.7545643841e+01    0.4339061    0.3511147 -74.22   0.00215908    1.667    0.400
       191 -11.6391     13.8279     74.2609   1.0095776463e+02   6.0381038794e+01     0.560176     0.394486 -69.26  0.002564656    1.499    0.333
       192 -10.0958     13.8622     67.5062   9.9287800045e+01   6.1864886699e+01    0.4657329    0.2298969   8.64  0.002302958    2.294    0.564
       193 -10.0036    233.2194     77.5004   4.2394497419e+01   1.8538022779e+01     0.260168    0.2105681 -55.46  0.001019011    1.038    0.036
       194 -10.2075     91.5378     48.6577   6.1953428586e+01   5.4460643630e+01     1.396222    0.5112049  55.72   0.00406334    3.712    0.731
       195 -10.2540     93.3961     75.7361   7.0552230155e+01   4.9404355882e+01     0.753531    0.6051537  41.03  0.003405537    1.249    0.199
       196 -11.5531     85.3063     73.1565   7.2384098827e+01   5.1442659291e+01    0.6240749    0.4061015  34.65  0.002102668    1.529    0.346
       197 -11.4066     78.9528     68.0096   7.2873289020e+01   5.3584859165e+01    0.8348519    0.5702047 -71.11  0.003563573    2.703    0.630
       198 -11.6048     91.5366     62.9025   6.6926607907e+01   5.2134838831e+01     1.222366    0.4176045  49.05   0.00415224    3.185    0.686
       199 -10.5690     87.6617     56.6605   6.6026015040e+01   5.3963824134e+01    0.7173291    0.3091847 -33.45  0.002538553    2.516    0.603
       200 -10.7821     91.6559     57.0565   6.4881642190e+01   5.3105501963e+01    0.4180441    0.3447885 -18.41  0.002170425    1.235    0.190
       201 -12.7390     74.8175     53.6801   6.9347946697e+01   5.6882262292e+01    0.7501124    0.6483384 -23.30  0.001282079    1.149    0.130
       202 -11.0838     72.6907     47.2500   6.7737404001e+01   5.8312638969e+01    0.3347255    0.2587992 -45.65  0.001657202    1.530    0.346
       203  -9.3198    134.9057     77.5107   5.9455094977e+01   4.0190227760e+01    0.2300369    0.1447759  53.36   0.00102569    1.585    0.369
       204 -10.3226    126.8207     77.0031   6.1319026099e+01   4.2108372496e+01    0.2620916    0.2112778  40.21 0.0003168817    1.233    0.189
       205 -12.2694    186.0419     70.1960   4.7280386474e+01   2.9650194556e+01     1.069196    0.5699253 -42.99   0.00455777    1.775    0.437
       206  -9.3281     62.5196     74.5277   8.1020977879e+01   5.5014946932e+01    0.3491643    0.2448236  80.79  0.001430526    3.168    0.684
       207  -8.6729     24.8918     74.0930   9.6204785722e+01   5.9572609007e+01    0.5767093    0.3847184 -46.98  0.003242418    1.260    0.206
       208 -11.5725     40.6850     71.4026   8.8784501731e+01   5.8571818261e+01    0.4872876    0.3043506 -56.73  0.001595729    1.675    0.403
       209 -11.3968     35.0344     72.0130   9.1334245182e+01   5.9060721361e+01    0.6738734    0.2488521  28.97  0.002783057    2.796    0.642
       210 -10.3256    153.7437     72.5201   5.3796790911e+01   3.6713694360e+01    0.3676925    0.2327101  43.80  0.001058828    1.666    0.400
       211  -9.6842    122.4703     72.5142   6.1080714557e+01   4.3888482609e+01    0.3183819    0.2330326  71.82 0.0006722033    1.722    0.419
       212 -11.6243    123.0854     68.6354   5.9724209897e+01   4.4429060341e+01    0.5158689    0.4051538  44.50  0.001650411    1.231    0.188
       213  -9.4430    162.2519     70.9607   5.1667867011e+01   3.4993480492e+01    0.2660549    0.1982241 -89.14  0.001305497    1.603    0.376
       214  -8.7474     19.6696     71.6763   9.7814807032e+01   6.0530983199e+01    0.1421783   0.07857122 -31.94 0.0007050022    1.700    0.412
       215  -9.8602    172.0148     68.9660   4.9329974351e+01   3.3054145493e+01    0.3189372    0.2480558 -27.76  0.001010929    1.435    0.303
       216  -9.1105    172.3118     64.6802   4.8147949130e+01   3.3666037680e+01    0.2288851    0.1941538 -78.26 0.0005707047    1.186    0.157
       217 -10.3210    168.8478     63.6192   4.8469963869e+01   3.4636130363e+01    0.3198594    0.2738923 -71.98 0.0009693882    1.168    0.144
       218 -11.3966    219.9159     66.6864   4.1677184213e+01   2.2859711881e+01    0.5895585    0.3313428  55.76  0.002664292    1.954    0.488
       219 -11.3975    234.2239     61.0201   3.8811815190e+01   2.0819504897e+01      0.53652    0.3454346  65.78  0.002802919    1.672    0.402
       220  -9.5864     64.8522     60.9606   7.5633295394e+01   5.7304397047e+01    0.3572329    0.2036516 -45.32  0.001587038    1.804    0.446
       221  -9.6365    192.4622     65.7611   4.5188389313e+01   2.8905657240e+01    0.2597553     0.190889 -75.91 0.0007522069    1.453    0.312
       222 -11.1722     13.7220     46.6448   9.3332261980e+01   6.6154143140e+01     0.836369    0.2426439 -32.50   0.00280201    4.529    0.779
       223  -9.5367     66.6902     30.8699   6.3472407257e+01   6.1774564008e+01    0.5380203    0.4025729 -60.28  0.002899846    2.240    0.554
       224 -11.7537     60.1858     46.7256   7.2263515649e+01   6.0541606203e+01     0.983223    0.5782899 -38.46  0.005025773    1.709    0.415
       225  -9.8223    174.6959    247.1582   8.7097829240e+01  -2.0376589352e+00    0.2562817    0.1906476  16.96  0.001563397    1.161    0.139
       226 -11.0001     20.7326     46.1925   8.9714099449e+01   6.5654427102e+01    0.3975058    0.2467768 -39.40  0.001055082    1.357    0.263
       227  -8.9779     24.3881     38.7455   8.5199924164e+01   6.6653813490e+01    0.7714309    0.5900763  74.51   0.00403238    3.108    0.678
       228 -11.8918     26.0807     57.9786   9.1055845004e+01   6.2867678149e+01    0.9932472    0.6727426 -12.50  0.005695086    1.448    0.310
       229 -11.4790     26.3489     47.6914   8.7515995642e+01   6.4837774648e+01    0.3404001    0.2016455 -21.03 0.0002001009    1.666    0.400
       230 -11.2217     40.6253     56.9475   8.4190753837e+01   6.1499835512e+01    0.5068418     0.293939  35.96  0.001362943    1.903    0.474
       231 -11.5805     52.0129     61.7965   8.1015641615e+01   5.9079509401e+01    0.4447823    0.3708733 -62.99  0.002551202    1.587    0.370
       232 -11.9723     43.6201     62.1964   8.4658099879e+01   6.0108213868e+01    0.2915955    0.2322654 -25.42 0.0003857063    1.098    0.090
       233 -11.3745     46.5966     58.7852   8.2247796848e+01   6.0391669285e+01    0.3428712    0.2451157 -55.16 0.0006517345    1.666    0.400
       234  -9.4494    201.4794     64.5076   4.3590025496e+01   2.7105661077e+01    0.2313121    0.2126453  57.00 0.0008150616    1.241    0.194
       235  -9.6287    198.3120     62.6408   4.3588032305e+01   2.8083839274e+01    0.2977021    0.1864074 -54.03  0.001052859    1.535    0.349
       236  -9.9352    106.2134     63.9364   6.2812555526e+01   4.8933152540e+01    0.3032296    0.2078217  37.07  0.001474662    1.440    0.306
       237 -11.0116    106.2144     58.4314   6.0990181515e+01   4.9848824762e+01    0.5870937    0.3907893  76.00  0.002522605    2.443    0.591
       238 -10.3500    159.1628     62.5081   4.9932771295e+01   3.7073018702e+01    0.5210127     0.212323  47.88  0.001977375    2.547    0.607
       239  -9.2702    205.8517     61.8485   4.2375996290e+01   2.6556324533e+01    0.1803755    0.1706154 -71.36 0.0004110005    1.129    0.114
       240  -9.4467    163.6810    243.7630   8.8871794632e+01   9.9436173110e-02    0.2179641    0.1657342  28.94 0.0007329699    1.163    0.140
       241 -11.5543    127.3949    241.5741   9.6352018003e+01   5.8374016774e+00    0.4401015    0.3614934  44.38  0.002142257    1.165    0.141
       242 -11.3002    113.9768     37.9536   5.2036123148e+01   5.1099623885e+01    0.5584214    0.3207096  48.64  0.001040334    1.564    0.361
       243  -9.8678     67.9940    240.6597   1.0920317696e+02   1.4379468180e+01    0.1825659    0.1467756  44.65 0.0008259123    1.116    0.104
       244 -12.4559    117.6777     44.7371   5.3411884226e+01   4.9359283584e+01    0.7949284     0.603437  53.28  0.003074095    1.220    0.180
       245 -12.0550    106.4249     32.4406   5.1987510850e+01   5.3478152248e+01    0.7379227    0.4158841  21.77  0.002824691    2.616    0.618
       246  -9.5011    147.0151     60.7678   5.1832890649e+01   4.0196171840e+01    0.2723364    0.1861981  53.95 0.0007841045    1.400    0.285
       247  -9.4725    113.5231     60.4510   5.9638729980e+01   4.7928373788e+01    0.2941856    0.1425976 -35.48  0.001209096    2.167    0.539
       248 -10.5395    137.7379     49.6753   5.0463465813e+01   4.4026503379e+01    0.6697627    0.2963282  40.34  0.002517868    2.791    0.642
       249 -10.3901    136.4733     57.0587   5.2975272646e+01   4.3235258900e+01    0.6884354    0.4475663   1.08  0.002890875    2.606    0.616
       250 -11.3052    147.2306    237.5395   9.1458103243e+01   3.6261885576e+00    0.6683682    0.2903568  41.92  0.002911765    2.207    0.547
       251 -10.4888    134.9913     45.7954   4.9851451141e+01   4.5211624372e+01    0.4276992    0.1950827  60.82  0.001069288    2.134    0.531
       252 -10.0024    139.0050     43.8439   4.8435580018e+01   4.4533006522e+01     0.331047    0.2085444  41.05  0.001006473    1.693    0.409
       253 -11.2912    156.7306     53.0355   4.7739899646e+01   3.9068816965e+01     0.914619    0.5351335 -44.29  0.003621201    1.746    0.427
       254 -10.5110    167.7278    237.9734   8.7135243957e+01   5.0276480153e-01    0.1815618    0.1617292  -4.68 0.0008377506    1.101    0.092
       255 -11.7183    157.2093     42.7472   4.4769237957e+01   4.0377778954e+01     1.032083     0.448872  70.30   0.00405611    2.611    0.617
       256 -12.2569    153.0820     35.9152   4.3534247551e+01   4.2224737856e+01    0.4248258     0.329619  75.61 0.0003543615    1.216    0.178
       257 -12.1036    159.9747     30.0672   4.0811430874e+01   4.1299580691e+01    0.4944951    0.4131702 -66.33   0.00180711    1.200    0.167
       258 -11.5587    164.3367     27.4844   3.9477862886e+01   4.0573531340e+01    0.2958066    0.2586704  64.29 0.0006737681    1.127    0.113
       259  -9.5828    238.1711     55.8463   3.7332420571e+01   2.0788158545e+01    0.1817375    0.1486777 -60.61 0.0002651774    1.025    0.025
       260 -10.1777    240.4342     50.7021   3.6066597013e+01   2.1065340809e+01    0.2881833    0.2193721 -23.17  0.001198771    1.747    0.428
       261 -10.0737     66.9692     54.5483   7.2549092628e+01   5.8103170712e+01    0.3443376    0.1899728 -43.47  0.001357032    1.894    0.472
       262  -9.2709    187.7992     55.0129   4.3225899769e+01   3.1564711931e+01     0.247935    0.1577366  53.06  0.001264426    1.650    0.394
       263 -11.0157     61.0854     36.0606   6.7708780803e+01   6.2039283412e+01    0.4342552    0.3011669 -15.42  0.001259582    1.462    0.316
       264 -11.0220    201.3925     50.8386   4.0385157822e+01   2.9121348310e+01    0.7763805    0.3561356 -30.86  0.003407311    2.476    0.596
       265 -10.7943    201.0008     45.5093   3.9188139769e+01   2.9940058084e+01    0.5533043    0.2501799  88.08  0.002005965    3.793    0.736
       266  -9.6606    211.7067     53.1295   3.9647492138e+01   2.6565639763e+01     0.231544    0.1656172 -87.53  0.001325584    1.408    0.290
       267 -10.7118     59.1591     63.3925   7.8682568613e+01   5.7735748255e+01    0.5388393     0.308632 -40.78   0.00235461    1.662    0.398
       268 -10.3418    245.1892     51.3873   3.5755687941e+01   2.0063299523e+01    0.2024723    0.1400818 -88.84 0.0008513365    1.456    0.313
       269 -10.9539    174.4421     48.2791   4.3494816592e+01   3.5587053620e+01    0.5788453    0.3341947  70.34  0.002795778    1.736    0.424
       270  -9.3158      2.3066     48.9256   9.9719158150e+01   6.6451778824e+01    0.7287609     0.209924 -44.32  0.003238376    2.446    0.591
       271  -9.6027      7.3736     30.7705   9.1093707364e+01   6.9550224455e+01    0.6517531    0.2958679  -0.54  0.003169977    2.629    0.620
       272  -9.9061      3.5456     39.4338   9.6201822869e+01   6.8230508145e+01    0.3823961    0.2727695  70.05  0.002083385    2.939    0.660
       273 -10.2214      6.0114     36.4621   9.3892575813e+01   6.8625697659e+01    0.3199092    0.1983328  20.07     0.001475    1.718    0.418
       274  -9.1620    187.9159     48.4575   4.1587785573e+01   3.2464869985e+01    0.2000123    0.1238759  71.03  0.001019003    1.587    0.370
       275  -9.1486    233.4824    236.4634   7.3966659124e+01  -8.1463636403e+00    0.1209981   0.09372265  -5.49 0.0002448821    1.028    0.027
       276  -9.4533    176.5857     43.4736   4.1929658364e+01   3.5740526656e+01    0.2700959    0.1800552  84.99  0.001168377    1.577    0.366
       277  -9.9029     86.1490     31.0381   5.7058283934e+01   5.7988994455e+01    0.3299558    0.2149587   8.15  0.001664655    1.912    0.477
       278 -11.0407     79.3902     34.1255   6.0385063436e+01   5.8949596922e+01    0.8745701     0.490675 -32.10  0.003680731    1.886    0.470
       279  -9.6053     81.2922     30.6523   5.8412707438e+01   5.9019082661e+01    0.2497493    0.1985414 -52.36  0.001440525    1.684    0.406
       280 -10.5524    189.0179     39.7670   3.9310469779e+01   3.3376523125e+01    0.3923655    0.1948917 -26.21  0.001114478    2.553    0.608
       281 -10.7120     93.9029     41.1555   5.8526494754e+01   5.5058677956e+01    0.6261488    0.2409819  48.48  0.002513495    2.347    0.574
       282  -9.9188    231.5335     39.2796   3.4582205665e+01   2.4338875052e+01    0.2556178    0.1334945 -51.77  0.001000605    1.632    0.387
       283 -10.6830    189.2874     27.6838   3.6357800400e+01   3.4805120350e+01    0.4458436    0.3134504  36.27  0.002475108    2.003    0.501
       284 -10.9165    176.7679     36.4567   4.0101527869e+01   3.6603560958e+01    0.3658659    0.2611527 -41.77  0.002077549    1.422    0.297
       285 -10.9721    175.3951     31.0896   3.8912608477e+01   3.7577328056e+01    0.9145464    0.2561743  58.67  0.003457415    3.045    0.672
       286 -11.0586    183.2831     25.5582   3.6540631003e+01   3.6411855803e+01    0.5105313    0.3112969  51.10  0.002749585    1.797    0.444
       287  -9.5127    183.7767     38.1028   3.9578093741e+01   3.4782959729e+01    0.1982843    0.1542246 -73.01 0.0008053987    1.224    0.183
       288 -10.7647    198.5111    232.7000   7.9960864427e+01  -3.0264977447e+00    0.3949247    0.3537515  12.70  0.002626623    1.223    0.182
       289  -9.8346    133.7544     37.0332   4.7394540596e+01   4.6647784419e+01    0.4802505    0.2739075  77.27  0.002124023    2.204    0.546
       290 -10.2150    157.4866     20.2981   3.8491613560e+01   4.2965502737e+01    0.3534207     0.176126  66.27  0.001726701    1.753    0.430
       291  -9.4178     15.2336    233.7562   1.1962252892e+02   2.1873284502e+01    0.2182692    0.1375354 -71.90  0.001026599    1.558    0.358
       292 -10.2069    242.6102    231.9028   7.1574098374e+01  -8.5796493235e+00    0.2312313    0.2175171  22.93  0.001685849    1.659    0.397
       293 -11.1150    153.2824     25.2818   4.0491501750e+01   4.3418073797e+01    0.6620522    0.3611687  48.48  0.003263682    1.861    0.463
       294 -10.4872    144.1549     25.0797   4.1881150889e+01   4.5592164421e+01    0.4506677    0.2111137  58.48  0.002016089    1.840    0.456
       295 -10.2795    149.1592     21.9421   4.0173424001e+01   4.4749506218e+01    0.2755904    0.2686595   1.61   0.00161623    1.211    0.174
       296 -10.0089    247.3436    231.5416   7.0691713416e+01  -9.0789389976e+00    0.2206383    0.1199668 -30.54 0.0007493508    1.561    0.359
       297  -9.5706     23.7768    231.8182   1.1777871912e+02   2.1420967921e+01    0.1745143    0.1114496  62.30  0.000697721    1.332    0.249
       298 -10.1860    126.9865     16.5328   4.2228489534e+01   5.0494382349e+01    0.2349959    0.1857528  36.01 0.0007470533    1.325    0.245
       299  -9.2590    206.6635     37.0759   3.6601497249e+01   2.9809432796e+01    0.1728163    0.1469812 -59.78  0.000765015    1.105    0.095
       300  -9.1048     12.6528     36.8789   9.0515937568e+01   6.8058270044e+01     0.156677    0.1049883 -57.36 0.0006655561    1.788    0.441
       301  -9.7952    216.8878     38.9815   3.5944312231e+01   2.7382166323e+01    0.2990564    0.1386458 -45.53  0.001495357    1.888    0.470
       302  -9.4109     94.0505     35.8563   5.6541959844e+01   5.5736228304e+01    0.1923862     0.175244  72.42 0.0006705159    1.299    0.230
       303 -10.3792    239.9511     33.0250   3.2591722040e+01   2.3476289592e+01    0.2984045     0.204868  86.72  0.001293717    1.384    0.277
       304 -10.0068    205.8997    234.1992   7.8757347275e+01  -4.2782089203e+00    0.2510277     0.153457  39.26 0.0008287693    1.825    0.452
       305 -12.2787     58.3120     29.7520   6.6182058823e+01   6.3392503740e+01    0.3597286    0.2527562   6.47 0.0008212159    1.429    0.300
       306 -11.6980     49.2386     30.4977   7.0219463234e+01   6.4758840264e+01    0.6904842    0.2513115  36.49  0.002723518    2.589    0.614
       307 -12.2395    115.1008     24.8409   4.7327059849e+01   5.2389925446e+01    0.7196479    0.2650997  55.91  0.002121117    2.265    0.559
       308  -9.2844     35.8099     31.7857   7.6820851040e+01   6.6476458435e+01    0.1548849    0.1402738  19.87 0.0006106553    1.364    0.267
       309 -10.7803    198.8734     28.8472   3.5568139817e+01   3.2529521453e+01    0.3928772    0.3530842 -19.80  0.002219293    1.441    0.306
       310  -9.8932     13.9672     23.2732   8.4403133105e+01   7.0249123014e+01    0.3773864    0.2942759  38.35 0.0007099022    1.861    0.463
       311  -9.4265    209.1779    223.8227   7.6344771899e+01  -3.0662760116e+00    0.1797019    0.1278405  -6.40 0.0004176142    1.318    0.242
       312  -9.5206    234.2978    223.3374   7.1566121856e+01  -6.3115511800e+00    0.1294318   0.07869209  -9.38 0.0006833885    1.656    0.396
       313  -9.3819    181.3073    228.3186   8.2729733596e+01   1.7586016129e-01    0.1366633   0.09255421  -4.83 0.0006078423    1.635    0.388
       314 -10.1180    164.6609    212.1495   8.3540786158e+01   5.7136986902e+00    0.2549885    0.1898968  26.21 0.0006715939    1.261    0.207
       315  -8.7446    199.3183    210.3264   7.5889740160e+01   6.4166337163e-01    0.1412944   0.09364761  -6.90 0.0007045922    1.678    0.404
       316  -9.8662    153.2986    207.6226   8.5299877973e+01   8.4606560504e+00    0.2884519    0.2333715  70.78  0.000881538    1.707    0.414
       317  -9.3189     61.2136    206.7643   1.0723664490e+02   2.2730959729e+01     0.203557    0.1674415  66.64 0.0007786838    1.129    0.114
       318 -10.1267    230.3425     27.5970   3.2310334996e+01   2.6040203735e+01    0.3383342    0.1514697 -44.80  0.001796331    1.880    0.468
       319  -9.8514    250.4346     27.2775   3.0677510948e+01   2.2189680250e+01    0.2051703    0.1020059 -33.74  0.001133627    2.127    0.530
       320 -10.0581    240.8321     26.9013   3.1327097150e+01   2.4058021744e+01    0.2654846     0.144294 -42.16   0.00096997    1.619    0.382
       321  -9.6700     97.1962     26.2533   5.2125944580e+01   5.6223956441e+01    0.2326758    0.1769561 -41.33 0.0007416117    1.541    0.351
       322 -10.1455    213.7487     24.0219   3.3020425887e+01   2.9885298752e+01    0.2788792    0.2390996 -88.63  0.001939175    1.127    0.113
       323  -9.3206    216.5161     20.5197   3.2029628678e+01   2.9707615798e+01    0.1742671    0.1500846 -43.68 0.0007510775    1.315    0.240
       324  -9.3436     85.9197     23.8708   5.4347462384e+01   5.8879450670e+01    0.1916064    0.1448268  32.43  0.001128679    1.184    0.156
       325  -9.8508    123.9875    205.9712   9.1886779559e+01   1.3626721059e+01    0.2021897    0.1906796  16.38   0.00116799    1.044    0.042
       326 -10.5439    237.8173    204.3706   6.7538176764e+01  -3.8165075899e+00    0.2592371    0.2416272  26.87  0.001778521    1.464    0.317
       327  -9.1559    196.3974    205.1543   7.5531045595e+01   2.0090741836e+00    0.1801561     0.124719 -48.54 0.0009373277    1.641    0.391
       328 -11.5166      5.4928    200.4512   1.1960058718e+02   3.0148649965e+01    0.7474025    0.1333406 -67.84  0.002671886    3.920    0.745
       329  -9.4870    169.4176     23.6621   3.7779615083e+01   3.9817169863e+01    0.2607275     0.138381  65.75  0.001314097    1.672    0.402
       330 -11.9317      4.5840    185.6059   1.1878831311e+02   3.3717868768e+01    0.5292237    0.4713548 -77.16  0.002519979    1.180    0.153
       331  -9.2800    223.7509     21.9302   3.1708337968e+01   2.8047772352e+01    0.1956398    0.1391972  72.31 0.0007502413    1.398    0.284
       332 -10.6385      2.5217    181.4760   1.1897620076e+02   3.4868065203e+01    0.2680468    0.2408043 -36.34  0.001395685    1.419    0.295
       333  -9.5633     74.3562     19.4801   5.6116768854e+01   6.1694075350e+01    0.2568842    0.1668586  36.98 0.0008490445    1.330    0.248
       334 -10.1037      5.7657     21.1806   8.8177010490e+01   7.1288979145e+01    0.1914267    0.1409168 -15.72 0.0004186892    1.032    0.031
       335 -10.1031     17.0014    203.5184   1.1725099833e+02   2.8411469865e+01    0.2798598    0.1128445 -58.86  0.001281355    2.446    0.591
       336  -8.5921     78.3469    203.7467   1.0270506467e+02   2.1133326103e+01     0.144677   0.09564696  59.18 0.0003524005    1.588    0.370
       337 -10.7890    245.6591    201.0963   6.5584622062e+01  -4.3244689361e+00    0.1886471     0.165167  14.89 0.0008533051    1.321    0.243
       338 -10.5234    234.0968    197.0811   6.6840595631e+01  -2.1301274695e+00     0.361839    0.2710928 -18.57  0.001575711    1.124    0.110
       339  -8.4909    195.3013    199.6459   7.4724658205e+01   3.1862966745e+00    0.1269566    0.1127628 -84.47 0.0006460957    1.704    0.413
       340  -8.6444      1.2809     20.6883   9.0612336929e+01   7.1700212103e+01   0.09188365   0.08894864   0.58 0.0002998433    1.567    0.362
       341  -9.5348     82.5503    196.2447   1.0064191956e+02   2.2312739610e+01    0.3563933     0.209214  19.03  0.001541442    2.185    0.542
       342 -10.9064    246.6913    193.6733   6.4036734976e+01  -3.2809480212e+00     0.348832     0.127206 -41.16  0.001527475    2.411    0.585
       343  -9.8846    169.8131    191.3286   7.8580891895e+01   9.0062745057e+00    0.3840551    0.2141362  19.05  0.001545992    2.369    0.578
       344  -8.8931    162.6619    191.2910   8.0183613743e+01   1.0244322687e+01    0.1407833    0.1165487  70.14 0.0004729319    1.643    0.391
       345 -10.1192    239.6796    184.8483   6.3552275702e+01  -8.7905764012e-01    0.3220913    0.1960953 -20.94  0.001245304    1.621    0.383
       346 -10.0542    186.4877     15.2599   3.3700188345e+01   3.6814782241e+01    0.2443681    0.1868578 -82.57 0.0005277352    1.143    0.125
       347 -10.1548    213.7491    184.6283   6.8177728006e+01   3.0277924052e+00     0.415681     0.281995  79.05  0.001451521    5.179    0.807
       348 -10.3426    250.3034    178.8204   6.0642244249e+01  -1.3611617698e+00    0.4537462    0.1167464 -34.78  0.001516203    3.916    0.745
       349  -9.6666    230.8173    175.5400   6.3270385925e+01   2.0090750038e+00     0.319906    0.1549343  32.67  0.001469452    2.393    0.582
       350  -9.1439    205.1072     17.5102   3.2398397916e+01   3.2469644479e+01    0.1772889     0.104789  76.67 0.0005919283    1.534    0.348
       351  -9.0901    198.5039     17.5578   3.3029826872e+01   3.3900537464e+01    0.1212723    0.1021298 -85.41 8.186811e-05    1.047    0.045
       352  -9.0055    174.4975     15.6245   3.5100803928e+01   3.9500443449e+01    0.1252964    0.1035628  86.33 0.0001740298    1.033    0.032
       353 -10.4102     52.1465    173.6247   1.0548560715e+02   3.1995991438e+01    0.5356531    0.2828935 -88.87  0.002165025    2.437    0.590
       354  -9.9186     27.7442    175.9220   1.1222730246e+02   3.4062969728e+01    0.2464578    0.1867035  44.28 0.0009170781    1.359    0.264
       355 -10.0139    247.7025    173.9409   6.0124705730e+01  -1.9333218747e-01    0.3899119    0.1716403  23.72  0.001481727    4.140    0.758
       356 -10.3916     37.6524    172.8877   1.0928866908e+02   3.3823402785e+01    0.4673889    0.2169354  49.13  0.002016952    2.277    0.561
       357 -10.1577     35.5100    169.4666   1.0945889621e+02   3.4915028268e+01    0.2333292    0.2007288  38.12 0.0007433642    1.266    0.210
       358  -9.3749     75.0205     13.7452   5.3514445226e+01   6.2153691234e+01    0.2839917    0.1449632  65.81  0.001074022    2.812    0.644
       359  -8.9341    170.5469    171.9868   7.4548278621e+01   1.2898211949e+01    0.2207134     0.141275 -43.94 0.0005867161    1.516    0.340
       360 -10.1392      9.3646    155.5557   1.1504029392e+02   4.0746691868e+01    0.2519645    0.1735953 -74.83 0.0008923154    1.207    0.172
       361 -11.8350      9.5328    166.9465   1.1606706727e+02   3.7886226218e+01     0.605424    0.3694864 -63.73    0.0025625    1.440    0.306
       362 -10.0838     13.5195    156.4382   1.1399434611e+02   4.0211132163e+01     0.207294    0.1958565  44.37 0.0005459137    1.230    0.187
       363  -9.1654    198.2645    168.0064   6.7830232601e+01   8.7310794852e+00    0.2053329    0.1745931 -29.53 0.0007668049    1.065    0.061
       364  -9.7206    187.4803    167.5161   6.9936470580e+01   1.0744655502e+01    0.2683709    0.2091266 -30.76  0.000986163    1.206    0.171
       365  -9.0745    156.4714    166.4735   7.6635941531e+01   1.6703125335e+01    0.1515478    0.1446525 -15.14 5.715109e-05    1.008    0.007
       366  -8.8929    152.4288    166.5272   7.7610481851e+01   1.7450921956e+01    0.1519114    0.1443356 -18.19 0.0001390062    1.010    0.010
       367 -10.4064     19.0453    164.9637   1.1337913992e+02   3.7609115424e+01    0.3335227    0.2771572 -23.87  0.001700005    1.509    0.337
       368 -10.0392     13.5529    159.4660   1.1429393716e+02   3.9445036775e+01    0.2606927     0.215913 -82.73  0.001083909    1.017    0.017
       369 -10.3320    204.9745    162.9702   6.5456593349e+01   8.5351911922e+00    0.4353445    0.2503972  51.40  0.001636437    2.223    0.550
       370  -9.6551    208.4651    160.5017   6.4270435926e+01   8.4000775383e+00    0.3311166     0.164425 -44.13  0.001432705    1.861    0.463
       371 -10.0740     39.3831    162.1475   1.0748353423e+02   3.6380233330e+01     0.451706    0.2350918  66.51  0.001845857    2.548    0.607
       372 -10.6272     28.4271    162.0387   1.1051408217e+02   3.7506711231e+01    0.4347287    0.2408227 -58.02  0.001749525    1.626    0.385
       373  -9.1787     79.1476    160.6253   9.5934506179e+01   3.1692459527e+01    0.2107088     0.184631  89.81 0.0007090222    1.179    0.152
       374 -10.0944    246.8096    158.6216   5.7273428690e+01   2.5165389651e+00    0.2835213    0.1523687 -45.31  0.001428463    1.696    0.410
       375  -9.5726    224.3075    157.4117   6.0745357150e+01   6.2826872949e+00    0.3478943    0.1732012 -49.52  0.001514141    2.124    0.529
       376  -9.3763    215.4788    157.9636   6.2434512930e+01   7.6689817513e+00     0.221912    0.1233439 -38.87  0.001030313    1.592    0.372
       377 -10.5191    105.0143    153.9127   8.7305703701e+01   2.9196111539e+01    0.4187889    0.3187536 -46.64  0.001876844    1.292    0.226
       378 -10.3444     31.0254    151.6954   1.0849681490e+02   3.9912324660e+01    0.3038897    0.2765731 -48.53  0.001160274    1.165    0.142
