#   1 NUMBER                 Running object number                                     
#   2 MAG_AUTO               Kron-like elliptical aperture magnitude                    [mag]
#   3 X_IMAGE                Object position along x                                    [pixel]
#   4 Y_IMAGE                Object position along y                                    [pixel]
#   5 X_WORLD                Barycenter position along world x axis                     [deg]
#   6 Y_WORLD                Barycenter position along world y axis                     [deg]
#   7 A_WORLD                Profile RMS along major axis (world units)                 [deg]
#   8 B_WORLD                Profile RMS along minor axis (world units)                 [deg]
#   9 THETA_WORLD            Position angle (CCW/world-x)                               [deg]
#  10 FWHM_WORLD             FWHM assuming a gaussian core                              [deg]
#  11 ELONGATION             A_IMAGE/B_IMAGE                                           
#  12 ELLIPTICITY            1 - B_IMAGE/A_IMAGE                                       
         1 -14.0286    195.6007     33.5549   2.1481700126e+01   3.2109970847e+01    0.9944629    0.8599142  76.69  0.003655848    1.071    0.066
         2 -11.0113    189.4959     14.9704   1.7148719465e+01   3.5987027585e+01    0.1996162     0.138356 -31.58 0.0006463528    1.574    0.365
         3 -13.1532    248.9249    247.3793   5.9591638794e+01  -1.2126642321e+01    0.5623853    0.3981262  14.14  0.004020431    1.144    0.126
         4  -9.8001    164.1534    250.6730   7.4900851240e+01   7.2368862417e-01     0.164115    0.0882744  37.57            0    1.545    0.353
         5 -18.3409     57.3822    204.6733   9.0173421571e+01   2.5700848744e+01     7.372403      5.51166  78.66   0.04095723    1.071    0.066
         6 -12.4563    155.2884    178.4333   6.5756425228e+01   1.4618832013e+01    0.4050996    0.2969649  40.83  0.002049309    1.286    0.222
         7 -11.2817    236.0109    176.8163   4.9387055146e+01  -9.6737491676e-01    0.2311103     0.180943 -27.95 0.0006554074    1.264    0.209
         8 -10.8386     87.3818    233.7956   8.7135740813e+01   1.5829765210e+01    0.2180553    0.1799714  43.17   0.00149972    1.405    0.288
         9 -10.4321      3.9636    169.1043   9.8083358707e+01   3.8961665515e+01    0.1558765    0.1004338  71.25 0.0003297927    1.267    0.211
        10  -9.1613      9.8456    166.0000   9.6652488173e+01   3.9133991534e+01    0.1927833    0.1035718  26.79  0.001127415    2.448    0.592
        11  -9.8777     13.3867    163.9031   9.5745045326e+01   3.9281615291e+01    0.1777595    0.1075893 -67.90  0.001114941    1.490    0.329
        12 -19.0767     43.6646     91.7206   7.8216463333e+01   5.2921769673e+01     16.89547    0.8638963 -61.37   0.02616761   17.398    0.943
        13 -14.0045    133.7993    146.4468   6.4494195984e+01   2.5746946420e+01     1.543176    0.5205214 -58.93  0.004273841    4.496    0.778
        14 -11.9782    125.0949    138.6293   6.4998441270e+01   2.9267020115e+01    0.6485762     0.374046  77.89  0.002150392    3.472    0.712
        15 -10.9888    127.5470    136.7650   6.3988336142e+01   2.9194990339e+01    0.2807261     0.225352 -73.21  0.001207391    1.313    0.238
        16 -11.3728     11.6108    205.7850   9.8850603211e+01   3.0720661209e+01    0.1610366     0.121101  50.50 0.0009351379    1.417    0.294
        17 -10.9680     16.2752    202.2149   9.7802257235e+01   3.0967704122e+01   0.08724329   0.07631852 -85.75 0.0006671626    1.412    0.292
        18 -11.6273    122.8126    144.6604   6.6812046382e+01   2.8350271233e+01    0.2773215    0.2284131 -88.36 0.0004845416    1.275    0.216
        19 -12.6496    135.8526    127.4351   5.9826881941e+01   2.9561773147e+01    0.7947418    0.2210686 -50.90  0.002241879    3.859    0.741
        20 -11.7430    100.6584    121.8931   6.7771949292e+01   3.7790091422e+01    0.2734421     0.209532  54.00  0.000318333    1.331    0.249
        21 -11.9212    106.3929    119.3617   6.5646238201e+01   3.7328885014e+01    0.2828318    0.2649714 -23.27 0.0005509049    1.231    0.188
        22 -11.4300    112.5746    115.1346   6.2984023948e+01   3.7120901019e+01    0.2550018      0.20064  59.05 0.0004867489    1.318    0.241
        23 -13.3825    115.1976    101.3779   5.8825722717e+01   3.9697465567e+01    0.8477871    0.6409082  76.14  0.002342315    1.647    0.393
        24 -13.1082    119.5747    110.8120   6.0042296463e+01   3.6702468882e+01     0.608409     0.469833 -73.63  0.001954446    1.462    0.316
        25 -12.7050    123.4988    107.9889   5.8281542644e+01   3.6521114033e+01    0.7601484    0.4357539  77.26  0.002268868    4.255    0.765
        26 -11.3039    110.3482     97.7348   5.9219387748e+01   4.1471579797e+01    0.2460028    0.2121781 -77.41 0.0003699506    1.251    0.201
        27 -11.0250    107.6778     96.2922   5.9593575939e+01   4.2312807103e+01    0.2468925    0.2443229 -64.64 0.0003674604    1.032    0.031
        28  -9.9774    219.0040    111.0614   3.7943991463e+01   1.3649521959e+01    0.2319154    0.1746646 -69.46 0.0005201396    1.623    0.384
        29 -10.2029    210.9146    198.7516   5.8175564144e+01   2.4458446102e-01    0.1980119    0.1583593  22.68 0.0004895471    1.154    0.133
        30 -11.8199    102.7308    106.2525   6.3559730019e+01   4.1021235717e+01     0.371723    0.2531689  64.32  0.001389499    1.793    0.442
        31 -10.4483    162.9460    198.0117   6.7530539321e+01   9.4085430197e+00    0.2027616    0.1836078  45.72 0.0003582878    1.041    0.039
        32 -12.4690    151.2733    197.2716   6.9826173184e+01   1.1763160665e+01    0.3940784    0.2181468 -41.16  0.001482593    2.257    0.557
        33 -10.7122    130.9957     96.7090   5.3311200398e+01   3.7360515966e+01    0.2206045    0.1963892  52.29 0.0004535808    1.121    0.108
        34 -11.2601    113.8019     93.6571   5.7144711008e+01   4.1670309339e+01    0.3352512    0.2586201  73.03  0.001554505    1.577    0.366
        35 -10.7226     95.8365     90.0395   6.1375905888e+01   4.5905193787e+01    0.2266223    0.2083356  39.04  0.000285511    1.142    0.124
        36 -10.8714    150.7126     88.1130   4.5951346161e+01   3.4562225706e+01     0.383631    0.1946252 -34.36  0.001218342    2.217    0.549
        37 -11.6227     75.3961     78.1832   6.4513693066e+01   5.1874160217e+01      0.53535    0.1568287  42.75   0.00180161    3.790    0.736
        38 -11.0111     14.7680    196.6508   9.7740849259e+01   3.2240898383e+01    0.1009841   0.07057125 -68.12 0.0006887644    1.560    0.359
        39  -9.4916    214.2029    243.6090   6.4958167402e+01  -6.4988398421e+00   0.09532721    0.0900192  89.43 0.0004889175    1.604    0.377
        40 -11.0122    158.9715    189.5241   6.6924939901e+01   1.1744843760e+01    0.2465838    0.2100991 -52.09 0.0005020577    1.314    0.239
        41 -13.1286    161.7325     70.6862   3.8362178153e+01   3.5128308961e+01    0.7036702    0.4743791  40.48  0.001902234    1.608    0.378
        42 -13.0810    173.1714    173.7679   6.1049012983e+01   1.1906314156e+01    0.7599328    0.6522298 -28.25  0.003211537    1.316    0.240
        43 -14.1185    175.6331     58.0326   3.1797758476e+01   3.3713482536e+01     1.294564     1.049855  19.86  0.004202398    1.550    0.355
        44 -12.5631    182.2367     51.1930   2.8601734732e+01   3.3071163937e+01    0.4869048     0.437847  79.61 0.0008167374    1.051    0.049
        45  -9.7782     13.4917     59.5397   8.1827030943e+01   6.2391483488e+01     0.116366   0.09165177 -52.63 5.024106e-05    1.007    0.007
        46  -9.9358    131.1092     56.3383   4.1081096394e+01   4.5142529713e+01    0.2075629    0.1845882  58.22 0.0003856847    1.121    0.108
        47 -11.8544    180.4504    168.1954   5.8420285092e+01   1.1465789083e+01    0.6856911    0.4464254 -68.73  0.002817583    2.346    0.574
        48 -11.9562     60.5811     21.3637   5.0014171129e+01   6.4419794232e+01    0.2470462    0.2116143  34.80 0.0009611378    1.324    0.245
