#   1 NUMBER                 Running object number                                     
#   2 MAG_AUTO               Kron-like elliptical aperture magnitude                    [mag]
#   3 X_IMAGE                Object position along x                                    [pixel]
#   4 Y_IMAGE                Object position along y                                    [pixel]
#   5 X_WORLD                Barycenter position along world x axis                     [deg]
#   6 Y_WORLD                Barycenter position along world y axis                     [deg]
#   7 A_WORLD                Profile RMS along major axis (world units)                 [deg]
#   8 B_WORLD                Profile RMS along minor axis (world units)                 [deg]
#   9 THETA_WORLD            Position angle (CCW/world-x)                               [deg]
#  10 FWHM_WORLD             FWHM assuming a gaussian core                              [deg]
#  11 ELONGATION             A_IMAGE/B_IMAGE                                           
#  12 ELLIPTICITY            1 - B_IMAGE/A_IMAGE                                       
         1 -13.5608    167.7207     57.2989   6.3003208065e+01   3.5686284653e+01     2.415746     1.455991  19.96  0.007004707    2.683    0.627
         2 -13.0411    182.2123     42.0422   5.5629506598e+01   3.4199791503e+01     0.928434    0.7601044 -46.24  0.002637445    1.230    0.187
         3 -12.8946    229.9610      3.8138   3.9373859450e+01   2.6701173208e+01      2.01947     0.485767  76.19  0.006410171    4.507    0.778
         4 -13.8430    204.2442     10.6680   4.3541158681e+01   3.2298808208e+01     1.210296     1.034696   4.75  0.005441381    1.432    0.302
         5 -11.0862    190.0931     15.0505   4.6404602487e+01   3.5448831555e+01    0.3490612    0.2608423  71.79   0.00110581    1.255    0.203
         6 -10.3695     60.4094      2.9839   7.0006602894e+01   6.6670378635e+01    0.2968848    0.1274307  20.02  0.001085685    3.970    0.748
         7 -11.1150     12.6403    215.2921   1.2950443642e+02   2.8329514995e+01    0.1380553     0.108066  58.04 0.0003294143    1.315    0.239
         8 -11.8809    248.9018    245.2000   9.0648924525e+01  -1.0639487745e+01    0.5278392     0.262798  20.71  0.003019866    1.894    0.472
         9 -18.7319     42.3434    237.6803   1.2586013102e+02   2.1075717515e+01     5.521412     4.642154  65.78   0.03918421    1.300    0.231
        10  -9.4721     59.4428    187.2172   1.1861763027e+02   2.8734509202e+01    0.2290567    0.1628847 -87.57 0.0008705186    1.238    0.192
        11  -9.9790    156.3270    189.7802   9.8532735325e+01   1.2558329491e+01    0.1985222    0.1712808 -83.47 0.0006796042    1.382    0.276
        12 -11.7910    150.0085    188.5573   9.9639894177e+01   1.3956699716e+01    0.3889442    0.3062283  54.60  0.001404107    1.225    0.184
        13 -13.9032     12.3994    206.0037   1.2904324740e+02   3.0122208573e+01    0.5009223    0.2332279  39.99  0.003129432    2.095    0.523
        14 -11.0419    151.5135    180.7754   9.7962642772e+01   1.5151888903e+01    0.3427128    0.2484844 -83.59  0.001192381    1.977    0.494
        15 -11.3572    145.4566    181.2106   9.9335261030e+01   1.6207517792e+01     0.328077      0.29631  27.90  0.001106407    1.156    0.135
        16 -12.2742    142.3956    176.1400   9.9098314533e+01   1.7781804899e+01    0.5956414    0.4236211  87.26  0.002833314    1.998    0.500
        17  99.0000     13.0318    175.6066   1.2701186020e+02   3.6219633568e+01    0.1313191    0.1012471  47.86 0.0009524134    1.435    0.303
        18  -8.8037    194.5772    172.7896   8.7494623522e+01   8.2334729465e+00    0.1865069    0.1349233 -47.84 0.0006585239    1.583    0.368
        19 -10.9151    188.7673    176.5535   8.9415298076e+01   8.7188907063e+00    0.5777531    0.4081686 -61.31  0.002125009    1.998    0.500
        20  -9.2187    116.0545    161.6181   1.0243838582e+02   2.5677987794e+01    0.3071646    0.1319839  40.81 0.0006713851    2.295    0.564
        21  -9.4653      8.3011    160.9588   1.2690318080e+02   3.9757941125e+01    0.1558346    0.1372743 -75.53 0.0006838226    1.323    0.244
        22 -11.2531     95.6191    156.4875   1.0638033341e+02   3.0303562720e+01    0.2717403    0.2524498  64.35 0.0002175941    1.098    0.090
        23 -12.3921    100.8455    150.1860   1.0401151492e+02   3.0875659703e+01    0.6901977    0.4741606 -35.29  0.003313291    1.893    0.472
        24 -11.1779    193.7837    196.4953   9.2209436277e+01   4.4648155054e+00     1.047105     0.550307 -62.38  0.003265592    6.086    0.836
        25  -9.6649      3.6486    155.5322   1.2747752177e+02   4.1301299618e+01    0.1455145    0.1153437  18.19 0.0007229314    1.844    0.458
        26 -11.0679     81.8592    195.3404   1.1490158553e+02   2.3991730424e+01     0.362129    0.3410754  43.98  0.002385521    1.331    0.249
        27 -11.2707    133.7868    145.1924   9.5021293848e+01   2.5945070755e+01     1.233098    0.3053825 -54.36   0.00295243    5.898    0.830
        28 -10.2420    113.2946    151.7063   1.0126676617e+02   2.8368407400e+01    0.2880233    0.2153137  84.06 0.0006189087    1.579    0.367
        29  -9.6636    174.8368    149.1021   8.6530927080e+01   1.6632733399e+01    0.2264555    0.2081979 -86.81 0.0006370503    1.265    0.209
        30 -10.2274    143.9516    146.6263   9.2926267901e+01   2.3594135790e+01    0.4685746    0.2011063 -58.68  0.001504012    3.395    0.705
        31  -9.0094    115.7671    144.5882   9.9271405192e+01   2.9522555980e+01    0.1996891    0.1329485  54.33 0.0003834801    1.568    0.362
        32 -11.5678    110.3228    137.2647   9.9131342378e+01   3.2182982542e+01    0.6005578    0.3380438 -35.73  0.002413722    2.367    0.578
        33  -9.3495    186.9352    186.8927   9.1780005705e+01   7.3029905233e+00     0.209016    0.1823828  60.91  0.001211111    1.337    0.252
        34 -11.8393     99.2896    136.3054   1.0175458624e+02   3.4340023953e+01    0.3169042    0.2883497 -27.95  0.001281592    1.282    0.220
        35 -11.2309    105.9038    130.8503   9.8910593410e+01   3.4455055046e+01    0.4008397     0.342463 -70.91  0.001207841    1.150    0.131
        36 -10.7613    136.0000    130.3684   9.1169362765e+01   2.8752663994e+01    0.6710588    0.1219382 -48.83  0.001524028    5.885    0.830
        37 -10.4904    116.5133    128.5867   9.5664040689e+01   3.3021237114e+01    0.3169792    0.2580811 -30.07 0.0007302838    1.403    0.287
        38 -10.1161    160.5357    127.7574   8.4702012587e+01   2.4045287071e+01    0.3845932    0.2214549 -52.36  0.001541405    1.921    0.479
        39 -10.5527    104.7283    123.9753   9.7709678396e+01   3.6257854529e+01    0.2837788    0.2440978 -34.77 0.0006425952    1.261    0.207
        40 -10.2239    121.4547    122.3492   9.2935727003e+01   3.3480969586e+01    0.3963217    0.2414572 -20.60  0.001409624    3.035    0.670
        41  -9.5198    153.2151    120.1840   8.4511385882e+01   2.7253061187e+01    0.2371938     0.217658   0.37 0.0009137518    1.175    0.149
        42  -9.4096    111.5183    117.9386   9.4492097438e+01   3.6401535476e+01    0.2152618    0.1994077  47.26 0.0003399243    1.127    0.113
        43  -9.8796    231.2266    113.8024   6.7127782573e+01   1.0772644349e+01    0.2498703    0.2320364  17.48 0.0007204948    1.111    0.100
        44 -10.1965    167.8844    112.7501   7.9196811342e+01   2.5445655810e+01    0.3792997    0.3009782 -86.69  0.001435265    1.674    0.403
        45 -11.2698    119.1448    110.4755   9.0592407331e+01   3.6612711315e+01    0.5779889    0.3581175  68.64  0.002215103    2.543    0.607
        46  -9.8200    205.2357    110.1648   7.0822337869e+01   1.7215307465e+01    0.3183301    0.2276917  47.66  0.001037712    1.445    0.308
        47 -10.5849    134.5036    104.5897   8.5002589777e+01   3.4701858765e+01    0.5069568    0.1512549 -43.77   0.00149379    3.265    0.694
        48 -11.8971    202.6257    200.8736   9.1310579958e+01   2.1973283236e+00    0.9360546    0.2651873  33.43  0.002573266    5.670    0.824
        49  -9.9714     63.7933     99.0852   1.0375117593e+02   4.8470601567e+01    0.2124589    0.1781373 -81.00  0.000847676    1.257    0.204
        50  -9.7902    128.4276     95.3771   8.4003139660e+01   3.7983963855e+01    0.2990727    0.1936438  48.31  0.001154174    1.610    0.379
        51  -9.6487    190.6934     89.9948   6.8189500154e+01   2.4317052397e+01    0.2305978    0.2037199 -34.90 0.0008767622    1.097    0.089
        52  -9.3526    151.8208     82.1533   7.4210912925e+01   3.5298320055e+01    0.2182666    0.1867059   5.23 0.0004464082    1.315    0.239
        53  -9.7685     77.4583     74.9130   9.2974314198e+01   5.1956462721e+01     0.224719     0.195466  57.38 0.0005270811    1.392    0.281
        54 -12.3966     68.6007    193.0530   1.1735624299e+02   2.6313062856e+01    0.4667085    0.4025738 -53.99  0.001659396    1.484    0.326
        55 -19.1604     30.9643    101.3684   1.1422499885e+02   5.1496574590e+01     16.95971     0.774934 -65.31   0.02661926   17.114    0.942
        56 -12.6306    187.2862     35.3935   5.2817254895e+01   3.3771919550e+01    0.6198175    0.5281827   9.54  0.001593051    1.365    0.268
        57  -9.8167     13.6000     59.9361   1.1175531589e+02   6.2121653635e+01    0.1753654    0.1705941 -39.14 0.0003994252    1.271    0.214
        58  -9.2388    162.7347    235.2025   1.0422532021e+02   3.9546696401e+00    0.1745609    0.1520043 -54.01 0.0006826886    1.441    0.306
        59 -10.6094    167.2713    227.0525   1.0224800995e+02   4.4057336041e+00    0.3249753    0.1717689 -41.69  0.001357778    2.306    0.566
        60  -9.0906     58.3039    190.3215   1.1916807948e+02   2.8226895074e+01    0.1943528    0.1608634 -61.91  0.001068844    1.420    0.296
