#   1 NUMBER                 Running object number                                     
#   2 MAG_AUTO               Kron-like elliptical aperture magnitude                    [mag]
#   3 X_IMAGE                Object position along x                                    [pixel]
#   4 Y_IMAGE                Object position along y                                    [pixel]
#   5 X_WORLD                Barycenter position along world x axis                     [deg]
#   6 Y_WORLD                Barycenter position along world y axis                     [deg]
#   7 A_WORLD                Profile RMS along major axis (world units)                 [deg]
#   8 B_WORLD                Profile RMS along minor axis (world units)                 [deg]
#   9 THETA_WORLD            Position angle (CCW/world-x)                               [deg]
#  10 FWHM_WORLD             FWHM assuming a gaussian core                              [deg]
#  11 ELONGATION             A_IMAGE/B_IMAGE                                           
#  12 ELLIPTICITY            1 - B_IMAGE/A_IMAGE                                       
         1 -14.6727     66.2879    142.7489   1.1007626831e+02   3.7970569735e+01     3.026993     1.438979 -83.37  0.005568586    3.147    0.682
         2 -13.5223      6.7863     37.1875   1.0796590428e+02   6.7619251398e+01     1.317047    0.3437502 -50.89  0.006053429    2.418    0.586
         3 -13.5506     17.0186     28.9873   1.0041904549e+02   6.8523635444e+01    0.9013267    0.6323777 -48.66  0.005231665    1.261    0.207
         4 -13.2719    210.5564     29.7772   4.6704800237e+01   2.8841912350e+01    0.9596521    0.6816423 -83.78  0.003791437    1.448    0.309
         5 -13.3184    216.7759     22.6641   4.4134294421e+01   2.8178102313e+01    0.8276476    0.4756272  58.59  0.001421558    1.754    0.430
         6 -13.6943    230.9181      7.7173   3.9091110287e+01   2.6485800623e+01    0.7872718    0.6512651 -69.84  0.002698808    1.028    0.027
         7 -10.7519     59.0064      3.0032   6.9257307501e+01   6.7252470723e+01    0.1725996    0.1540188 -51.28  0.001143691    1.704    0.413
         8  -9.5438     64.2296    240.6829   1.2123249934e+02   1.7486893991e+01     0.111006   0.06492113  70.03 0.0004321138    1.498    0.333
         9 -13.0991    197.7669    220.3009   9.3620266096e+01  -1.2873863638e-01    0.7221567    0.3083354  39.33   0.00337755    2.001    0.500
        10 -12.0723    207.2583    216.5947   9.1235307688e+01  -1.1822667862e+00    0.5013995    0.3866365  -7.65  0.002415474    1.346    0.257
        11 -12.1215    227.2588    245.4305   9.2301104263e+01  -7.9590438998e+00     1.028483    0.4179297  23.43  0.004437312    3.241    0.691
        12 -12.8906    224.3479    236.4442   9.1404820892e+01  -6.4802304671e+00    0.9999451    0.5356329  16.89  0.005257371    2.130    0.531
        13 -13.4069    218.5502    222.3403   9.0136512259e+01  -3.8057183211e+00     1.120895    0.9136423  -0.71  0.006814065    1.160    0.138
        14 -13.2352    195.8579    239.0136   9.6880234498e+01  -2.3979966653e+00    0.5907647    0.4482305  -1.26  0.003878412    1.451    0.311
        15 -13.2519    191.4474    232.5524   9.6720651362e+01  -8.1770674779e-01    0.8054694    0.4598343 -16.78  0.003960311    2.759    0.638
        16 -14.6211    176.3972    240.6346   1.0066935546e+02   4.9174513735e-01     2.144851     1.670828  31.21   0.01439894    1.075    0.070
        17 -10.4411     26.7264    250.4392   1.2807111576e+02   2.0271115646e+01     0.222418   0.08716664  37.51  0.001136935    2.515    0.602
        18 -12.6219     91.6419    207.4382   1.1292935508e+02   1.9903035148e+01    0.6833812    0.5751423 -72.48  0.003334703    1.278    0.218
        19  99.0000     96.6087    223.3116   1.1369562430e+02   1.6105249095e+01      1.91799      1.39391  85.40   0.01211463    1.402    0.287
        20 -15.2126      3.2200    127.1236   1.2445858212e+02   4.7862357947e+01     5.309869     1.235104 -80.64   0.01758243    4.591    0.782
        21 -11.0658     77.4528    216.2030   1.1669050430e+02   2.0241768600e+01     3.966128     1.641989  59.55    0.0178608    2.579    0.612
        22 -13.0482     63.5525    218.4872   1.1957400806e+02   2.1685285604e+01     1.150156    0.3714894  43.85  0.005352836    2.482    0.597
        23 -15.8786      8.4539    239.3284   1.3044717589e+02   2.4102710971e+01     4.859178     1.052074 -72.35   0.02329087    3.892    0.743
        24 -15.3558     40.1828    202.6932   1.2276080559e+02   2.7723056851e+01     1.572746     1.302951 -64.48  0.009653197    1.493    0.330
        25 -10.2687     43.2684    237.7640   1.2465392240e+02   2.0609403232e+01    0.3072994   0.09311139  44.78  0.001564728    2.433    0.589
        26 -14.3028    163.3959    226.5679   1.0112515593e+02   4.7190314761e+00     2.169049     1.327227  19.26   0.01086361    2.216    0.549
        27 -12.1452    245.8024    217.4893   8.4519197141e+01  -7.3914100741e+00     0.773856    0.4299681  21.80  0.004316772    1.714    0.416
        28 -10.9410    102.3744    206.6466   1.1063462457e+02   1.8406032515e+01    0.5463121    0.2974302 -60.81  0.002819973    1.975    0.494
        29 -11.9899    195.5823    196.2577   8.9891475210e+01   3.9285600112e+00    0.7615587    0.5935103  87.72  0.003937367    2.222    0.550
        30 -12.4759     85.5283    191.9894   1.1237701777e+02   2.3998368797e+01    0.8045444    0.4837117  30.53  0.003085476    2.017    0.504
        31 -12.9158     82.2158    184.6446   1.1218274821e+02   2.6068593767e+01    0.8329036    0.6189717  61.08  0.003800251    1.212    0.175
        32 -12.5310    243.6176    186.9862   7.9241825467e+01  -3.0324433300e+00    0.7537706    0.4756115  44.58     0.004131    1.745    0.427
        33 -10.9757    105.8219    173.5342   1.0525057579e+02   2.4779876266e+01    0.3968787    0.3145586  69.40  0.001648659    1.233    0.189
        34 -10.7380    104.3371    179.6995   1.0654087093e+02   2.3678939470e+01    0.4047695    0.3581409 -27.96  0.001836929    1.484    0.326
        35 -10.9028     97.2702    178.9456   1.0803296304e+02   2.4996283258e+01    0.4990239    0.3035862  68.53  0.002052553    1.905    0.475
        36 -11.6938     65.4694    177.8598   1.1507487824e+02   2.9922374601e+01    0.2648728    0.2543022 -54.97 0.0007210289    1.356    0.263
        37 -12.5583     73.5886    167.9360   1.1195711790e+02   3.1051106022e+01     1.064655    0.5030683 -72.93  0.003637108    2.219    0.549
        38 -13.3161     62.3729    163.9356   1.1407162834e+02   3.3495035063e+01    0.4999162    0.2885874 -47.48   0.00165937    2.105    0.525
        39 -11.4345     59.6250    184.0486   1.1705735649e+02   2.9320138355e+01    0.3208259    0.2396114 -40.45  0.001619357    1.945    0.486
        40  -9.6720    195.5159    169.4937   8.4706816052e+01   8.4978084035e+00    0.1426878    0.1320225  14.64 -1.776364e-05    1.006    0.006
        41 -10.9435    164.2697    167.1082   9.0788974815e+01   1.5186266529e+01    0.2835219     0.187596 -49.34  0.001337008    1.617    0.382
        42 -12.6156     82.0673    160.3560   1.0884000737e+02   3.1565938298e+01    0.6351767      0.53733  50.63 0.0009885045    1.201    0.167
        43 -11.8070    203.4749    248.0892   9.6843455888e+01  -4.7317550124e+00    0.4104887    0.2589449  25.47  0.002572382    1.365    0.267
        44  -9.3853    179.9618    148.2806   8.3368773071e+01   1.5667233656e+01     0.214688    0.1936188  40.94 0.0007325746    1.095    0.087
        45 -10.5469    134.1668    147.3680   9.3659805303e+01   2.5403828695e+01    0.4331031    0.1128184 -53.57  0.001139383    4.641    0.785
        46 -11.8653     34.6993    157.5245   1.1983972111e+02   3.8203356917e+01    0.3969345    0.1730995  56.12  0.001737733    2.419    0.587
        47 -12.0280     97.8899    144.3476   1.0214937526e+02   3.2804626413e+01    0.5729179    0.3733225 -27.53  0.002433461    2.461    0.594
        48 -12.7300     45.2940    144.4684   1.1572204856e+02   4.0127061769e+01    0.4644963    0.2771641  66.17  0.002406866    1.811    0.448
        49 -12.2043     85.0703    143.9824   1.0539730302e+02   3.4963929089e+01    0.3164834    0.2681712 -70.28 0.0005255235    1.094    0.086
        50 -14.6548     10.8971    206.7625   1.2849327633e+02   2.9963550761e+01     1.244036     1.173654   6.72  0.004352356    1.779    0.438
        51 -10.9200     34.9927    139.6832   1.1773101795e+02   4.2342279519e+01    0.1748019    0.1514615  83.76 0.0006416327    1.105    0.095
        52 -11.6275    107.2174    131.7343   9.7162916020e+01   3.4147026283e+01    0.5193636    0.3755407  71.65  0.002428214    1.678    0.404
        53 -11.5360     95.9063    129.3092   9.9685356872e+01   3.6708442867e+01    0.3303787    0.2698484 -32.22 0.0009731348    1.433    0.302
        54 -12.9786     31.2515    213.5400   1.2521773060e+02   2.6544996772e+01    0.3096464    0.2863948 -79.13 0.0008724188    1.490    0.329
        55 -10.3099    115.4713    126.5236   9.3813092259e+01   3.3824196578e+01    0.1502403    0.1454098 -57.99 7.485224e-05    1.047    0.045
        56  -9.9888    106.0303    120.9673   9.5075982507e+01   3.6895315165e+01    0.2203092    0.2101048 -67.78 -0.002661949    1.011    0.011
        57  -9.9127    168.2623    113.2950   7.7439766582e+01   2.5343761741e+01    0.3134856    0.2259351 -80.63  0.001289024    2.054    0.513
        58  -9.8004    204.5507    110.9723   6.9354042354e+01   1.7348735181e+01    0.3425613     0.183339  33.95  0.001280217    2.463    0.594
        59  -8.7973    123.6702    102.3026   8.5511033011e+01   3.7691311464e+01     0.157295    0.1238594  89.59 0.0003262574    1.650    0.394
        60 -10.2210     52.4994     89.9406   1.0399423156e+02   5.2336177223e+01    0.1902836    0.1856236 -14.05  0.000668572    1.163    0.140
        61 -13.8156     24.6029    233.1955   1.2753930719e+02   2.3542146342e+01     1.183882    0.3790801  50.15  0.006471314    2.256    0.557
        62 -10.8513     32.5124     62.4276   1.0424627123e+02   6.0556134686e+01    0.2758805     0.105192 -57.47  0.001215756    2.183    0.542
        63 -12.3590      8.5631     54.5579   1.1177668631e+02   6.3960027185e+01    0.6151617    0.2062121 -44.79  0.002926293    2.315    0.568
        64 -11.3716     43.2349     51.9921   9.6861604672e+01   6.1662197483e+01    0.3826462    0.1847155 -27.87  0.001653112    2.627    0.619
        65 -13.2536     12.8606     38.1365   1.0546738555e+02   6.7068158946e+01    0.7014702    0.6297178   5.01  0.005310236    1.344    0.256
        66 -11.7968    248.2330    245.7199   8.8806597512e+01  -1.0938469266e+01    0.5058874    0.3838551  13.78  0.003359635    1.063    0.059
        67 -11.4400    249.7059    238.3118   8.7376876442e+01  -1.0350603046e+01    0.4631796     0.283903 -11.95  0.002980352    1.600    0.375
        68 -13.2054    202.5741     34.6474   4.9029460086e+01   3.0221152836e+01    0.6752707    0.6113418 -42.16  0.002425316    1.127    0.112
        69 -10.9142     29.4703    246.5259   1.2743865890e+02   2.0641623919e+01     0.186503    0.1022221  78.96 0.0006830235    1.496    0.332
        70 -10.3287     94.3329    240.0515   1.1579768298e+02   1.3453163489e+01    0.4172756    0.1996819  34.69  0.002142365    2.238    0.553
        71 -10.0574     86.2571    239.6464   1.1722651696e+02   1.4679779885e+01    0.2448669     0.172778 -83.14  0.001557425    1.483    0.326
