#   1 NUMBER                 Running object number                                     
#   2 MAG_AUTO               Kron-like elliptical aperture magnitude                    [mag]
#   3 X_IMAGE                Object position along x                                    [pixel]
#   4 Y_IMAGE                Object position along y                                    [pixel]
#   5 X_WORLD                Barycenter position along world x axis                     [deg]
#   6 Y_WORLD                Barycenter position along world y axis                     [deg]
#   7 A_WORLD                Profile RMS along major axis (world units)                 [deg]
#   8 B_WORLD                Profile RMS along minor axis (world units)                 [deg]
#   9 THETA_WORLD            Position angle (CCW/world-x)                               [deg]
#  10 FWHM_WORLD             FWHM assuming a gaussian core                              [deg]
#  11 ELONGATION             A_IMAGE/B_IMAGE                                           
#  12 ELLIPTICITY            1 - B_IMAGE/A_IMAGE                                       
         1 -14.8325     68.5635    144.1815   1.0468501598e+02   3.7239830019e+01     5.672997     2.353174  59.35  0.003788934    4.880    0.795
         2 -14.4312    199.0685     38.6233   4.5620405722e+01   3.0707320329e+01     1.674473     1.419633  10.58  0.004807999    1.525    0.344
         3 -14.5793    209.8983     27.4105   4.1432580358e+01   2.9538693358e+01     1.578219     1.150728  10.52  0.002518542    2.110    0.526
         4 -13.2671      2.2107     21.2857   9.8446090309e+01   7.1091564024e+01     1.553412    0.2546325 -51.25  0.005953279    3.901    0.744
         5 -13.0374      2.1979      3.1913   9.0319148084e+01   7.4021598295e+01    0.8033149    0.5169694  31.07  0.005146207    2.040    0.510
         6 -13.0593    234.5696      3.5441   3.3653685191e+01   2.6625714761e+01    0.8040321    0.3935157  76.58  0.004251702    1.920    0.479
         7 -10.1862    146.7724     43.0337   5.5435513478e+01   4.3052264924e+01    0.2391194    0.2008458  60.26 0.0003687508    1.153    0.132
         8 -11.7144    139.6870    249.5942   1.0385833879e+02   3.9689277789e+00    0.3155808    0.2852198 -65.06  0.002256768    1.350    0.259
         9 -11.4224    124.7295    243.4459   1.0598680147e+02   7.2679925945e+00    0.5652208    0.1779797 -58.40  0.002254669    4.129    0.758
        10 -12.7965     15.1003    190.4604   1.2293219673e+02   3.2335082012e+01    0.2614777    0.1969638  76.52 0.0005067799    1.064    0.060
        11 -14.7722     50.3362    220.0769   1.1818020368e+02   2.2194800049e+01     4.509513     1.613666  37.44   0.02115725    2.571    0.611
        12 -16.5556     38.7301    249.0611   1.2239915322e+02   1.7998507304e+01     10.52738     3.451426  27.22     0.027397   12.042    0.917
        13 -16.6546      6.9735    203.2038   1.2536972793e+02   3.0343062587e+01     8.413991     1.303565 -73.70   0.02160784    4.631    0.784
        14  -9.5320     33.1880    204.5298   1.2031788070e+02   2.7441005816e+01    0.1567811    0.1062636  44.21 0.0009849101    1.455    0.313
        15 -11.6171    111.8075    197.8257   1.0261772759e+02   1.8033956236e+01    0.4050415     0.294625  51.73   0.00219686    1.288    0.224
        16 -11.4605    109.5973    201.7452   1.0367862561e+02   1.7569578810e+01    0.3655277    0.2541298 -31.28  0.001153401    2.070    0.517
        17  -9.1119     92.5120    184.5139   1.0505958408e+02   2.4058670717e+01    0.1375189    0.1256153  77.15  6.31517e-05    1.015    0.015
        18 -10.9144    150.6999    179.1160   9.0646914477e+01   1.5086971058e+01    0.4201535    0.2826281 -78.63  0.001780261    2.419    0.587
        19 -10.9750    145.1888    180.3675   9.2129330933e+01   1.5856435620e+01    0.3277653    0.2977098  79.35 0.0009309897    1.212    0.175
        20 -10.4101    142.2389    176.4247   9.2060649348e+01   1.7240388130e+01    0.2573511    0.1909722  50.88 0.0007012001    1.362    0.266
        21 -10.4109     99.1126    180.8098   1.0294636746e+02   2.3851814872e+01    0.3153232    0.2398055  23.69  0.001400699    1.588    0.370
        22 -10.2215     39.6084    177.1943   1.1645194733e+02   3.2845283421e+01    0.2498077    0.1572935  66.95 0.0006905022    1.532    0.347
        23 -10.0559    204.3593    175.9441   7.8643388467e+01   5.5979179422e+00    0.2842737    0.1654268 -43.66   0.00114423    1.774    0.436
        24 -12.2795     69.2787    175.3531   1.0926628885e+02   2.9595875128e+01    0.5961898    0.3246889 -40.99   0.00217203    2.619    0.618
        25 -12.1988     73.7144    170.3913   1.0749681546e+02   3.0149122586e+01    0.3156137    0.2272217 -40.93  0.001641753    1.706    0.414
        26 -10.0358    196.8377    175.6524   8.0077914036e+01   7.0385806384e+00     0.299061    0.2523254  48.29  0.001654707    1.325    0.245
        27 -10.1367    188.2485    174.5169   8.1594876559e+01   8.8614937697e+00    0.3398811    0.1984588 -51.55  0.001492584    2.018    0.504
        28 -12.2133     55.2029    147.0317   1.0875345196e+02   3.8278081572e+01     2.502048     0.822035 -46.22  0.008185247    3.969    0.748
        29 -13.8244     70.5928    156.4725   1.0617579256e+02   3.3941019411e+01     0.603965    0.5317737 -35.92  0.003504293    1.350    0.259
        30 -13.6080     21.1923    241.3396   1.2495534935e+02   2.1359483394e+01    0.4013633    0.2074068 -67.88  0.001308759    2.014    0.503
        31 -10.6637    230.5646    166.8697   7.1836267797e+01   2.4636473830e+00    0.3318693    0.1116967 -44.74  0.001149508    3.353    0.702
        32 -11.1409     34.1056    165.9365   1.1654347200e+02   3.6078592222e+01    0.5247061    0.2104364  50.41  0.002085201    2.576    0.612
        33 -10.2049    157.9239    160.6213   8.5267372979e+01   1.7573511558e+01    0.2720888    0.2212041 -57.35  0.000496269    1.326    0.246
        34 -13.4330     50.0944    107.8661   1.0323673060e+02   4.8538807555e+01     1.590117     1.152064 -71.91  0.008564149    1.350    0.259
        35 -12.2653     89.1717    154.3268   1.0098332514e+02   3.1689159978e+01    0.6467772    0.4686082 -24.63  0.003055111    1.959    0.490
        36 -11.3783    133.6828    144.2107   8.7463856105e+01   2.6056313543e+01     1.218926    0.3146022 -54.10  0.002907835    5.422    0.816
        37  -9.2386    112.5719    150.7374   9.4224464260e+01   2.8561749917e+01    0.2004809    0.1421414 -67.54 0.0003189665    1.520    0.342
        38 -10.7529    174.4251    148.4968   7.8885637461e+01   1.6745377944e+01    0.3753321    0.2915161 -57.46  0.001171358    1.444    0.308
        39 -10.7241     38.7803    146.2483   1.1300127192e+02   4.0338471081e+01    0.3196755    0.2111947  56.29 0.0008887561    1.602    0.376
        40 -11.0507    102.9035    139.5882   9.4451846436e+01   3.2959080876e+01    0.5863236    0.3741175 -24.91  0.002347182    2.426    0.588
        41 -12.4604     90.1790    139.5775   9.7908538823e+01   3.5121130453e+01    0.2954044    0.2578353 -44.27 0.0004964031    1.180    0.153
        42 -12.3501     44.1564    130.0860   1.0913865974e+02   4.3743663602e+01    0.5253153     0.325761 -86.33   0.00257614    1.756    0.431
        43 -10.3965    111.9462    130.1584   8.9906141753e+01   3.3568556913e+01    0.3392338    0.2822191  10.96  0.001669788    1.458    0.314
        44 -10.8804    135.7788    127.7248   8.3053790611e+01   2.9387484231e+01    0.5361527    0.1914212 -50.49  0.001676407    2.931    0.659
        45 -10.3349    160.8139    127.8471   7.7012582854e+01   2.3989218413e+01    0.3606125    0.2592663 -54.59  0.001622823    1.481    0.325
        46 -11.0739     99.0556    126.1629   9.2543683119e+01   3.6877286320e+01     0.306603    0.2543297 -13.63  0.001119655    1.476    0.322
        47 -10.5295    117.4896    124.4905   8.7051959209e+01   3.3839047150e+01    0.2783571     0.248318 -13.11 0.0007265651    1.256    0.204
        48 -11.3237    120.5003    122.4846   8.5745669699e+01   3.3711024360e+01     0.454244     0.297527 -36.35  0.001959922    1.634    0.388
        49 -10.5541    105.9437    130.7435   9.1678296291e+01   3.4541533118e+01    0.3595417    0.3099723 -83.01  0.001228084    1.254    0.202
        50 -10.5360    134.6145    105.0006   7.7401937022e+01   3.4684795930e+01    0.6834813    0.1770098 -41.22  0.001823355    3.945    0.747
        51 -10.8734    135.1098    118.7963   8.0968947375e+01   3.1539277059e+01    0.7718521     0.110335 -43.89  0.001525882    7.122    0.860
        52  -9.8286    108.0254    119.0130   8.8308256547e+01   3.6944899603e+01    0.2171493    0.2097614 -56.78  0.001169168    1.017    0.017
        53 -11.1422    139.1297    170.9872   9.1738091871e+01   1.8996937094e+01    0.3767342    0.3121634  54.82  0.001155671    1.232    0.189
        54  -9.3809    128.6339    195.7839   9.8546719961e+01   1.5615668290e+01     0.186661    0.1312323 -68.61 0.0004447634    1.659    0.397
        55  -9.6682    168.2147    113.0875   7.1550745789e+01   2.5423565550e+01    0.3603061    0.2374206 -71.17  0.001384592    2.367    0.577
        56 -11.1527    117.2439    109.3634   8.3243941286e+01   3.7377218134e+01    0.5605596    0.4115718  47.41  0.002617744    1.433    0.302
        57 -11.9697     32.3741    107.9616   1.0889898545e+02   5.0346972470e+01    0.4108298    0.2271407 -80.67  0.001924019    2.024    0.506
        58 -10.2939    205.3642    110.1024   6.3324440761e+01   1.7616654168e+01    0.3108066    0.2284603  44.45 0.0009778995    1.468    0.319
        59 -11.5451     18.4931    108.9770   1.1341886753e+02   5.1251729443e+01    0.4268539    0.2027201 -75.24  0.002024477    1.927    0.481
        60 -11.2506    242.0912    101.1471   5.5240118545e+01   1.1425761976e+01    0.2155674    0.1860919  -7.70  0.001245511    1.299    0.230
        61 -10.6545     33.1420     99.6603   1.0707951831e+02   5.2274651996e+01    0.2383564    0.1660292 -72.60  0.001077625    1.357    0.263
        62 -12.9922     82.2162    161.3470   1.0397866379e+02   3.1069902056e+01     1.198893    0.5292596  58.51 0.0003535812    3.442    0.709
        63  -9.6368     74.9133     84.6795   8.9223069923e+01   5.0604267824e+01    0.1856465    0.1807433   0.51 0.0004013634    1.110    0.099
        64 -10.0971    157.9628     81.8963   6.5133129986e+01   3.3957224345e+01    0.2810057     0.222678 -16.57 0.0009153376    1.438    0.304
        65  -9.1009    184.5069     76.9923   5.8397604577e+01   2.8415585492e+01    0.2005196    0.1350999  -4.27 0.0008060666    2.303    0.566
        66  -8.9022     56.4669     66.4644   9.0193665425e+01   5.7188109796e+01    0.1348149    0.1206535 -36.26 0.0001311773    1.088    0.081
        67 -10.9091     13.2492     59.7427   1.0543884658e+02   6.2899143791e+01     0.247763     0.210749 -67.55 0.0005165989    1.280    0.219
        68 -13.7479    189.2998     45.8088   4.8924139828e+01   3.2114187956e+01     1.208236    0.8379982  35.32 0.0009183501    1.816    0.449
        69 -13.8841     44.4754    201.6902   1.1776481489e+02   2.6772799420e+01    0.7939428    0.5605418 -79.87  0.002521759    1.271    0.213
        70 -10.3251    113.8187    207.4305   1.0356308228e+02   1.5709911035e+01    0.2715844    0.1973025  76.34  0.001458169    1.592    0.372
        71 -11.6554    144.3911     49.1018   5.7905830212e+01   4.2764180734e+01    0.5105441    0.3378429 -82.41 0.0009905365    2.324    0.570
        72 -12.6873      1.8344     50.5467   1.0793461677e+02   6.5489465896e+01       1.3959          nan -61.55   0.00327447    9.146    0.891
        73 -16.6496      7.6896    244.2529   1.2735137941e+02   2.2199203854e+01       1.6819     1.446337 -74.96   0.01407353    1.561    0.359
        74 -10.6814     19.0664     32.8792   9.4335708808e+01   6.7785876844e+01     0.217153    0.1455762  20.87 0.0008281466    1.647    0.393
        75 -10.1524     44.4196    229.9948   1.2009070710e+02   2.0926017809e+01    0.2603697    0.2097546  48.50   0.00157421    1.291    0.225
        76  -9.4542     69.0190     52.6681   8.0754815241e+01   5.8026107067e+01    0.1857117    0.1651092  16.55 0.0005421067    1.148    0.129
        77  -9.5696    189.5029     14.9791   4.0474040709e+01   3.5851372549e+01    0.2027697    0.1662388  81.79 0.0005488606    1.108    0.097
        78 -14.1987     55.0816    189.8093   1.1430299950e+02   2.8121346582e+01      2.03108     1.487433  69.06    0.0121837    1.236    0.191
