#   1 NUMBER                 Running object number                                     
#   2 MAG_AUTO               Kron-like elliptical aperture magnitude                    [mag]
#   3 X_IMAGE                Object position along x                                    [pixel]
#   4 Y_IMAGE                Object position along y                                    [pixel]
#   5 X_WORLD                Barycenter position along world x axis                     [deg]
#   6 Y_WORLD                Barycenter position along world y axis                     [deg]
#   7 A_WORLD                Profile RMS along major axis (world units)                 [deg]
#   8 B_WORLD                Profile RMS along minor axis (world units)                 [deg]
#   9 THETA_WORLD            Position angle (CCW/world-x)                               [deg]
#  10 FWHM_WORLD             FWHM assuming a gaussian core                              [deg]
#  11 ELONGATION             A_IMAGE/B_IMAGE                                           
#  12 ELLIPTICITY            1 - B_IMAGE/A_IMAGE                                       
         1 -14.7101    172.2498     29.3596   7.7506535227e+01   3.8161201808e+01      1.33533     0.971319   9.73  0.004241007    1.644    0.392
         2 -13.3608    175.8846     22.1907   7.4589869127e+01   3.8037264085e+01    0.5640036    0.5069118  18.74  0.001411092    1.184    0.155
         3 -12.1212    161.4523    248.6254   1.2662667865e+02   7.2707152892e+00    0.2410285    0.1412781  42.31  0.001290278    1.339    0.253
         4 -19.4372     56.4822    157.7099   1.3797531270e+02   3.6242042668e+01     17.62076     5.148857 -73.18   0.06644379    3.945    0.747
         5 -12.5325    192.4250    193.9708   1.1401542294e+02   9.2916315435e+00    0.7621337    0.4449254 -62.18  0.002926797    5.918    0.831
         6 -12.0262    111.2584    196.8664   1.3014576267e+02   2.1498327922e+01    0.4151803    0.2427957  25.94  0.002261648    1.964    0.491
         7 -10.3471     21.1182    214.5136   1.4919341923e+02   2.9236371204e+01    0.1383224   0.08611375  32.30  0.001001459    1.638    0.389
         8 -10.5770    133.8509    194.1324   1.2523011103e+02   1.8553251493e+01    0.1747701     0.140675  51.94  0.000294914    1.180    0.153
         9 -12.0023    209.5031    188.6982   1.1014923998e+02   7.2474609582e+00    0.2635396    0.1524219  19.96  0.001467047    1.735    0.424
        10 -11.1043    127.4806    188.0182   1.2571120143e+02   2.0528239557e+01    0.1825525    0.1482114  74.58 0.0004010106    1.445    0.308
        11 -10.6300    202.4595    183.7848   1.1055323122e+02   8.9760726014e+00    0.2307776    0.1449889  35.44 0.0008322853    1.345    0.256
        12 -11.9335     16.2388    249.9877   1.5119977502e+02   2.4151011134e+01    0.2343311    0.1393694  20.00   0.00166615    2.571    0.611
        13 -13.0490     96.2426    176.4922   1.3090631769e+02   2.7263603596e+01     0.621892     0.277075 -43.43  0.002696915    3.420    0.708
        14 -10.6129    188.7503    224.6812   1.1912564786e+02   6.1706309249e+00    0.1341838   0.09307141 -51.08  0.000824783    2.298    0.565
        15 -11.5812    227.7305    171.0637   1.0397441050e+02   6.4477157786e+00    0.2359871    0.1789173 -44.24  0.000867228    1.892    0.471
        16 -10.9604    136.8163    170.5498   1.2120181678e+02   2.1971229184e+01    0.2352789    0.1611331  74.21  0.001189825    2.204    0.546
        17 -13.5582    174.0866    220.0567   1.2106580221e+02   8.8347294844e+00    0.4530748    0.2173899  36.24  0.002598357    1.610    0.379
        18 -12.7173    115.5189    214.9068   1.3128981244e+02   1.8031070536e+01    0.2437154     0.218793 -25.52  0.001189803    1.488    0.328
        19 -11.5925    101.9523    164.7151   1.2807823948e+02   2.8646237550e+01    0.2044908    0.1924885  88.80 0.0003742394    1.134    0.118
        20 -13.4150     91.4543    159.7927   1.2984891236e+02   3.1180362652e+01    0.3882242    0.3010886 -31.59  0.001418221    1.765    0.433
        21 -12.5227    105.9175    156.7688   1.2599952878e+02   2.9573616488e+01     0.543907    0.3313109 -46.44  0.002084398    1.905    0.475
        22 -11.9002    166.8904    210.8200   1.2113187760e+02   1.1071660617e+01    0.3482399    0.2469926  75.32 0.0007134301    2.755    0.637
        23 -11.9683     35.5537    212.3788   1.4642612816e+02   2.8198307957e+01    0.2136487    0.1283131  34.78 0.0008959351    1.567    0.362
        24 -12.1310    123.4280    208.6852   1.2908368587e+02   1.7851132761e+01    0.2390553     0.153364  59.84 0.0008944774    1.707    0.414
        25 -11.6342    133.7595    144.6874   1.1743333343e+02   2.7170991514e+01    0.7648859    0.1899647 -54.41  0.001923074    7.137    0.860
        26 -10.2764    179.8236    147.8037   1.0815406840e+02   1.8030412363e+01    0.1724932    0.1596491  61.38 0.0005132283    1.308    0.235
        27 -12.0699     16.0338    206.3030   1.4981639402e+02   3.1098989207e+01    0.1672724    0.1203052  65.92 0.0006740299    1.057    0.054
        28 -12.0316     11.5761    205.9485   1.5063418745e+02   3.1553228490e+01    0.3064534    0.1753323  44.18  0.001297671    1.379    0.275
        29 -11.7031    114.2397    141.1432   1.2142017888e+02   3.1307042755e+01    0.4503151       0.2014 -42.90  0.001834151    2.706    0.630
        30 -12.4690    103.7209    141.8855   1.2414430002e+02   3.2914799193e+01    0.2750497    0.2306389  44.87 0.0005542999    1.117    0.105
        31 -11.6192     11.0124    142.9133   1.4790662624e+02   4.3795222538e+01    0.1937397     0.148778  38.31 0.0005198473    1.380    0.275
        32 -11.8188    130.2507    205.8869   1.2742824494e+02   1.7277713712e+01    0.2121938     0.154679  47.01 0.0005342148    1.165    0.142
        33 -10.8797    119.0468    131.4341   1.1840927134e+02   3.2422138386e+01    0.2540458    0.1940439 -31.77 0.0009245921    1.558    0.358
        34 -12.0605    106.8353    129.0012   1.2103281953e+02   3.5071320915e+01    0.4909021    0.3017242 -35.46  0.001574002    2.128    0.530
        35 -12.3937    111.1449    202.8668   1.3084814060e+02   2.0532219905e+01    0.2079286    0.1777714  47.59 0.0006730236    1.068    0.064
        36 -12.0272     89.4495    122.5785   1.2445493990e+02   3.9318198191e+01    0.2676289    0.2425515 -28.20 0.0008654104    1.299    0.230
        37 -10.8496    113.1780    120.1145   1.1759502551e+02   3.5814770960e+01    0.2021044    0.1912614   8.77 0.0003251369    1.158    0.136
        38 -12.5970    199.1995    199.6083   1.1370084342e+02   7.5388295235e+00    0.3236618    0.1822177  35.07   0.00155769    1.437    0.304
        39 -10.7454    205.1493    110.1582   9.5023342356e+01   1.8762128109e+01    0.2265532    0.1806099  14.86   0.00118965    1.259    0.206
        40 -10.0435    123.6445    101.7404   1.1059613487e+02   3.7620305735e+01    0.1467822    0.1150451  11.30 0.0002919716    1.617    0.382
        41 -13.7542    160.3310     45.1440   8.4851627327e+01   3.9180216283e+01    0.7537632    0.5046983 -42.09  0.001964366    1.520    0.342
        42 -10.7644    196.6072    248.8130   1.2086613447e+02   2.5748477085e+00    0.1093916   0.09869191 -28.58 0.0009452272    1.648    0.393
