#   1 NUMBER                 Running object number                                     
#   2 MAG_AUTO               Kron-like elliptical aperture magnitude                    [mag]
#   3 X_IMAGE                Object position along x                                    [pixel]
#   4 Y_IMAGE                Object position along y                                    [pixel]
#   5 X_WORLD                Barycenter position along world x axis                     [deg]
#   6 Y_WORLD                Barycenter position along world y axis                     [deg]
#   7 A_WORLD                Profile RMS along major axis (world units)                 [deg]
#   8 B_WORLD                Profile RMS along minor axis (world units)                 [deg]
#   9 THETA_WORLD            Position angle (CCW/world-x)                               [deg]
#  10 FWHM_WORLD             FWHM assuming a gaussian core                              [deg]
#  11 ELONGATION             A_IMAGE/B_IMAGE                                           
#  12 ELLIPTICITY            1 - B_IMAGE/A_IMAGE                                       
         1 -11.8645    104.5671     11.6416   3.5825210125e+02   5.7092879216e+01    0.5298874    0.3218263 -21.38  0.001658262    1.905    0.475
         2 -12.8100    105.5394     19.8643   1.3732581339e+00   5.5978020076e+01    0.3575565    0.2827824 -69.60 0.0006827358    1.289    0.224
         3 -11.8865     57.7633     29.5041   2.0049859211e+01   6.5897789255e+01    0.6935574    0.4987286  -1.27  0.001879911    1.856    0.461
         4 -12.5694    164.6467     27.4060   3.5529031426e+02   4.0791447124e+01    0.4164201    0.3071109  75.07 0.0009922758    1.339    0.253
         5 -11.1102     20.6149     21.6502   3.7046308217e+01   7.3778873134e+01    0.6277581    0.4333461  -5.72  0.003396165    1.655    0.396
         6 -11.7118     35.4963     17.3467   2.4522909273e+01   7.2122318176e+01    0.5556463    0.3642913 -16.58  0.001968866    1.847    0.459
         7 -11.7010     23.2917     10.6511   2.8151017017e+01   7.5232511040e+01     1.067616    0.5231501  27.89  0.004885568    2.296    0.564
         8 -11.7663     16.8941     10.0789   3.2687374574e+01   7.6299571979e+01    0.5811126    0.3106111  50.10   0.00178762    2.616    0.618
         9 -12.0577    164.5603     18.0072   3.5263987539e+02   4.1886671648e+01    0.4295083    0.2743772  43.27  0.002260923    2.149    0.535
        10 -11.4013    127.2308     15.7768   3.5624350890e+02   5.1047039483e+01    0.5486842    0.2776787 -21.12  0.001561994    2.380    0.580
        11 -11.3739    134.0514     14.7601   3.5498809398e+02   4.9479672747e+01    0.6252831    0.2493737  62.47  0.002703211    2.274    0.560
        12 -10.4878     88.8532      8.0720   3.5975651210e+02   6.1329872342e+01    0.2932596    0.2719805  88.81  0.001188883    1.062    0.059
        13 -10.3754    225.7222     13.3510   3.4722645717e+02   2.9697679283e+01    0.2032157    0.1220187 -44.71 0.0004640333    1.260    0.206
        14 -11.0742    243.1124     14.4991   3.4662871785e+02   2.6488286943e+01    0.1842795    0.1633492 -22.24  0.001392139    1.542    0.352
        15 -10.8938    186.4326     14.9943   3.5000584842e+02   3.7356928377e+01    0.2431443     0.162614 -64.55 0.0009657966    1.257    0.204
        16 -12.2571     48.7127     12.7676   1.4853790758e+01   7.0157589290e+01    0.7246898    0.2513792  51.44  0.002888235    2.544    0.607
        17 -11.4311    191.2492     10.8830   3.4864469894e+02   3.6765866624e+01    0.4756516    0.2333527 -17.49  0.002245875    2.918    0.657
        18 -11.5349    212.1334      9.8864   3.4717706806e+02   3.2635497667e+01    0.3867605    0.2468871 -22.46  0.001733478    1.859    0.462
        19 -10.2955    121.0713     11.4855   3.5558240035e+02   5.3006594034e+01    0.3525093    0.1723408  82.22  0.001574996    2.057    0.514
        20 -11.7004     63.5996      9.9508   7.4274958404e+00   6.7191960652e+01    0.3608347    0.2369556  51.91  0.001146417    1.353    0.261
        21 -10.5486     62.5064      6.4805   5.8540674093e+00   6.7801606864e+01     0.289675    0.1950869  49.14 0.0009854104    1.330    0.248
        22 -10.4203      5.6167      9.7646   4.2620190746e+01   7.7767028151e+01    0.3421749    0.1429152 -51.01  0.001605961    2.385    0.581
        23 -11.3801    168.4469      9.3570   3.4988492264e+02   4.1906222741e+01    0.4556876    0.2086402  63.67  0.001967336    2.205    0.546
        24 -10.4704      1.3179      8.1879   4.5978667802e+01   7.8480024376e+01    0.3316928   0.09603264 -53.03  0.001347437    3.184    0.686
        25 -11.1932     85.8468     13.9725   3.1403481855e+00   6.1475307139e+01    0.6157568    0.3099959 -31.51  0.002865946    2.093    0.522
        26 -11.4617    185.8189      6.6314   3.4793362705e+02   3.8350036837e+01    0.1989736    0.1876643  46.47 0.0007737057    1.444    0.307
        27  -9.6188     78.0236      7.4502   1.9488838441e+00   6.4031937979e+01    0.1998332    0.1192633  67.93 0.0005217732    1.527    0.345
        28 -10.9055    235.8858      4.7948   3.4499157243e+02   2.8743445113e+01       0.3015   0.05590784 -43.82  0.001392931    2.739    0.635
        29 -10.9944     40.9784      4.2154   1.3002503931e+01   7.2778832412e+01    0.3927958     0.226832  30.07  0.001888928    1.912    0.477
        30 -10.2229    247.8388      4.9819   3.4457028202e+02   2.6666119216e+01    0.1466657    0.1169283  -5.47   0.00108347    1.998    0.500
        31 -10.2440    148.7728      5.4411   3.5041361402e+02   4.6848711780e+01    0.1786972    0.1041547  66.20 0.0008958495    1.659    0.397
        32 -10.0250    128.9692      4.7552   3.5219825453e+02   5.1692228426e+01    0.2000285    0.1736678 -43.28   0.00126741    1.215    0.177
        33 -11.7901    133.8902      2.3948   3.5086898983e+02   5.0699250196e+01    0.5883203    0.2809542  83.10  0.002477678    1.949    0.487
        34 -11.7492      9.0537     19.4928   4.5174449076e+01   7.5573900489e+01    0.4482041    0.2574746  -2.29 0.0003893717    2.085    0.520
        35 -10.8444    218.6704      3.1277   3.4536795220e+02   3.2061563993e+01    0.2391711    0.1443143  89.84  0.001020048    1.610    0.379
        36 -11.6299    207.0536      1.9139   3.4563275986e+02   3.4432956341e+01    0.5026829    0.1679275  84.42  0.002343003    3.057    0.673
        37 -11.0055    113.8088      2.2211   3.5312912089e+02   5.5653409696e+01    0.3943677     0.224457  84.41  0.001117547    1.638    0.389
        38 -10.3650    241.8212      1.8178   3.4417201755e+02   2.8003321233e+01      0.16115   0.08514775 -55.41  0.001076155    1.352    0.260
        39 -10.1405    152.5562      1.5405   3.4891072780e+02   4.6312411294e+01    0.2343906    0.1322476  85.45  0.000733586    1.607    0.378
        40 -10.4392    105.3930      1.8807   3.5416551898e+02   5.7772420667e+01    0.2455092    0.1612508 -82.07 0.0007599483    1.510    0.338
        41  -9.5211     74.2007      2.8016   5.4703544852e-01   6.5375911665e+01    0.3094806    0.1042266  74.36  0.001054811    3.568    0.720
        42 -10.3028    223.5756      2.4544   3.4501185259e+02   3.1207142209e+01    0.1966235     0.146153 -57.45 0.0006346235    1.033    0.032
        43  -9.7675     11.5772      1.9745   3.1221825407e+01   7.8321890408e+01    0.2436489    0.1589009  36.33  0.001434311    1.476    0.323
        44 -10.1845      1.8985      1.8550   4.0931679419e+01   7.9550360508e+01    0.1924274    0.1389852 -12.89 0.0008335268    1.297    0.229
        45 -10.8706    154.0980      6.7360   3.5032929948e+02   4.5470602149e+01    0.2143577    0.1744472 -75.85 0.0003872857    1.035    0.033
        46 -12.1561     17.7658    101.7529   6.2954936895e+01   5.4623282932e+01      1.00194    0.5613664 -87.29  0.002632895    1.888    0.470
        47 -12.2698     22.4284     94.9836   5.9751963558e+01   5.6097320645e+01    0.6002638    0.4986863 -38.75  0.002973837    1.221    0.181
        48 -12.1379     26.5882    106.0200   5.9790518794e+01   5.2677525421e+01    0.7363852    0.5363373 -39.12  0.003643111    1.448    0.309
        49 -11.6944     27.4550    112.3768   6.0437874688e+01   5.0830216913e+01    0.4945614    0.3129633  39.51  0.001878981    1.605    0.377
        50 -12.1816      2.8042    111.5435   7.0513668993e+01   5.2886097614e+01    0.4798592    0.3673165 -81.40  0.001455545    1.176    0.149
        51 -11.6535      3.2310    104.5287   6.9658356046e+01   5.4804361102e+01    0.5279646    0.3455956  43.48  0.001366377    1.591    0.371
        52  -9.1603     67.3191    114.6210   4.5309235659e+01   4.5131716230e+01    0.1679215    0.1171769  72.26 0.0007025206    1.819    0.450
        53 -10.0904     48.9742    111.8664   5.1664006885e+01   4.8527342108e+01    0.2300149    0.2229259  78.52 0.0005501423    1.031    0.030
        54 -11.1830      8.0103    114.1656   6.8639517423e+01   5.1857792260e+01    0.3693663    0.2491087 -52.84 0.0008601429    1.441    0.306
        55 -11.4820     79.8622    107.9770   3.9282666869e+01   4.4754002703e+01     0.537571    0.3874176   8.82  0.002331862    1.878    0.467
        56  -9.5539    105.5497    107.9448   3.1041752196e+01   3.9917932011e+01    0.2237201    0.1294339 -29.40 0.0008081558    2.514    0.602
        57  -9.3082     45.3528    105.3134   5.1778117883e+01   5.0778985254e+01     0.235109    0.1389738 -49.18 0.0009998895    1.665    0.399
        58  -9.6201     47.0000    102.0124   5.0391301572e+01   5.1455806329e+01    0.2423569    0.2230898 -61.70  0.001009448    1.045    0.043
        59 -10.5609     50.5580    100.7630   4.8641127205e+01   5.1306626407e+01    0.4087805    0.2848853 -46.84   0.00176841    1.433    0.302
        60  -9.9153     91.1150    102.7527   3.4143057172e+01   4.3969128185e+01    0.3150052    0.2041401 -27.36  0.001087687    2.132    0.531
        61  -9.4274     85.9974    103.2794   3.5978718107e+01   4.4809327747e+01    0.2124899    0.1994096  38.22 0.0004002252    1.094    0.086
        62 -11.0617     11.6120     98.3005   6.5213659178e+01   5.6025238743e+01    0.6003036     0.141175 -57.43   0.00194124    3.203    0.688
        63 -10.5475      8.3269     95.6986   6.6364035794e+01   5.6951171697e+01    0.3754764    0.3206063 -10.27   0.00212226    1.288    0.224
        64 -11.6839     22.5638    114.0111   6.2680922220e+01   5.0819194751e+01    0.5882729     0.321025   0.81  0.002323148    2.382    0.580
        65  -9.9440    210.4103     98.0307   7.2615747817e+00   2.1191765159e+01    0.1725614    0.1536943 -49.61 0.0002330452    1.101    0.091
        66  -9.1140    156.5420     98.6151   1.6126208982e+01   3.1378463730e+01    0.1412687     0.131671 -56.36 0.0001410514    1.025    0.024
        67 -11.9974     68.2936     95.1939   4.0179435628e+01   4.9995691438e+01    0.4893874    0.3797829  22.39 0.0007735199    1.428    0.300
        68  -9.8344     83.0212     93.0000   3.4177348401e+01   4.7863235058e+01    0.3175613    0.1600353  34.76 0.0006459962    2.161    0.537
        69 -10.2551     77.1556     96.5380   3.7249204925e+01   4.8097433335e+01    0.2757713    0.2284071  43.47  0.000466261    1.222    0.182
        70 -11.1387     78.8562     92.1554   3.5410700105e+01   4.8853616255e+01    0.7530723     0.383932 -56.22  0.002909261    2.016    0.504
        71  -9.8909     59.4469     97.0248   4.4125767075e+01   5.0975512043e+01    0.2376634    0.1970479  30.67 0.0001032445    1.246    0.198
        72 -10.2894     43.0338     94.5662   5.0398306626e+01   5.3967632983e+01    0.3256681    0.2953894 -55.04  0.001754875    1.061    0.057
        73  -9.4105    125.8117     93.8152   2.1684104775e+01   3.8838536511e+01    0.2004643    0.1705843  89.52  0.000358092    1.306    0.234
        74 -10.5332     98.3561     90.7701   2.8475055510e+01   4.5324114802e+01    0.2628921    0.2341943  43.24 0.0003693595    1.150    0.131
        75 -10.5437     52.2510     87.2463   4.4553265044e+01   5.4594050625e+01    0.2689315    0.2159583 -60.74 0.0005450867    1.222    0.181
        76  -9.3237     43.5994     90.4592   4.9172914818e+01   5.4981090704e+01     0.148776    0.1403143 -56.47 0.0001000934    1.020    0.020
        77 -11.0580      2.1725     71.2678   6.5911575222e+01   6.3860804004e+01    0.5669634    0.2336961 -71.88  0.002340813    2.150    0.535
        78 -13.3646      6.0539     61.0141   6.1740755972e+01   6.6303608855e+01    0.8493561    0.5128599 -23.61  0.001683591    1.758    0.431
        79 -11.7587      5.7224     88.1361   6.6581131788e+01   5.9168631575e+01    0.6660669     0.364842  12.87  0.002546236    1.997    0.499
        80 -10.7619      2.5371     80.6897   6.7138517564e+01   6.1343448912e+01    0.6512679    0.3150605  82.29  0.002650237    2.445    0.591
        81  -9.7763     66.8407     88.1931   3.8796040834e+01   5.1990021878e+01    0.2167513    0.1772784 -28.99 0.0006175775    1.358    0.264
        82  -9.3566    104.4626     86.7726   2.5442104277e+01   4.4924574462e+01    0.2052772    0.1464299 -35.74 0.0003849596    1.517    0.341
        83  -9.7887     90.0110     85.3152   2.9524842178e+01   4.8269755371e+01    0.3269654    0.2053715 -67.40   0.00131423    2.069    0.517
        84 -11.7660     44.7578     84.2492   4.7069123612e+01   5.6440808365e+01     0.530028    0.4606424  76.78  0.002075547    1.274    0.215
        85 -11.1386     35.3149    102.8749   5.5496825069e+01   5.2646893680e+01    0.4024126    0.2484337  -6.06 0.0003611938    2.206    0.547
        86 -13.1478    247.5616     77.0548   3.5883354429e+02   1.8162852967e+01    0.7703853    0.2598727 -41.88  0.003805751    2.096    0.523
        87  -9.2920    118.4908     85.5093   2.1172918438e+01   4.2147085864e+01    0.1505005    0.1453708 -65.12 9.776815e-05    1.025    0.024
        88  -9.4254    143.4737     84.0952   1.4918807376e+01   3.6909781643e+01     0.209454    0.1370097 -43.08 0.0003836466    1.439    0.305
        89  -9.3507     72.4178     83.8010   3.5334954629e+01   5.2053081971e+01    0.2037579    0.1417689 -41.52 0.0003479459    1.488    0.328
        90 -12.3288     60.9146     83.4510   3.9810170638e+01   5.4168408714e+01    0.2839193    0.2806526  88.77  0.000371577    1.023    0.023
        91 -10.0446    113.1608     82.7137   2.1756971634e+01   4.3894802816e+01    0.2760451     0.203959 -57.37  0.001307005    1.389    0.280
        92 -10.2079     67.5096     81.1411   3.6433699306e+01   5.3581080582e+01    0.3017504    0.2438404 -13.88  0.001196748    1.509    0.337
        93 -11.3788     74.7035     78.9062   3.2943927072e+01   5.2767269856e+01    0.6006921    0.4020987  59.83  0.001817168    1.795    0.443
        94  -9.9210     76.7919     75.5675   3.1081228051e+01   5.3119478796e+01    0.3342039    0.2532006  85.29  0.001176525    1.770    0.435
        95  -9.0757    169.6802     78.2473   8.4981191946e+00   3.2278971269e+01    0.1361378   0.09947538 -72.81 0.0002204123    1.527    0.345
        96 -10.3886     89.1490     77.0922   2.7226316937e+01   5.0268623211e+01    0.4583551    0.2347805  47.90  0.001694542    1.976    0.494
        97 -10.1659     94.4982     75.4419   2.4949540058e+01   4.9485329110e+01    0.3041159    0.2757245  39.14 0.0006055796    1.146    0.128
        98 -11.1573     53.0802     76.1510   4.0982206945e+01   5.7233441679e+01    0.3857155    0.3706314  64.78  0.001774736    1.089    0.082
        99  -9.8913     47.1192     74.7695   4.3284947381e+01   5.8488367918e+01    0.4376823    0.2226001 -30.25  0.001515899    3.072    0.675
       100  -9.3195    158.9064     75.9803   9.7178452632e+00   3.4979680807e+01    0.1607902    0.1481213 -67.97 0.0003922219    1.038    0.037
       101 -11.1802     14.1099     74.0865   5.9897853177e+01   6.2386316407e+01    0.4827327     0.306159 -78.70  0.002147103    1.613    0.380
       102  -9.4208    103.2335     74.3738   2.1943835225e+01   4.7796634149e+01    0.2179621    0.1415258  59.98 0.0006335455    1.673    0.402
       103 -11.6567     27.7204     73.2951   5.2482465306e+01   6.1349987118e+01    0.3700147    0.2818473   0.58  0.000249422    1.449    0.310
       104 -10.5930     34.5903     71.3142   4.8391305082e+01   6.1056720383e+01    0.5054671     0.224191  36.24  0.001626268    2.262    0.558
       105 -10.2725     40.8577     72.9252   4.5726796232e+01   5.9837399756e+01    0.3109773    0.2567309   2.43 0.0007456007    1.326    0.246
       106 -10.7916     40.2138     68.7876   4.4785419528e+01   6.0942155541e+01    0.3623261    0.2940384 -30.77 0.0009394613    1.270    0.213
       107 -11.6810     39.6122     56.5431   4.0954763560e+01   6.3909170104e+01     0.360453    0.2407641  35.00 0.0005993879    1.504    0.335
       108 -11.5240     43.4384     60.4252   4.0370527306e+01   6.2452298777e+01     0.508158    0.2504236 -55.46 0.0009558565    2.046    0.511
       109 -11.5047     46.4565     59.5001   3.8524463688e+01   6.2193100077e+01    0.6543037    0.2728832  45.58  0.002275544    2.726    0.633
       110  -9.8352     13.8553     67.3088   5.8566812201e+01   6.4165171305e+01     0.565586    0.2139825   6.97  0.001978014    3.460    0.711
       111  -9.9287    218.9841     67.5052   3.5954669824e+02   2.4243351455e+01    0.1620527     0.119955  70.69  0.001033326    1.594    0.373
       112 -10.6469    101.9287     66.8923   1.9847596354e+01   4.9572479775e+01    0.2330588     0.210519 -48.82  0.000364944    1.108    0.097
       113  -9.9413    201.7957     63.4185   4.4895970852e-01   2.8042706024e+01    0.2806987    0.1892867 -26.30  0.001566528    1.630    0.387
       114 -10.2135    105.5144     63.4994   1.7679699654e+01   4.9399240554e+01    0.2467051    0.2385549  77.83  0.000549156    1.030    0.029
       115 -10.5212     92.7306     62.5715   2.1123575210e+01   5.2474427413e+01    0.3387972    0.2506385  71.34 0.0009230965    1.568    0.362
       116 -11.6300    122.7704     68.4079   1.4878647642e+01   4.4505034538e+01    0.4006536    0.2543315  48.31   0.00100066    1.642    0.391
       117  -9.1215    159.4986     62.5152   5.9101162864e+00   3.7073957941e+01    0.1362999    0.1286202 -56.33   2.1823e-06    1.107    0.097
       118  -9.7326    150.8754     60.9176   6.8929051155e+00   3.9283258993e+01    0.1960497    0.1861416 -27.26 0.0004914596    1.208    0.172
       119  -9.6625    113.5883     60.2358   1.4448766597e+01   4.8115466958e+01    0.2010755    0.1432353 -28.57 0.0009451474    1.608    0.378
       120  -9.7887     29.5093     60.4842   4.7822670354e+01   6.4333822749e+01    0.3498798    0.1964996 -55.58  0.001100169    1.678    0.404
       121  -9.9783     26.1966     59.3828   4.9348225714e+01   6.4983016569e+01    0.3408729    0.2141182  15.23  0.001420577    1.721    0.419
       122 -11.3178     24.4043     56.1558   4.9363631519e+01   6.5956724558e+01     0.591691    0.3654173   6.40   0.00250581    1.884    0.469
       123 -10.3717    106.4592     58.2731   1.5618993265e+01   5.0132280380e+01    0.2682464    0.2229412  78.40  0.000352759    1.257    0.204
       124 -11.7511     75.5238     54.5225   2.3997376065e+01   5.7776241679e+01    0.6422605     0.265471 -47.28  0.002368254    2.548    0.607
       125 -11.5170     72.7914     46.9395   2.1959836122e+01   5.9772790497e+01    0.7659702    0.4190969 -60.80  0.002912131    2.839    0.648
       126 -10.4207    124.3702     56.8255   1.0787596926e+01   4.6154995838e+01    0.2561647    0.2226087  43.19 0.0002129577    1.280    0.219
       127 -10.2265    118.8923     56.6392   1.1961182923e+01   4.7485948043e+01    0.4106134    0.2231815 -89.35  0.001271503    4.215    0.763
       128 -10.2877     88.1216     55.1323   1.9868032822e+01   5.4909896687e+01    0.4770701    0.1926827 -31.91  0.001343006    3.469    0.712
       129  -9.6336     33.5376     56.7056   4.4311385245e+01   6.4720035705e+01    0.2380628    0.1242221  29.92 0.0008187824    1.926    0.481
       130  -9.6290      2.2826     54.9685   6.2782881456e+01   6.8033936823e+01    0.1920868    0.1532958 -49.26 0.0004354361    1.110    0.099
       131 -11.0436     31.8748     52.7899   4.3846537630e+01   6.5840182808e+01    0.4604602    0.2759268   5.67  0.002003051    2.222    0.550
       132  -9.6796    156.7820     53.5932   3.8132957366e+00   3.9067935635e+01    0.2379018     0.131515  80.34  0.001035812    2.212    0.548
       133 -10.1301    155.1314     49.0552   2.7536835959e+00   4.0118832201e+01    0.4004129    0.1863605 -21.11  0.001424068    3.574    0.720
       134 -10.1958     61.6747     46.6704   2.6317480638e+01   6.2123401536e+01    0.3725286    0.2207051 -27.65  0.001592345    2.161    0.537
       135 -10.1463     55.5933     50.1621   3.0495550275e+01   6.2611361466e+01    0.2335214    0.1944886  19.01 0.0002366076    1.273    0.214
       136 -10.4024     58.6602     48.3365   2.8343008712e+01   6.2393386803e+01    0.7885667    0.4503615 -67.92  0.002849197    3.383    0.704
       137  -9.2794    202.4537     52.4696   3.5779250484e+02   2.9448700698e+01    0.1259971    0.1039628 -52.74 0.0005196463    1.039    0.038
       138 -10.0014    126.3548     51.4532   8.5977549305e+00   4.6554489558e+01    0.3599906    0.1931672 -18.40  0.001311609    3.203    0.688
       139 -11.2502    243.0643     50.9857   3.5397027515e+02   2.2276912419e+01    0.2621013    0.1484708  86.53  0.001382153    2.193    0.544
       140  -9.8421    112.3626     50.1888   1.1283086942e+01   5.0110958377e+01    0.3681989     0.285527  27.69   0.00140346    1.651    0.394
       141 -11.9486    119.7313     37.4830   5.1698111456e+00   5.0242383341e+01    0.7060134    0.3292818 -46.34  0.001696267    2.165    0.538
       142 -10.8683    117.2865     47.3691   9.1580631738e+00   4.9376168664e+01    0.4519195    0.3654106  31.14  0.001890615    1.518    0.341
       143 -11.1048    116.5026     43.5010   7.9725064154e+00   5.0157505665e+01    0.3768781    0.3088416  75.96  0.001302475    1.185    0.156
       144  -9.4841    145.5453     48.9902   4.2523058261e+00   4.2364966905e+01    0.2811981    0.1568954  32.00  0.001044038    3.465    0.711
       145  -9.4503     88.2626     49.3586   1.7607460320e+01   5.5912661422e+01    0.1435377    0.1153504   6.31  0.000497908    1.629    0.386
       146 -10.1847     82.5418     47.5286   1.8740175936e+01   5.7526767854e+01    0.4293432     0.256788 -16.15   0.00165105    2.862    0.651
       147  -9.8234      2.2928     48.5834   6.1295859574e+01   6.9607931762e+01    0.2098837    0.1896299  16.65  0.000618159    1.201    0.167
       148 -12.3425     41.5558     44.2550   3.5002345118e+01   6.6259190645e+01    0.9498934    0.3881764  37.23  0.002489428    2.402    0.584
       149 -10.3007     23.5041     37.4244   4.2873163941e+01   7.0285153586e+01    0.5329333      0.18606  39.60   0.00199516    3.089    0.676
       150 -10.8752     29.4979     45.4922   4.2446924629e+01   6.7782654750e+01    0.5812539    0.3005869 -21.90  0.002120338    3.320    0.699
       151 -10.8677     26.3430     42.9387   4.3362797682e+01   6.8747703178e+01    0.3753782    0.2931166  87.74  0.001179223    1.813    0.448
       152 -10.4906     13.1621     46.6079   5.3345376470e+01   6.9321361703e+01    0.4092258    0.1813714 -37.91  0.001704059    2.337    0.572
       153 -10.4379     20.5922     45.6908   4.8115507956e+01   6.8810850013e+01    0.2557067    0.2052763 -20.11 0.0005429369    1.229    0.186
       154  -9.2455     93.0300     45.0448   1.4473721906e+01   5.5538017786e+01    0.1689635    0.1611333  71.65 0.0002972053    1.004    0.004
       155 -10.1161    144.9586     43.2014   2.5752221002e+00   4.3341941380e+01    0.2343668    0.1485511  38.96  0.001085417    2.152    0.535
       156 -10.8714    109.8742     39.5715   8.0279519295e+00   5.2350411067e+01    0.5084416    0.2731127 -18.47  0.001476506    2.842    0.648
       157  -9.8278    155.9942     42.0409   5.8056001550e-01   4.0911610971e+01    0.2101573    0.1857341 -62.44 0.0007704133    1.040    0.039
       158 -10.6053     56.8236     41.8631   2.6350777666e+01   6.3977441386e+01    0.2691378    0.2056224  49.71 0.0004980679    1.320    0.242
       159 -10.8668     18.1597     40.5625   4.7788747809e+01   7.0222494529e+01    0.3092505     0.214203 -31.73  0.001120834    1.421    0.296
       160 -10.9388      3.7239     36.4926   5.6801177124e+01   7.2382146124e+01    0.4955107    0.3432159 -55.71  0.002289604    1.320    0.242
       161 -10.7746    249.4960     38.8334   3.5111082665e+02   2.2696530715e+01    0.2202914    0.1443149 -73.66 0.0005482809    1.520    0.342
       162 -10.5736     78.6906     37.3369   1.5763625424e+01   6.0090748563e+01    0.4522729    0.2898375 -80.08   0.00183965    2.718    0.632
       163 -10.7296     78.6473     34.2032   1.4401953911e+01   6.0584296366e+01    0.5522739    0.3662812  25.08  0.002539168    2.036    0.509
       164 -10.8196    228.3078     37.4391   3.5221029706e+02   2.6494653491e+01    0.1918907    0.1049438  69.14   0.00114441    2.107    0.525
       165 -10.0670     60.5791     36.7672   2.2360162528e+01   6.4126322795e+01    0.2579121    0.2196457 -39.39 0.0006480021    1.227    0.185
       166 -10.5935     62.9526     33.4419   1.9799830581e+01   6.4180419679e+01    0.5722528    0.1943405  43.39  0.001344076    2.983    0.665
       167 -10.5982    153.1039     35.7731   3.5912595544e+02   4.2426440217e+01     0.226398    0.1887565 -66.54 0.0005706023    1.065    0.061
       168 -10.1336    175.8512     34.6770   3.5608527435e+02   3.7373901552e+01     0.271581    0.1517248 -62.82  0.000985898    1.760    0.432
       169 -10.7618    242.8449    246.9671   2.8875185869e+01  -4.3612378864e+00    0.1753549   0.08007612 -16.67  0.001089269    2.030    0.507
       170 -12.1811    112.6433     25.1610   2.0507712642e+00   5.3596464943e+01    0.7150915    0.3290143  59.22  0.003114529    1.980    0.495
       171 -11.3983    125.0864    240.8904   4.9444464255e+01   8.2628248682e+00    0.3209574    0.1746422  31.29  0.001790688    1.556    0.357
       172  -9.0868     70.3022     34.2723   1.7338886241e+01   6.2455165601e+01    0.1385245    0.1055746  23.44 0.0003507621    1.534    0.348
       173 -10.8271    240.4355     32.3654   3.5036390464e+02   2.4966919208e+01    0.2144136    0.1723829  -0.16  0.001484991    1.994    0.498
       174  -9.4826    216.9908     32.0027   3.5182702346e+02   2.9238641755e+01    0.1443661    0.1088033 -53.03 0.0003306307    1.022    0.022
       175 -10.8547      9.9481     30.2230   4.9575623586e+01   7.3285697478e+01    0.4367436    0.3241592   8.77  0.002040615    1.323    0.244
       176 -10.3669    131.7509    240.4233   4.7974356315e+01   7.5804597191e+00    0.1711443   0.09906997  15.44 0.0007729899    1.611    0.379
       177 -11.0683     47.6914     30.4971   2.5251907551e+01   6.7746590660e+01    0.5803598    0.2578242  36.53  0.002038745    2.398    0.583
       178 -10.5890    177.2831     29.0692   3.5444288437e+02   3.7749516049e+01    0.2874953    0.1916285 -21.49  0.001572659    1.812    0.448
       179 -10.9215    171.0716     30.0744   3.5534575468e+02   3.9010793590e+01    0.4006015     0.175696  83.89  0.001167776    2.671    0.626
       180 -10.7020    169.4389     23.3949   3.5367429413e+02   4.0170949144e+01    0.2798014    0.2068324 -41.79  0.001078091    1.265    0.209
       181 -10.9389     72.7624    237.8705   6.0833766749e+01   1.4738235127e+01     0.261418    0.1171993  45.59  0.001256224    2.073    0.518
       182 -10.9680    157.1420     29.1595   3.5665229510e+02   4.2315579705e+01       0.3014    0.2247561 -65.73 0.0008415157    1.212    0.175
       183 -12.1592    127.0148     28.3952   6.6135044203e-01   4.9652967326e+01    0.6547989     0.367794  77.13  0.001968865    1.804    0.446
       184 -11.7850     26.4728     27.5234   3.6107475634e+01   7.1863493434e+01    0.4809339    0.3396192 -57.59  0.001869164    1.698    0.411
       185  -9.1876     15.4736    233.5399   7.3863157784e+01   2.1278858747e+01    0.1205171   0.09713975  47.20 6.211379e-05    1.021    0.021
       186 -10.4417    189.0223     27.3704   3.5292550144e+02   3.5411971168e+01    0.2812967    0.2165378  43.21  0.001716951    1.803    0.445
       187 -11.2018    183.6041     26.4052   3.5315382713e+02   3.6686065872e+01     0.394562    0.1715074 -42.70   0.00133575    1.874    0.466
       188 -10.8968    149.7208     27.6231   3.5710849515e+02   4.4250125633e+01    0.4971468    0.1479406  61.80  0.001871996    3.037    0.671
       189  -9.6513    155.5270     24.5088   3.5546918849e+02   4.3249007973e+01     0.189014    0.1152602 -88.87 0.0009622389    1.646    0.393
       190 -11.8145    149.1672     22.3875   3.5557356619e+02   4.4997220413e+01    0.7836808    0.2118239  67.72  0.002843628    3.294    0.696
       191 -11.1945    230.0457     26.7090   3.4981746742e+02   2.7441701783e+01    0.2085064     0.187666  73.95 0.0009602984    1.453    0.312
       192  -9.4453    200.5188     27.4667   3.5200971702e+02   3.3012582110e+01    0.1227842   0.09819502 -58.60  0.000117045    1.021    0.021
       193 -10.2587    206.2028     25.4611   3.5111139093e+02   3.2102635432e+01    0.2018585    0.1373948 -43.01 0.0003364883    1.230    0.187
       194  -9.4390     97.0104     25.7728   5.6180639532e+00   5.7373973282e+01    0.1922966    0.1075914  63.92 0.0008802261    1.665    0.399
       195 -10.5790     46.3155     23.9744   2.2478651356e+01   6.9069909725e+01    0.3435297    0.2534848  25.68 0.0006911774    1.409    0.290
       196 -10.6060    177.0488     21.9849   3.5258058731e+02   3.8630181111e+01    0.2795692    0.2420655  10.72  0.001047932    1.644    0.392
       197 -10.9094    181.6009     19.2391   3.5146948149e+02   3.7939060979e+01    0.3610641    0.1876678  65.15  0.001113696    2.003    0.501
       198 -12.0512    245.7414     21.2210   3.4783712429e+02   2.5320181093e+01    0.4060028     0.202781  66.80  0.002539236    2.437    0.590
       199 -10.7076    134.4289     21.9496   3.5733984473e+02   4.8603517495e+01     0.303491     0.286795 -47.84  0.001309419    1.170    0.146
       200 -10.5962     68.7677     20.5389   1.1259736100e+01   6.4760649907e+01    0.3556721    0.2482167 -45.68  0.001645402    1.591    0.371
       201 -10.0095     38.6926     21.3556   2.5065916659e+01   7.0919733770e+01    0.2310306    0.1896438 -33.77 0.0009412699    1.274    0.215
       202 -11.2156      5.9874    198.7909   7.4786895712e+01   2.9729853148e+01     0.344788    0.1012452 -62.29  0.001309847    3.542    0.718
       203  -9.7441     46.8021     19.9733   1.9990984420e+01   6.9575362478e+01    0.2332802    0.1732012 -53.72 0.0009401327    1.679    0.404
       204  -9.2877    233.7495    195.9866   2.2571803474e+01   2.8986085941e+00    0.1474582   0.07531153 -34.64 0.0006777677    1.574    0.365
       205  -9.0346    135.3295    196.3159   4.1119886714e+01   1.5116294422e+01     0.139372   0.09631364 -11.45 0.0007045748    1.679    0.405
       206  -9.6474    216.7787     19.8221   3.4912952188e+02   3.0676699011e+01    0.1701463   0.09982722 -55.88 0.0004532491    1.333    0.250
       207 -11.4738      6.3528    185.9235   7.4131032436e+01   3.2802954222e+01    0.3501889    0.1915935  42.71  0.001787251    1.569    0.362
       208  -9.5091     74.7550     19.2346   8.6709238635e+00   6.3534945624e+01    0.2207554    0.1364956  30.14  0.001025905    2.025    0.506
       209 -11.4943      2.7003    182.5884   7.4994562508e+01   3.3896216476e+01     0.441138    0.2024194 -72.55  0.002043587    2.103    0.525
       210  -9.8922     50.8375    170.9954   6.0011377759e+01   3.2353969879e+01    0.2954474    0.1538211  82.52  0.001144731    2.559    0.609
       211 -11.9614      9.4595    166.6744   7.2222344352e+01   3.7453382189e+01    0.3432367    0.2668765   3.45  0.001293977    1.519    0.342
       212 -11.6948    236.4680     15.6962   3.4718142287e+02   2.7513383070e+01    0.2325723    0.1729665 -82.23  0.001226438    1.341    0.254
       213 -11.1621    228.8997     15.6738   3.4755526628e+02   2.8869070312e+01    0.2153606    0.1405541 -58.83 0.0004986941    1.172    0.147
       214 -12.5478     13.0598    160.2445   7.0696441737e+01   3.8871285073e+01     0.519151     0.347242 -47.78  0.002639082    1.679    0.404
       215  -9.6751    157.0057    165.9913   3.1022613166e+01   1.7908402810e+01    0.1672663    0.1494619 -23.21 0.0005875901    1.028    0.027
       216 -10.6547     18.2284    164.8817   6.9416038342e+01   3.7228708916e+01    0.2587097    0.1679518 -28.68  0.001233614    2.016    0.504
       217  -9.4090    111.6711     14.7213   3.5824272767e+02   5.5013165084e+01    0.1353903    0.0942696  44.13 0.0005938708    1.598    0.374
       218 -10.2510    205.0482    163.1381   2.1364084439e+01   1.1329121871e+01    0.2213691    0.1546185 -34.06 0.0007946874    1.203    0.169
       219  -9.5068    195.9534     14.0000   3.4909769186e+02   3.5456465277e+01    0.1791934   0.06257249  77.47 0.0007953355    2.893    0.654
       220 -10.1367    214.9657    161.2765   1.9415897127e+01   1.0287871635e+01    0.1675513    0.1391992 -17.79 0.0005103797    1.069    0.064
       221  -9.6595    155.4646     13.5042   3.5221206817e+02   4.4475932572e+01    0.1289509    0.1097547 -73.04 0.0001066597    1.020    0.019
       222 -10.3501     28.6251    160.7621   6.5813673883e+01   3.7393073931e+01    0.2067721    0.1257079  87.06  0.000950679    1.677    0.404
       223 -10.0082    104.3885    154.4187   4.1715697770e+01   2.8966157934e+01    0.2789511    0.2401555 -47.64  0.001470917    1.164    0.141
       224 -11.6964     16.4288    147.7191   6.8640048895e+01   4.1977129729e+01    0.7568939    0.1761875 -81.29  0.002077301    4.734    0.789
       225 -11.8169     21.2310    150.5410   6.7278230330e+01   4.0812477750e+01    0.4579679    0.2775805 -38.74 0.0007779057    1.986    0.496
       226 -11.2909     24.4737    147.5203   6.5902937685e+01   4.1350950618e+01     0.346862    0.2783043 -64.47 0.0008943297    1.232    0.188
       227 -11.4750    107.1889     31.3447   5.5247871163e+00   5.4155862458e+01    0.5335609    0.3173082  37.05  0.002375472    2.173    0.540
       228 -10.9207      4.2051    153.4214   7.3077797987e+01   4.1325293104e+01    0.3131811   0.08845774  28.93  0.001146061    2.969    0.663
       229 -10.7683     45.8648    149.2727   5.8909693771e+01   3.8672130770e+01     0.439844    0.2831989 -57.23  0.002049949    1.539    0.350
       230 -12.3040      4.3902    142.4283   7.2327342535e+01   4.4279590879e+01     0.774877    0.3907323  49.10  0.003096876    1.894    0.472
       231 -10.8746     32.9740    143.8078   6.2592914148e+01   4.1559777485e+01    0.3035421    0.2773219  43.07 0.0006310461    1.104    0.095
       232 -11.6588     13.7636    141.0981   6.8989907666e+01   4.3994699239e+01     0.371817    0.2462852   1.21  0.001805181    1.826    0.452
       233 -12.2185     11.9840    135.7585   6.9157645815e+01   4.5596036612e+01    0.6954263    0.2861119 -55.18  0.002721665    2.352    0.575
       234 -10.4116     40.3270    137.5334   5.9216247312e+01   4.2507709194e+01    0.3008367    0.2226175  69.35 0.0002735884    1.406    0.289
       235 -11.1086     20.7967    133.8716   6.5789333269e+01   4.5431895927e+01    0.3158053    0.2690761 -81.80  0.001202796    1.090    0.083
       236 -11.3973     24.7590    136.1069   6.4600085831e+01   4.4467543139e+01      0.43819    0.3128678 -14.74  0.002126228    1.741    0.426
       237 -11.3554     30.1759    132.7744   6.2235453366e+01   4.4885237734e+01    0.5201046    0.3499873 -76.84  0.002017285    1.417    0.294
       238 -10.3694     26.4069    131.4558   6.3456382646e+01   4.5609264347e+01    0.2699722    0.2015263 -77.61 0.0004657951    1.260    0.206
       239 -11.1817     10.9654    125.4749   6.8595017661e+01   4.8517934115e+01    0.6872233    0.2567686 -46.14  0.002467281    2.952    0.661
       240 -11.1866     16.9763     13.7204   3.5062903051e+01   7.5682472507e+01    0.3327567    0.1878689  21.08  0.001197545    1.876    0.467
       241  -9.9172     39.6142    133.2537   5.8865082505e+01   4.3767915047e+01    0.2456092    0.1787537 -13.68  0.000480704    1.729    0.422
       242 -10.0458      2.1101    124.8605   7.1896990636e+01   4.9237928614e+01    0.2274265    0.1747755  66.27  0.001231912    1.244    0.196
       243 -10.6087    104.1393    122.4169   3.5044255962e+01   3.6750039991e+01    0.3293966    0.2757422  35.46  0.001410635    1.232    0.189
       244  -9.8221     49.0277    122.4771   5.3656256246e+01   4.5618585720e+01    0.2294603    0.1505727  27.20 0.0004474716    1.577    0.366
       245 -10.5378     43.7976    117.1442   5.4694089466e+01   4.7735956464e+01    0.5310092    0.2573066 -79.60  0.001921273    2.504    0.601
       246 -10.1480     79.0046    114.7150   4.1209758805e+01   4.3186998750e+01    0.2925454    0.2245205 -46.59 0.0006913939    1.311    0.237
       247  -8.9925     58.6580    115.2963   4.8649067895e+01   4.6259835180e+01    0.1625466    0.1139587  63.85 0.0006538553    1.663    0.399
       248 -11.3291     36.2182     91.9027   5.2824174998e+01   5.5516676340e+01    0.3858826    0.3292058 -31.85  0.002040742    1.221    0.181
       249 -12.2884     28.4031     85.4718   5.5051125297e+01   5.8094992338e+01     1.290956    0.5740077  17.31  0.004194704    2.567    0.610
       250 -11.5040     15.9725    108.7522   6.4707758174e+01   5.2818490167e+01    0.4529774    0.3672438   8.62  0.001870932    1.369    0.270
