#   1 NUMBER                 Running object number                                     
#   2 MAG_AUTO               Kron-like elliptical aperture magnitude                    [mag]
#   3 X_IMAGE                Object position along x                                    [pixel]
#   4 Y_IMAGE                Object position along y                                    [pixel]
#   5 X_WORLD                Barycenter position along world x axis                     [deg]
#   6 Y_WORLD                Barycenter position along world y axis                     [deg]
#   7 A_WORLD                Profile RMS along major axis (world units)                 [deg]
#   8 B_WORLD                Profile RMS along minor axis (world units)                 [deg]
#   9 THETA_WORLD            Position angle (CCW/world-x)                               [deg]
#  10 FWHM_WORLD             FWHM assuming a gaussian core                              [deg]
#  11 ELONGATION             A_IMAGE/B_IMAGE                                           
#  12 ELLIPTICITY            1 - B_IMAGE/A_IMAGE                                       
         1  99.0000    186.8446    117.6164   8.9079801221e+01   2.0482678253e+01     15.04306     7.725611 -57.12   0.05443356    2.452    0.592
         2  99.0000    184.9967     33.6662   6.7880814451e+01   3.5124827727e+01     12.59025     1.341309  59.53   0.02277604    5.443    0.816
         3  99.0000    177.3918     79.2757   8.1134100015e+01   3.0067171058e+01     12.88604     7.102947 -74.35   0.04086864    3.898    0.743
         4 -16.8586    250.0625    109.8681   7.6344967343e+01   8.2345163631e+00     10.19598    0.8583137 -39.75   0.01936878   10.054    0.901
         5  99.0000    237.7544     67.4043   6.8762351149e+01   1.7980816309e+01     8.745865     2.704654 -29.38   0.01895717    9.733    0.897
         6 -11.3140    200.7297     17.3804   6.1895815466e+01   3.3328572663e+01    0.2966579    0.1498762 -39.59  0.001493295    2.006    0.501
         7 -11.4558     53.4516      8.9499   8.9856240680e+01   6.5535890362e+01    0.3265015     0.104224 -25.65  0.001440929    3.314    0.698
         8 -10.7710      2.0000      3.4767   1.0963687031e+02   7.2059712289e+01    0.2147699   0.04665363 -42.30 0.0009399846    3.977    0.749
         9  -9.5531    177.7281      9.6984   6.2774240265e+01   3.9556745729e+01     0.121162   0.08868728  44.30 0.0005608862    1.532    0.347
        10 -10.8437    143.7731    145.5107   1.0555722592e+02   2.4003729321e+01     0.394312    0.2179218 -65.53  0.001390953    2.578    0.612
        11 -13.8275    243.0894    247.2896   1.0490129268e+02  -1.3338647015e+01     1.113938    0.4928638  35.13  0.005782699    2.058    0.514
        12 -14.3013     63.9177    163.9437   1.2938201273e+02   3.3619943579e+01    0.8161201    0.6522974  66.63  0.002683355    1.260    0.206
        13 -12.9651    145.1830    100.5430   9.3928192994e+01   3.3614178232e+01    0.7187036    0.5441464 -81.61  0.002957572    1.744    0.426
        14 -10.8415    139.6590    104.0768   9.6242625801e+01   3.4122209662e+01    0.3259978    0.2626418  -6.08  0.000868958    1.583    0.368
        15 -12.6040    134.7709    108.3815   9.8628387202e+01   3.4283144719e+01     1.274831    0.2828535 -45.40  0.003272848    4.453    0.775
        16 -11.6885    135.7844    128.8341   1.0359377252e+02   2.9523622785e+01    0.8040182    0.2290068 -50.55  0.002226009    3.742    0.733
        17 -11.5138    135.0002    120.7990   1.0179334393e+02   3.1507251283e+01    0.6487381    0.2304855 -44.80  0.001546382    2.774    0.639
        18 -11.9373    192.4978    194.3390   1.0496932390e+02   3.5519015317e+00     1.010468    0.5030475 -64.64  0.002734675    6.185    0.838
        19 -12.0698    120.3958    111.8729   1.0331559298e+02   3.6550064917e+01    0.7783805    0.4819858  81.81  0.002534285    3.722    0.731
        20 -11.3957    112.2004    104.5375   1.0361017190e+02   3.9801762218e+01    0.3573764    0.2653103 -67.56 0.0009449041    1.623    0.384
        21  -9.6500    111.5037    113.0078   1.0603144250e+02   3.8064921055e+01    0.2239223    0.1454033 -46.88 0.0003530015    1.482    0.325
        22 -11.7893    127.4673    111.1057   1.0123778241e+02   3.5254798370e+01    0.3893594    0.2663337 -39.29  0.001748421    1.481    0.325
        23 -13.7937     69.4167    145.4962   1.2487372697e+02   3.7365325089e+01     2.453537     1.374778  66.46  0.007527049    2.657    0.624
        24 -12.7328    119.9544    101.9911   1.0079543798e+02   3.8788646024e+01    0.8283671    0.5394804  48.47  0.003727633    1.594    0.373
        25 -15.4272     16.5920    191.8699   1.4338234835e+02   3.2493444431e+01     2.239779      1.43845  85.68   0.01395141    1.283    0.221
        26 -11.5481    131.6590     96.6393   9.6230973374e+01   3.7423828531e+01    0.3885331    0.3103997 -52.98  0.000797226    1.288    0.224
        27 -10.4945    113.4561     95.0143   1.0064302918e+02   4.1574811025e+01    0.2255285    0.2004373  37.89 0.0004011196    1.148    0.129
        28 -11.5042    117.7419     90.2921   9.8122749245e+01   4.1666604090e+01    0.5176117    0.3454847 -45.22   0.00226082    1.489    0.329
        29 -11.9902    137.0854     90.0529   9.3010579468e+01   3.7542961180e+01    0.3420137    0.3308873  76.10 0.0008692741    1.058    0.055
        30 -12.8415    149.2958     84.5102   8.8516449353e+01   3.5811514895e+01    0.3766293    0.3258293 -48.93 0.0007295402    1.171    0.146
        31 -11.3376    125.1146     85.8809   9.4876058096e+01   4.0984327451e+01    0.3205767    0.2837884 -60.38 0.0007452427    1.219    0.180
        32 -11.7634    128.6662     83.9392   9.3388353191e+01   4.0588204206e+01    0.3523754    0.2744153 -50.45 0.0008852481    1.342    0.255
        33  -9.0306    212.2982     84.2901   7.6263384218e+01   2.0897373282e+01    0.1350808    0.1162866  17.20 0.0002676488    1.559    0.358
        34 -12.1198    230.4355    165.9431   9.1693801099e+01   1.7563041459e+00    0.5646016     0.268609 -43.35  0.001968424    1.979    0.495
        35 -15.0846     32.0716    187.6596   1.3976704704e+02   3.1854379932e+01     1.065975    0.8727388  87.97  0.003582942    1.049    0.047
        36 -14.4408     56.9208    169.4229   1.3190229338e+02   3.3217235435e+01     1.546148     1.141642  27.08  0.001126008    1.696    0.410
        37 -10.3855    107.9945     76.9647   9.6901162306e+01   4.6225570666e+01    0.2342501    0.1737613  -0.17 0.0007722049    1.710    0.415
        38 -11.0682    112.7807     74.0125   9.4662255586e+01   4.5803072269e+01    0.2702733    0.1762849  32.35   0.00125475    1.658    0.397
        39 -10.4312    217.8194     72.9919   7.2737068359e+01   2.1543271169e+01    0.2066372    0.1634924 -71.27  0.000295931    1.217    0.178
        40 -11.7054    192.1826     64.0786   7.4534980758e+01   2.9042425268e+01    0.6895294    0.6613931  61.98   0.00405622    1.146    0.127
        41 -12.3550    213.7503     66.9829   7.1913206332e+01   2.3461969613e+01    0.3300359    0.2314175 -78.67  0.001065516    1.545    0.353
        42  -9.7084    218.2875     64.3683   7.0652605259e+01   2.2827872370e+01    0.1656972    0.1227534  84.26 0.0003197657    1.353    0.261
        43 -10.4803    205.1277     64.3674   7.2564254145e+01   2.5903193021e+01    0.1960998    0.1546142  79.57 0.0006645704    1.233    0.189
        44 -13.8616    161.4360     70.3703   8.1890069912e+01   3.5447863230e+01    0.7842032     0.506323  -8.87  0.002666008    2.604    0.616
        45  -8.4533    223.3660     56.3907   6.8135768236e+01   2.2896085182e+01     0.132191    0.1166079 -73.69 0.0002348478    1.041    0.039
        46 -12.1533    204.8292     53.6334   7.0000880171e+01   2.7623901675e+01    0.3867532    0.2907449  36.41  0.002016417    1.761    0.432
        47 -10.5494    228.5043     50.9635   6.6278207882e+01   2.2539895774e+01      0.33701    0.1506334 -56.50 0.0009328403    2.375    0.579
        48  -9.7491    100.4646    134.9998   1.1434283683e+02   3.4985889846e+01    0.2191481    0.1415092 -53.31 0.0003586585    1.461    0.316
        49 -12.2933    189.4247     50.2871   7.1460594620e+01   3.1804329905e+01    0.2797039    0.2043808 -59.66 0.0007452606    1.388    0.279
        50 -10.0583    176.8369     48.1684   7.2933323672e+01   3.5157165116e+01     0.166425    0.1530828  42.95 0.0002908685    1.206    0.171
        51 -11.6458    209.4847     38.1417   6.5693735254e+01   2.8715325455e+01    0.3143825    0.2149317 -62.41  0.001708673    1.413    0.292
        52 -14.0841     69.1642    158.1580   1.2713786341e+02   3.4306045177e+01    0.9084796    0.5986974  66.14  0.001807437    1.744    0.427
        53 -10.8353     93.1950     25.1512   8.3742115176e+01   5.6938058377e+01    0.2518613    0.1660767 -30.62 0.0007676434    1.629    0.386
        54 -10.7702    176.8140     23.5205   6.6436161686e+01   3.8306468674e+01     0.192307    0.1680047  57.83 0.0007919685    1.167    0.143
        55 -11.0712    187.2736     22.8256   6.4839564352e+01   3.5886676002e+01    0.1744103     0.141457  36.59 0.0008463344    1.532    0.347
        56 -10.9990    134.0000    147.0740   1.0831753469e+02   2.5670611250e+01    0.6560503    0.1646154 -52.70  0.001667376    4.504    0.778
        57 -10.6571    205.7214     16.8102   6.1211446807e+01   3.2230764022e+01    0.1138643   0.08219375  59.71  0.000654619    1.403    0.287
        58 -10.4184    214.6420     13.2440   5.9491936709e+01   3.0582793521e+01    0.1671232    0.1335066  53.39  0.001044466    1.487    0.328
        59 -11.3149    152.7919    145.2454   1.0332815027e+02   2.2144378206e+01    0.3372891    0.2709702  -2.57  0.001524513    1.661    0.398
        60 -12.2485    149.1494    141.4044   1.0330611826e+02   2.3799358499e+01    0.4279501    0.3151302  45.67  0.001967394    1.378    0.274
