#   1 NUMBER                 Running object number                                     
#   2 MAG_AUTO               Kron-like elliptical aperture magnitude                    [mag]
#   3 X_IMAGE                Object position along x                                    [pixel]
#   4 Y_IMAGE                Object position along y                                    [pixel]
#   5 X_WORLD                Barycenter position along world x axis                     [deg]
#   6 Y_WORLD                Barycenter position along world y axis                     [deg]
#   7 A_WORLD                Profile RMS along major axis (world units)                 [deg]
#   8 B_WORLD                Profile RMS along minor axis (world units)                 [deg]
#   9 THETA_WORLD            Position angle (CCW/world-x)                               [deg]
#  10 FWHM_WORLD             FWHM assuming a gaussian core                              [deg]
#  11 ELONGATION             A_IMAGE/B_IMAGE                                           
#  12 ELLIPTICITY            1 - B_IMAGE/A_IMAGE                                       
         1 -14.1011    203.6320      6.0268   5.7895426470e+01   3.3547633679e+01     1.623779     1.093836  87.61  0.009821938    1.241    0.194
         2 -15.1795    186.3862     28.7917   6.5220872314e+01   3.5117805872e+01     2.587974     1.701921  14.34   0.01195125    2.858    0.650
         3 -14.2843     53.4500    232.7214   1.3937962572e+02   1.9474540998e+01     1.242749     1.091842 -87.04  0.008630333    1.253    0.202
         4  99.0000     67.9765    211.8639   1.3426097301e+02   2.1983158504e+01     5.532941     1.005683  48.52   0.01527769    5.678    0.824
         5 -16.2850    108.8635    245.6809   1.2972443571e+02   8.5213237386e+00     7.066361     2.713049  31.37   0.02492595    3.823    0.738
         6 -10.0957     78.7407    232.2991   1.3430154571e+02   1.5968687035e+01    0.1483284    0.1422248  68.90 0.0002334727    1.296    0.229
         7  -9.2458      9.9869    213.8490   1.4617424806e+02   2.8539194195e+01    0.2049831    0.1399197   8.38  0.001195639    2.835    0.647
         8 -12.9329    118.0805    200.9587   1.2145057111e+02   1.6272722245e+01    0.7507938    0.3044666  39.38  0.002837503    2.358    0.576
         9 -12.3453    112.3789    196.5573   1.2206687790e+02   1.8296184145e+01    0.5988792    0.4157975   3.22  0.002493976    2.693    0.629
        10 -12.2666    107.3864    209.8883   1.2527904326e+02   1.6173064496e+01    0.6452708    0.4681889  58.22  0.003392858    1.296    0.228
        11 -12.2435    106.9516    202.5464   1.2427661184e+02   1.7890659778e+01    0.5847409     0.355816  40.11  0.001800428    1.586    0.370
        12  -9.3346     69.3915    227.5097   1.3569264377e+02   1.8358898708e+01    0.1294212    0.1049024  74.90  0.000140086    1.026    0.025
        13 -10.3684     92.4415    205.6333   1.2804956531e+02   1.9636557919e+01    0.3431796     0.209213  36.15  0.001236695    1.707    0.414
        14 -12.7709    193.9744    194.0137   1.0309294363e+02   3.1331089842e+00     1.126256    0.7352112 -66.07  0.004709637    2.411    0.585
        15 -10.2947    234.4860    198.9891   9.6005480021e+01  -5.0613160816e+00    0.3000047    0.1211513 -45.50  0.001197345    2.706    0.630
        16 -10.1884     72.8306    202.8558   1.3210420543e+02   2.3321432554e+01    0.1927043    0.1783125 -62.77 0.0006291223    1.275    0.216
        17  -9.8402    164.5313    204.0357   1.1140087406e+02   6.8257492974e+00    0.2041535    0.1424759 -61.85 0.0009612076    1.743    0.426
        18 -11.4116     79.9873    185.4597   1.2805395415e+02   2.6325623615e+01    0.4378803    0.3242309  82.98  0.001347353    1.380    0.275
        19 -13.4008     73.9969    193.5233   1.3061509615e+02   2.5319407325e+01    0.8680051    0.7636182  55.55  0.004010828    1.157    0.135
        20 -11.6432     64.6807    192.7472   1.3266744520e+02   2.6846363105e+01    0.3611874     0.280957  47.92  0.002070831    1.290    0.225
        21 -11.3980    102.9609    194.7761   1.2400057496e+02   2.0362473560e+01    0.4907946    0.3422548  56.26  0.002200108    1.391    0.281
        22 -10.3614     92.7515    194.8803   1.2642235129e+02   2.2060942746e+01    0.3357064    0.1967312  41.21 0.0008047284    1.659    0.397
        23  -9.8320    180.0543    193.0264   1.0588611535e+02   6.0319035035e+00    0.2347522    0.1854356  79.35  0.001131708    1.744    0.427
        24 -11.9652    110.2561    188.5450   1.2124364944e+02   2.0529170186e+01    0.6117378    0.3769673   7.97  0.002044301    4.051    0.753
        25 -11.7960    207.7010    183.9903   9.8222910195e+01   2.4302304496e+00    0.4256867     0.363008 -47.83  0.001242347    1.255    0.203
        26 -11.6204    211.0068    180.2045   9.6774009358e+01   2.5204147019e+00     0.471948    0.3046358 -36.04  0.002253483    1.527    0.345
        27 -19.3404     24.3470    137.9200   1.3533422044e+02   4.4628273260e+01     19.65469     2.958589 -68.14   0.05069123    6.364    0.843
        28 -10.8057    109.4379    183.6916   1.2061138789e+02   2.1816390292e+01    0.2848815     0.145098 -62.49  0.001138608    2.108    0.526
        29 -10.5663     90.4998    183.9950   1.2528353783e+02   2.5003882052e+01    0.2801971    0.1791312  58.74  0.001203092    1.629    0.386
        30 -11.0138     99.5513    180.4216   1.2247767847e+02   2.4336792298e+01    0.3365404    0.2501916 -44.99 0.0006816628    1.505    0.335
        31 -12.1279    197.3626    173.8622   9.8244232617e+01   6.4457433164e+00    0.8471422    0.3892469 -52.22  0.003098226    2.615    0.618
        32 -10.3605    144.9841    178.7464   1.1107136497e+02   1.6137813694e+01    0.2090241    0.1285477  41.85 0.0005903754    1.575    0.365
        33  -9.7241     71.9674    174.4942   1.2836766972e+02   3.0175463753e+01    0.2051506    0.1328325  43.03 0.0009928301    1.566    0.361
        34 -10.7397    177.7111    170.4963   1.0177999161e+02   1.1186797452e+01     0.410109     0.134549 -50.28  0.001224997    3.491    0.714
        35 -11.0888    230.2078    166.9417   9.0289334363e+01   1.3815102182e+00    0.4613724    0.1787369 -52.33  0.001468148    3.865    0.741
        36 -11.0983    145.8859    168.5646   1.0878277927e+02   1.8272811692e+01    0.2971919    0.2318166 -61.00 0.0005899054    1.359    0.264
        37 -10.0743    203.2153    167.3390   9.5635788509e+01   6.5693785877e+00    0.2796461    0.1950761 -69.06  0.001050447    2.092    0.522
        38  -9.5651     71.2197    166.8250   1.2735942155e+02   3.2155547860e+01     0.186058    0.1568069 -46.69 0.0003389746    1.305    0.234
        39 -10.5415    225.0117    166.0042   9.1060812421e+01   2.5357195875e+00    0.2223109    0.1788074 -77.80  0.000986088    1.735    0.424
        40  -8.7222    217.2997    244.3190   1.0759893858e+02  -9.4731555440e+00    0.1290035   0.08628689   4.29 0.0002439393    1.620    0.383
        41 -10.1786      4.0894    229.2141   1.4822187286e+02   2.5916079882e+01    0.1555462   0.09656424 -44.85 0.0008965692    2.873    0.652
        42 -12.5021     99.0264    156.2529   1.1819786515e+02   3.0295076879e+01    0.7408987    0.4550682 -38.23  0.003143169    1.973    0.493
        43 -11.6723    133.8723    144.9438   1.0661771917e+02   2.6273239156e+01     1.220255    0.3218153 -54.08  0.002945409    5.032    0.801
        44 -11.3152    174.3004    148.3919   9.7637456210e+01   1.6690374234e+01     0.399988    0.2859332 -58.45  0.001123353    1.541    0.351
        45 -12.2948    144.4936    145.2973   1.0401045579e+02   2.3931626371e+01    0.5468314    0.4269558 -76.75 0.0007152783    1.539    0.350
        46 -12.5031    116.1850    211.9237   1.2360117372e+02   1.4189875293e+01    0.5141312    0.3473855  82.19 0.0007855017    1.874    0.466
        47 -11.9282    109.2632    140.8255   1.1220562825e+02   3.2176434679e+01    0.6288208    0.3945433 -31.70  0.002554932    2.086    0.521
        48 -12.3209     98.0374    141.2727   1.1538754184e+02   3.4122865532e+01    0.2852229    0.2736183  -4.07 0.0004058137    1.154    0.133
        49 -12.0019    105.0553    129.0829   1.1068196597e+02   3.5770168446e+01    0.7046902    0.4478255 -75.49   0.00191971    2.295    0.564
        50 -10.1278     83.4696    134.0971   1.1795434472e+02   3.8316011703e+01    0.2425825    0.1849647  65.45 0.0007512376    1.534    0.348
        51 -10.6402    125.3759    127.2934   1.0465935212e+02   3.2161203786e+01    0.3885816    0.2379988  70.67   0.00136096    2.743    0.635
        52 -11.8107    116.3850    130.7882   1.0794247799e+02   3.3180633540e+01    0.5188978    0.4055928  -5.68  0.001326026    1.728    0.421
        53 -11.0160    120.4941    124.9941   1.0541157878e+02   3.3699142158e+01    0.3023371    0.2281552 -30.86  0.001152909    1.492    0.330
        54 -11.5722    135.3838    123.5726   1.0108895868e+02   3.0873936001e+01    0.7471876    0.2082181 -47.77  0.002083901    3.651    0.726
        55  -9.0185    139.2869    124.6738   1.0035811473e+02   2.9771627664e+01    0.1603265    0.1262155 -86.88 0.0003298739    1.609    0.378
        56 -10.4771    111.2416    119.7243   1.0666252031e+02   3.6765592590e+01    0.2605099     0.247889  -9.65   0.00025208    1.103    0.093
        57 -10.6144    168.0099    112.9451   9.0442148548e+01   2.5714770557e+01    0.4202889    0.3082917 -82.69  0.001582707    1.831    0.454
        58 -10.5440    160.8532    127.5327   9.5763415951e+01   2.4278940339e+01    0.3393812    0.2130365 -62.46  0.001325443    2.001    0.500
        59 -10.4386    205.4194    110.2072   8.2137828640e+01   1.7493720857e+01    0.3195765    0.2149569  45.65  0.001048717    1.599    0.375
        60 -10.1383    115.9836    110.0164   1.0282736734e+02   3.8000311478e+01    0.3141254     0.192567  -4.35  0.000382533    4.100    0.756
        61 -12.3309     61.3443    108.4053   1.1890958477e+02   4.7601555709e+01     0.476981    0.3519227 -42.20  0.002585885    1.252    0.201
        62 -11.5409     67.8094    104.6535   1.1596196600e+02   4.7573293340e+01    0.4089591    0.2705827  17.85  0.002002135    1.813    0.448
        63  -9.9618    134.5092    102.9751   9.5917516042e+01   3.5544611930e+01    0.2399132    0.1538438 -43.26 0.0009491845    1.577    0.366
        64 -11.3914    175.4999     73.9865   7.8670507866e+01   3.1269328685e+01    0.3457825    0.2633735 -81.58 0.0006450902    1.503    0.335
        65 -10.7855    170.0104     69.8110   7.8620275748e+01   3.3314829300e+01    0.3447683    0.2281215 -88.27  0.001363753    2.067    0.516
        66  -9.1242    168.2973    248.6251   1.1802200066e+02  -2.1049213747e+00    0.1283306   0.09793521  69.40 0.0007026488    1.747    0.427
        67 -11.2630    172.8853    243.7211   1.1633817720e+02  -2.0707817250e+00    0.5150756    0.2619657 -60.41  0.002159407    3.313    0.698
        68 -13.3494    171.9650     44.4378   7.1442736154e+01   3.6646220148e+01    0.6711103    0.6234123  50.54 0.0008729434    1.163    0.140
