#   1 NUMBER                 Running object number                                     
#   2 MAG_AUTO               Kron-like elliptical aperture magnitude                    [mag]
#   3 X_IMAGE                Object position along x                                    [pixel]
#   4 Y_IMAGE                Object position along y                                    [pixel]
#   5 X_WORLD                Barycenter position along world x axis                     [deg]
#   6 Y_WORLD                Barycenter position along world y axis                     [deg]
#   7 A_WORLD                Profile RMS along major axis (world units)                 [deg]
#   8 B_WORLD                Profile RMS along minor axis (world units)                 [deg]
#   9 THETA_WORLD            Position angle (CCW/world-x)                               [deg]
#  10 FWHM_WORLD             FWHM assuming a gaussian core                              [deg]
#  11 ELONGATION             A_IMAGE/B_IMAGE                                           
#  12 ELLIPTICITY            1 - B_IMAGE/A_IMAGE                                       
         1 -13.6552     67.8965    144.1964   7.5476990319e+01   3.8245120236e+01     2.950881     1.669715  87.83   0.01228608    2.666    0.625
         2 -12.6969    208.1019     40.6154   1.7089286295e+01   2.7726436932e+01     1.171711    0.8136373  45.04  0.001517631    1.638    0.390
         3 -11.2354    234.5864     18.0783   9.5078010723e+00   2.4477774237e+01    0.6874009    0.4469149  73.91  0.004299114    1.622    0.383
         4  -9.7635    229.4987     14.9635   9.1391755309e+00   2.5803272161e+01    0.3447465    0.1927165 -41.34  0.001417315    1.510    0.338
         5 -10.7539    235.0848     12.1319   8.1517681454e+00   2.4933425410e+01     0.591457     0.340293 -80.28  0.002915872    1.826    0.452
         6 -10.6487    118.9740     10.1093   1.9985675788e+01   5.3470362450e+01    0.7034079    0.4052441  47.76  0.003248006    1.650    0.394
         7  -9.3678      8.9744      9.9783   7.2146076515e+01   7.5942931998e+01    0.1539451    0.1298131 -21.58  0.001007309    1.008    0.008
         8  -8.4998    216.9895      2.9555   7.1341254534e+00   2.9530069870e+01    0.1739821    0.1500082 -60.23  0.001197116    1.022    0.022
         9  -8.2779     97.4590      7.9375   2.3707315149e+01   5.9372598840e+01    0.1934125     0.143702 -19.40 0.0002890778    1.520    0.342
        10  -7.6285     64.6068    239.5013   8.5692143685e+01   1.9797315094e+01    0.1137588   0.08485151  38.71  0.000800737    1.024    0.023
        11  -9.3895    247.0038    250.1375   5.2002742552e+01  -3.2293231601e+00    0.2307761   0.08003662  25.56   0.00134343    2.282    0.562
        12  -8.9796    237.6954    250.0141   5.3421191302e+01  -2.2694708247e+00    0.1432863   0.09404362   7.61 0.0005703776    1.033    0.032
        13 -14.2096     11.8519    248.7796   9.7014009066e+01   2.3417815027e+01    0.2837886    0.2652713 -43.20  0.001891097    1.582    0.368
        14 -17.0489      7.3181    239.4805   9.7694613670e+01   2.5308470457e+01     5.011282     1.628735  17.21  0.007965025    4.166    0.760
        15  -9.1707     75.3536    249.7153   8.4109841402e+01   1.6993385323e+01    0.2052868    0.1784597 -16.59  0.001593789    1.553    0.356
        16  -9.6764    248.2408    237.2551   5.0039669340e+01  -2.2037534024e+00    0.2167414    0.1696312  46.58  0.001517136    3.053    0.672
        17  -8.9913    111.1274    249.6857   7.6697881767e+01   1.2786674685e+01    0.1676746    0.1433656  49.85  0.001060264    1.364    0.267
        18  -9.3346     72.9748    204.7185   8.1064523687e+01   2.4899841579e+01    0.2528988    0.1676328  50.69 0.0007786631    1.374    0.272
        19  -9.2220    137.2982    200.9168   6.5417172835e+01   1.6687552352e+01    0.3772656    0.2125797  -3.63  0.001555183    3.372    0.703
        20 -10.4516     96.2477    246.5569   7.9506630333e+01   1.5041476172e+01    0.3979415    0.3432325 -50.31  0.003084193    1.584    0.369
        21  -9.4773     98.8026    196.3752   7.3861413005e+01   2.3062676302e+01    0.2929669    0.1521798 -41.45  0.001400771    2.549    0.608
        22  -9.2633    191.8235    193.3679   5.2917935298e+01   9.6906431275e+00    0.3272192    0.2257404 -59.07  0.001710716    3.053    0.672
        23  -8.1375    248.1598    197.1796   4.3991957537e+01   1.7452785039e+00    0.1342584    0.1114936   2.67  0.000673003    1.339    0.253
        24  -9.9452    126.5172    192.7664   6.6728485576e+01   1.9666412336e+01    0.2549414    0.2245796 -10.24  0.000417927    1.254    0.203
        25  -9.0203    132.6082    190.6452   6.4998816242e+01   1.9103334337e+01    0.2479052    0.1447441  32.81  0.001288233    1.403    0.287
        26  -9.3743    115.3274    188.3690   6.8779864348e+01   2.2134128289e+01    0.2752049    0.1927115  -1.90  0.001445631    1.837    0.456
        27  -8.4278     70.3878    188.6045   8.0155836014e+01   2.8340639189e+01    0.2386441    0.1715883  14.34 0.0007351003    1.506    0.336
        28  -7.6694     65.6666    189.2909   8.1443796944e+01   2.8785535778e+01    0.1368159   0.07894527  51.85 0.0005818689    1.632    0.387
        29  -9.6416    121.1072    184.1805   6.6771767273e+01   2.2014309968e+01    0.2137604    0.1682451  13.14  0.001240621    1.265    0.209
        30  -8.7693    144.1440    181.2663   6.0880064227e+01   1.8886697969e+01    0.2452982    0.1585075 -72.79  0.001070178    3.327    0.699
        31  -8.9104    185.8974    226.7251   5.9098974924e+01   6.2315473534e+00    0.3792786     0.147343 -44.60  0.001770303    3.658    0.727
        32  -8.1521    180.5083    175.4937   5.2072241020e+01   1.3941208894e+01    0.1310096    0.1072263  14.66 0.0008106053    1.001    0.001
        33 -10.8189    102.4228    173.0615   6.9849748805e+01   2.7002331440e+01    0.6237247    0.3697798  35.34  0.001352718    1.420    0.296
        34 -10.5448    112.0251    170.2941   6.6934362358e+01   2.6051709357e+01    0.5733525    0.4783286  86.91  0.002899009    1.569    0.363
        35 -10.0233    123.4734    172.8179   6.4436939746e+01   2.3731964832e+01    0.3793618    0.2827838  33.74    0.0021161    1.139    0.122
        36  -9.1206     86.9812    173.5572   7.4020730241e+01   2.9179734367e+01    0.4031769    0.2274592  18.77  0.001591207    2.001    0.500
        37  -8.5150    139.0828    172.0341   6.0521567207e+01   2.1311585072e+01    0.2115756    0.1609798  59.23  0.001134313    1.699    0.411
        38  -8.5235    187.6627    171.3799   4.9919634741e+01   1.3400879328e+01    0.1723563    0.1569369  61.24 0.0009792186    1.628    0.386
        39 -10.4816     81.8959    156.8736   7.3129754397e+01   3.3440820512e+01    0.6337929    0.3562128 -52.65   0.00120748    1.976    0.494
        40  -8.0251    219.7447    247.9882   5.6039819914e+01  -1.5634198461e-01    0.1161509   0.07582504 -16.59 0.0006546806    1.507    0.336
        41  -8.6271     59.9240    170.3242   8.1073528209e+01   3.3434240880e+01    0.2859737    0.1662649  52.20 0.0008569356    1.649    0.394
        42  -9.1069     54.8257    167.2654   8.2190799676e+01   3.4703971900e+01    0.3950792    0.1801408  25.90  0.001642979    2.042    0.510
        43  -7.7957    214.4408    170.5907   4.4868979228e+01   9.3624074675e+00     0.121468   0.09729675   6.83 0.0001231794    1.013    0.013
        44  -8.9214    230.2183    166.8043   4.1573906739e+01   7.5361655339e+00    0.1642897    0.1351802 -74.61  0.000949854    2.817    0.645
        45  -8.8826     50.7885    163.4761   8.2961039797e+01   3.6002307125e+01    0.3977133    0.1437252  46.97  0.001559803    2.569    0.611
        46  -9.2006    236.3825    162.9810   3.9918512625e+01   7.1235343442e+00    0.1943036   0.09688425 -29.83 0.0003791963    1.838    0.456
        47  -7.8622    101.1164    163.1777   6.8706263572e+01   2.9198545163e+01    0.1861917    0.1485529  54.03 0.0002996955    1.295    0.228
        48 -10.5804     70.0818    167.8928   7.7952927295e+01   3.2681205938e+01    0.3465896    0.2845191 -11.72  0.001961142    1.501    0.334
        49  -8.2501     43.3144    156.0941   8.4422898670e+01   3.8478666317e+01     0.180349    0.1545589  80.08 0.0005411701    1.170    0.145
        50 -10.2363    134.0783    147.5090   5.7265374249e+01   2.6701488774e+01     1.093827    0.3564223 -41.65  0.003720116    3.565    0.719
        51  -9.8104    132.6935    138.2964   5.5759487219e+01   2.8730933965e+01    0.6439319    0.2532681 -51.57  0.002306163    3.151    0.683
        52 -10.5021     89.4348    149.5024   6.9809170345e+01   3.3917147573e+01     0.603866     0.467738  11.53  0.002132304    1.433    0.302
        53  -9.7993    140.8173    148.2484   5.5741984165e+01   2.5333097469e+01    0.3360114    0.2631752 -22.63  0.001094472    1.411    0.291
        54  -8.9754     38.8924    146.7026   8.4846845670e+01   4.1097134287e+01    0.2801091    0.1619166  51.70  0.001260489    1.647    0.393
        55  -7.2860    113.6535    144.3102   6.2018472015e+01   3.1001681878e+01    0.1492526    0.1082835  62.18 0.0007045157    1.707    0.414
        56  -8.2341    124.5187    141.4581   5.8532706392e+01   2.9628144053e+01    0.1471687    0.1309716  30.57 -4.05348e-06    1.009    0.009
        57  -9.9021    102.8136    136.7410   6.3634399698e+01   3.4491234398e+01    0.5587834    0.3645346   1.80    0.0020448    2.403    0.584
        58 -10.7564     90.6377    136.1854   6.7153655901e+01   3.6662924607e+01    0.3389364     0.280878  55.68 0.0004009602    1.235    0.190
        59 -11.1551     48.1572    122.8718   7.8896024909e+01   4.5777320345e+01    0.6551172    0.3691351  78.22  0.002786873    2.410    0.585
        60 -11.3390     45.9164    132.2757   8.0943204068e+01   4.3764215363e+01     1.040954    0.4595867  60.84  0.003856358    3.135    0.681
        61 -10.3753     39.8126    128.7740   8.2573778176e+01   4.5257977645e+01    0.6010522    0.2398151  19.86  0.002355909    2.699    0.629
        62  -8.2171    119.5359    132.9576   5.8136478725e+01   3.2268321057e+01    0.2104638    0.1487762 -49.05  0.001021168    1.567    0.362
        63  -8.5224    135.5679    131.2642   5.3530571500e+01   2.9542212314e+01    0.1970726    0.1399662 -30.29 0.0009506471    1.582    0.368
        64  -7.2416    106.2776    130.3266   6.1345785937e+01   3.5257614076e+01    0.1458758    0.1139099  -8.02 0.0003246306    1.591    0.372
        65  -9.1688    112.1703    128.4950   5.9259370821e+01   3.4568484407e+01    0.3292666    0.2513148   9.30  0.001101224    1.546    0.353
        66  -8.6629     94.7826    128.0066   6.4320911303e+01   3.7789558302e+01     0.232223    0.1886111  62.36 0.0008442468    1.360    0.265
        67  -9.5623     99.0462    124.4303   6.2281518976e+01   3.7834893849e+01    0.2924876    0.2491905  16.25 0.0005842755    1.217    0.178
        68  -8.9183    117.8844    123.6426   5.6583160161e+01   3.4499951223e+01    0.3585108    0.1766097  30.01  0.001353054    2.265    0.558
        69  -8.0794    242.6855    121.6724   3.1095032119e+01   1.1207110864e+01    0.1220167   0.08117975   4.95 0.0007043959    1.672    0.402
        70  -8.5544    108.1438    118.6408   5.8275600341e+01   3.7418186694e+01    0.2768255    0.2117392 -66.98  0.001343811    1.603    0.376
        71  -9.1693     96.1642    133.3887   6.4956822191e+01   3.6362717978e+01    0.3720102    0.2390881  61.36  0.001141888    1.997    0.499
        72  -8.0945    160.9379    118.1691   4.4509320353e+01   2.6849622894e+01    0.2086795    0.1912963  76.25 0.0005293175    1.331    0.248
        73  -9.2898    240.5983    117.2057   3.0474065764e+01   1.2088233612e+01    0.1752646    0.1000567 -19.44 0.0009590992    1.691    0.408
        74  -8.1551    135.0000    113.9664   4.9706375879e+01   3.3001704721e+01    0.2399767   0.08641868 -43.34 0.0008068622    2.973    0.664
        75  -8.0064    115.1827    110.2191   5.4225625424e+01   3.7819165505e+01     0.255823     0.165378  -2.63 0.0009476209    2.808    0.644
        76 -11.0086     57.5938    152.3273   7.9716041275e+01   3.7710632910e+01    0.9084055    0.3728639  54.32  0.003406223    2.953    0.661
        77  -8.9129     64.6690    106.5153   7.0097547046e+01   4.7591713508e+01    0.3555185    0.1302414  33.24  0.001281268    2.502    0.600
        78  -8.4763     18.3686    105.8362   8.7746634181e+01   5.2738767297e+01    0.4030377    0.1233322  43.11  0.001491923    3.176    0.685
        79  -8.1976     26.3098    104.3288   8.4470955821e+01   5.2506497584e+01    0.1402414   0.09322695 -38.33 0.0004746878    1.664    0.399
        80  -9.2340    119.7080    102.9460   5.1099399969e+01   3.8381528257e+01    0.3753424    0.2513117  68.99   0.00154722    2.200    0.545
        81  -9.4242     43.0105     95.9465   7.6449701589e+01   5.2961530246e+01    0.2052592    0.2041513  55.92 0.0004461403    1.007    0.007
        82  -8.2181     19.9330     96.5285   8.6054007512e+01   5.4931860408e+01    0.1952059    0.1297544  14.94  0.001029196    1.590    0.371
        83  -7.9159    194.0363     92.7057   3.1973966243e+01   2.4000821590e+01    0.1782129    0.1609375  38.49 0.0002179532    1.116    0.104
        84  -8.0769    120.9319     88.6829   4.6897727761e+01   4.0954084789e+01    0.2089857    0.1845776  40.78 0.0003722516    1.061    0.057
        85 -11.3422     49.6603    145.6237   8.1361132730e+01   4.0190726277e+01    0.8892097    0.4170421  35.40  0.002947995    1.844    0.458
        86  -7.9041    233.9915     85.9982   2.4740710922e+01   1.7076864327e+01    0.1945172    0.1357343 -57.03 0.0008799012    1.738    0.425
        87  -9.2828      2.8865     81.0646   9.1679428506e+01   5.9703724043e+01    0.2002989     0.160464  60.45  0.001225744    1.286    0.222
        88  -8.0981     92.1920     74.4841   5.1704182848e+01   5.0010530845e+01    0.2156028    0.1437802  41.51 0.0004722184    1.414    0.293
        89 -10.2262     74.1625    163.7719   7.6288607051e+01   3.3027255806e+01    0.2960229    0.2494796 -13.63 0.0006707549    1.432    0.302
        90 -11.7545    187.1321     57.3016   2.4026941050e+01   3.0448071483e+01     1.430571    0.9618926  14.16  0.005386178    2.135    0.532
        91 -12.1675    201.1697     47.3940   1.9583041741e+01   2.8482186487e+01    0.9102784    0.6931286   0.47  0.004197014    1.621    0.383
        92  -9.3967     61.8982    244.8559   8.6608308860e+01   1.9233383987e+01     0.282326    0.1452736 -72.07  0.001171305    2.548    0.608
        93  -9.9418    227.4897     36.9850   1.4353205960e+01   2.4011463857e+01    0.2312483    0.1600066  49.66   0.00138377    1.662    0.398
        94  -8.2361    142.0660     53.7364   3.0920258343e+01   4.1949192477e+01    0.2007952    0.1798456  57.72 0.0001880478    1.053    0.051
        95  -8.0248    179.9066     34.1785   1.8647584072e+01   3.5017943207e+01    0.1955311     0.167768 -66.18 0.0003494086    1.140    0.123
        96 -10.5485    213.4231     23.1298   1.2258706786e+01   2.8420105606e+01    0.5068182    0.1946602 -62.88  0.001867218    3.804    0.737
        97 -16.0864      7.0286    205.1381   9.6863491241e+01   3.1449880126e+01     5.842646      3.33321 -76.50   0.02481039    1.937    0.484
        98  -9.2020    138.0123    246.0084   7.0861163590e+01   9.9451908305e+00     0.184812    0.1162815   8.64  0.001141008    1.693    0.409
        99 -10.5487     71.6521    242.2728   8.4373482150e+01   1.8566974130e+01    0.2686005    0.2350022 -76.04  0.001403344    1.507    0.337
       100  -7.7949     12.6643     16.7279   7.1997221474e+01   7.4273888435e+01    0.1328597    0.0816005 -24.43 0.0006989516    1.599    0.375
       101  -8.2206     48.0510    242.2509   8.9376533073e+01   2.1108805700e+01    0.1450955    0.1004342  38.02 0.0002233093    1.050    0.047
       102  -9.5264    246.0278    241.5080   5.0971803664e+01  -2.3616077722e+00    0.1523418   0.07408723  26.24 0.0007891686    1.607    0.378
       103 -10.2855    103.5539    248.8986   7.8187985966e+01   1.3819021578e+01    0.3828117    0.2312752  36.83  0.002018949    1.218    0.179
