#   1 NUMBER                 Running object number                                     
#   2 MAG_AUTO               Kron-like elliptical aperture magnitude                    [mag]
#   3 X_IMAGE                Object position along x                                    [pixel]
#   4 Y_IMAGE                Object position along y                                    [pixel]
#   5 X_WORLD                Barycenter position along world x axis                     [deg]
#   6 Y_WORLD                Barycenter position along world y axis                     [deg]
#   7 A_WORLD                Profile RMS along major axis (world units)                 [deg]
#   8 B_WORLD                Profile RMS along minor axis (world units)                 [deg]
#   9 THETA_WORLD            Position angle (CCW/world-x)                               [deg]
#  10 FWHM_WORLD             FWHM assuming a gaussian core                              [deg]
#  11 ELONGATION             A_IMAGE/B_IMAGE                                           
#  12 ELLIPTICITY            1 - B_IMAGE/A_IMAGE                                       
         1 -12.7162      1.9528     84.4851   1.4111979631e+02   5.8078008506e+01     1.898392   0.08632281 -70.75  0.004256983   10.181    0.902
         2 -14.3287      5.7079     18.7124   1.2420580677e+02   7.1324570568e+01     3.793679    0.5666705 -51.49   0.01503521    3.670    0.728
         3 -13.9528    189.0628     22.1860   6.9457177171e+01   3.5196553998e+01     2.152575     1.252501 -10.22  0.008064744    2.320    0.569
         4 -14.3131    196.6495     17.3172   6.7086899839e+01   3.3756383014e+01     1.769414     1.356335  58.73  0.007558354    1.282    0.220
         5 -14.1138    201.7098      9.7863   6.4399831033e+01   3.3247908926e+01     1.834462    0.7848579  54.89  0.001575667    2.281    0.562
         6 -10.2901    166.0527    241.5036   1.2429538499e+02   3.4248751239e+00     0.276655    0.1409902  31.27  0.001131177    2.050    0.512
         7 -10.5134    205.2778    249.8250   1.1856317659e+02  -3.9099468309e+00    0.1970545    0.1255316  42.89 0.0006493793    1.329    0.248
         8  -9.7465    183.8860    250.1573   1.2228059621e+02  -5.8760175113e-01    0.1592301    0.1167092  23.92 0.0007588489    1.320    0.242
         9 -12.0805    145.4393    241.7501   1.2802110273e+02   6.7542613237e+00    0.4892621    0.3912787  10.11  0.001096775    1.741    0.426
        10 -10.8080    143.6185    249.4197   1.2922907583e+02   5.9388378705e+00     0.282316    0.1972676  64.75  0.001036971    1.506    0.336
        11 -11.4253    150.3559    248.0678   1.2788868110e+02   5.0563483757e+00     0.463516    0.1944813  44.08  0.002408038    1.809    0.447
        12 -10.7441    152.5441    244.0512   1.2702469047e+02   5.2707687964e+00     0.231417    0.1871836  87.35   0.00126124    1.581    0.368
        13 -11.0893    133.8848    249.4641   1.3094234377e+02   7.4669842077e+00    0.4422998    0.1768136  49.08  0.002248186    1.981    0.495
        14 -11.5879    111.7478    248.6657   1.3473157160e+02   1.0993287636e+01    0.7628514    0.2142626  49.51  0.003304633    2.838    0.648
        15  -9.7772    123.0369    250.2733   1.3292311593e+02   9.0314233496e+00    0.2092935    0.1590573  75.54  0.001478855    1.379    0.275
        16 -10.0486    126.5039    249.0116   1.3218838825e+02   8.6842564989e+00    0.3342129    0.1493986  58.82  0.001637821    2.475    0.596
        17 -11.0525    121.4207    244.9765   1.3266640373e+02   1.0082710622e+01    0.3211039    0.1781782  57.35  0.001048553    1.595    0.373
        18 -12.3320    126.3751    241.0245   1.3136434519e+02   9.9172443783e+00    0.4123385    0.3431164  79.84  0.001918938    1.284    0.221
        19 -11.6730     98.0090    246.5177   1.3692132382e+02   1.3368117230e+01    0.5257356     0.172792  48.57  0.002553662    2.279    0.561
        20 -10.8259     87.7299    250.5497   1.3902607727e+02   1.4197898430e+01    0.4218366    0.1097623  41.77  0.001594783    3.007    0.667
        21 -10.9642     81.6642    246.9940   1.3977200340e+02   1.5615632973e+01    0.4139973    0.1979348 -77.57  0.002380396    2.478    0.596
        22 -11.0017     84.6287    241.6607   1.3882755899e+02   1.6078909739e+01     0.426917    0.2597688  22.97  0.002179655    3.315    0.698
        23 -10.5621     90.0305    236.0509   1.3738818735e+02   1.6249087808e+01    0.3025199     0.125577  57.06  0.001501829    2.183    0.542
        24  -9.7221     83.4913    238.4324   1.3875475438e+02   1.6779867883e+01    0.2360027    0.1281599  53.75 0.0009235642    1.411    0.291
        25  -9.6434     86.2538    237.0439   1.3814782882e+02   1.6623227974e+01    0.1908747    0.1509979  59.74 0.0003803815    1.104    0.094
        26  -9.5293     74.8887    250.5628   1.4118654987e+02   1.5961849297e+01     0.208263   0.08808953  40.37  0.001151076    2.093    0.522
        27 -12.8835     62.1485    245.5539   1.4295693250e+02   1.8460752267e+01    0.9273691    0.5028282  49.57  0.003949622    1.406    0.289
        28 -13.6873     46.0309    246.1699   1.4564800766e+02   2.0362085962e+01    0.7306088    0.5174484  52.34  0.005649375    1.274    0.215
        29 -13.4517     48.2310    228.4951   1.4416597256e+02   2.3160597726e+01    0.8902371    0.5974405  21.00  0.005336646    2.812    0.644
        30 -15.6426     57.3174    216.7518   1.4168072529e+02   2.4185467994e+01      5.65269     2.170766  55.18   0.02874566    2.197    0.545
        31 -10.4350    104.2762    238.0281   1.3502422647e+02   1.3813202487e+01    0.2056095    0.1610606  45.69 0.0007328459    1.238    0.192
        32 -10.8351    173.4075    240.0989   1.2279743808e+02   2.4089098759e+00    0.2471264    0.2073257 -79.30 0.0008869608    1.686    0.407
        33 -10.1694    115.8121    240.5611   1.3321016890e+02   1.1641160146e+01    0.1639069    0.1296925 -89.16 0.0004209211    1.393    0.282
        34 -11.4629     96.3894    239.2410   1.3654690421e+02   1.4787622298e+01    0.3767794     0.278052  76.65   0.00171986    1.269    0.212
        35 -13.0575     42.3614    237.1456   1.4571464467e+02   2.2336756413e+01    0.5496846    0.2990489  42.89 0.0009197646    1.678    0.404
        36 -10.8915    107.9319    240.2500   1.3458793590e+02   1.2898144904e+01    0.2435338    0.1799328 -75.94   0.00167892    1.550    0.355
        37 -10.9309    121.5720    232.9465   1.3134953942e+02   1.1962222507e+01    0.2453895    0.2182196  26.62  0.000648426    1.430    0.301
        38 -11.1931     98.6564    231.4251   1.3539469101e+02   1.5765492011e+01    0.3280763    0.2691245  82.40   0.00103284    1.208    0.172
        39 -12.2145    110.1070    230.2786   1.3317335055e+02   1.4210224058e+01    0.7020664    0.3644876  42.42  0.002312602    1.623    0.384
        40  -9.5448    100.9658    250.4545   1.3676028249e+02   1.2315821462e+01    0.1644115     0.115443  56.15 0.0005626237    1.050    0.048
        41 -10.0765    127.7996    229.6108   1.2981564971e+02   1.1503634653e+01    0.2106286    0.1134626  61.30 0.0006093555    2.002    0.501
        42 -10.6743    156.5955    231.6630   1.2473124986e+02   6.4072635753e+00    0.2292938    0.1833991  35.63 0.0005516299    1.157    0.136
        43 -11.4385    142.1557    229.6844   1.2715148179e+02   9.1276939605e+00    0.3875784    0.2422067 -50.41  0.001909364    1.992    0.498
        44  -9.4479     92.4695    231.7355   1.3655148604e+02   1.6630474173e+01    0.2125398    0.1097184 -66.21  0.001212529    2.181    0.542
        45 -10.4705    180.9784    229.6836   1.1998869883e+02   2.5745265811e+00    0.2289868    0.1845595  48.06 0.0009054072    1.181    0.153
        46  -9.5519    132.4920    230.9882   1.2910639562e+02   1.0515783747e+01    0.1574435   0.09805323  85.79 0.0008096611    2.466    0.595
        47 -14.6562     27.4048    248.2900   1.4871998892e+02   2.2149096934e+01    0.9449059    0.5561115  43.81   0.00696416    1.609    0.378
        48 -15.9027      6.9911    246.9337   1.5177823674e+02   2.4505132586e+01      3.27603    0.8452156 -77.28   0.01762528    3.413    0.707
        49 -10.3980    190.8284    228.1288   1.1797429750e+02   1.1242949171e+00    0.1960843    0.1573526  36.42  0.000279827    1.037    0.035
        50 -14.1198     13.1552    238.9603   1.5051903492e+02   2.5228345141e+01    0.9102498    0.2935549  35.18  0.003223563    3.456    0.711
        51 -10.9779    165.2509    227.2779   1.2253810874e+02   5.5942597968e+00    0.3010384    0.2208223 -77.16  0.001478166    2.055    0.513
        52  -8.8703    184.6384    228.6955   1.1917962872e+02   2.0922739823e+00    0.1265531   0.08395468  19.41 0.0007038281    1.731    0.422
        53 -10.6399    101.6236    242.1369   1.3588902491e+02   1.3540037934e+01    0.3052054    0.1521746 -75.08  0.001662003    2.617    0.618
        54 -10.7299     93.0668    226.5204   1.3594121519e+02   1.7450161384e+01    0.3308749    0.1803868  53.42  0.001916804    1.473    0.321
        55 -10.1517    110.6388    222.6445   1.3224174454e+02   1.5436220212e+01     0.324882    0.2089257  48.26  0.001602669    1.266    0.210
        56  -9.7902     93.9057    217.1278   1.3483212402e+02   1.9011240487e+01    0.2756006    0.1664508 -83.68  0.001564268    1.873    0.466
        57 -11.3494     98.6624    223.1392   1.3455665088e+02   1.7207365668e+01    0.3992122    0.2285146  48.50 0.0002913751    1.410    0.291
        58  -9.8251    104.7508    222.9989   1.3339465419e+02   1.6296752559e+01    0.1860245    0.1528946  51.37 0.0003659326    1.155    0.134
        59 -11.5045    105.0278    218.9725   1.3290164933e+02   1.6967799107e+01    0.2308629    0.1794468  68.28   0.00151586    1.122    0.109
        60 -10.6454    117.4081    224.4646   1.3116712296e+02   1.4043064316e+01    0.2200141    0.1885967  56.98 0.0005942771    1.105    0.095
        61  -8.8666    220.1748    223.5828   1.1204994366e+02  -3.1641614788e+00    0.1615291   0.09381706  31.31 0.0009135411    1.455    0.313
        62  -9.1065    155.5472    223.4900   1.2382905026e+02   7.8323041524e+00    0.1267188    0.1026187  48.72 4.601783e-05    1.047    0.045
        63 -10.6031    149.9958    222.4445   1.2473581261e+02   8.9491967583e+00    0.1873908    0.1793083 -26.32 0.0001480873    1.309    0.236
        64  -9.8680    149.5533    218.5631   1.2428984729e+02   9.6495333208e+00    0.2317746    0.1981246 -57.21 0.0004586102    1.409    0.290
        65 -10.8562    141.7195    213.0629   1.2504536557e+02   1.1922431584e+01    0.7146224      0.44243  32.97  0.003807827    1.692    0.409
        66 -11.6157    141.9973    221.9633   1.2619105956e+02   1.0391421246e+01     0.273183    0.1839581  49.31 0.0003341251    1.219    0.180
        67 -11.7844    142.3171    218.7012   1.2569732217e+02   1.0873076978e+01    0.3549157    0.2143067  60.64 0.0003000278    1.760    0.432
        68 -10.0174    164.2012    220.8764   1.2183001347e+02   6.7415237845e+00    0.2508035    0.1741968 -31.07   0.00114368    1.909    0.476
        69 -10.1520    177.6001    219.2330   1.1907035925e+02   4.6534437394e+00    0.2144253    0.1725201   7.24 0.0006891853    1.450    0.310
        70  -9.5208    175.6734    216.3417   1.1899342794e+02   5.4235350761e+00    0.1338952    0.1104705  37.38 0.0005057856    1.021    0.021
        71 -10.1649     89.4275    218.8951   1.3586645270e+02   1.9356706698e+01    0.2355645    0.1694389  73.22 0.0005539815    1.236    0.191
        72  -9.8160    245.9978    218.5051   1.0680682780e+02  -6.6538826349e+00    0.1760724   0.07953173  23.90 0.0008104309    2.541    0.606
        73  -9.4012    134.0766    217.8805   1.2717621824e+02   1.2414458183e+01    0.1998103    0.1440005  59.18 0.0005527338    1.263    0.208
        74  -9.2220    233.1497    216.7981   1.0868339129e+02  -4.4349479703e+00    0.1681111    0.1173137  14.98 0.0002889679    1.310    0.237
        75  -8.7430    123.6815    217.2708   1.2910832136e+02   1.4261059734e+01     0.127427   0.08202163  64.14  0.000289262    1.563    0.360
        76 -10.2133    183.2629    214.0101   1.1720300936e+02   4.4322740070e+00    0.2261928    0.1591549  57.50 0.0008240705    1.587    0.370
        77 -10.7342    101.9429    212.2309   1.3274113207e+02   1.8677356474e+01    0.3996087    0.2282846  56.32  0.001920574    1.525    0.344
        78 -10.5934     88.3376    213.0956   1.3548287715e+02   2.0590901760e+01    0.2434736    0.2020433  83.09  0.000372031    1.147    0.128
        79 -11.6531    131.6121    211.8859   1.2686716445e+02   1.3867743137e+01    0.2370287     0.199865  64.07 0.0003121723    1.096    0.087
        80  -9.5367    152.1785    211.9505   1.2284664085e+02   1.0276571857e+01    0.1926188    0.1563413  64.41 0.0005566472    1.259    0.206
        81  -9.9026    134.4915    208.4785   1.2583552798e+02   1.3972004442e+01    0.2355657    0.1997173  14.36 0.0008875909    1.541    0.351
        82  -9.2286    158.1345    241.8479   1.2575568194e+02   4.6731741772e+00    0.1545945    0.1234985  26.66 0.0003879725    1.319    0.242
        83  -9.0865    197.7301    208.0668   1.1353156849e+02   2.7362402749e+00     0.167784     0.146881  21.52 0.0002815069    1.069    0.065
        84 -10.7722    174.7407    206.0820   1.1756391903e+02   7.1791677287e+00    0.3235514    0.2288667 -20.59  0.001123051    1.894    0.472
        85 -11.7536     93.1313    205.1923   1.3368413541e+02   2.1369802212e+01    0.6407968    0.2784894  48.39  0.001760157    1.938    0.484
        86 -11.3784    247.0724    205.6679   1.0438650005e+02  -5.3168341847e+00    0.2878321    0.2599084 -19.75  0.002036348    1.376    0.273
        87 -10.0339    107.4844    205.9986   1.3090668572e+02   1.8959391705e+01    0.2663892    0.1650874  72.25  0.001410133    1.800    0.445
        88  -9.9932    108.7334    202.6404   1.3023679444e+02   1.9392561598e+01    0.2664222    0.1730044 -87.59 0.0008238158    1.833    0.454
        89 -10.4065    166.1600    203.6986   1.1885378037e+02   9.1292938595e+00    0.4335192    0.3063514   7.82  0.001554981    2.091    0.522
        90  -9.9655    169.8951    200.4828   1.1759977163e+02   8.9741147583e+00     0.214837    0.1924177  44.61  0.000370389    1.055    0.052
        91  -9.7565    125.8664    205.8130   1.2719361555e+02   1.5935624820e+01    0.1872058    0.1578304  45.06 0.0003599064    1.148    0.129
        92 -10.7411    136.1811    227.8204   1.2803493537e+02   1.0417437102e+01    0.2297177    0.2025043 -81.42 0.0008789555    1.318    0.241
        93  -9.7041    149.3580    204.5261   1.2230697298e+02   1.2037736091e+01    0.2515812    0.1989119  -5.58  0.001415817    1.842    0.457
        94  -9.9380    103.6479    203.3639   1.3135609721e+02   2.0075871730e+01     0.221273    0.2024841  46.00 0.0008490802    1.273    0.214
        95  -9.5792     75.4453    203.8559   1.3705846369e+02   2.4229554472e+01    0.3839283    0.1585912  35.94  0.001767916    2.617    0.618
        96  -9.6580    224.8984    202.6240   1.0765413423e+02  -1.2641149659e+00    0.1764466    0.1338474  32.38 0.0004284637    1.147    0.128
        97 -10.1287    133.0481    202.9814   1.2535484113e+02   1.5208086278e+01    0.1955494    0.1660999  59.34 0.0003180345    1.041    0.040
        98  -9.5375    192.0347    198.0162   1.1288524408e+02   5.2718224234e+00    0.1926231    0.1687521  31.27  0.001199037    1.022    0.022
        99 -10.7590    197.2248    200.7537   1.1237813738e+02   3.9040893819e+00     0.519472    0.2577304  54.03  0.002277634    2.437    0.590
       100  -9.3352    123.1324    201.1635   1.2711318830e+02   1.7261457466e+01    0.1852893    0.1347033  65.63 0.0005154517    1.332    0.249
       101  -9.1337    115.3921    200.8802   1.2865397085e+02   1.8626456739e+01    0.1718239    0.1030521  88.21 0.0007986988    2.391    0.582
       102 -10.0488    250.6851    199.4537   1.0265975681e+02  -5.1381912753e+00     0.206777    0.1032818 -28.33  0.001078713    2.013    0.503
       103  -9.6686    141.6928    198.2898   1.2291119002e+02   1.4522412745e+01    0.2279278    0.1758284   4.86  0.001057512    1.960    0.490
       104 -11.0217    134.2380    197.6846   1.2434540595e+02   1.5968612488e+01    0.2831562    0.2456737 -77.49 0.0002297091    1.261    0.207
       105 -10.2417    100.5901    198.2914   1.3135414203e+02   2.1545913563e+01    0.2124084    0.1946402  66.27 0.0002611214    1.173    0.147
       106  -9.6721     86.1389    199.0837   1.3440327659e+02   2.3619263499e+01    0.1927805    0.1546399 -72.44 0.0002968412    1.316    0.240
       107  -9.1678     81.7620    194.3306   1.3476283717e+02   2.5218416609e+01    0.1644794     0.104288  58.62 0.0001495356    1.376    0.273
       108 -10.1301     84.6415    192.7444   1.3398374588e+02   2.5114054110e+01    0.4163039    0.2579888  81.76  0.002102623    1.737    0.424
       109 -11.0063    132.6341    224.8400   1.2833401812e+02   1.1491882907e+01    0.2538451    0.2210897  41.94  0.001191007    1.186    0.157
       110 -11.9205     76.7263    187.8751   1.3507799341e+02   2.7270647438e+01    0.2813118    0.2501844 -53.48  0.000986713    1.468    0.319
       111 -11.9563     72.0947    194.8223   1.3680138159e+02   2.6500827245e+01     0.394679     0.253436 -50.29   0.00132928    2.056    0.514
       112 -10.7156     70.7963    190.2020   1.3657729814e+02   2.7625595472e+01     0.197858    0.1706612  60.95  0.000244338    1.183    0.154
       113  -9.3061     95.1766    196.8935   1.3229642634e+02   2.2674504156e+01    0.2025402    0.1493517  68.45 0.0008497363    1.209    0.173
       114  -9.5040    113.5356    196.0077   1.2838300582e+02   1.9872487875e+01    0.3005388    0.1244384  53.78  0.001245077    2.436    0.589
       115  -9.2435    107.5176    195.9597   1.2962550585e+02   2.0881799975e+01    0.1800041    0.1242752 -68.13 0.0008307351    1.546    0.353
       116 -11.3332    135.5596    241.1691   1.2972953689e+02   8.4334912352e+00    0.3063589    0.1561304  46.12  0.001714678    1.515    0.340
       117  -9.7258    177.1479    194.5034   1.1516479081e+02   8.6104864833e+00    0.2512797    0.1740308  24.78  0.001315438    1.580    0.367
       118 -10.5321    159.4949    194.1434   1.1863400361e+02   1.1987871021e+01    0.3450837    0.2314219  55.43  0.001015059    1.471    0.320
       119 -10.3483    120.6993    194.5340   1.2668882256e+02   1.8937478298e+01    0.4241807    0.1734851  50.71   0.00178139    2.279    0.561
       120 -10.2711    173.1010    192.4916   1.1562009242e+02   9.7103564916e+00     0.323584    0.2406426 -15.30  0.001136609    1.779    0.438
       121 -10.0399    249.3390    193.3824   1.0175827638e+02  -4.1666584645e+00    0.1971304    0.1253213  10.60 0.0009446114    1.646    0.392
       122  -9.4245     47.3567    192.8708   1.4161020353e+02   3.0104483012e+01    0.1587317     0.119286 -85.20 0.0004768278    1.192    0.161
       123 -10.5225    191.5042    191.4706   1.1182687617e+02   6.3970098979e+00    0.2600141    0.2272123  28.49 0.0006051624    1.025    0.024
       124  -9.6369    113.0153    192.0608   1.2795002746e+02   2.0731548541e+01     0.194149     0.170384  60.48            0    1.064    0.060
       125  -9.1938    101.8985    192.3009   1.3031928765e+02   2.2521602002e+01    0.1806648    0.1463421  55.89  0.000417598    1.093    0.086
       126  -9.7498    135.3559    190.4768   1.2302202989e+02   1.7117915224e+01    0.2192895    0.1645762 -63.43  0.000512854    1.490    0.329
       127 -11.5560    249.8396    187.3727   1.0053742166e+02  -3.4824290073e+00    0.3392042    0.2363914 -18.45  0.002037682    1.366    0.268
       128  -9.2134     54.6766    188.8742   1.3976888919e+02   3.0027899852e+01    0.1809835    0.1449123  47.64 0.0002945342    1.335    0.251
       129 -10.3278     44.3763    188.4673   1.4182710279e+02   3.1361468681e+01    0.3152676    0.2257203  18.25  0.001904924    2.282    0.562
       130 -10.0788    175.7779    186.9911   1.1411778218e+02   1.0134738811e+01    0.2224688    0.1792647  43.07 0.0003422816    1.106    0.096
       131  -9.2405     67.4721    186.7994   1.3690496829e+02   2.8786896542e+01    0.1763859    0.1340159  45.24 0.0003599738    1.351    0.260
       132  -8.9606    123.8471    185.8530   1.2474660044e+02   2.0080482412e+01    0.1816891    0.1391779  66.69 0.0002450287    1.269    0.212
       133  -8.8836    161.4659    184.5940   1.1660624619e+02   1.3313887070e+01    0.2918459    0.1173554 -31.96 0.0008084433    6.068    0.835
       134 -10.9147    141.1870    183.9034   1.2073781575e+02   1.7297221510e+01    0.4734251    0.2402189  58.93  0.001661985    2.386    0.581
       135 -10.1130     87.0383    183.6164   1.3236434775e+02   2.6632975351e+01    0.4311831    0.1974092  41.75  0.002025865    2.032    0.508
       136 -12.1646    135.1957    236.2994   1.2923484851e+02   9.2381349126e+00     0.414504    0.2806487 -53.34  0.002628546    1.856    0.461
       137  -9.6201    217.3230    183.2628   1.0542776380e+02   2.8199134226e+00    0.2084771    0.1680489  36.86 0.0003377188    1.160    0.138
       138 -10.4138     17.3460    181.1547   1.4666835498e+02   3.5734623153e+01    0.3299457    0.1191077 -56.90  0.001562028    3.308    0.698
       139  -8.6913    197.7079    189.7482   1.1032226706e+02   5.5003361224e+00    0.1304555   0.09475128  18.02 0.0006866846    1.484    0.326
       140 -11.6217    104.3519    180.9343   1.2823747060e+02   2.4433791156e+01    0.2361785    0.1977866  66.87 0.0002469272    1.042    0.041
       141  -8.9738     65.9202    182.0156   1.3671240791e+02   3.0001531715e+01    0.1488382    0.1192506  66.54 0.0003885873    1.079    0.074
       142  -9.0077    133.3093    184.6478   1.2253600904e+02   1.8610745405e+01    0.1424493   0.09988478  75.64 0.0007043898    1.719    0.418
       143 -10.7985    135.0525    179.6118   1.2134004296e+02   1.9275544908e+01    0.3708029    0.2357835 -58.87  0.001850644    1.746    0.427
       144 -10.4831    129.0041    179.4897   1.2263143204e+02   2.0415844373e+01    0.2400226    0.2017969 -63.90 -7.655132e-06    1.275    0.215
       145 -10.1071     37.1944    180.2142   1.4258119449e+02   3.3899577453e+01    0.1644359    0.1358004  85.03 0.0005134125    1.125    0.111
       146 -10.4475    181.2920    176.5711   1.1107977246e+02   1.0856403689e+01    0.4538137    0.3009627  70.55  0.002026527    2.323    0.570
       147 -11.5368     96.3693    158.9084   1.2670380938e+02   3.0486556205e+01    0.6036365    0.2749259 -53.68  0.002598462    2.226    0.551
       148 -11.0825     80.5611    163.5068   1.3111989014e+02   3.1943166687e+01    0.2942201    0.2366463  77.04  0.000158093    1.119    0.107
       149 -12.0139     85.5566    175.9209   1.3168864301e+02   2.8485847061e+01    0.4424049    0.3340067  60.36   0.00123613    1.182    0.154
       150 -12.7251     90.7817    167.1450   1.2927915139e+02   2.9574344741e+01    0.7028953    0.5265025 -67.14  0.004013235    1.314    0.239
       151 -10.6625     85.0551    165.9524   1.3042612576e+02   3.0725471205e+01    0.3817047    0.1956153 -62.02  0.001068369    1.902    0.474
       152  -9.9030    109.0021    176.0246   1.2648633743e+02   2.4671648948e+01    0.2060407    0.1774085  74.35 0.0003252746    1.052    0.049
       153  -9.0760     95.3867    175.7322   1.2947523656e+02   2.6990451313e+01    0.2043817    0.1629506  21.07 0.0007201563    1.728    0.421
       154  -9.1373     67.5289    174.9591   1.3555862273e+02   3.1291738047e+01    0.1826155    0.1126508 -73.62  0.000367173    1.519    0.342
       155 -10.7245     77.1265    175.4772   1.3350129652e+02   2.9831980299e+01    0.2237333    0.1817207  85.31 0.0003826368    1.078    0.073
       156 -12.1240     71.8403    174.4939   1.3455024068e+02   3.0796699750e+01    0.3229068    0.2745011 -49.38 0.0006635682    1.507    0.336
       157 -12.5363     18.1532    170.3636   1.4573443346e+02   3.7914112806e+01    0.7899309    0.2742718 -89.32  0.003413269    3.113    0.679
       158 -12.2901    248.0927    171.9883   9.7807927058e+01  -1.1330337650e+00    0.5468829    0.3462135  31.60  0.002992388    1.516    0.340
       159 -10.2994    154.6764    172.8347   1.1591938263e+02   1.6827688408e+01    0.3119273    0.2419029  16.15 0.0009154279    1.636    0.389
       160 -11.3026     43.8738    169.3951   1.4015321465e+02   3.5464749506e+01     0.291903    0.2571689 -46.93 0.0009578106    1.555    0.357
       161 -10.7154     11.8675    172.3400   1.4716647499e+02   3.8066342887e+01    0.2188074    0.1792023  82.52  0.001672464    1.157    0.136
       162  -9.4559    115.6986    180.8026   1.2573809518e+02   2.2528422396e+01    0.2612763    0.1570537 -87.26  0.001150031    2.432    0.589
       163  -9.9874    100.3696    170.5836   1.2760028301e+02   2.7278167712e+01     0.310243    0.1506444  46.88 0.0008632378    1.904    0.475
       164 -10.9116     69.0370    167.9356   1.3436462499e+02   3.2615390829e+01    0.3455161    0.2027927 -62.67 0.0008012376    1.644    0.392
       165  -9.7206     48.1950    179.8460   1.4025158365e+02   3.2714270534e+01    0.1772022    0.1281823  70.88 0.0004094269    1.151    0.131
       166 -11.3343    249.2612    149.6674   9.2966674168e+01   1.8258270088e+00    0.6072722    0.3474019 -35.49  0.002851465    1.671    0.402
       167 -11.9997    239.9532    151.2037   9.4839683333e+01   3.3573055660e+00    0.6246571    0.4041996   9.48  0.002994938    1.964    0.491
       168 -12.5044    245.0148    162.2097   9.6320400219e+01   7.9151306293e-01    0.5833419    0.3508311 -24.11  0.002994872    1.637    0.389
       169 -11.2716    249.0476    160.7060   9.5338010798e+01   2.7459951342e-01    0.3218768    0.2573875  -7.73  0.001932657    1.144    0.126
       170  -9.9741    107.3909    168.3008   1.2564602631e+02   2.6582592074e+01    0.2429661    0.1704435  46.03 0.0005304669    1.349    0.259
       171  -9.4927     58.6191    167.5564   1.3667592923e+02   3.4081587925e+01    0.1960213    0.1072669 -71.64 0.0006834268    1.671    0.401
       172 -12.0777    244.9808    156.2615   9.5077731779e+01   1.6588331503e+00     0.642248    0.4412874  64.90  0.003218591    2.211    0.548
       173  -9.7342    175.8552    166.1895   1.1016421142e+02   1.3807770821e+01    0.2086236    0.1872453  66.72 0.0003046296    1.204    0.169
       174  -8.4871    124.3074    165.6620   1.2134283009e+02   2.4116454605e+01    0.1473347     0.104663  77.98 0.0007042274    1.679    0.405
       175 -10.5038     47.1675    163.4350   1.3879694485e+02   3.6390195733e+01    0.2186389     0.147967 -79.90 0.0005661405    1.274    0.215
       176 -10.8541     22.3173    163.9817   1.4434839565e+02   3.8889048642e+01     0.200527    0.1268008  72.64  0.001269396    1.355    0.262
       177  -9.2415     36.8709    170.5255   1.4178428993e+02   3.6000063049e+01    0.1659882    0.1102481  40.89  0.001033667    1.600    0.375
       178  -9.5209     37.0353    162.7722   1.4100535096e+02   3.7669939793e+01    0.1888347    0.1292122  69.89 0.0007832683    1.289    0.224
       179 -11.3187     35.2722    149.0150   1.3997883115e+02   4.0914066580e+01    0.3475884     0.213172  45.99  0.001565378    1.651    0.394
       180 -14.1551     33.4431    141.8398   1.3961661791e+02   4.2720021297e+01     1.643184    0.6232368 -76.06  0.007305414    2.428    0.588
       181 -11.1178     23.5599    149.4814   1.4277599037e+02   4.1948853307e+01     0.229118    0.1635282 -69.91 0.0006406157    1.267    0.211
       182 -12.6216     31.8866    154.7496   1.4137117791e+02   3.9977136215e+01    0.5240221    0.4182724 -38.67  0.001701884    1.768    0.434
       183 -13.2998     23.5049    155.1377   1.4331662148e+02   4.0704327757e+01    0.9412322    0.3861397  51.63  0.004611107    2.347    0.574
       184 -10.9996     12.5547    161.6010   1.4625648961e+02   4.0280140077e+01    0.2279145    0.1551855  77.61  0.001558424    1.176    0.149
       185  -9.1273     59.2728    159.9040   1.3560437015e+02   3.5694928152e+01    0.1784475    0.1404747 -85.15 0.0004467635    1.097    0.088
       186  -9.3828    119.8902    159.1425   1.2120316224e+02   2.6319715615e+01    0.2092634    0.1745788  75.39            0    1.191    0.160
       187 -11.1889     72.9518    156.7930   1.3196139121e+02   3.4549572012e+01    0.4676498    0.2590013  33.82  0.002289251    2.059    0.514
       188  -9.5127     52.4458    158.3156   1.3700197111e+02   3.6900959344e+01    0.1837648    0.1545952  29.16 0.0006007313    1.529    0.346
       189  -9.8704     46.8302    157.7250   1.3823886530e+02   3.7697776921e+01    0.2489567    0.1397103 -53.37   0.00131984    1.967    0.492
       190  -9.7755     89.0144    157.0095   1.2815323427e+02   3.2095028102e+01    0.2061435    0.1829881  78.98 0.0003184197    1.022    0.021
       191  -9.8770    134.2420    155.6426   1.1721429170e+02   2.4328141636e+01    0.2538248    0.2019423 -57.10 0.0005352809    1.309    0.236
       192  -8.9639    228.4017    155.4789   9.7759185676e+01   4.9448961609e+00    0.1369819    0.1237102   0.11 0.0001131214    1.020    0.019
       193  -9.6750     62.2730    153.1789   1.3402094690e+02   3.6821562545e+01    0.3377016    0.1476095 -73.31  0.001153351    2.334    0.571
       194 -10.3518    113.2679    152.3472   1.2153366684e+02   2.9011852826e+01    0.3226324    0.2572376  56.97 0.0008486428    1.195    0.163
       195 -10.5460     95.5504    153.0914   1.2594171997e+02   3.1918745626e+01    0.2546287    0.1996774  39.44  0.000638446    1.363    0.267
       196  -8.7308    148.6896    152.6643   1.1331361487e+02   2.2039373579e+01    0.1468194    0.1183985   1.50 0.0007044051    1.681    0.405
       197 -11.0456    102.8580    151.1806   1.2383772721e+02   3.1114280865e+01    0.3310373    0.2960377  73.17   0.00111534    1.032    0.031
       198 -10.4275    105.5907    146.2131   1.2226702922e+02   3.1750744519e+01    0.3816773     0.315729 -75.41  0.002101721    1.185    0.156
       199  -8.9496    119.5836    151.4738   1.1985862259e+02   2.8038146717e+01    0.1439511    0.1320671  79.16 8.264952e-05    1.023    0.022
       200 -11.1443     56.2586    150.1571   1.3507167410e+02   3.8274917424e+01    0.4305327     0.293496  88.88   0.00128049    1.383    0.277
       201  -9.7756     53.1892    146.3910   1.3532367019e+02   3.9509912898e+01    0.1815397    0.1507389  67.38 0.0001284054    1.151    0.131
       202 -10.1818     46.3013    150.8116   1.3755509815e+02   3.9312851576e+01    0.2178772    0.1789124  26.10  0.000685605    1.590    0.371
       203  -9.8350    238.8395    249.2391   1.1288674801e+02  -8.8752195057e+00    0.1543145    0.1229422  72.28 0.0009573165    2.862    0.651
       204 -11.2974    221.8699    245.7899   1.1518236659e+02  -6.0064932239e+00    0.4803703    0.1876027  24.75  0.001863757    4.129    0.758
       205 -13.4880      3.0729    141.2253   1.4679318262e+02   4.5436701982e+01    0.8629211    0.5663678 -83.94  0.005515392    1.153    0.133
       206 -11.3176     65.7512    134.7864   1.3042159761e+02   4.0590798332e+01    0.4551383    0.2733881  62.83  0.002099747    1.879    0.468
       207 -11.4513    133.4965    143.0581   1.1485079297e+02   2.7158399060e+01    0.9330096    0.3095701 -54.47  0.002918436    3.553    0.719
       208 -10.4440    236.5363    145.9881   9.4283307305e+01   4.8163154855e+00    0.3384778    0.1636426  38.80  0.001456286    2.159    0.537
       209 -12.1573    248.3837    101.7174   8.2216088540e+01   9.2577681714e+00    0.9337248    0.4389293 -30.53  0.003948645    2.011    0.503
       210 -11.5673    249.1317    123.9642   8.7285686765e+01   5.6967053110e+00    0.9028637    0.6322845 -80.97  0.004131954    2.590    0.614
       211 -11.4944    248.1925    112.9621   8.4889776141e+01   7.5715956977e+00    0.5220942    0.4260746  18.98  0.002921389    1.347    0.258
       212 -11.6223    248.3529    141.5146   9.1342007639e+01   3.2005669487e+00    0.9164392     0.291116  40.23  0.003183596    3.625    0.724
       213 -12.4535    248.2928    134.5931   8.9818139943e+01   4.2503498880e+00    0.8872839    0.7390764 -34.61  0.005196606    1.184    0.155
       214  -8.6000    122.3071    144.2934   1.1779949251e+02   2.9093910307e+01    0.1389847    0.1184881  -4.74  0.000282227    1.582    0.368
       215 -10.7130     61.0537    137.4605   1.3206468516e+02   4.0586840471e+01    0.2861716    0.2376675 -41.31 0.0006901964    1.469    0.319
       216 -10.9621     48.3758    143.2948   1.3610647487e+02   4.0786229964e+01    0.3361693    0.1594515  27.48  0.001564556    2.745    0.636
       217 -11.3158     27.4879    142.4827   1.4113799657e+02   4.3149841625e+01    0.2617329    0.1761965 -68.12 0.0009818976    1.298    0.230
       218 -11.0272     26.3206    139.3615   1.4108652953e+02   4.3962154922e+01    0.2231124    0.1664264 -44.44 0.0008799364    1.676    0.403
       219 -11.5926     47.9420    138.6391   1.3559483704e+02   4.1905300200e+01    0.4476893    0.2479223  21.81  0.002192922    2.619    0.618
       220 -10.2303    164.1293    139.6215   1.0702819727e+02   2.1401266233e+01    0.2460498    0.2154045 -39.55 0.0003704636    1.191    0.161
       221 -10.2971    119.8066    137.6782   1.1705681713e+02   3.1036367152e+01    0.4057469    0.2904845 -15.44  0.001515727    2.346    0.574
       222 -10.2106     53.6841    140.0437   1.3433128910e+02   4.0907757552e+01    0.2346792    0.1576673  59.53 0.0004566197    1.500    0.333
       223 -10.9659    112.4953    136.2756   1.1859657634e+02   3.2734374567e+01    0.5597364      0.30136  44.41  0.002418724    1.840    0.457
       224 -12.7515      2.1710    125.8335   1.4571440099e+02   4.8883045687e+01     1.220615    0.1853081 -76.26  0.003763928    5.576    0.821
       225 -12.5028      1.9854    109.7843   1.4419747206e+02   5.2460420423e+01     1.030736    0.1601172 -73.65   0.00340242    4.732    0.789
       226 -10.4191     87.7351    133.2725   1.2438426387e+02   3.7712612070e+01    0.2769446    0.2036681 -47.44 0.0002107631    1.445    0.308
       227 -12.5326     44.9918    130.6648   1.3524913630e+02   4.4077507476e+01    0.5665439    0.3530114  78.62  0.002096811    1.740    0.425
       228  -9.3849    107.2983    130.1509   1.1864921359e+02   3.5077180365e+01    0.3256894    0.1496368  59.33  0.001084089    3.333    0.700
       229  -8.7643    141.6073    129.4906   1.0990337051e+02   2.8386518394e+01    0.1490762    0.1452595 -84.67 -4.217947e-05    1.025    0.024
       230 -10.1170    117.8716    128.9543   1.1566986414e+02   3.3355659008e+01    0.2453702    0.1709405 -25.98  0.001073465    2.052    0.513
       231 -11.2250     59.0406    133.3104   1.3194690411e+02   4.1806801473e+01    0.2997768    0.1944808 -71.92 0.0008416821    1.384    0.277
       232  -8.5506     93.2705    127.6831   1.2182664591e+02   3.8098665364e+01    0.1431364    0.1058378  84.67 0.0003063901    1.559    0.359
       233  -9.7956     86.1801    126.5919   1.2350798676e+02   3.9508212232e+01    0.2793304    0.2164802 -16.83  0.001112749    1.903    0.475
       234 -10.4244     28.1957    126.3867   1.3909872616e+02   4.6743929016e+01    0.2009007     0.123493  23.81  0.001149444    2.109    0.526
       235 -13.3309     67.3607    144.0947   1.3146861327e+02   3.8219686945e+01    0.8221229    0.5383329  77.41  0.004289741    1.661    0.398
       236 -10.3636    209.8438    125.7771   9.4395637387e+01   1.3762257062e+01    0.2559837    0.2270036 -34.80 0.0004845684    1.119    0.106
       237 -11.7253     32.7009    126.8376   1.3796893635e+02   4.6221613134e+01    0.3056217    0.2177248  79.99 0.0009888316    1.342    0.255
       238 -12.0368     17.6719    124.7014   1.4165131147e+02   4.8020552677e+01    0.4314906    0.1328943  45.46  0.001889366    3.397    0.706
       239  -9.2168    124.5708    125.5154   1.1318982630e+02   3.2795268149e+01    0.1497847    0.1421055 -88.03 7.956266e-05    1.022    0.021
       240 -12.5510     74.2350    138.6661   1.2885546622e+02   3.8512207794e+01    0.6964329    0.4717423 -88.50  0.001284475    1.582    0.368
       241  -9.4920     50.4914    122.9900   1.3260908526e+02   4.5243044435e+01     0.199949    0.1131247 -69.29 0.0007466823    1.557    0.358
       242 -10.2047    249.5253    117.9097   8.5835867814e+01   6.5410808886e+00    0.2957247     0.220052 -33.19 0.0006919904    1.229    0.186
       243  -9.2223    143.2653    121.2959   1.0754773274e+02   2.9772621284e+01    0.2464595    0.1261133 -56.77 0.0006962474    2.365    0.577
       244 -11.0132     20.5845    120.8762   1.4043719387e+02   4.8655790898e+01     0.229863    0.1607033 -41.59 0.0009299837    1.720    0.419
       245  -9.2623     91.4480    150.5461   1.2651438813e+02   3.3160990252e+01    0.1385386    0.1232167  84.24 2.905522e-05    1.004    0.004
       246  -8.6887    130.6835    119.2876   1.1016863535e+02   3.2904627996e+01    0.1534745    0.1190279  84.76 0.0001872359    1.590    0.371
       247 -11.6337     30.3281    117.6905   1.3737422432e+02   4.8548227925e+01    0.3300065    0.1990011  53.00   0.00145631    1.811    0.448
       248 -11.8083     28.0106    114.7018   1.3760046756e+02   4.9442753664e+01     0.495845    0.1817823  32.15  0.001985518    2.985    0.665
       249 -10.8161    168.1350    113.4595   9.9797538582e+01   2.5715937073e+01    0.3753184    0.3044285 -87.68 0.0009952695    1.520    0.342
       250 -10.4078     72.8439    115.0569   1.2489525391e+02   4.4212044151e+01    0.2107302    0.2011589  36.65            0    1.200    0.167
       251  -8.7153     82.2515    114.3290   1.2206818091e+02   4.2973331052e+01    0.1374806    0.1036677 -35.37 0.0002054639    1.550    0.355
       252 -11.3029     62.5091    107.1111   1.2628527057e+02   4.7475678754e+01    0.2494337    0.1854634 -61.23  0.001398593    1.187    0.158
       253 -11.0037     55.5588    111.2275   1.2913525302e+02   4.7389481807e+01    0.2610826    0.2178687   4.52 0.0005275661    1.581    0.368
       254 -11.6212     66.2949    128.4892   1.2922418488e+02   4.1984887248e+01    0.6275339    0.2989925 -70.70  0.002195027    2.173    0.540
       255 -10.6186     15.5092    117.0084   1.4133738041e+02   4.9930340263e+01    0.1869994   0.09378163 -72.27  0.000502333    1.564    0.361
       256 -10.2822    134.5049    104.9851   1.0555412573e+02   3.5161804734e+01    0.4131948    0.1513185 -44.15  0.001361344    2.723    0.633
       257 -10.4216     70.0056    111.3004   1.2494426278e+02   4.5489053957e+01    0.2413561    0.1737923  60.69 0.0003482896    1.558    0.358
       258  -9.8603     62.9937     99.7683   1.2458402258e+02   4.9110635160e+01    0.2621491    0.1514124 -47.09  0.001277654    1.649    0.394
       259  -8.9396    136.6864     94.2851   1.0205532661e+02   3.6906783575e+01    0.1544979    0.1229569 -87.00 0.0003554497    1.579    0.367
       260  -9.6156     45.2808     90.0409   1.2806362517e+02   5.3444322321e+01    0.1946374    0.1432671  27.67 0.0007245442    1.609    0.379
       261  -9.4181    101.9761     88.0139   1.0975734549e+02   4.5494616920e+01    0.2103864    0.1994986 -56.42            0    1.033    0.032
       262 -12.4365    248.3366    241.2983   1.1013650048e+02  -9.4410343787e+00    0.5347419    0.3923092 -51.45   0.00341253    2.704    0.630
       263 -11.5120    247.8837    233.0000   1.0889613455e+02  -8.5231918346e+00     0.474499    0.1532754  43.27  0.002171505    2.874    0.652
