#   1 NUMBER                 Running object number                                     
#   2 MAG_AUTO               Kron-like elliptical aperture magnitude                    [mag]
#   3 X_IMAGE                Object position along x                                    [pixel]
#   4 Y_IMAGE                Object position along y                                    [pixel]
#   5 X_WORLD                Barycenter position along world x axis                     [deg]
#   6 Y_WORLD                Barycenter position along world y axis                     [deg]
#   7 A_WORLD                Profile RMS along major axis (world units)                 [deg]
#   8 B_WORLD                Profile RMS along minor axis (world units)                 [deg]
#   9 THETA_WORLD            Position angle (CCW/world-x)                               [deg]
#  10 FWHM_WORLD             FWHM assuming a gaussian core                              [deg]
#  11 ELONGATION             A_IMAGE/B_IMAGE                                           
#  12 ELLIPTICITY            1 - B_IMAGE/A_IMAGE                                       
         1 -13.5759    227.0020      3.4287   3.7449410598e+01   2.7872341487e+01     1.806407    0.6773577  58.54  0.006868686    2.690    0.628
         2 -14.0379    194.3149     37.8987   4.9990525126e+01   3.1837897406e+01     1.401284     1.131798 -30.57    0.0033604    1.290    0.225
         3 -14.6318    203.4203     27.8765   4.6011138401e+01   3.0827240032e+01     1.701719     1.327318  25.89   0.00148937    1.666    0.400
         4 -12.9009     32.2734     15.2232   8.5717730637e+01   6.9356071720e+01    0.3694276    0.2725935 -24.03  0.002482108    1.111    0.100
         5 -12.5136     61.2482      3.4514   6.7283030815e+01   6.6658942193e+01    0.5926608    0.2938418  47.17   0.00307783    1.997    0.499
         6 -10.9696    180.5019    208.5042   9.4017165850e+01   4.4390040031e+00    0.2529388    0.1121081  32.17  0.001042101    2.380    0.580
         7 -13.6340     61.0663    189.4949   1.1655532421e+02   2.7768338922e+01     2.918177     1.808835  16.37   0.01007987    2.893    0.654
         8 -16.1870     52.8718    203.6582   1.1963450681e+02   2.5795754802e+01     12.61045     2.494117  48.75   0.04465056    4.214    0.763
         9 -15.6485     68.1229    144.1231   1.0890278403e+02   3.7312705838e+01     6.227999     3.176472  66.16   0.02446117    2.909    0.656
        10 -10.4726    153.1548    198.7655   9.7969951215e+01   1.1041687869e+01    0.3572772    0.1886557 -57.13  0.001593195    2.361    0.576
        11 -16.8008      1.6166    101.2506   1.2125631174e+02   5.3890386488e+01     14.85691          nan -71.90   0.02362463   18.727    0.947
        12 -11.4160    112.1064    196.6050   1.0640803827e+02   1.8640389806e+01    0.5226781    0.3356555  10.89  0.002170869    3.248    0.692
        13  -9.9025    159.9463    197.0056   9.6250940282e+01   1.0131735254e+01    0.2023734    0.1872535  47.34 0.0003593661    1.067    0.063
        14 -11.5666    108.5511    203.2432   1.0807922500e+02   1.7877933282e+01    0.3008782    0.2334025  34.53 0.0009713715    1.372    0.271
        15 -10.0187     81.9305    195.1377   1.1272062278e+02   2.3668726201e+01     0.211859    0.1828117 -74.12 0.0007264651    1.212    0.175
        16 -13.8839     74.1364    156.6383   1.0933020975e+02   3.3484456260e+01       0.6863    0.6289967  85.44  0.001709129    1.069    0.064
        17  -9.9850     95.4145    189.3978   1.0905267549e+02   2.2852189115e+01    0.3123116    0.2346964  14.20  0.001089697    1.990    0.498
        18  -9.5560     98.8800    186.1377   1.0782978219e+02   2.3004710987e+01    0.2069904    0.1597438  70.07 0.0003512394    1.250    0.200
        19  -9.7783    153.9587    184.9681   9.5417995610e+01   1.3521690681e+01    0.2278114    0.1729593  79.39  0.001132546    1.767    0.434
        20 -11.2465    147.0913    183.7337   9.6695323451e+01   1.5054191633e+01    0.3647259     0.237382  47.91  0.001407768    1.454    0.312
        21 -15.3047     11.3199    206.4258   1.2776157501e+02   2.9763964779e+01    0.6167014    0.5149844  32.83  0.002920791    1.665    0.400
        22 -10.4120     99.4626    180.7279   1.0691432921e+02   2.4090027196e+01    0.2466787    0.2213223  66.72 0.0005584723    1.038    0.037
        23  -9.2510     43.0192    179.5751   1.1943427532e+02   3.2161223366e+01    0.1674263    0.1100595  44.65 0.0004201887    1.517    0.341
        24 -10.0572    204.7321    176.7588   8.3284783601e+01   5.3377893798e+00    0.2786906    0.1879366 -44.24  0.001401962    1.624    0.384
        25 -12.2350     73.7629    175.3593   1.1206049404e+02   2.9194029743e+01     0.415197    0.2698668 -47.03  0.001812306    1.868    0.465
        26 -12.1415     77.9308    170.4806   1.1042999568e+02   2.9710661417e+01    0.3409683     0.264484 -48.48  0.001926947    1.493    0.330
        27 -11.6386    141.3329    174.6238   9.6331100656e+01   1.7997409286e+01     1.222806    0.3730935  51.17  0.003428017    4.505    0.778
        28 -10.7323     47.7851    173.4851   1.1775616852e+02   3.2979315154e+01    0.3574484    0.2259396 -64.35  0.001374918    1.491    0.329
        29 -10.4242     53.6240    173.0312   1.1638599532e+02   3.2381391796e+01    0.2249102    0.1761871  53.77 0.0001065471    1.252    0.201
        30 -10.6040     97.7643    200.4852   1.1000338619e+02   2.0154440269e+01    0.3168865     0.228216  18.80 0.0007819984    2.021    0.505
        31 -10.7304     56.6491    166.5322   1.1491906715e+02   3.3499756354e+01    0.3168417    0.1897871 -51.81  0.001485911    1.838    0.456
        32 -10.7751    229.8683    166.3848   7.6386837504e+01   2.3817684428e+00    0.3075194    0.1417298 -46.96  0.001224912    2.727    0.633
        33 -10.1321    160.5522    164.6186   9.0057522672e+01   1.6303369839e+01     0.338223    0.2144809 -76.62  0.001266959    2.991    0.666
        34 -12.1902     91.9951    154.4347   1.0450339437e+02   3.1299188695e+01    0.6333141    0.4355038 -33.02  0.001912395    2.012    0.503
        35 -10.0027    101.0986    249.8453   1.1476822529e+02   1.0522050809e+01    0.1858245    0.1242638  59.67 0.0006594521    1.261    0.207
        36 -11.3717    133.7149    144.7437   9.2152889558e+01   2.5981940462e+01     1.202167    0.2953782 -54.43  0.002806635    5.908    0.831
        37 -10.6813    174.3514    148.8537   8.3606599401e+01   1.6652325194e+01    0.3158444     0.272806  87.04 0.0009606546    1.432    0.302
        38 -10.4361    143.8857    146.5441   9.0078471833e+01   2.3522310948e+01    0.3191984    0.2074846 -66.64  0.001273453    1.980    0.495
        39  -9.3851    109.2101    147.2806   9.8821185803e+01   3.0054742696e+01    0.1971371    0.1613466  78.70 0.0003607829    1.315    0.240
        40 -10.4198     87.5212    146.1232   1.0418436743e+02   3.3983715562e+01    0.2737332    0.2179448  73.11 0.0008334464    1.302    0.232
        41 -11.2235    105.1606    139.1993   9.8240136988e+01   3.2677918279e+01    0.6161593    0.3641114 -36.36  0.002553334    2.168    0.539
        42 -12.3455     92.5719    139.7110   1.0166324726e+02   3.4706804509e+01    0.2807323    0.2456095 -53.94 0.0007742693    1.145    0.127
        43 -15.5589     85.4142    229.3370   1.1569883848e+02   1.6365350259e+01     2.309137     2.193916  79.89   0.01711889    1.310    0.237
        44 -10.7366    106.0300    130.8633   9.6239650284e+01   3.4495901609e+01    0.3516062    0.2976552 -66.21  0.001364582    1.153    0.133
        45 -10.6125    113.2745    130.2386   9.4165720666e+01   3.3304240547e+01    0.3404653    0.2876323 -18.83  0.001010332    1.435    0.303
        46 -11.1860    135.6377    127.2181   8.7652228636e+01   2.9536013827e+01    0.6839011     0.194062 -49.78  0.001925105    3.699    0.730
        47  -9.0572     98.7312    130.3332   9.8097885555e+01   3.5913769431e+01    0.1493911    0.1128048  87.74 0.0003322567    1.588    0.370
        48 -10.0895    160.6162    127.7698   8.1725732216e+01   2.4004869845e+01     0.315281    0.2461892 -77.63  0.001426585    1.662    0.398
        49 -10.9616    100.4846    126.3924   9.6759981818e+01   3.6547646315e+01    0.2812461    0.2377655 -24.00 0.0008607082    1.402    0.286
        50 -11.1993    119.5443    123.7960   9.1000359386e+01   3.3595273678e+01    0.6136801    0.4060039 -12.75   0.00230913    2.752    0.637
        51 -10.1192    109.0010    119.0803   9.2722286621e+01   3.6725605486e+01    0.2188645     0.210219 -67.87 0.0002997812    1.012    0.012
        52 -10.6268    135.0000    113.1260   8.4260959320e+01   3.2820182733e+01    0.4332108   0.08822582 -45.23  0.001037235    4.807    0.792
        53  -9.7709    167.4682    112.4438   7.6229639282e+01   2.5643256638e+01    0.3473514    0.2395894 -79.75  0.001345926    2.347    0.574
        54 -11.8119    118.2541    109.4859   8.7759486505e+01   3.7137726803e+01     0.665396    0.5136034 -81.32  0.003030284    1.655    0.396
        55 -10.1308    205.4676    110.1516   6.7814547364e+01   1.7268728592e+01    0.3121894    0.2187122  41.17 0.0009905343    1.525    0.344
        56 -10.0461    134.6851    105.7266   8.2360798271e+01   3.4514650360e+01    0.4455442    0.1421754 -42.88  0.001335992    3.095    0.677
        57 -13.1704    196.4752    198.0807   8.9026961310e+01   3.3018476350e+00      1.25116     1.037254  74.80  0.007046669    1.780    0.438
        58 -11.4122     41.7534     91.9245   1.0694894232e+02   5.3031386783e+01    0.3327286    0.2381881  44.02  0.001078118    1.655    0.396
        59 -10.7179     40.1558     88.4471   1.0672666595e+02   5.4002709829e+01    0.2863321     0.168907  21.06   0.00147975    2.087    0.521
        60 -10.6559     53.1139     90.5437   1.0284663230e+02   5.2110975786e+01    0.2411071    0.1627715 -43.20  0.001091477    1.366    0.268
        61  -9.6606    156.6903     80.9720   6.9801265170e+01   3.4452515607e+01    0.2229388    0.2051148 -36.56  0.000624597    1.076    0.070
        62  -9.2075    184.5086     76.9910   6.2828174324e+01   2.8284230729e+01    0.2322721    0.1503073 -34.57 0.0004553957    1.524    0.344
        63 -11.4592    153.4644     56.3797   6.2851202527e+01   3.9563664629e+01    0.4016143    0.2940427 -78.85 0.0007899248    1.823    0.452
        64 -11.1931    106.9732    210.4839   1.0934473252e+02   1.6698377604e+01     0.405135    0.2077055  39.92  0.001997183    1.781    0.439
        65 -13.7922    183.7835     46.5727   5.4104972886e+01   3.3324122921e+01     1.149874     1.000441  -8.62 0.0009389853    1.310    0.237
        66 -10.2444     72.1368    230.6681   1.1831004566e+02   1.7966593825e+01    0.2328201    0.1889211  39.73  0.001282487    1.412    0.292
        67  -9.6556     57.0725    225.2311   1.2064704541e+02   2.0966993805e+01    0.1520912    0.1115385  67.51 0.0002137785    1.057    0.054
        68 -11.1034    156.1489     50.6271   6.0430184742e+01   3.9789537603e+01    0.3341439    0.2719605 -88.16  0.001098051    1.422    0.297
        69 -18.1115      8.0924    239.9462   1.2994313931e+02   2.3734596998e+01     7.377797     3.900476 -81.09   0.05201412    1.674    0.403
        70 -11.3437    113.4337    207.7646   1.0765666632e+02   1.6189232454e+01    0.2876049    0.2204797  79.88 0.0007104267    1.380    0.276
        71 -10.0390    130.9712    214.0836   1.0490081293e+02   1.2081812536e+01    0.1935054    0.1672374  56.62  0.000357992    1.047    0.045
        72  -9.8355    189.4939     15.0153   4.4147232010e+01   3.5823619262e+01    0.2110757    0.1766005  80.46 0.0005770136    1.096    0.088
