#   1 NUMBER                 Running object number                                     
#   2 MAG_AUTO               Kron-like elliptical aperture magnitude                    [mag]
#   3 X_IMAGE                Object position along x                                    [pixel]
#   4 Y_IMAGE                Object position along y                                    [pixel]
#   5 X_WORLD                Barycenter position along world x axis                     [deg]
#   6 Y_WORLD                Barycenter position along world y axis                     [deg]
#   7 A_WORLD                Profile RMS along major axis (world units)                 [deg]
#   8 B_WORLD                Profile RMS along minor axis (world units)                 [deg]
#   9 THETA_WORLD            Position angle (CCW/world-x)                               [deg]
#  10 FWHM_WORLD             FWHM assuming a gaussian core                              [deg]
#  11 ELONGATION             A_IMAGE/B_IMAGE                                           
#  12 ELLIPTICITY            1 - B_IMAGE/A_IMAGE                                       
         1 -11.8586      2.0865     43.8339   1.4242533538e+02   6.6626968317e+01     1.722646    0.1293269 -72.53  0.003927857    8.464    0.882
         2 -12.7502      2.8071     12.4709   1.3376209767e+02   7.3865005552e+01     2.282675    0.3711168 -64.01  0.007367545    4.469    0.776
         3 -13.1612      8.6064     10.8988   1.2906879596e+02   7.3889932883e+01     1.679463    0.7461618 -49.05  0.008627897    1.661    0.398
         4 -13.3110    189.4474     27.0039   7.4233498637e+01   3.4460340060e+01      1.30721     1.262149  29.81  0.006443437    1.066    0.062
         5 -13.6326    203.1411      8.3003   6.6923121943e+01   3.2939820170e+01     1.625155      1.08618  39.72  0.008365025    1.661    0.398
         6  -9.2618     46.5949    249.0248   1.4787519719e+02   2.0310070464e+01    0.2245383     0.080904  53.40  0.000961507    2.188    0.543
         7 -10.6892    139.4056    250.0956   1.3203313655e+02   9.8439714479e+00    0.2735934    0.1068445  36.93  0.001592257    1.854    0.461
         8  -9.9201     81.7303    249.2220   1.4193030878e+02   1.6677107983e+01    0.2088973    0.1140727  49.33  0.001030045    1.451    0.311
         9 -10.0176     66.6700    243.1871   1.4415434451e+02   1.9136696268e+01    0.2055324     0.146508  75.38 0.0007620973    1.461    0.315
        10 -10.2316     67.2967    249.9692   1.4444125144e+02   1.8107832631e+01    0.1908116    0.1538521  59.25  0.001115243    1.166    0.142
        11  -9.9301     30.0554    250.2961   1.5064696002e+02   2.1661120265e+01    0.2396403   0.08351865  37.91  0.001554513    1.966    0.491
        12 -10.8428     35.0534    245.0715   1.4962976440e+02   2.1966749369e+01    0.4149488    0.3281741 -79.05  0.003765856    1.531    0.347
        13 -13.7263      2.7825    227.7637   1.5448062687e+02   2.7350831043e+01     4.118068    0.2365417 -78.22   0.01408058    9.565    0.895
        14 -13.3617      9.1308    206.5622   1.5276979218e+02   3.0368726911e+01     1.167101    0.6592226  75.75   0.00418811    1.495    0.331
        15 -13.9880     55.7034    211.9219   1.4420948944e+02   2.5184267555e+01       8.2683          nan  43.30   0.02800856    5.547    0.820
        16  -9.6011     83.1336    244.2624   1.4135320147e+02   1.7212623816e+01    0.2325696   0.09887923  59.36  0.001269288    2.882    0.653
        17 -10.5384    173.0869    222.1017   1.2287831541e+02   8.9061350796e+00    0.2824284    0.1772162  36.53  0.001556124    1.331    0.249
        18 -14.9627     17.4832    167.7109   1.4944558199e+02   3.7007673738e+01     6.321462        1.766  88.13   0.02367057    4.632    0.784
        19  -8.5301    152.5246    212.9486   1.2547004559e+02   1.2930427682e+01    0.1347135    0.1141592 -36.34 0.0003010489    1.436    0.304
        20 -12.3064     26.5620    203.3419   1.4935369474e+02   2.9478754111e+01    0.4268116    0.1501834  48.06  0.001826727    2.119    0.528
        21 -11.2417     67.3995    200.3482   1.4103764471e+02   2.5925578779e+01    0.2716134    0.2017199 -43.57  0.001050053    1.800    0.444
        22 -10.0110    194.3622    197.6955   1.1545286874e+02   8.9545879799e+00    0.4293399    0.2450177 -57.18  0.001754131    5.257    0.810
        23  -8.9428     76.6743    245.3447   1.4255100594e+02   1.7765198603e+01    0.1595297   0.08293422  54.64 0.0008176927    1.703    0.413
        24 -11.5928     72.8241    192.2270   1.3920970136e+02   2.6764684447e+01    0.2319847    0.2125727 -61.43  0.000490062    1.291    0.225
        25  -8.2989    105.8527    181.6380   1.3091770418e+02   2.4488413501e+01    0.1689076   0.09569255  44.77 0.0004031702    1.594    0.373
        26 -13.0782     69.3388    177.2873   1.3854031057e+02   2.9989203114e+01    0.4405673    0.2620617 -42.46  0.001715684    2.277    0.561
        27 -10.7162     81.9210    179.3111   1.3593620239e+02   2.8077035652e+01     0.202178    0.1905937  80.08 0.0003480863    1.112    0.101
        28  -8.8088    131.3114    174.3430   1.2431134434e+02   2.2076571376e+01    0.1280921   0.09504019  -3.23 0.0007045932    1.701    0.412
        29 -11.6498     88.6168    169.6019   1.3327262503e+02   2.9096438390e+01     0.569589    0.5387064  55.29  0.003964049    1.057    0.054
        30  -8.6643    250.7076    171.6748   1.0130841504e+02   3.8145488921e+00    0.1244696   0.07196272   5.42 0.0002196302    1.618    0.382
        31  -9.4044    230.9856    167.4862   1.0367437528e+02   7.1963093396e+00    0.1513323    0.1100434  59.34 0.0008104413    2.668    0.625
        32  -9.3674    195.3570    159.2496   1.0840305129e+02   1.4019791230e+01    0.2685574    0.2135048 -73.39 0.0009274671    2.559    0.609
        33 -10.1404     95.2544    241.5221   1.3901654997e+02   1.6230040038e+01    0.1786397    0.1392237 -83.73 0.0009004677    1.614    0.380
        34  -9.3416    237.3126    157.3279   1.0063912403e+02   7.4455044719e+00    0.1326031   0.07932927   6.44  0.000361544    1.668    0.400
        35  -9.6881    100.5350    153.2700   1.2814304272e+02   3.0712529518e+01    0.2513728    0.2383461 -51.10 0.0008558324    1.121    0.108
        36  -9.1277    103.0548    148.9601   1.2683461809e+02   3.1221648443e+01    0.2560675    0.1875617 -37.21 0.0007866567    1.558    0.358
        37 -11.7723     89.3820    152.7225   1.3080781706e+02   3.2409809179e+01    0.2535463     0.229899 -19.31 0.0004760496    1.286    0.222
        38 -12.3849     66.9335    143.6733   1.3526374626e+02   3.7260318015e+01    0.7670387    0.4474198  59.80  0.003475263    1.905    0.475
        39 -11.4327     57.7450    131.9765   1.3617019128e+02   4.0959820692e+01     1.526723    0.5144855 -79.87  0.003969096    7.109    0.859
        40  -8.2373    192.2486    144.3024   1.0593041328e+02   1.6778069724e+01    0.1341785   0.09375298   1.72 0.0002175119    1.497    0.332
        41  -9.5181    174.5865    138.1064   1.0814477224e+02   2.0981393082e+01    0.3210752    0.2486119  82.90  0.001539106    2.406    0.584
        42 -10.5055     98.6378    135.3470   1.2562765403e+02   3.4752833341e+01    0.2618748    0.2181502 -24.32 0.0006508526    1.388    0.280
        43 -12.4851     42.8922    235.5091   1.4788091329e+02   2.2664742785e+01    0.2421803    0.2391595 -68.85 0.0007513181    1.457    0.314
        44  -9.5429    111.1482    137.7202   1.2283071727e+02   3.2288573544e+01    0.3491299     0.225952 -19.95  0.001467252    2.358    0.576
        45 -11.7430     10.5866    238.2906   1.5345125855e+02   2.5099319179e+01    0.4017634    0.2028666  76.81  0.003035454    1.766    0.434
        46  -8.8518     71.4212    125.2298   1.3132538060e+02   4.0852322931e+01    0.2287328    0.1443868  54.65 0.0005262974    1.726    0.421
        47 -13.6448     48.6758    227.0340   1.4642572368e+02   2.3421143690e+01    0.8178946    0.5281529  60.36  0.004240674    1.290    0.225
        48  -9.0205    107.9884    124.4967   1.2105399229e+02   3.5602637430e+01    0.1851085     0.182485  -2.88 -0.0001172112    1.011    0.011
        49 -10.1279    168.1674    113.2557   1.0369298295e+02   2.6484382629e+01    0.3199435    0.2802845 -78.66  0.001060841    1.595    0.373
        50  -9.4591    184.5263    237.5151   1.2286274784e+02   5.6065224545e+00    0.1088394   0.07907034  23.46 0.0008098378    1.019    0.018
        51  -8.7616    203.4799    111.4741   9.6234115556e+01   1.9645032954e+01     0.145081    0.1228116  -0.81 0.0001587904    1.040    0.038
        52  -8.4741    134.4500    148.9584   1.1927239752e+02   2.6200375550e+01     0.180223    0.1226863 -77.06 0.0008081502    2.521    0.603
        53  -8.4470    125.9093     99.4229   1.1029166799e+02   3.7667518909e+01    0.2054488    0.1309666  65.56 0.0008048787    2.492    0.599
        54  -9.0826    155.5279     75.4937   9.5954762856e+01   3.5868934764e+01    0.1553407    0.1427746  -4.46 0.0001030574    1.020    0.019
        55 -11.3257      2.5033     61.4236   1.4502574725e+02   6.2359035136e+01    0.5244105    0.2389557 -80.23  0.001952549    1.869    0.465
        56 -10.0445    248.9445    249.1742   1.1409817866e+02  -3.2709847243e+00    0.1485089    0.1074799  18.11  0.001251851    1.308    0.236
        57  -9.8009    237.8456    248.8317   1.1572379863e+02  -1.9899566745e+00     0.129345   0.09698038  19.22  0.001081758    1.336    0.251
        58  -9.8632    152.7348    248.9875   1.2963166971e+02   8.3340513260e+00    0.1422254    0.1094459  27.70 0.0004295062    1.066    0.062
        59 -11.3075      8.2713     53.8626   1.4132292535e+02   6.3949745644e+01    0.3614086    0.2429573  38.51   0.00119374    1.796    0.443
        60  -9.7563    100.0251    249.5013   1.3879371649e+02   1.4596343991e+01    0.1636587   0.07494995  36.17  0.001039376    1.610    0.379
