#   1 NUMBER                 Running object number                                     
#   2 MAG_AUTO               Kron-like elliptical aperture magnitude                    [mag]
#   3 X_IMAGE                Object position along x                                    [pixel]
#   4 Y_IMAGE                Object position along y                                    [pixel]
#   5 X_WORLD                Barycenter position along world x axis                     [deg]
#   6 Y_WORLD                Barycenter position along world y axis                     [deg]
#   7 A_WORLD                Profile RMS along major axis (world units)                 [deg]
#   8 B_WORLD                Profile RMS along minor axis (world units)                 [deg]
#   9 THETA_WORLD            Position angle (CCW/world-x)                               [deg]
#  10 FWHM_WORLD             FWHM assuming a gaussian core                              [deg]
#  11 ELONGATION             A_IMAGE/B_IMAGE                                           
#  12 ELLIPTICITY            1 - B_IMAGE/A_IMAGE                                       
         1 -14.8434      7.9192    151.5617   1.4502316445e+02   4.2832292488e+01     9.527317     3.772157  66.67   0.02710913    2.793    0.642
         2 -13.3631    194.7929     29.1227   6.8217523494e+01   3.2910107039e+01     1.493995     1.292533 -45.35  0.007523668    1.169    0.145
         3 -13.5117    210.1528     10.2080   6.1354500857e+01   3.1146691123e+01      1.32296     1.013754  27.01  0.007314648    1.761    0.432
         4 -11.2512      2.4994     18.9853   1.2386148798e+02   7.1760943955e+01    0.2742737    0.1605646 -61.16  0.001720959    1.779    0.438
         5 -11.2952      2.3668      3.5007   1.1737937042e+02   7.4377426671e+01    0.3738522    0.1789917 -41.78  0.002335573    1.583    0.368
         6 -10.2935      2.7363     38.9929   1.3011449547e+02   6.7975440379e+01    0.1666895    0.1194485 -49.58 0.0007595492    1.055    0.052
         7 -11.8566    244.3965    248.5970   1.0916558172e+02  -1.0001755011e+01    0.5722448    0.2904597  17.92  0.003247478    2.014    0.504
         8 -10.0370     34.0000    249.2010   1.4624291991e+02   2.0730574090e+01    0.2901599     0.152758  64.76  0.001972419    1.421    0.296
         9 -11.1701     35.1029    244.0640   1.4578533350e+02   2.1489571647e+01    0.3845979    0.2964071  28.48  0.002846194    1.948    0.487
        10 -10.3306      2.9583    248.6846   1.5112897549e+02   2.4089390436e+01    0.2558557    0.1810545 -84.15  0.002144784    1.467    0.318
        11 -10.7716    198.4596    245.5069   1.1658325931e+02  -2.8483198714e+00    0.1868047    0.1549145 -24.22  0.001191271    1.442    0.306
        12 -10.5236    106.4747    247.7639   1.3358717841e+02   1.1354728435e+01    0.2816069    0.1506274  67.26  0.001516217    2.169    0.539
        13  -9.4924     81.7375    248.5840   1.3807991682e+02   1.4791582532e+01    0.1654333   0.07768083  50.51 0.0006991677    1.606    0.377
        14  -9.9923    180.4955    245.9966   1.1987196896e+02  -6.6259912619e-02    0.1529852   0.09717147  -8.66  0.000810515    2.565    0.610
        15 -10.9076    125.2105    249.8123   1.3040019147e+02   8.1783675163e+00    0.3545117    0.1063745  43.90  0.001556335    2.500    0.600
        16 -10.7216     21.1286    243.7988   1.4806751575e+02   2.3078714006e+01    0.3774361    0.1155289  61.50  0.001934474    2.694    0.629
        17 -10.1059      5.6798    240.9740   1.5041927668e+02   2.5146178708e+01    0.1505177    0.1253055  47.73 0.0004000979    1.565    0.361
        18 -10.4322    183.1246    238.8717   1.1840417870e+02   4.6704033448e-01    0.1829484    0.1466052  45.76 0.0005741952    1.212    0.175
        19 -10.4750    119.8584    237.9984   1.3010993088e+02   1.0893530930e+01    0.2673589    0.1411849 -78.99  0.001265001    3.181    0.686
        20 -12.0746    140.5261    249.0633   1.2753219344e+02   5.8941424238e+00    0.5266129    0.2809689  45.82  0.003026888    1.451    0.311
        21 -11.1804    233.0176    236.0347   1.0911270845e+02  -7.0081310020e+00    0.3187827    0.2134097 -58.98  0.001615817    3.806    0.737
        22 -10.4714    229.9573    230.4779   1.0874628124e+02  -5.8985661882e+00     0.276201    0.2073882 -61.57  0.001596133    2.763    0.638
        23 -10.1352     29.0322    249.9721   1.4708771207e+02   2.1158102803e+01    0.2750773    0.1416862  47.02  0.001754708    1.534    0.348
        24  -9.9980    151.2258    229.4045   1.2308286240e+02   7.1652780922e+00    0.1920736   0.09677476  48.77 0.0009594476    1.729    0.422
        25 -12.6812      9.3264    206.9769   1.4827740635e+02   3.1077128858e+01     0.685868     0.499953  38.58  0.004042595    1.618    0.382
        26  -8.7956     91.5644    214.0467   1.3297276947e+02   1.9560450609e+01      0.17328   0.09424879  82.75 0.0006056327    2.500    0.600
        27  -8.7619    152.4744    212.9209   1.2050652099e+02   9.6625775104e+00    0.1633502    0.1321781 -52.63 0.0003733044    1.459    0.315
        28 -11.5057     61.4301    198.3998   1.3750341596e+02   2.6965494905e+01    0.2662815    0.2292189 -55.85 0.0005575279    1.516    0.340
        29  -9.4675    191.8805    193.1122   1.0934039376e+02   5.7983749917e+00    0.7033238    0.3554831 -63.62  0.001697465    9.718    0.897
        30 -10.8759     17.3548    198.2803   1.4629320986e+02   3.2036075537e+01    0.2273749    0.1519376  60.50 0.0004805722    1.227    0.185
        31  -9.0222     50.0630    196.3518   1.3965551893e+02   2.8834436294e+01    0.1613235    0.1239442  61.75 0.0002766222    1.121    0.108
        32 -12.6322     34.9339    232.2841   1.4514212439e+02   2.3607348594e+01    0.2679357    0.2314501  89.89 0.0007626217    1.391    0.281
        33 -11.6044      6.7917    188.6666   1.4775753410e+02   3.4978460719e+01    0.3334554    0.2400661 -86.86  0.002446592    1.173    0.147
        34 -11.8295     67.6176    190.1510   1.3534866915e+02   2.7865388174e+01    0.2731317    0.2338625 -68.96  0.000492687    1.309    0.236
        35 -10.5714     77.6678    177.4722   1.3161388346e+02   2.9188387605e+01    0.2282322    0.2044102  87.05 0.0002743064    1.105    0.095
        36 -13.0923     64.4095    175.5236   1.3439922411e+02   3.1475447808e+01    0.4692182    0.2735062 -47.68  0.001471498    2.211    0.548
        37 -10.1181     98.0213    174.6827   1.2653281866e+02   2.6644913621e+01    0.2808498    0.1909877 -70.31 0.0003750599    1.507    0.337
        38 -11.7583     85.3557    168.1161   1.2853705003e+02   3.0115714620e+01    0.6433155    0.5807509  57.14   0.00396619    1.141    0.124
        39  -9.8597     97.8061    152.2955   1.2294373731e+02   3.1703653367e+01    0.3024475    0.2675892 -54.46  0.000918538    1.211    0.174
        40  -9.1044    100.5911    148.1835   1.2149728783e+02   3.2172827898e+01    0.2191093    0.1916122 -32.95  0.000349302    1.385    0.278
        41 -11.9119     86.3737    151.3835   1.2567426466e+02   3.3778408603e+01    0.2941566    0.2499687 -50.25 0.0006221649    1.299    0.230
        42 -14.3208     40.5540    224.7124   1.4367198702e+02   2.4359102265e+01     2.187818     1.526416  25.93  0.007095123    2.114    0.527
        43  -8.4335    191.9885    143.9963   9.9275129945e+01   1.4411572280e+01    0.1730159    0.1648598 -15.57 0.0003750556    1.047    0.045
        44 -12.3152     67.2425    143.6928   1.2935647191e+02   3.8392498356e+01    0.7106183    0.4427535  66.00  0.003512613    1.797    0.443
        45  -9.5820    109.5481    137.1632   1.1702839026e+02   3.3108507971e+01    0.3992364    0.2451645 -29.89  0.001541278    2.529    0.605
        46 -10.1464     54.4563    229.4141   1.4148069505e+02   2.1792851032e+01      0.24227    0.1452765  64.56 0.0007935205    1.336    0.252
        47 -10.1103    172.7312    222.5508   1.1797015400e+02   4.5684800048e+00    0.2614845    0.1058832  37.97  0.001147945    2.147    0.534
        48 -10.3966     96.6820    134.4500   1.1987187150e+02   3.6031943571e+01    0.2572273    0.2292351 -32.09 0.0006716237    1.311    0.237
        49 -10.6677     57.7362    133.6468   1.3030419772e+02   4.2012994030e+01    0.3114319     0.219731  80.44  0.001683083    1.498    0.332
        50  -9.3807     90.0611    130.6712   1.2090320456e+02   3.8031608470e+01    0.2208729    0.1832823 -87.04 0.0004615818    1.225    0.183
        51  -8.9269     79.0577    131.4624   1.2407513355e+02   3.9584214756e+01    0.1964812    0.1338501  44.62 0.0004015578    1.511    0.338
        52 -10.4460     32.8961    132.3419   1.3683743996e+02   4.5068673011e+01    0.3159355    0.1592373  56.30  0.001042198    2.213    0.548
        53 -10.7805     22.3528    126.4251   1.3893733272e+02   4.7395883842e+01    0.2854823    0.1224687  41.10  0.001419195    2.449    0.592
        54  -8.9763    106.6574    123.9182   1.1492544682e+02   3.6695077015e+01    0.1960272    0.1764947 -66.70   0.00037138    1.077    0.071
        55 -10.0673    167.6292    112.7162   9.6862373977e+01   2.5999930709e+01    0.3247448    0.2654653 -76.11 0.0008086504    1.465    0.317
        56  -9.1935    203.2362    111.6016   8.9284058592e+01   1.7833765237e+01    0.2100813    0.1387455  40.93 0.0005097152    1.605    0.377
        57  -8.4445     38.5897     94.8136   1.2912795674e+02   5.3308598586e+01    0.1741593    0.1104741 -75.31  0.000386181    1.566    0.361
        58  -8.6379    184.4988     77.4751   8.3706262052e+01   2.8434861388e+01    0.1514677    0.1501994  72.07 0.0001329928    1.034    0.033
        59  -9.2638    157.5056     76.5129   8.8968587841e+01   3.5408866083e+01    0.1543477    0.1519475  46.64 0.0008104317    1.022    0.021
        60  -9.5979     43.6795     67.9324   1.2100925087e+02   5.8802811137e+01    0.2157597    0.1817654  45.19  0.000744505    1.430    0.301
        61  -9.8056      2.8190     68.2166   1.3656237668e+02   6.1886130822e+01    0.1902464    0.1023972  66.00 0.0009596575    2.881    0.653
        62  -8.9587     36.6613     64.2990   1.2269380808e+02   6.0298853500e+01    0.2285748    0.1608489  57.70 0.0009025105    2.014    0.503
        63  -9.7216     33.0597     62.5439   1.2362129143e+02   6.1012552199e+01    0.2330013    0.1977025  62.61 0.0008511554    1.534    0.348
        64 -10.4429      2.0000     56.5480   1.3461719463e+02   6.4419215841e+01    0.2143974    0.1053077 -60.43  0.001238102    1.506    0.336
        65 -10.4947     15.7594     55.7645   1.2881570716e+02   6.3808976689e+01    0.2098736    0.1814179  32.16 0.0008021983    1.447    0.309
        66 -10.0636    111.5279    250.5508   1.3294658110e+02   1.0152221338e+01    0.2376567   0.08944485  42.42 0.0006515307    2.049    0.512
        67 -10.5695     98.3193    248.3123   1.3510732897e+02   1.2471842364e+01    0.2493792    0.1804079  62.70  0.001425847    1.145    0.127
        68  -9.3344      2.3244     28.3332   1.2717308600e+02   7.0056173390e+01    0.1222742   0.05933962 -35.91 0.0007050863    1.709    0.415
        69 -11.0589    100.8555    245.8296   1.3442000612e+02   1.2505605034e+01     0.245407    0.2014307  68.58 0.0004356874    1.139    0.122
        70  -9.6153     46.8188    248.8288   1.4410367097e+02   1.9290176164e+01    0.2343401   0.09239979  64.17 0.0009410904    2.307    0.567
        71 -10.1136     13.5081     12.4801   1.1514909488e+02   7.2115168795e+01    0.1135881   0.08533039 -25.41 7.305789e-05    1.001    0.001
