#   1 NUMBER                 Running object number                                     
#   2 MAG_AUTO               Kron-like elliptical aperture magnitude                    [mag]
#   3 X_IMAGE                Object position along x                                    [pixel]
#   4 Y_IMAGE                Object position along y                                    [pixel]
#   5 X_WORLD                Barycenter position along world x axis                     [deg]
#   6 Y_WORLD                Barycenter position along world y axis                     [deg]
#   7 A_WORLD                Profile RMS along major axis (world units)                 [deg]
#   8 B_WORLD                Profile RMS along minor axis (world units)                 [deg]
#   9 THETA_WORLD            Position angle (CCW/world-x)                               [deg]
#  10 FWHM_WORLD             FWHM assuming a gaussian core                              [deg]
#  11 ELONGATION             A_IMAGE/B_IMAGE                                           
#  12 ELLIPTICITY            1 - B_IMAGE/A_IMAGE                                       
         1 -13.7044    223.4527     60.0685   1.8561783907e+01   2.3574025986e+01     1.298541     1.087469 -66.01  0.008387163    1.096    0.088
         2 -13.3980    244.1042     46.7776   1.3960294737e+01   2.1511882262e+01    0.8602981     0.812784  66.44  0.006758394    1.384    0.278
         3 -11.0151      9.1454     14.2069   6.3300245019e+01   7.4386783240e+01    0.3313361    0.2087555  49.70   0.00171455    2.766    0.638
         4 -11.9021     19.8332    227.1809   9.5329831645e+01   2.3185219891e+01    0.4237035    0.3044215 -82.45 0.0004888795    1.432    0.301
         5  -9.3159    228.6703    250.3219   5.3685853018e+01  -5.2587976920e+00   0.09079953   0.08082868  14.19  0.000704909    1.694    0.410
         6 -11.6915      2.9354    248.2920   9.9843835103e+01   2.0466334636e+01    0.8258088    0.4222321 -85.60  0.004132749    1.995    0.499
         7 -12.8469     12.5239    240.3208   9.7555243222e+01   2.1180099018e+01     1.218941    0.5957745  75.28  0.006749593    2.051    0.512
         8 -15.8731      9.2892    175.0308   9.4867027238e+01   3.5969500858e+01     7.354518     3.500608  76.14   0.02829039    2.205    0.547
         9 -11.4416     73.7236    193.6673   7.9054357121e+01   2.4670559415e+01    0.6740439    0.3251414 -82.71   0.00101636    3.331    0.700
        10 -13.0401     10.2981    206.4252   9.6457563265e+01   2.8516291359e+01    0.8622389    0.5415819  12.13  0.003039076    1.903    0.474
        11 -13.6223      7.0615    222.3338   9.7970566178e+01   2.5325795634e+01     1.124938     1.044253 -64.89   0.00539998    1.318    0.241
        12 -11.7821     33.7039    166.5767   8.7164753922e+01   3.5948866108e+01    0.3828228     0.309599 -23.77 0.0006113533    1.480    0.324
        13 -11.8832     42.2244    161.3492   8.4017152880e+01   3.6395255400e+01    0.3612522    0.3000009   1.04 0.0005386285    1.389    0.280
        14 -12.8061    236.4071    156.9564   3.6727674972e+01   6.9162889923e+00    0.5979075    0.3869023 -31.64  0.003645472    1.262    0.208
        15 -11.3622     56.2463    146.7535   7.7586698164e+01   3.8512683898e+01    0.5275568    0.3003213  16.85  0.002239315    2.054    0.513
        16 -11.0061     56.5083    153.0165   7.8467510379e+01   3.6866187591e+01    0.3818224    0.2918229  71.39 0.0004107594    1.438    0.305
        17 -12.3446     71.6155    134.2915   7.0367757133e+01   3.9606130287e+01    0.6356838    0.4931496 -68.61 0.0004384117    1.344    0.256
        18 -13.0211     68.4502    143.6406   7.3140316570e+01   3.7679927894e+01       1.0539    0.7078682  64.55  0.002677962    1.845    0.458
        19  -9.2229    134.0000    147.5194   5.4962644333e+01   2.5742302990e+01    0.3301429   0.08418667 -48.47 0.0009336405    3.926    0.745
        20 -11.9682     19.4523    142.0285   8.8999510463e+01   4.3553622576e+01    0.4641067    0.2717372 -88.90  0.001642041    1.744    0.427
        21 -10.8567     84.8246    137.4185   6.6752438242e+01   3.6769067063e+01    0.3604166    0.3214401  29.75 0.0008719221    1.119    0.107
        22  -9.4063     89.1455    134.8128   6.4861669658e+01   3.6704126768e+01    0.2372167    0.2238951 -12.76 0.0004453773    1.089    0.082
        23 -12.1213    242.3941    135.4832   3.1778073338e+01   9.3297860939e+00    0.5139962     0.169683 -31.74  0.002029109    3.140    0.682
        24  -9.9870    105.7230    130.5438   5.8904652560e+01   3.4826132641e+01    0.4078598    0.3179845 -70.62  0.001127181    1.507    0.336
        25  -9.8272    101.5425    127.9190   5.9543228998e+01   3.6209805958e+01     0.429861    0.2718414  16.26  0.001726323    2.131    0.531
        26 -12.1081     65.9009    148.3336   7.4762482909e+01   3.6835302831e+01    0.5617964     0.441923  65.42  0.001396047    1.400    0.286
        27 -10.3039     87.2139    123.1451   6.2902589507e+01   3.9895332973e+01    0.2886398    0.2504178  32.27 0.0004938545    1.153    0.133
        28 -13.0895     40.7182    148.5946   8.2864645519e+01   3.9846916439e+01    0.5755349    0.3703657 -11.46  0.001261959    2.126    0.530
        29  -9.5584    100.9883    116.8916   5.7078398984e+01   3.8911140431e+01    0.2237393    0.2153803   5.89 0.0002839815    1.041    0.039
        30  -9.3652    204.7789    110.2612   3.2029570406e+01   1.9519888091e+01     0.256812    0.1814143  38.66  0.001410574    1.656    0.396
        31 -11.1376    242.7341     93.2639   2.3402870568e+01   1.5527699155e+01    0.2302883    0.1248294 -40.30  0.001295848    1.472    0.320
        32 -10.7125     52.9283     90.9721   6.7425696218e+01   5.3166479360e+01    0.5297819    0.1741507 -49.37  0.001655669    2.794    0.642
        33 -12.2016      1.8338     81.7375   8.8026631115e+01   6.0228562567e+01     1.218416          nan -66.73  0.003008807    6.477    0.846
        34 -10.5245    184.5310     76.8354   2.7361729894e+01   2.8987176252e+01    0.2403784    0.1951202  65.27 0.0007745971    1.298    0.229
        35 -12.0008      2.1088    217.8123   9.8894514888e+01   2.6691268421e+01    0.6693425    0.2157396 -77.08  0.002805734    2.956    0.662
        36  -9.8851    249.5036    246.9854   4.9828447776e+01  -6.8422838957e+00    0.1564803   0.06407416 -18.56 0.0008105752    2.635    0.620
        37 -10.7868     13.3833     59.8742   7.7720407988e+01   6.4796537409e+01    0.2705877    0.2222531 -57.99 0.0004513164    1.194    0.163
        38  -8.9905     20.7031     61.3064   7.4214011940e+01   6.3869374663e+01    0.1257294     0.103217  61.79 0.0002782719    1.588    0.370
        39  -8.4438     29.6313     47.3266   6.4851081253e+01   6.5960207142e+01    0.1307298    0.1037608  60.14 0.0001613839    1.811    0.448
