#   1 NUMBER                 Running object number                                     
#   2 MAG_AUTO               Kron-like elliptical aperture magnitude                    [mag]
#   3 X_IMAGE                Object position along x                                    [pixel]
#   4 Y_IMAGE                Object position along y                                    [pixel]
#   5 X_WORLD                Barycenter position along world x axis                     [deg]
#   6 Y_WORLD                Barycenter position along world y axis                     [deg]
#   7 A_WORLD                Profile RMS along major axis (world units)                 [deg]
#   8 B_WORLD                Profile RMS along minor axis (world units)                 [deg]
#   9 THETA_WORLD            Position angle (CCW/world-x)                               [deg]
#  10 FWHM_WORLD             FWHM assuming a gaussian core                              [deg]
#  11 ELONGATION             A_IMAGE/B_IMAGE                                           
#  12 ELLIPTICITY            1 - B_IMAGE/A_IMAGE                                       
         1 -15.1935    162.7773     80.4554   9.5136777749e+01   3.3654160245e+01      6.73296     1.924978 -40.85   0.02042041    3.517    0.716
         2 -14.3866    209.6306     66.2689   8.2752815747e+01   2.5107578275e+01     1.632833    0.9504178 -69.07   0.00621209    3.376    0.704
         3 -18.2149    237.4236     40.0736   7.2323925087e+01   2.2155247798e+01      8.99212     8.721759  24.63   0.03000441    1.150    0.130
         4 -10.7018     92.1742     21.7024   9.1328984060e+01   5.9366850785e+01    0.3881024     0.220301 -30.03 0.0006499299    1.687    0.407
         5 -11.9690    202.6595     12.6166   6.8064929116e+01   3.2794703649e+01    0.2584644    0.1803324   1.67 0.0009758733    1.607    0.378
         6  -9.6660     79.4799     11.0516   9.0078348711e+01   6.3568570888e+01    0.4095722    0.1350141 -25.65  0.001425623    3.069    0.674
         7 -10.7110    164.2541      9.2098   7.1185560249e+01   4.2753513227e+01    0.2301442    0.1975704 -10.87 0.0004711025    1.177    0.150
         8 -11.3646    241.9543      4.4703   6.2820819484e+01   2.4591029612e+01    0.1683309     0.091747  48.49 0.0008575509    2.170    0.539
         9 -10.3868    213.9169    186.0375   1.0922532893e+02   8.0988674901e+00    0.1872883    0.1434397  10.47 0.0004114909    1.031    0.030
        10 -11.5069    248.9121    249.4000   1.1336019670e+02  -2.6863590016e+00    0.3756261    0.2770115  21.51  0.003224157    1.379    0.275
        11 -11.0999    211.1014    178.8379   1.0844063681e+02   9.4083429269e+00    0.3562775    0.2162848  50.83  0.001728595    2.302    0.566
        12  -9.0995    200.9919    179.4819   1.1034564730e+02   1.0889546737e+01    0.1790544    0.1058434  36.78 0.0005358466    1.527    0.345
        13  -8.7956    187.2347    178.9621   1.1278130193e+02   1.3120464495e+01    0.1510215    0.0998492 -32.29 0.0008756394    1.614    0.380
        14 -11.5381    217.4563    170.6914   1.0584773386e+02   9.4424955458e+00    0.6988589    0.5896428  76.35  0.004176237    2.395    0.583
        15  -9.6110    180.3278    174.3163   1.1327593322e+02   1.4884512895e+01    0.2487007    0.1422488  54.27  0.001168629    2.574    0.612
        16 -10.2632    229.1254    172.9148   1.0430535578e+02   7.3819137557e+00    0.3873852    0.1919428  44.62  0.001505561    2.242    0.554
        17 -11.0756    192.3326    171.6912   1.1052719697e+02   1.3314334024e+01    0.4725492    0.2542514  54.33  0.002104715    3.004    0.667
        18 -10.3340    188.9166    169.9692   1.1085186200e+02   1.4111862066e+01     0.290598    0.2054089  47.72 0.0008661416    1.638    0.389
        19  -8.6235    236.4604    172.4447   1.0302952273e+02   6.3403449244e+00    0.1213791     0.092577   5.89 7.808431e-05    1.003    0.003
        20 -10.1444    195.1319    167.7299   1.0927305788e+02   1.3409576451e+01    0.3497331    0.1778683  50.91  0.001311191    2.632    0.620
        21  -9.1511    230.3313    166.6437   1.0292645580e+02   7.9414648590e+00    0.1565578    0.1455811 -38.63 0.0006440291    1.667    0.400
        22 -10.8233    180.6884    165.5503   1.1161092879e+02   1.6114420350e+01    0.4883217     0.299472  59.79   0.00220842    2.877    0.652
        23 -10.8500    202.6095    165.6759   1.0751482902e+02   1.2468127408e+01    0.3459827    0.2381394  19.00  0.001261091    1.322    0.244
        24 -10.0603    203.3607    160.8789   1.0645397163e+02   1.2997570278e+01    0.2165918     0.173762  44.94 0.0007035218    1.487    0.328
        25  -8.1596    101.2246    176.2164   1.3024570905e+02   2.6806221095e+01    0.1019437   0.08909586   4.28  0.000648597    1.338    0.253
        26 -12.0971     54.8847    160.3527   1.3920679249e+02   3.5775843567e+01    0.3462327    0.3111548 -20.82 0.0009327125    1.435    0.303
        27 -14.1718     65.6876    151.8027   1.3557723849e+02   3.6336402357e+01     1.677001     1.219748 -29.23  0.008413151    1.901    0.474
        28  -9.6092    209.0282    186.2898   1.1011477941e+02   8.7987424664e+00     0.169161    0.1304826  20.76 0.0004793241    1.092    0.084
        29 -10.8018    221.6758    243.6162   1.1671601145e+02   9.7592776005e-01    0.2373225    0.1071317  14.43  0.001290643    2.627    0.619
        30  -9.4551     69.4340    244.1260   1.4284254957e+02   1.9458609692e+01    0.1545104    0.1082475  34.71 0.0004289822    1.256    0.204
        31 -11.4829    137.6011     93.2107   1.0462890280e+02   3.6895901016e+01    0.6306601    0.3920272  47.31   0.00283637    1.654    0.395
        32  -9.9431    139.3750    105.4683   1.0748373615e+02   3.4182958704e+01    0.3925641    0.2687144 -54.83  0.001825922    1.717    0.418
        33 -11.0749    134.7996    109.0473   1.0952415650e+02   3.4399431055e+01     1.274793    0.2273871 -43.28  0.003153979    5.605    0.822
        34  -9.8258    132.1213     98.1081   1.0735652687e+02   3.7079283670e+01    0.2703997    0.2354446  67.31 0.0004526734    1.357    0.263
        35  -8.7158     99.4521    131.5600   1.2366410795e+02   3.6019027009e+01    0.1316822    0.1297092  12.97 0.0001099628    1.052    0.049
        36  -9.4615    124.2655    123.5271   1.1558435922e+02   3.3501359899e+01    0.3546329    0.2038792 -66.47   0.00139403    2.809    0.644
        37  -9.3952    121.1777    118.4405   1.1523535059e+02   3.5092945792e+01    0.2897747    0.2241305 -69.27 0.0008877277    1.594    0.373
        38  -9.7993    141.7980    122.8777   1.1113962750e+02   3.0375970520e+01    0.2999967    0.1971636 -45.96  0.001448817    1.586    0.369
        39 -11.4655    148.9145    116.2715   1.0790866050e+02   3.0237123800e+01    0.8643761    0.4980703 -66.13  0.002916203    4.000    0.750
        40  -9.2160     89.6886    113.8441   1.2285115798e+02   4.1411333114e+01    0.4109437    0.2436023  82.56    0.0014743    3.647    0.726
        41 -10.6134    127.3088    112.0060   1.1214598459e+02   3.5260107821e+01     0.758948    0.3084596 -54.37  0.002154519    3.300    0.697
        42  -8.8544    127.4776    104.4983   1.1023213120e+02   3.6735784911e+01    0.2526439       0.2333 -45.02 0.0007727928    1.111    0.100
        43 -11.0559    123.3623    102.8244   1.1087938231e+02   3.7873731036e+01    0.3716828    0.3163827  87.87  0.001389432    1.502    0.334
        44 -11.6037    119.0750    102.1874   1.1186109460e+02   3.8827485719e+01    0.3930037    0.3164787 -76.36  0.001351071    1.598    0.374
        45 -10.5711    117.9428    109.3395   1.1395011677e+02   3.7560739636e+01    0.2461445    0.2019781 -59.39 0.0007539926    1.323    0.244
        46  -9.6126    149.2972    102.9050   1.0444102791e+02   3.2635337753e+01    0.3210406    0.2222832 -60.20  0.001442727    1.956    0.489
        47 -10.0724    144.5326    102.4717   1.0545296420e+02   3.3701238806e+01    0.3110882    0.2444327  17.05 0.0005939236    1.395    0.283
        48 -11.7253    153.1360     97.2291   1.0203223108e+02   3.2863722124e+01    0.6861165    0.4636849 -49.23  0.002650173    1.656    0.396
        49 -11.6402    150.0798     88.1280   1.0018736428e+02   3.5160395418e+01      0.32422    0.2539276 -35.08 0.0005592449    1.247    0.198
        50 -11.1270    219.5676    154.9822   1.0243781858e+02   1.1101020660e+01    0.3273836    0.2346405   7.48  0.001658569    1.259    0.206
        51 -11.5409    191.3208    150.6509   1.0664642404e+02   1.6510484341e+01    0.5781199    0.2960656 -51.53  0.002338417    3.393    0.705
        52 -10.6913    172.1422     84.9392   9.4506511437e+01   3.0808536156e+01    0.2551883    0.2341082  14.00 0.0002922806    1.057    0.054
        53 -10.9462    198.4324    153.0376   1.0579733151e+02   1.4927537382e+01    0.3053417    0.2018074  -6.31   0.00123531    1.629    0.386
        54 -10.4668    147.7716    151.1537   1.1571185610e+02   2.4088685999e+01    0.5539712    0.3550128  86.29   0.00178614    5.689    0.824
        55  -9.9530    203.7867    151.8332   1.0457205141e+02   1.4177132007e+01    0.1624075    0.1563038  -7.01 0.0006540788    1.339    0.253
        56 -10.0357    180.3734    152.1119   1.0906876900e+02   1.8211283586e+01    0.2435538    0.1813675  44.33 0.0007069806    1.413    0.292
        57 -10.1284    133.9631    148.0922   1.1824917292e+02   2.7018507496e+01    0.4989774    0.1940269 -53.02  0.001897527    3.131    0.681
        58 -10.1329    133.4002    137.2755   1.1625890439e+02   2.9164053162e+01    0.2824312     0.237973  -8.89 0.0004918042    1.301    0.231
        59 -12.5328    194.4176     71.9264   8.6704035016e+01   2.7750217149e+01    0.8341922    0.6360581 -45.70  0.002448728    1.406    0.289
        60  -8.9634     79.3565     74.8515   1.1643305400e+02   5.1818203103e+01    0.2899243     0.131586 -58.17  0.001081991    2.522    0.603
        61 -10.6639    184.0959     66.1110   8.6764647208e+01   3.0951990601e+01    0.4775423    0.2336872 -38.52   0.00157008    1.975    0.494
        62 -11.7116    176.7224    146.4049   1.0863417418e+02   1.9756797744e+01    0.5641333    0.3472918  62.76  0.002292218    2.944    0.660
        63  -9.9560    158.0296    144.6937   1.1218853440e+02   2.3406852623e+01    0.3479198     0.239648  84.23  0.001394407    3.533    0.717
        64 -13.3362    249.0282     89.4041   8.3337662092e+01   1.4207756171e+01    0.3241848    0.3023431  57.62    0.0021648    1.379    0.275
        65 -12.1070    182.1747     39.8779   7.8984074184e+01   3.4917825312e+01    0.3810292    0.2134776 -26.45 0.0008986121    1.681    0.405
        66  -9.8614     57.6429     36.0251   1.1116500892e+02   6.3500957135e+01    0.3883881    0.1223193 -48.40  0.001337044    3.106    0.678
        67 -11.1764    134.5195    123.8199   1.1310436174e+02   3.1564101358e+01     1.086884    0.5115282 -54.57  0.004179273    2.715    0.632
        68 -12.3689    206.7025     25.0895   7.1335859310e+01   3.0619825093e+01    0.3404644    0.1923687 -17.67  0.001430048    1.741    0.426
        69  -9.5712    177.4989     25.7185   7.5065329194e+01   3.7719763797e+01    0.1552571     0.135065   5.48 -6.93434e-05    1.182    0.154
        70  -9.2370    171.1552     25.2492   7.5801826756e+01   3.9377548527e+01    0.1954413    0.1780165  13.50 0.0005802502    1.111    0.100
        71 -11.3400    200.4052     24.0855   7.1722755164e+01   3.2228552940e+01    0.2215187    0.1926858  63.37 0.0003454944    1.209    0.173
        72 -11.4479    214.1229    241.8369   1.1767358453e+02   2.0626119469e+00     0.281385    0.1340857  18.31  0.001675257    2.047    0.511
        73  -8.7068     53.9967     24.5330   1.0755063155e+02   6.6258881766e+01    0.1822631     0.132447  33.94 0.0003513039    1.479    0.324
        74  -9.8844    203.6267     18.8099   6.9807037810e+01   3.1978782276e+01    0.1755726    0.1243967 -18.50  0.000370524    1.364    0.267
        75  -8.9383     78.6223     19.2032   9.4647121186e+01   6.2626707941e+01    0.2010072    0.1257342 -18.31 0.0006511731    1.637    0.389
        76 -10.7054    191.2311    192.2635   1.1429183783e+02   1.0718972128e+01    0.6747097    0.4170266 -62.38  0.002756805    5.256    0.810
        77 -14.0454     13.3990    176.5368   1.4989471540e+02   3.6371900049e+01     2.019699    0.9976802  72.98   0.01218604    1.817    0.450
        78 -13.6042     29.7439    175.4741   1.4627674325e+02   3.5203747809e+01     0.823237    0.6346918  60.42  0.003781141    1.076    0.071
