#   1 NUMBER                 Running object number                                     
#   2 MAG_AUTO               Kron-like elliptical aperture magnitude                    [mag]
#   3 X_IMAGE                Object position along x                                    [pixel]
#   4 Y_IMAGE                Object position along y                                    [pixel]
#   5 X_WORLD                Barycenter position along world x axis                     [deg]
#   6 Y_WORLD                Barycenter position along world y axis                     [deg]
#   7 A_WORLD                Profile RMS along major axis (world units)                 [deg]
#   8 B_WORLD                Profile RMS along minor axis (world units)                 [deg]
#   9 THETA_WORLD            Position angle (CCW/world-x)                               [deg]
#  10 FWHM_WORLD             FWHM assuming a gaussian core                              [deg]
#  11 ELONGATION             A_IMAGE/B_IMAGE                                           
#  12 ELLIPTICITY            1 - B_IMAGE/A_IMAGE                                       
         1 -10.0046     69.3450     41.6838   9.1695503581e+01   5.9702810954e+01    0.1303886    0.1059252 -79.09 0.0007048277    1.718    0.418
         2 -10.9752    160.3930    239.2339   1.0991000521e+02   7.4036107002e+00    0.1242231    0.1020686 -76.91 0.0007208503    1.692    0.409
         3 -10.2903    145.0057    232.9936   1.1173262440e+02   1.0503887885e+01    0.1758709    0.1130696  64.75  0.001138139    1.745    0.427
         4 -10.6189     84.3857    227.2462   1.2127952711e+02   1.9955937799e+01    0.1383675   0.08676014  89.08 0.0008523195    1.687    0.407
         5 -10.5517    162.8142    225.0350   1.0783671383e+02   8.8050187726e+00    0.1866729    0.1524957   7.01  0.001330905    1.552    0.356
         6 -10.3601    148.8564    223.0365   1.0995381166e+02   1.1247853345e+01    0.1731915    0.1204755  79.89   0.00108388    2.025    0.506
         7 -10.1789    114.5235    223.4992   1.1586320739e+02   1.6356601561e+01    0.1122196   0.08484142  56.66 0.0008100269    1.031    0.030
         8 -10.5451     74.1798    219.1965   1.2235974103e+02   2.2551644681e+01    0.1604206   0.09623595  65.32  0.001091484    1.386    0.279
         9 -10.0206    143.6855    216.4650   1.1005818655e+02   1.2973270733e+01    0.1719326    0.1068724 -51.98  0.001078372    2.005    0.501
        10  -9.9734    112.3022    216.6545   1.1555469299e+02   1.7720327785e+01    0.1160849   0.07141285  67.88 0.0005515102    1.685    0.407
        11 -10.1470    186.3121    214.6770   1.0250314813e+02   6.3631224738e+00    0.1089778   0.08431038  64.95 0.0004146334    1.655    0.396
        12  -9.7113    131.5276    213.5059   1.1183599152e+02   1.5303300768e+01    0.1158798   0.09208639  52.67 0.0001589618    1.004    0.004
        13 -10.4578     76.3879    213.2034   1.2150067651e+02   2.3250529575e+01    0.1475262   0.08781967  89.61  0.000952401    1.744    0.427
        14 -10.8252    116.3098    209.9881   1.1413828315e+02   1.8169115295e+01    0.2336306     0.159525  84.71  0.001338856    1.721    0.419
        15 -11.6296    185.9461    203.9665   1.0100148611e+02   7.7868429853e+00    0.2844955    0.1689622 -48.16  0.001634451    2.202    0.546
        16 -10.1344    198.6829    204.3542   9.8880247779e+01   5.6058041466e+00    0.1104887   0.09072857  71.36  0.000704616    1.744    0.427
        17 -11.9371    164.9453    201.9314   1.0439203586e+02   1.1597252150e+01    0.4673465    0.2562908 -49.08  0.002600365    2.255    0.556
        18 -11.5319    162.6113    193.9625   1.0364781820e+02   1.3157827782e+01    0.3432873    0.2518925 -82.88  0.001982254    2.069    0.517
        19 -10.9435     88.4222    198.1650   1.1796766439e+02   2.4194837308e+01    0.2526292    0.1043674 -75.91  0.001144405    3.383    0.704
        20 -11.0368    124.2610    197.3387   1.1120348126e+02   1.8984837754e+01    0.2528638     0.195148  80.23  0.001534276    1.384    0.277
        21 -10.5900    112.6755    197.6624   1.1340119495e+02   2.0733641547e+01     0.227349     0.132529  89.89  0.001173692    2.516    0.603
        22 -10.9948    172.5174    195.9884   1.0215983861e+02   1.1159942680e+01    0.1596946    0.1227505 -41.51 0.0008377467    1.551    0.355
        23 -10.9274    186.4192    193.7121   9.9328666890e+01   9.0767620024e+00    0.2070918    0.1193549 -45.35   0.00113137    2.133    0.531
        24 -10.6590    172.9204    191.1668   1.0134304531e+02   1.1785636456e+01    0.1919153    0.1571729  61.13  0.001229918    1.327    0.246
        25 -10.7429    139.0020    188.6362   1.0726967835e+02   1.8013159582e+01    0.3023952    0.1700316 -65.57  0.001538111    2.426    0.588
        26 -10.3697    129.1219    187.6896   1.0902283393e+02   1.9813139822e+01    0.2078908    0.1625516 -80.11  0.001214495    1.452    0.311
        27 -10.8658    177.5106    198.1194   1.0159341181e+02   1.0004031803e+01    0.2005306    0.1549595  56.12 0.0008589716    1.344    0.256
        28 -10.5427    165.8156    186.7183   1.0194624572e+02   1.3693866574e+01    0.2203355    0.1636021 -84.84  0.001232597    2.052    0.513
        29 -10.5329    149.1458    198.3130   1.0673611923e+02   1.4778251658e+01    0.2234503     0.153885  89.59  0.001239879    2.226    0.551
        30 -11.3915    120.3121    184.1339   1.1024357924e+02   2.1862353623e+01    0.5192219     0.201182 -63.63   0.00212703    3.616    0.723
        31 -11.1424     95.1468    186.4772   1.1543642664e+02   2.5318707631e+01    0.3426568    0.1897844 -73.20  0.001782035    2.011    0.503
        32 -10.1370    108.5323    185.0409   1.1265894989e+02   2.3564057810e+01    0.1697701   0.09701467  89.43 0.0008097393    2.618    0.618
        33 -10.5251    204.0180    184.5117   9.4704209642e+01   7.2287192740e+00    0.1656623    0.1046498  63.38 0.0007905528    2.447    0.591
        34 -11.1794    174.3856    183.4205   9.9830309425e+01   1.2671108208e+01    0.2714631    0.2242663 -72.90  0.001680483    1.620    0.383
        35 -11.4519    147.6375    179.6661   1.0428110192e+02   1.8017068122e+01    0.3956581    0.1906652 -52.18  0.001902107    2.418    0.586
        36 -10.7186    137.8926    178.6097   1.0601561624e+02   1.9889215406e+01    0.2332978    0.1848565 -69.23  0.001206617    1.435    0.303
        37 -10.5525    192.4112    177.7193   9.5566493224e+01   1.0246468274e+01    0.2220348    0.1222744 -43.37 0.0008813178    2.127    0.530
        38 -10.7046    183.0984    175.7167   9.6910800936e+01   1.2243665497e+01    0.2100489    0.1834494 -55.48  0.001327496    1.401    0.286
        39  -9.9821     88.3367    176.6555   1.1563897278e+02   2.8134112351e+01    0.1310332   0.07831357  70.73 0.0007049234    1.771    0.435
        40 -11.2417     77.2700    175.7827   1.1776779552e+02   2.9849808928e+01    0.3728928     0.129331  55.32  0.001549917    3.122    0.680
        41 -10.4647    177.1595    170.9157   9.7166334756e+01   1.4075013095e+01    0.2947102    0.2089062 -70.80  0.001512355    2.227    0.551
        42 -10.2024    134.4403    170.7607   1.0549068724e+02   2.1864072470e+01     0.229966    0.1258743 -58.66  0.001131639    2.118    0.528
        43 -10.9095    121.4467    168.4298   1.0777427329e+02   2.4515490714e+01    0.3996801     0.205474 -68.52  0.001803024    2.635    0.621
        44 -10.0939    206.3061    169.6633   9.1611900713e+01   8.8264915494e+00    0.1191387    0.1040567  89.35 0.0003384237    1.673    0.402
        45 -10.2720    168.3235    168.8551   9.8482075237e+01   1.6050042984e+01    0.2404725    0.1185663 -51.57 0.0009747149    2.522    0.604
        46 -10.5003    149.5082    169.0287   1.0219331996e+02   1.9487226640e+01    0.1857857    0.1300981 -51.67  0.001031071    1.596    0.373
        47 -10.0987     88.3905    168.1559   1.1458901969e+02   2.9768921230e+01    0.1744662    0.1061824 -81.10 0.0009479712    1.779    0.438
        48  -9.8187    111.3950    166.6259   1.0958462142e+02   2.6518248612e+01    0.2351254    0.1132949 -73.09 0.0009530049    3.214    0.689
        49 -10.7562    192.6275    165.1346   9.3219137492e+01   1.2045333849e+01    0.2738307    0.1581936 -47.84  0.001338667    2.131    0.531
        50  -9.8135    185.3236    166.6853   9.4863526747e+01   1.3195130021e+01    0.1264054    0.1036616  79.92 0.0005109975    1.663    0.399
        51 -11.4493    139.1926    163.7519   1.0338459171e+02   2.2284432008e+01    0.4832305    0.2450055 -61.60  0.002129443    2.611    0.617
        52 -10.7321     79.4895    163.4886   1.1587582157e+02   3.1964424599e+01    0.3768355    0.1762216  85.91  0.001388884    4.200    0.762
        53 -11.0935    213.1830    163.5216   8.9223965076e+01   8.3950991388e+00    0.2275251    0.1535608 -55.58  0.001146697    2.286    0.563
        54 -10.0798    159.4872    163.5278   9.9257121970e+01   1.8588929256e+01    0.2254407    0.1262748 -57.69  0.001035121    2.334    0.572
        55  -9.7808    219.6684    163.3082   8.8061253748e+01   7.2158401606e+00     0.118059    0.1053226  89.19 0.0007040689    1.666    0.400
        56 -11.5608    205.1726    161.9005   9.0320342423e+01   1.0134215285e+01    0.2952515     0.174633 -25.62  0.001481969    1.887    0.470
        57 -10.8192    177.6491    159.4551   9.4952635546e+01   1.5801724341e+01    0.3805518    0.1586123 -45.43  0.001570779    2.720    0.632
        58 -10.3229    151.8337    160.5196   1.0024997925e+02   2.0543695557e+01    0.2590763     0.177336 -69.03  0.001313247    1.949    0.487
        59 -10.4579     92.6261    159.8092   1.1258595323e+02   3.0798302897e+01     0.270844    0.1440224 -89.41  0.001156058    2.936    0.659
        60 -11.2159    196.4987    156.8751   9.0898929496e+01   1.2543272690e+01    0.3551411    0.2312929 -48.77  0.001812261    1.883    0.469
        61  -9.8270    128.3025    158.6533   1.0478873804e+02   2.5169726606e+01    0.1359303   0.09752113  79.46 0.0004153311    1.689    0.408
        62 -10.4906    104.9938    157.2703   1.0954747139e+02   2.9378442839e+01    0.2832649     0.173695 -71.67  0.001187281    1.800    0.444
        63 -10.1367    188.4707    156.9933   9.2415457190e+01   1.4090137716e+01    0.1973455    0.1326683 -36.53  0.001030903    1.601    0.375
        64 -10.6690    167.6998    156.4449   9.6317554580e+01   1.8226586820e+01    0.3276305    0.1673028 -46.04  0.001491385    2.160    0.537
        65 -10.7475    118.9444    154.3681   1.0606910272e+02   2.7626763848e+01    0.3715492    0.1834596 -67.07  0.001562267    2.720    0.632
        66 -10.6173     49.4922    155.0020   1.2134263471e+02   3.7520108084e+01     0.253392   0.09737022  63.50  0.001035456    3.414    0.707
        67 -10.1060    144.4229    154.2449   1.0063570869e+02   2.3060484185e+01    0.1844509     0.128162 -63.36 0.0009031003    1.688    0.408
        68 -10.9496     81.0154    153.7474   1.1428599441e+02   3.3734687660e+01    0.2377611    0.1487725 -84.50  0.001284532    1.686    0.407
        69 -10.6708    132.9069    151.8610   1.0263464795e+02   2.5636086119e+01    0.3708261    0.1891345 -58.87  0.001644499    2.290    0.563
        70 -10.3742     67.4030    153.2009   1.1722225585e+02   3.5702675296e+01    0.1786761    0.1024953 -83.16 0.0009511626    1.771    0.435
        71 -11.0263    190.3981    149.5522   9.0550709385e+01   1.4880692741e+01    0.3335142    0.2789405 -56.63  0.001898409    1.459    0.314
        72 -10.1302    182.2172    150.2153   9.2248010499e+01   1.6407607496e+01    0.2105893    0.1045251 -49.39 0.0008791652    2.481    0.597
        73 -10.1201     98.1942    149.8407   1.0989886371e+02   3.1964664446e+01    0.2786142    0.1003605 -64.84  0.001021172    3.428    0.708
        74 -11.6624    200.4326    148.1347   8.8388446332e+01   1.3095984689e+01    0.3707863    0.2190517 -40.04  0.001808788    1.815    0.449
        75 -11.4187    204.7225    154.0128   8.8823598769e+01   1.1367538314e+01    0.1908814    0.1697539  -6.75  0.001162418    1.117    0.105
        76 -11.3834    148.5604    142.7648   9.7567583684e+01   2.4401857278e+01    0.7167987    0.2851867 -51.54   0.00271787    2.874    0.652
        77 -11.1656    106.5150    143.7121   1.0702507767e+02   3.1877236860e+01    0.5402815    0.2626765 -70.53  0.002179179    2.861    0.650
        78 -11.3532     55.3921    144.8898   1.1890787489e+02   3.8958717857e+01    0.3984746    0.1891086  76.87  0.001739955    2.916    0.657
        79 -10.0889    165.5093    143.5221   9.4190593215e+01   2.0898548310e+01    0.2459937    0.1301026 -53.81  0.001035056    2.353    0.575
        80 -11.1242    124.2604    141.0576   1.0254409856e+02   2.9326361706e+01    0.5387806    0.2345383 -62.86   0.00196611    3.279    0.695
        81 -10.2387    181.8334    140.9955   9.0397824662e+01   1.8011800698e+01    0.2219485     0.160654 -65.12  0.001075406    1.935    0.483
        82 -10.5813    197.5500    135.7849   8.6254427640e+01   1.5609786458e+01    0.4843858    0.1342995 -36.98  0.001570916    3.665    0.727
        83 -10.3950    172.3699    137.5946   9.1546389384e+01   2.0543691017e+01    0.2705076    0.1190545 -53.11 0.0009553331    3.238    0.691
        84 -10.8252     23.0027    137.7381   1.2554793871e+02   4.3873984763e+01    0.2562124    0.1066226  78.49  0.001180598    2.785    0.641
        85 -11.3529     87.7440    142.6710   1.1115761334e+02   3.5069817158e+01    0.4041508    0.1683713 -68.03  0.001654701    2.752    0.637
        86 -10.5497    179.5537    132.8168   8.9056700706e+01   1.9874568881e+01    0.3451653    0.1367289 -41.45  0.001299497    2.614    0.617
        87 -10.0963    112.3954    132.6174   1.0365979264e+02   3.3176221512e+01    0.2676875    0.1226647 -67.12 0.0009570212    3.270    0.694
        88 -11.0781    131.6070    129.4388   9.8571663857e+01   3.0290920492e+01    0.6194097    0.2236467 -52.69  0.002196203    3.029    0.670
        89 -11.7061     82.9119    130.1358   1.1027864143e+02   3.8486035205e+01    0.5704595    0.2091464 -66.58  0.002114754    3.181    0.686
        90 -10.7306    142.8528    129.9013   9.6138089047e+01   2.7993583631e+01    0.4582585    0.1989762 -46.28  0.001814758    2.366    0.577
        91 -10.5600    205.0003    130.2508   8.3631904672e+01   1.4921818164e+01    0.2463361    0.1495361 -65.31 0.0008967989    3.565    0.720
        92 -10.1846    192.6765    129.4524   8.5741569797e+01   1.7659528998e+01    0.2526745    0.1305048 -35.41  0.001079639    1.979    0.495
        93 -10.3279    168.4232    128.5896   9.0359991148e+01   2.2968620434e+01    0.3221048     0.138807 -42.72  0.001245869    2.395    0.582
        94 -10.6706    152.5335    127.3390   9.3448404356e+01   2.6523048015e+01    0.4317213    0.1394108 -45.86  0.001444573    3.214    0.689
        95 -11.8620     98.2184    125.1843   1.0563732829e+02   3.7172315499e+01    0.7822857    0.2659045 -60.62  0.002717485    3.349    0.701
        96 -10.5529     72.8152    129.2292   1.1260551362e+02   4.0124964672e+01    0.2228855    0.1191383  74.38 0.0009047602    2.747    0.636
        97 -11.3937     59.0397    123.6321   1.1517592522e+02   4.3161319392e+01    0.5378037     0.249615  88.51  0.001954417    3.919    0.745
        98 -10.7980    117.3511    123.6694   1.0069182467e+02   3.4161536544e+01    0.5123235    0.2134422 -53.53  0.002008891    2.433    0.589
        99 -11.6658     43.3353    121.9535   1.1891394980e+02   4.5338538781e+01    0.6388969    0.2622848 -89.03  0.002333232    3.977    0.749
       100 -10.4932    179.6786    123.0472   8.6786334032e+01   2.1539679441e+01    0.3880008    0.1793527 -30.13  0.001455786    2.582    0.613
       101 -10.0925    188.6143    122.8038   8.4970699238e+01   1.9639431285e+01    0.2096253    0.1320804 -45.54 0.0009557547    1.715    0.417
       102 -11.1920     28.0597    121.9866   1.2275815809e+02   4.6839266613e+01    0.4265327    0.1606364  79.53   0.00139383    5.415    0.815
       103 -10.2190    158.4186    120.4786   9.0599100303e+01   2.6589442052e+01    0.3823279    0.1419083 -41.71    0.0013498    2.749    0.636
       104 -11.1881    141.3285    116.9408   9.3566707141e+01   3.0861922299e+01    0.7242976    0.2430175 -48.94  0.002401297    3.169    0.684
       105 -10.4816    130.0141    117.2388   9.6268509598e+01   3.3084456911e+01     0.363966    0.1745241 -57.32  0.001398111    2.473    0.596
       106 -10.6418      3.0006    117.1885   1.2849311324e+02   4.9866310447e+01    0.3215387    0.1001985  79.67   0.00110152    5.209    0.808
       107 -10.1988    193.0000    114.9823   8.2238988689e+01   1.9984987129e+01    0.2443898   0.08215459 -35.43 0.0008069941    2.974    0.664
       108  -9.9246    186.0000    115.0108   8.3595955812e+01   2.1538348536e+01    0.2435711   0.08286066 -36.50 0.0008041263    2.954    0.661
       109 -11.4398    108.4634    111.8483   1.0031849349e+02   3.8293423247e+01    0.7193912    0.2389078 -54.90  0.002437763    3.162    0.684
       110 -11.5630     78.7079    111.7645   1.0802731284e+02   4.3174125331e+01    0.5788062    0.2795854 -78.16  0.002087421    3.491    0.714
       111 -11.5383     92.1316    109.8058   1.0408340841e+02   4.1537015178e+01    0.8580972    0.2384147 -57.56  0.002713755    3.776    0.735
       112 -10.7141    121.7753    110.7764   9.6754726048e+01   3.6036195256e+01    0.3686247    0.1639773 -43.60  0.001432124    2.312    0.568
       113 -10.0055    174.6667    110.5242   8.4746260654e+01   2.4859402934e+01    0.2784933    0.1369696 -38.02  0.001104857    2.038    0.509
       114 -10.0770    172.4724    120.0335   8.7531826137e+01   2.3639875839e+01    0.2280323    0.1436838 -38.28  0.001027347    1.616    0.381
       115 -11.2298     66.3676    109.8037   1.1096138088e+02   4.5334828028e+01    0.3962676    0.1229219 -67.60  0.001264648    4.111    0.757
       116 -11.1208     14.0495    110.1677   1.2504029458e+02   5.0619048781e+01    0.3034336    0.1517461  87.68  0.001656521    1.864    0.463
       117 -11.5684     22.7813    102.3337   1.2177202922e+02   5.1682893386e+01     0.600805    0.2435981  72.75  0.002226384    4.435    0.775
       118 -10.3802    139.5354    102.7439   9.0488712352e+01   3.4074812095e+01    0.4685699    0.1449098 -41.92  0.001471525    3.257    0.693
       119 -11.7706     45.1265    102.0694   1.1547604080e+02   4.9634200159e+01    0.5314344    0.2465058  73.78  0.001882452    4.458    0.776
       120 -10.5122    149.5938    101.4474   8.7820823930e+01   3.2151833806e+01    0.4442475    0.1294876 -46.64  0.001299999    3.702    0.730
       121 -10.7028    128.4080    100.5615   9.2607359834e+01   3.6841173259e+01    0.4058635    0.1840856 -43.93  0.001570891    2.169    0.539
       122 -10.5108     81.9065    100.0336   1.0472567880e+02   4.5326686536e+01     0.341062    0.1775279 -77.53  0.001250843    3.257    0.693
       123 -11.6650    108.2376     97.3295   9.6930028737e+01   4.1463432258e+01    0.7041985    0.3373509 -60.62  0.002655214    2.585    0.613
       124 -11.1918     94.8381     94.7934   9.9916793385e+01   4.4400583832e+01    0.6291212    0.1815986 -49.76  0.002087913    3.175    0.685
       125 -11.5547     63.5782     95.9889   1.0905994330e+02   4.8834087577e+01    0.4229408    0.2305125 -88.03  0.001703205    3.023    0.669
       126 -10.0155    138.1951     90.7929   8.7601006369e+01   3.6744363575e+01    0.3472182    0.1051761 -47.13  0.001025179    3.512    0.715
       127 -11.0162    124.3274     88.3483   9.0352008796e+01   4.0189929409e+01    0.6892547    0.2552136 -39.05  0.002313501    2.885    0.653
       128 -10.9766     86.2142     86.2614   1.0021011955e+02   4.7712564466e+01    0.3526196    0.2105878 -80.54  0.001392448    2.862    0.651
       129 -10.9855     48.6860     84.6971   1.1117973354e+02   5.3203875313e+01    0.3525494    0.1938897  74.59  0.001491521    3.104    0.678
       130 -11.3179    104.3411     82.2657   9.3964950037e+01   4.5405827069e+01    0.5457166    0.2529758 -56.90  0.002044851    2.513    0.602
       131 -11.0816     34.6078     89.3210   1.1638247318e+02   5.3595331313e+01    0.3701704    0.1685558 -84.99   0.00153713    2.974    0.664
       132 -10.9824     82.2188     72.6836   9.7701888791e+01   5.1317675142e+01    0.3263245    0.2025511 -74.94  0.001389483    2.447    0.591
       133 -10.7159     24.5520     81.0066   1.1806172001e+02   5.6361104522e+01    0.2540189    0.1335692 -86.86  0.001277186    2.095    0.523
       134 -10.5674     51.0235     69.0388   1.0680504088e+02   5.6460974248e+01    0.3424962    0.1620136 -77.37  0.001148133    4.373    0.771
       135 -10.1971     73.3292     59.8322   9.6646731542e+01   5.5444591991e+01    0.2837209    0.1162156 -55.64   0.00107919    2.593    0.614
       136 -10.5673      7.5024     57.9829   1.1975036620e+02   6.2690480318e+01    0.1669603   0.08386531  86.80 0.0008102953    2.576    0.612
       137  -9.8861    100.5266     54.4435   8.6244743797e+01   5.1764052868e+01    0.1446485    0.1332514 -25.88 2.903927e-05    1.029    0.028
       138 -10.0672     54.3070     54.6328   1.0160020493e+02   5.9195422424e+01    0.1302481   0.09840726 -84.91 0.0007036346    1.752    0.429
       139 -10.2820     92.0000     49.5035   8.7058733531e+01   5.4331469574e+01    0.3248997   0.07515972 -41.60 0.0009371341    3.954    0.747
       140 -10.7587      5.4074     42.6257   1.1739550553e+02   6.6148278272e+01    0.2275405   0.09339157 -81.15 0.0009549189    3.321    0.699
