#   1 NUMBER                 Running object number                                     
#   2 MAG_AUTO               Kron-like elliptical aperture magnitude                    [mag]
#   3 X_IMAGE                Object position along x                                    [pixel]
#   4 Y_IMAGE                Object position along y                                    [pixel]
#   5 X_WORLD                Barycenter position along world x axis                     [deg]
#   6 Y_WORLD                Barycenter position along world y axis                     [deg]
#   7 A_WORLD                Profile RMS along major axis (world units)                 [deg]
#   8 B_WORLD                Profile RMS along minor axis (world units)                 [deg]
#   9 THETA_WORLD            Position angle (CCW/world-x)                               [deg]
#  10 FWHM_WORLD             FWHM assuming a gaussian core                              [deg]
#  11 ELONGATION             A_IMAGE/B_IMAGE                                           
#  12 ELLIPTICITY            1 - B_IMAGE/A_IMAGE                                       
         1 -14.5987     68.4818    144.2636   1.1002457971e+02   3.7239921612e+01     5.148771     2.511764  69.22  0.003631637    3.589    0.721
         2 -14.4168    196.8531     35.5955   5.0560735288e+01   3.1387595248e+01     1.924264     1.429785  13.83  0.006634782    1.823    0.452
         3 -14.6745    207.6725     23.5306   4.5852122708e+01   3.0157107402e+01     1.858621     1.362675  16.03  0.003817037    1.916    0.478
         4  -9.7308    155.6806     11.0505   4.9134243666e+01   4.4824076066e+01    0.1812759    0.1779401  -3.69 0.0004241873    1.111    0.100
         5 -10.8283     62.6436      8.1641   7.0925317967e+01   6.5813097649e+01    0.1998368     0.164226  38.09 0.0009208033    1.334    0.250
         6 -11.7684     58.9052      3.1042   6.9781829558e+01   6.7010675972e+01    0.3156554    0.1947465  37.24  0.001847778    1.505    0.336
         7 -10.6952     32.8036      2.3939   8.0642111656e+01   7.0927069035e+01    0.1589332   0.09340783  19.50 0.0005818476    1.672    0.402
         8 -11.7691    231.7029      1.8737   3.8095079914e+01   2.6730969590e+01    0.6758146    0.1966296  74.65  0.002311285    3.279    0.695
         9 -10.3071    114.5495    200.5603   1.0767921031e+02   1.7728038315e+01      0.21812    0.1237504 -73.77   0.00102318    2.270    0.560
        10 -12.8808     73.1654    175.7155   1.1336677268e+02   2.9353383488e+01    0.8676602    0.4463177 -36.35  0.003126998    4.615    0.783
        11 -14.5101     87.4246    228.6796   1.1631509586e+02   1.6599103415e+01     1.885003     1.041639  48.03  0.001387141    1.474    0.322
        12 -17.3807     51.6819    201.2210   1.2062579554e+02   2.6717064472e+01     13.07855     6.203137 -85.61   0.06649445    2.199    0.545
        13 -13.7656     72.0047    158.9414   1.1136616962e+02   3.3318528811e+01    0.5668996    0.5007343 -32.34  0.001569464    1.482    0.325
        14 -10.2835    173.0202    243.8310   1.0218751932e+02   7.6828124564e-01    0.2944168    0.1651123 -61.41  0.001488556    3.177    0.685
        15 -11.1234    143.1465    171.4812   9.6773471211e+01   1.8489138723e+01    0.2876386    0.2619765 -46.74   0.00163682    1.174    0.148
        16 -10.1165    137.5930    170.7673   9.7890062960e+01   1.9693817819e+01    0.1943615    0.1374643 -64.96 0.0009458876    1.607    0.378
        17  -9.9036    201.9039    168.8181   8.3806388680e+01   7.4125395566e+00    0.3192848    0.2362143 -51.45  0.001437712    1.621    0.383
        18 -10.0506    204.6957    165.6796   8.2602520766e+01   7.4066029738e+00    0.4511751    0.2171028 -48.51  0.001675781    2.557    0.609
        19  -9.9689    163.3489    168.9524   9.1830028601e+01   1.5046860298e+01    0.2751952    0.2138351 -70.68  0.001292654    1.632    0.387
        20 -16.0692      5.1753    249.1410   1.3153103489e+02   2.2861139521e+01    0.9828739    0.7859048  45.20  0.006122392    1.621    0.383
        21 -10.5194    193.4194    165.8508   8.4880817636e+01   9.6108226188e+00    0.2938324    0.2658217 -33.60 0.0008241038    1.156    0.135
        22 -12.1959     90.3526    156.2635   1.0649110880e+02   3.1207185053e+01    0.5797858    0.4298004 -27.92  0.002909234    1.964    0.491
        23 -10.3085    190.2178    154.8349   8.3174810249e+01   1.2273662288e+01    0.3459643    0.1962615  43.53  0.001510132    1.723    0.419
        24 -10.7319    174.3119    149.0068   8.5244911152e+01   1.6727143178e+01    0.3154376    0.3018589  88.99  0.001208224    1.154    0.133
        25 -11.1551    133.6265    143.8484   9.3476322178e+01   2.6262669706e+01     1.114413    0.2802192 -54.73  0.002631064    5.954    0.832
        26 -15.7559      1.8550    229.1052   1.3124932173e+02   2.6671215158e+01     1.318961     0.343384 -75.70  0.006766662    3.189    0.686
        27 -10.0106     86.5757    145.5925   1.0561790559e+02   3.4285468442e+01    0.2531399    0.2062495  72.67 0.0005680173    1.233    0.189
        28 -10.3934     96.8540    200.6667   1.1138319393e+02   2.0544491047e+01    0.2857243    0.2321662 -11.08  0.001157715    2.039    0.509
        29  -9.1107    109.4267    147.5095   1.0019675457e+02   3.0016638385e+01     0.146699    0.1336912  87.51 0.0001318933    1.058    0.055
        30 -10.8643    103.7846    140.7175   1.0029482147e+02   3.2582955073e+01    0.5829219    0.3510888 -29.32  0.002296444    2.728    0.633
        31 -12.4217     91.2408    141.1098   1.0360680927e+02   3.4600395558e+01    0.2803717    0.2542081 -52.42 0.0004833359    1.163    0.140
        32  -9.2840    175.2349    139.2512   8.2818399342e+01   1.8467004353e+01    0.2412502    0.1191473 -52.05 0.0008763105    2.412    0.585
        33 -10.2212    209.8557    199.8406   8.8319599820e+01   9.3413532470e-01     0.166625    0.1519818  47.84 0.0003595303    1.327    0.246
        34 -10.2697    106.0275    130.7612   9.7651190902e+01   3.4506624890e+01    0.3448445     0.254394 -64.32  0.001476235    1.362    0.266
        35 -10.2227    112.3567    130.9707   9.6033951756e+01   3.3298736089e+01    0.2725996    0.2225782  25.44 0.0007711471    1.423    0.297
        36 -14.4862     20.4356    192.9375   1.2606489757e+02   3.1882223360e+01     1.296676    0.5827007  52.55 0.0004499499    1.910    0.476
        37 -12.2969     43.2526    126.4172   1.1392018989e+02   4.4547620506e+01     0.509931    0.2582653  43.82   0.00241991    2.137    0.532
        38 -10.7044    135.4518    124.2563   8.8544225367e+01   3.0236677368e+01    0.4387385    0.1490344 -43.73  0.001325598    2.993    0.666
        39 -11.4629    119.0992    125.6833   9.3075026807e+01   3.3229247826e+01    0.9742324    0.4209148 -41.42  0.003445633    2.578    0.612
        40 -10.4501    160.8714    128.3051   8.3417832420e+01   2.3860635857e+01    0.2827358     0.218362 -55.58  0.001330801    1.385    0.278
        41 -11.1044     99.5846    127.4496   9.8656873372e+01   3.6421238746e+01    0.3458128    0.2639923 -20.93  0.001429958    1.776    0.437
        42 -10.0197    125.7395    127.1774   9.1705819556e+01   3.1576138282e+01    0.2571947    0.1671235  85.66 0.0009477207    2.736    0.634
        43 -10.9178     24.9555    120.7888   1.1811659506e+02   4.7619255508e+01    0.2222947    0.1518222  59.36 0.0009467682    1.593    0.372
        44  -9.9330    108.5780    119.8073   9.4500836166e+01   3.6587833156e+01    0.2178449    0.1999432  27.01 0.0003633255    1.196    0.164
        45 -12.5055     43.2504    114.2534   1.1196223671e+02   4.7444878323e+01    0.4980163    0.2675422  53.40  0.002398256    2.259    0.557
        46 -10.2041    107.9445    113.9579   9.3270366475e+01   3.8056957136e+01      0.21752    0.2053645 -71.54  0.001185006    1.042    0.040
        47  -9.8623    167.6605    112.4456   7.7849604429e+01   2.5582908823e+01    0.3176536    0.2331798 -67.49  0.001292037    1.741    0.425
        48 -11.5494    119.0425    110.0379   8.9253266980e+01   3.6793488334e+01    0.5812027    0.4336843  72.16  0.002655654    1.711    0.416
        49 -10.6130     97.4838    190.4598   1.0993458103e+02   2.2538081526e+01    0.4081474     0.269174 -42.28  0.001699966    2.034    0.508
        50 -10.9860     19.5729    111.0391   1.1829245519e+02   5.0335212658e+01    0.1971436    0.1846897  49.66 0.0005324551    1.303    0.232
        51  -9.9305    205.6033    110.1399   6.9461880109e+01   1.7198165263e+01    0.2762091    0.2184537  40.45  0.000651469    1.322    0.244
        52 -12.0601     45.8048    109.9093   1.1044665795e+02   4.8207823531e+01     0.345497    0.3290766 -17.25  0.002279614    1.256    0.204
        53  -8.7275     98.6950    107.7454   9.4335730861e+01   4.1179930835e+01    0.1409206    0.1158025 -12.00 0.0006902445    1.510    0.338
        54 -10.2063    134.7066    104.5500   8.3660446045e+01   3.4713312447e+01    0.5020506    0.1807079 -40.51  0.001590615    2.871    0.652
        55 -10.8712     35.4120    100.9918   1.1197457918e+02   5.1356615715e+01    0.2247407    0.1702273  55.46  0.001230329    1.536    0.349
        56 -11.0980    149.6087    189.0905   9.8495375846e+01   1.3789216819e+01    0.4616573    0.2791431 -72.81  0.001956011    2.741    0.635
        57 -16.4991     69.2244    248.1447   1.2121433557e+02   1.5698464073e+01     8.755954     2.347993  34.74   0.02627585    5.583    0.821
        58 -10.9349     57.1077     95.7930   1.0408348943e+02   5.0242980996e+01    0.4920394    0.2467619  55.09  0.001995432    3.040    0.671
        59 -10.7503     52.8562     90.8761   1.0432768808e+02   5.1893469713e+01    0.2988094    0.1779324 -52.05  0.001522341    1.426    0.299
        60 -11.1352     42.0503     91.7022   1.0804033618e+02   5.2881396080e+01    0.3015889    0.2161732 -17.27  0.001227083    1.781    0.439
        61 -10.0901     60.8593     68.4401   9.5626563758e+01   5.5890405560e+01    0.2420102    0.2079183 -84.93  0.001094643    1.500    0.333
        62 -10.9721    151.6810     54.9682   6.4479212449e+01   4.0168302629e+01    0.3542327    0.2689992 -84.58 0.0004858188    1.706    0.414
        63 -13.4788    187.2752     42.8504   5.4073346946e+01   3.2863730078e+01     1.009242    0.7255503  35.28 0.0009559622    1.635    0.388
        64 -11.0332    171.0566    234.0470   1.0119839574e+02   2.4734698400e+00    0.2453878    0.1851487 -59.57  0.001538072    1.798    0.444
        65 -15.7284      9.5480    206.5952   1.2889714607e+02   3.0183520762e+01     1.084168    0.7601142 -89.51  0.004843469    1.177    0.151
        66  -9.9533     99.5185    180.6247   1.0811689992e+02   2.4298544169e+01    0.2267556    0.2031993  77.00 0.0006029261    1.027    0.026
        67 -10.8086    153.7626     48.7225   6.1994242847e+01   4.0616451652e+01    0.3218165    0.2558495 -88.35 0.0004049451    1.504    0.335
        68 -12.9637     51.1857    147.1270   1.1481874311e+02   3.8755427618e+01    0.9957499    0.5182101  30.77  0.004903778    2.263    0.558
        69 -10.2706     31.9764     36.4978   9.6406812666e+01   6.5593364464e+01    0.1668974    0.1161283  20.46  0.001033478    1.596    0.374
        70 -11.5403     24.8604     34.6851   9.8921763873e+01   6.6590111404e+01    0.3515758    0.1345769  35.70  0.001639209    3.294    0.696
        71 -10.6460     33.0047     16.2406   8.7509132257e+01   6.8941964820e+01    0.1452223   0.09283467  24.04 0.0008881858    1.628    0.386
        72  -9.8193    189.7877     15.0721   4.5642756365e+01   3.5645958572e+01    0.2174781     0.173373 -64.57 0.0007291597    1.246    0.197
        73  -9.3909    133.3985    207.8305   1.0480634832e+02   1.3166231275e+01    0.1613916    0.1235602 -40.41 0.0002112957    1.608    0.378
        74 -12.9373     83.7124    163.3309   1.0920830534e+02   3.0610301882e+01     1.185175    0.4266668  52.94 0.0004281109    3.407    0.707
        75 -12.4055    193.9231    194.4680   9.0390316951e+01   4.6191143550e+00     1.024502    0.6619523 -67.15  0.004451666    3.092    0.677
        76  -9.8897    157.3825    200.7594   9.8818730166e+01   1.0219806741e+01    0.2722539    0.2060575  74.11  0.001149124    1.709    0.415
