#   1 NUMBER                 Running object number                                     
#   2 MAG_AUTO               Kron-like elliptical aperture magnitude                    [mag]
#   3 X_IMAGE                Object position along x                                    [pixel]
#   4 Y_IMAGE                Object position along y                                    [pixel]
#   5 X_WORLD                Barycenter position along world x axis                     [deg]
#   6 Y_WORLD                Barycenter position along world y axis                     [deg]
#   7 A_WORLD                Profile RMS along major axis (world units)                 [deg]
#   8 B_WORLD                Profile RMS along minor axis (world units)                 [deg]
#   9 THETA_WORLD            Position angle (CCW/world-x)                               [deg]
#  10 FWHM_WORLD             FWHM assuming a gaussian core                              [deg]
#  11 ELONGATION             A_IMAGE/B_IMAGE                                           
#  12 ELLIPTICITY            1 - B_IMAGE/A_IMAGE                                       
         1 -12.4715     74.7588     51.0389   9.0027976771e+01   5.8977155481e+01      1.36949    0.8799058 -52.89  0.006191096    1.812    0.448
         2 -12.5119     43.4590     46.5697   1.0285614235e+02   6.5673474439e+01     1.049263    0.8040549  80.66  0.001776537    2.036    0.509
         3 -10.4570     60.0959     24.6750   8.3981760037e+01   6.6530312833e+01    0.5962016    0.2991143 -25.65  0.001825412    2.417    0.586
         4 -12.1367     60.6044     45.2400   9.3646799575e+01   6.2949758418e+01     1.030381    0.5836799 -41.04   0.00452062    1.832    0.454
         5 -11.9624    124.6785     27.7930   6.6395095947e+01   5.0205187895e+01      0.82055    0.6201374  48.11  0.003048045    1.346    0.257
         6 -12.8751    120.2176     38.5909   7.1289340351e+01   4.9974968882e+01    0.9472644     0.670548 -82.37  0.002039179    1.677    0.404
         7 -11.2727    178.5697     21.1752   5.6912851092e+01   3.7136510429e+01    0.5959737    0.3117998  52.58  0.002281498    2.162    0.537
         8 -10.7449    138.7327     32.9242   6.5687760363e+01   4.5883873561e+01    0.6203086    0.5003321 -52.06  0.002382989    1.249    0.199
         9 -11.6155      5.0791      9.3215   1.1239208175e+02   7.7674765718e+01    0.8974201    0.6450416 -63.67  0.005447709    1.715    0.417
        10 -11.4722      3.1453      1.7927   1.0960145310e+02   7.9219505436e+01    0.4627936    0.1954052  14.74  0.002173848    2.514    0.602
        11 -12.4707     19.0639     22.5310   1.0749321128e+02   7.3772665690e+01     1.157001    0.5530345  29.65  0.005569124    2.033    0.508
        12 -11.4658     26.3907     27.8049   1.0482333074e+02   7.1864363674e+01     0.538547    0.3565535 -48.74  0.001950317    1.544    0.352
        13 -12.5116     16.9955     13.4472   1.0402615033e+02   7.5701294565e+01    0.6408075    0.4928136 -12.61 0.0006096766    1.195    0.163
        14 -12.0639     22.5812     11.4535   9.8241847228e+01   7.5313088327e+01    0.8414962     0.427483 -38.61  0.004221593    1.963    0.491
        15 -12.3604    104.7629     13.0134   6.4473371235e+01   5.7068893665e+01    0.5974595    0.4371269 -44.83  0.003177711    1.487    0.328
        16 -12.6199    113.2152     24.9756   6.7612593004e+01   5.3555435069e+01    0.9403408    0.4301724  64.66  0.002856944    1.969    0.492
        17 -10.5406    122.2860     19.4938   6.3741879289e+01   5.1782014196e+01    0.7254024    0.4343283 -79.33  0.003217854    2.002    0.501
        18 -12.0102    132.2689     14.7856   6.0412304568e+01   4.9628337583e+01     1.308046    0.5170156  82.04  0.003894262    2.928    0.659
        19 -11.0973    139.5327     21.1330   6.1557238781e+01   4.7053995776e+01     1.087966     0.256356  54.58  0.003412567    3.743    0.733
        20 -10.2246    146.8727     16.2975   5.8947216600e+01   4.5644422278e+01    0.5538719    0.2853934  54.34  0.002369233    1.934    0.483
        21 -11.4768     85.6415     13.9546   6.9427775255e+01   6.1891860092e+01    0.7228258    0.4316013 -28.51  0.003514202    1.841    0.457
        22  99.0000     88.0603      7.5250   6.5700076017e+01   6.1912112796e+01    0.6967365    0.3252159  66.15  0.002733615    1.891    0.471
        23 -10.5550     91.1613     21.3641   7.1388524097e+01   5.9672126773e+01    0.5321249    0.4922161   9.10  0.003076147    1.186    0.157
        24  -9.5668    223.2378     22.3729   5.3625926326e+01   2.6974111824e+01    0.2019213    0.1671712 -60.50 0.0004934768    1.045    0.043
        25 -12.2395     48.7992     12.9530   8.2641498057e+01   7.0507587193e+01    0.7902391    0.4846526  45.37  0.004092658    1.466    0.318
        26 -11.6556     35.9516     17.9021   9.2947007205e+01   7.2193496246e+01    0.6503925    0.3726906 -22.15  0.002100947    2.119    0.528
        27 -10.3477     65.2516     10.3943   7.4034456249e+01   6.7212120260e+01    0.7561955    0.2505882  48.67  0.002883642    2.531    0.605
        28  -9.9249     63.2474      6.3243   7.2426964284e+01   6.8103361179e+01    0.2982357    0.2296291  32.75   0.00115016    1.236    0.191
        29 -11.9211     68.4604     18.0992   7.7062403121e+01   6.5569544542e+01    0.6227601    0.4880254  49.23  0.003098527    1.144    0.126
        30 -11.9766    238.4686     15.5820   5.1233985127e+01   2.4659163541e+01    0.4544101    0.3718446  36.18  0.003158742    1.821    0.451
        31 -11.1096    244.5947     16.2089   5.1044681251e+01   2.3431342699e+01    0.2631904     0.165245 -17.31  0.001298036    2.031    0.508
        32 -10.6200    193.1631     17.4326   5.4626766174e+01   3.4077349268e+01    0.5210386    0.2774971 -66.87  0.001610618    1.832    0.454
        33 -10.5909    186.4714     15.1871   5.4583488337e+01   3.5875822957e+01    0.2765543    0.2386077  82.01 0.0006179742    1.173    0.147
        34 -11.5241    192.4706      7.5805   5.2150735470e+01   3.5229158706e+01    0.5626246     0.403684  32.73  0.002341892    2.040    0.510
        35  -9.6296    194.0037      1.2680   5.0450715142e+01   3.5466981922e+01    0.1787566    0.1140748  89.46 0.0003369216    1.410    0.291
        36 -10.6897    145.0378     24.7756   6.1976669416e+01   4.5209460939e+01     0.634783    0.4607696  55.21  0.003344919    1.385    0.278
        37 -10.0052    225.9386     15.6428   5.1948091741e+01   2.7133734972e+01    0.3490784    0.1221952 -36.71   0.00132284    2.189    0.543
        38 -11.3197    165.1570     17.6418   5.7258513200e+01   4.0825025267e+01    0.4135696    0.2898554  41.46  0.001299704    1.779    0.438
        39 -11.3436    211.8792      9.7664   5.1441867328e+01   3.0676833236e+01    0.4225383    0.2983982  -1.62  0.001513499    2.136    0.532
        40  -9.9506    168.9175     10.0792   5.4681931843e+01   4.0643833691e+01    0.2812405    0.2001308  55.84  0.001373767    1.529    0.346
        41 -11.2581    245.7235      7.8607   4.9281031573e+01   2.4061429086e+01    0.3568678    0.2592295 -21.31   0.00222512    1.634    0.388
        42 -10.5721    242.1671      3.8639   4.8618716861e+01   2.5119616926e+01    0.3526601    0.1608674  87.87  0.001990339    2.225    0.551
        43  -9.1404    163.2274     10.0167   5.5191047013e+01   4.2072783209e+01    0.1967914    0.1738919  57.75 0.0006009615    1.275    0.215
        44  -9.9936    162.8918      5.9967   5.4027773838e+01   4.2532297309e+01    0.2164256    0.1948279 -30.84 0.0004741075    1.281    0.220
        45  -9.6144    141.4865     12.2896   5.8297190048e+01   4.7448057909e+01    0.2194327    0.2097584 -59.09 0.0006291793    1.154    0.133
        46 -10.2921    151.6804      7.5522   5.5583590398e+01   4.5244297795e+01    0.4881764    0.2000521  71.30   0.00108355    2.120    0.528
        47 -10.7143    233.4761      7.0898   4.9684500370e+01   2.6486195759e+01     0.426376    0.2080846  75.32  0.002046596    2.111    0.526
        48 -10.9835    218.7039      3.1422   4.9542932086e+01   2.9870016887e+01     0.297806    0.2525016 -62.10  0.001164992    1.112    0.101
        49 -11.1637    225.0674      2.2523   4.9036682502e+01   2.8639023867e+01    0.5513689     0.237246 -79.71    0.0024089    2.323    0.569
        50  -9.7474    185.0468      7.2396   5.2587359397e+01   3.6999800099e+01    0.2364266    0.1641544 -46.28 0.0006422013    1.300    0.231
        51 -10.5104     72.9885      2.7680   6.7243775203e+01   6.6105233282e+01    0.5122994    0.2954063  36.41  0.002498381    1.770    0.435
        52  -9.2827     78.3180      7.3199   6.8145254871e+01   6.4381466653e+01    0.2367727    0.1687263  56.64 0.0009709747    1.212    0.175
        53 -10.4430     76.6153      3.7880   6.6767793101e+01   6.5123370385e+01    0.3720137    0.2554353   8.93  0.001497243    1.751    0.429
        54 -10.7123     41.2428      4.8734   8.1326354776e+01   7.3032873269e+01    0.4058647    0.2404018  10.67   0.00175115    2.271    0.560
        55 -10.2666    175.5213      5.1060   5.2724070777e+01   3.9487611852e+01    0.3935341    0.2042811  87.92  0.001935542    1.795    0.443
        56 -11.3449    204.9211      2.6511   5.0158366576e+01   3.2881644840e+01    0.4244218    0.2837684  85.34   0.00122761    1.399    0.285
        57  -9.8076    116.5833      2.7462   5.8211096522e+01   5.4864853318e+01     0.397691    0.2992927  70.86  0.002222694    1.148    0.129
        58 -10.4359    105.1407      1.8098   5.9630976941e+01   5.7958458378e+01    0.4564268    0.2199528  84.78  0.001097645    2.205    0.546
        59  -9.7531    110.4815      1.6883   5.8710516535e+01   5.6560968611e+01    0.3724688    0.1581503  71.97  0.001560529    2.023    0.506
        60 -10.4171    142.5361      3.0180   5.5071880549e+01   4.8010386426e+01    0.3507408    0.2844209  82.37  0.001450144    1.075    0.070
        61 -11.8500    133.4376      2.6193   5.5951123768e+01   5.0424737630e+01    0.4383723    0.2511842  72.72 0.0008870358    1.505    0.336
        62 -10.6679     32.7685     12.6083   9.1681426789e+01   7.3551569065e+01    0.2567087    0.2168161  58.61 0.0006427266    1.571    0.363
        63 -10.4374     12.8982      2.1447   9.9923691175e+01   7.8107805992e+01    0.2727191    0.2068006  13.01 0.0007991267    1.166    0.142
        64  -9.3164    157.4979      2.5198   5.3462275199e+01   4.4203176581e+01     0.230598    0.2006126  72.07  0.001435479    1.177    0.151
        65  -8.7386    161.5175      1.0000   5.2661313449e+01   4.3318030805e+01    0.3341958    0.1339693  77.62  0.001437094    2.209    0.547
        66  -9.8008      1.3160      7.2983   1.1504566370e+02   7.8351044119e+01     0.191294   0.09633916 -52.06 0.0002523271    1.815    0.449
        67  -8.7507    151.6536      1.2453   5.3596271286e+01   4.5802349816e+01    0.1396247   0.08455602 -69.63 0.0002752137    1.574    0.365
        68  -9.5039    122.6540      1.2897   5.6807173127e+01   5.3375249251e+01    0.3588293   0.08896707  68.64  0.001219897    3.065    0.674
        69 -10.7439     82.1692      1.3466   6.4062929938e+01   6.3936608065e+01    0.2453283    0.1143887  67.77 0.0003447525    1.889    0.471
        70  -9.5641    239.8330    146.7053   7.8528044702e+01   7.4648414694e+00    0.2016107    0.1379459 -21.93  0.000604269    1.255    0.203
        71 -10.8162    249.6281    142.8262   7.6450661303e+01   6.6008311818e+00    0.5252261    0.2019231 -34.36  0.002590933    2.121    0.529
        72  -9.9826    214.6761    151.1392   8.3231044503e+01   1.0639116827e+01    0.2226316    0.2132425 -20.46 0.0008027008    1.241    0.194
        73 -10.6919     33.0653    144.2105   1.2926969045e+02   4.2391578104e+01      0.33043    0.2661366  48.39 0.0008178748    1.166    0.142
        74  -9.5400    104.6248    142.2459   1.0603938273e+02   3.2464673482e+01    0.2471735    0.2208112  72.97 0.0004427742    1.211    0.174
        75 -10.1553    133.5277    140.2477   9.7703532325e+01   2.7415268402e+01    0.3704026    0.2987522  12.59  0.001231705    1.394    0.282
        76 -12.1225     23.7273    136.2074   1.3159706519e+02   4.5352556583e+01    0.8460808    0.4396802  39.41  0.001887489    1.800    0.444
        77 -11.6720     29.7641    132.7037   1.2910249558e+02   4.5713133094e+01    0.5548668    0.3929319  82.17 0.0008220514    1.419    0.295
        78  -8.6433    186.5029    139.5037   8.5796318263e+01   1.7352038077e+01     0.137048    0.1252595 -10.78 -5.571147e-05    1.003    0.003
        79 -10.4779     80.5013    136.2158   1.1225424364e+02   3.8122698855e+01    0.5312222    0.3748254   0.88  0.001764732    1.997    0.499
        80  -9.0324     44.0395    132.9825   1.2409222890e+02   4.4118899672e+01    0.2362586    0.1540547  59.65 0.0004946549    1.614    0.380
        81  -9.0019    216.6120    135.1837   7.9681193698e+01   1.2760532860e+01     0.178779    0.1080418 -25.40 0.0004959332    1.599    0.374
        82 -10.0028     93.3473    135.1492   1.0797317530e+02   3.6186201892e+01    0.2908161    0.1947797 -62.80 0.0008352841    1.628    0.386
        83 -10.6559     92.8948    129.2514   1.0687056939e+02   3.7697059550e+01    0.4323001    0.3338365 -86.26  0.001611292    1.583    0.368
        84 -10.2817     47.3120    135.5874   1.2332443334e+02   4.3048735557e+01    0.5054819    0.2136958 -63.78  0.001582774    2.258    0.557
        85  -9.3929    107.6610    146.0049   1.0592256053e+02   3.1039522297e+01     0.206152    0.2020373 -61.28 0.0007132737    1.082    0.076
        86 -10.2056     73.6283    132.8671   1.1387342619e+02   4.0069974566e+01    0.5992887    0.2462296  28.26  0.002081302    2.616    0.618
        87  -9.9270     62.3562    131.4556   1.1744470342e+02   4.2129131363e+01    0.4426868    0.2416194 -38.80  0.001437438    2.358    0.576
        88 -11.1310     10.7929    127.1951   1.3531627806e+02   4.8710844121e+01      0.55634    0.2419108 -59.61  0.001781751    2.153    0.535
        89  -8.8939    103.6373    130.7388   1.0389036622e+02   3.5349624793e+01    0.1554227    0.1215694   1.97 0.0002390179    1.635    0.389
        90 -10.5301     18.5264    124.6875   1.3227167257e+02   4.8801250747e+01    0.4284471    0.2027514 -68.29  0.001475561    1.917    0.478
        91  -8.8317    223.8496    126.6182   7.6805892581e+01   1.2843570514e+01    0.1510036    0.1225063  64.39 0.0004672573    1.629    0.386
        92 -10.4440     82.9832    124.2206   1.0899821426e+02   4.0691772154e+01    0.5600222    0.3826022   7.82  0.002035174    2.059    0.514
        93 -10.8087     55.7042    123.2350   1.1833637937e+02   4.5192084954e+01    0.5647902    0.3951203   7.80  0.001707748    1.770    0.435
        94 -10.6176     45.8023    120.3865   1.2149781668e+02   4.7216707178e+01    0.4901915    0.2910699  69.50  0.001960566    2.120    0.528
        95  -9.5261      2.2090    125.6389   1.3826482270e+02   4.9643988070e+01     0.265382    0.1667549 -86.45  0.001393912    1.440    0.306
        96 -10.0326      4.4846    120.5139   1.3707248646e+02   5.0843834055e+01    0.4633543    0.2318094 -60.01  0.001404591    1.870    0.465
        97  -9.6896      6.8595    114.8462   1.3571276936e+02   5.2184584213e+01    0.2884063    0.2262961  60.90 0.0009855545    1.244    0.196
        98 -11.2747      2.4820    112.0650   1.3716876166e+02   5.3150836953e+01     0.360457    0.2646415 -80.66 0.0008183472    1.223    0.182
        99 -12.0092      3.7410    105.5906   1.3611909393e+02   5.4774458912e+01    0.4788245    0.4029585  76.48  0.001273733    1.133    0.117
       100 -11.5642    104.7238    121.7731   1.0150940148e+02   3.7245353065e+01    0.5146201    0.4760802  57.53  0.001546663    1.079    0.073
       101  -9.7151     67.7409    123.9874   1.1417299962e+02   4.3249205572e+01    0.4250867      0.23378  16.82  0.001605284    2.438    0.590
       102  -9.1746    138.1255    122.6393   9.2477768256e+01   3.0198368651e+01    0.2255829    0.1375037  32.83 0.0009365368    1.809    0.447
       103 -10.9516     33.2247    119.7757   1.2615899558e+02   4.8779632736e+01    0.3445362    0.3030281 -50.13 0.0005617609    1.178    0.151
       104  -9.2787    221.1944    120.4199   7.5889322307e+01   1.4221666195e+01    0.1588436    0.1254771  68.25 0.0007109114    1.682    0.406
       105  -9.2271    148.4062    119.7876   8.9292996718e+01   2.8609330067e+01    0.2124934      0.14173 -30.86 0.0007523247    1.656    0.396
       106  -9.3315     72.7745    119.8497   1.1155525679e+02   4.3507329783e+01    0.2295395    0.2053761 -23.45 0.0005846064    1.249    0.200
       107  -9.5063    185.4905    119.0010   8.1404790288e+01   2.1089237142e+01    0.2008133     0.119528 -14.64  0.000810364    2.549    0.608
       108 -10.0612     81.1947    116.6249   1.0791535697e+02   4.2891572747e+01    0.5547178    0.3361554 -86.88  0.001994681    2.820    0.645
       109 -10.0415     90.4646    104.2290   1.0169482633e+02   4.4189820841e+01    0.4542041    0.3218853  11.55  0.001612745    1.944    0.486
       110 -11.2588     79.7626    108.4087   1.0646943405e+02   4.5179673788e+01    0.7094498    0.4968467  43.20   0.00268579    1.395    0.283
       111  -9.3574     82.1945    102.7657   1.0418059848e+02   4.6116500465e+01     0.242767    0.2125713  -3.51 0.0005732772    1.312    0.238
       112  -9.7192    113.2285    116.0304   9.7577589957e+01   3.6850816127e+01    0.2625934    0.2227664  38.92 0.0004090186    1.150    0.131
       113 -10.7687    107.5185    112.0297   9.8261564530e+01   3.8939509182e+01    0.7134959    0.4948545 -75.00  0.002650751    1.984    0.496
       114 -10.8498    102.2182    109.3947   9.9216073903e+01   4.0631569889e+01    0.5512304    0.4104382  24.71  0.002506784    1.517    0.341
       115  -9.9331    103.1368    106.0903   9.8062343468e+01   4.1205126197e+01    0.3371553    0.2819699  46.72 0.0004146237    1.163    0.140
       116 -10.2297     67.1123    112.1604   1.1192804332e+02   4.6372076197e+01    0.5435108    0.3444478 -71.09  0.002345005    1.780    0.438
       117  -9.8536     35.8455    113.8885   1.2425831651e+02   5.0065757915e+01    0.4543687    0.2288544  65.72  0.001707068    2.721    0.633
       118 -11.4335      9.7587     97.4688   1.3274558601e+02   5.6567574691e+01    0.7909521    0.5544611  71.44  0.004213839    1.481    0.325
       119 -10.8550     35.5812     92.3658   1.2047055895e+02   5.5746816930e+01     1.581051    0.9487684  65.57  0.005448605    2.187    0.543
       120 -10.6371     17.9909    100.9461   1.2964790182e+02   5.5103497344e+01    0.3050216    0.2848769 -24.53  0.001094743    1.148    0.129
       121 -11.9992      7.6896     88.8931   1.3261346566e+02   5.8921720325e+01    0.7196839    0.4806244  27.46  0.001624102    1.589    0.371
       122 -13.3136     24.7029    109.0669   1.2798609652e+02   5.2417085136e+01     2.206613     1.260301 -59.30   0.01038202    1.627    0.385
       123 -11.6395     18.8580    106.1163   1.2997765761e+02   5.3674566454e+01    0.2370793    0.2241261 -63.36  0.001433834    1.058    0.055
       124 -11.9107     22.0270     95.0474   1.2700976097e+02   5.6338952522e+01     0.724602    0.4229468   0.51  0.002823638    2.102    0.524
       125 -12.2243     18.3510     90.2310   1.2789685085e+02   5.7886844928e+01    0.4865329    0.3229249 -50.88 0.0004730569    1.424    0.298
       126 -12.0041     43.1064     85.2795   1.1547561865e+02   5.6676501118e+01    0.9118774    0.4077972  30.71   0.00362916    2.199    0.545
       127 -10.7060     37.3082     85.8441   1.1826785382e+02   5.7233144383e+01    0.4093873    0.2720465  60.40  0.001897498    1.830    0.453
       128 -10.8023     85.7061    104.6067   1.0342479697e+02   4.5013595349e+01    0.7052407    0.4589792  -9.42  0.002265534    2.832    0.647
       129 -11.2420    171.1314    109.9244   8.1965971258e+01   2.5642303124e+01    0.6375734    0.4339322  28.66  0.002548614    1.801    0.445
       130  -9.7308     94.0816    111.4284   1.0234011254e+02   4.1771867871e+01    0.3282537    0.2413171 -63.83   0.00149701    1.497    0.332
       131  -9.7004     48.8405    112.0634   1.1885060952e+02   4.9022814737e+01    0.2641131    0.2109067  37.36  0.001355414    1.243    0.195
       132  -9.9041    120.0260    109.2185   9.3884599612e+01   3.6928616093e+01     0.269553    0.2291439 -43.08 0.0006352533    1.212    0.175
       133  -9.7956    130.4945    109.5030   9.1123806275e+01   3.4590168344e+01    0.2875311     0.143101  35.57  0.001036906    2.336    0.572
       134  -9.8307     58.1068    107.7189   1.1436291044e+02   4.8881186776e+01    0.3896678    0.2401344  89.23  0.001072494    2.317    0.568
       135  -9.7103     57.7568    102.3760   1.1330989793e+02   5.0304691628e+01    0.4065655    0.3330089   1.13  0.002039063    1.414    0.293
       136 -10.5994     56.9932     97.4418   1.1245966726e+02   5.1675553834e+01     1.529519    0.5894736  55.01  0.003739574    6.002    0.833
       137 -10.8402     48.0242    103.1364   1.1739993436e+02   5.1458607195e+01    0.4184001    0.2628954 -26.62 0.0004118544    2.114    0.527
       138 -10.4426     52.4411     96.8242   1.1418641746e+02   5.2490388493e+01    0.9233629     0.308726 -58.65  0.003118738    2.812    0.644
       139 -10.6847     64.6718     99.3707   1.0986278129e+02   5.0000141786e+01    0.5508074     0.367118   2.38  0.002271996    2.185    0.542
       140 -10.6348     68.4298     95.6098   1.0743280823e+02   5.0315550256e+01    0.4237145    0.3487253  19.33  0.001614719    1.304    0.233
       141 -11.0566    158.4885    105.9950   8.3574444538e+01   2.9102696019e+01    0.5611822    0.3486893  29.76   0.00236494    2.094    0.522
       142 -10.5725    139.8109     93.9186   8.4562519665e+01   3.5643787446e+01    0.5571576    0.4003795  81.40  0.001040826    1.881    0.468
       143 -10.8005    143.1430    106.1858   8.7090987834e+01   3.2470746356e+01    0.3530473    0.3157328 -38.41 0.0009370646    1.131    0.116
       144 -11.8586    145.9509    100.2558   8.4855715502e+01   3.3004499076e+01    0.5810841    0.4823622 -34.00  0.001998235    1.241    0.194
       145  -9.4658    246.4983    102.9522   6.8969718210e+01   1.2481459138e+01    0.1868394    0.0975557 -34.51 0.0008826481    1.551    0.355
       146  -9.5056    120.9715    101.0413   9.1418207077e+01   3.8485428480e+01    0.2540823    0.1979666   3.61  0.001135529    1.735    0.424
       147 -10.8328     90.0157     89.2223   9.7645458509e+01   4.7771433639e+01    0.9299089    0.5762919 -19.45  0.003336565    2.846    0.649
       148 -10.7580     46.9087     74.3470   1.1076914983e+02   5.8876101954e+01    0.3867795    0.2584835 -56.18            0    1.474    0.321
       149 -12.6859     52.7040     73.8581   1.0791681231e+02   5.8141340633e+01     0.601431    0.3500455 -59.65 0.0008160191    1.806    0.446
       150 -10.4338     58.5257     78.3191   1.0666067417e+02   5.6160450167e+01    0.3945421    0.3079601  54.03  0.001206051    1.407    0.289
       151  -9.8870     60.5204     83.4084   1.0729703027e+02   5.4613614749e+01    0.2755199    0.2633857  36.67 0.0005800463    1.045    0.043
       152 -10.9879     66.8309     81.8357   1.0419798093e+02   5.3922527258e+01     1.127469    0.5021539 -54.43  0.004198176    2.309    0.567
       153 -10.5532     80.4194     83.6574   9.9419845141e+01   5.0968312599e+01    0.7039443    0.5562733 -57.99  0.003392571    1.339    0.253
       154 -11.2626     73.2912     78.1497   1.0044372784e+02   5.3600496672e+01    0.8217824    0.7604176  -3.25  0.004390466    1.142    0.124
       155 -11.9641     78.1382     97.0402   1.0413081996e+02   4.8251052710e+01    0.3978288    0.3117191 -63.37            0    1.356    0.262
       156 -11.2061     81.5403     93.0300   1.0177202732e+02   4.8571155527e+01    0.7750065    0.3750394  47.55  0.002885499    2.160    0.537
       157  -9.1951    134.4085    100.6240   8.7743720076e+01   3.5551704159e+01    0.3019796     0.138583  60.51 0.0009568984    3.153    0.683
       158  -9.8837    210.5759     97.8258   7.2435047473e+01   1.9591413819e+01    0.2769853    0.2471159  31.04  0.001735499    1.270    0.213
       159  -9.5639    160.7110     93.7564   7.9910941818e+01   3.0855877937e+01    0.2965558    0.2085029  66.25  0.001167583    1.599    0.375
       160 -10.2132    117.5156     92.9981   9.0111651740e+01   4.0962501189e+01    0.4965146    0.3136082  36.45  0.001493189    1.710    0.415
       161 -10.7433    120.8157     89.4232   8.8142697359e+01   4.0947574837e+01    0.5031856    0.3310048  38.57  0.002077568    1.599    0.374
       162 -10.8316    120.3239     85.3877   8.7072366497e+01   4.1879739318e+01    0.4643022     0.299615  52.73  0.001893738    1.528    0.346
       163 -10.3819    126.0389     93.2814   8.7853774916e+01   3.8956137556e+01    0.3727439    0.3393761  40.69  0.001067242    1.101    0.092
       164 -10.0956    122.4912     93.5157   8.8876783619e+01   3.9721825665e+01    0.2996556    0.2717067  -8.12 0.0007450671    1.245    0.196
       165 -12.3332    101.8635     90.1108   9.3968054114e+01   4.5065459072e+01     0.457076    0.4250462  21.63  0.000371528    1.130    0.115
       166 -10.6180    152.8862     91.8194   8.1019391457e+01   3.3006610395e+01    0.5342372    0.3396311  50.56  0.002416033    1.575    0.365
       167  -8.8547    211.5185     88.4392   7.0143131213e+01   2.0818209856e+01    0.1300791    0.1167854 -38.96 9.771935e-05    1.028    0.027
       168 -10.4829    183.4746     85.3609   7.3554282536e+01   2.7166373756e+01    0.7357675    0.2597677 -44.53  0.002654632    2.753    0.637
       169  -9.3738    102.6586     80.6867   9.0815001173e+01   4.6907332725e+01    0.3256546     0.189502 -30.95 0.0008416122    2.169    0.539
       170 -10.0107    104.4045     76.2834   8.8850679037e+01   4.7416251772e+01    0.4005039    0.3329409  58.27   0.00151672    1.200    0.167
       171 -11.0373    113.4673     84.1286   8.8622447322e+01   4.3728171770e+01    0.7136545    0.4045583 -33.22  0.002355774    2.085    0.520
       172 -10.9823    109.3102     80.5759   8.8738091088e+01   4.5413611182e+01    0.4285373     0.397765   0.14  0.001195636    1.196    0.164
       173 -10.3988    165.9237     83.7341   7.6197878675e+01   3.1411253215e+01    0.3936985    0.3172336 -62.02  0.001459838    1.300    0.231
       174 -10.4575    127.5066     83.0461   8.4455440540e+01   4.0648078846e+01    0.3351968    0.2954471 -39.52  0.001360295    1.173    0.148
       175 -10.0830    232.8720     77.6715   6.5145463775e+01   1.8268722800e+01     0.331783    0.1628327 -34.32  0.001069401    1.723    0.420
       176  -9.2873     20.0186     71.7850   1.2362677189e+02   6.2494631898e+01    0.2306808    0.1372676 -23.24  0.001065134    1.944    0.486
       177 -11.7464     14.1074     74.7819   1.2730597659e+02   6.2170987184e+01    0.5248404    0.4027136 -71.51  0.001749064    1.232    0.188
       178 -10.1245     14.4338     67.1713   1.2563488662e+02   6.4068191199e+01    0.3819574    0.3228907 -23.41  0.001940617    1.183    0.155
       179  -9.4590    170.2701     77.6463   7.3758936140e+01   3.1415633838e+01    0.2462286    0.2067535 -40.44  0.001022719    1.159    0.137
       180 -10.3356    143.1073    249.3287   1.1316713751e+02   5.9176439097e+00    0.1987945    0.1220649  17.16  0.001191598    1.443    0.307
       181 -10.4344     93.5063     76.5775   9.2482586848e+01   4.9803714840e+01    0.6226116    0.3345965  36.64   0.00191309    2.006    0.501
       182 -11.6898     85.6285     73.4367   9.4201400490e+01   5.2165233054e+01    0.7562651    0.5960603  49.65  0.003172909    1.251    0.201
       183 -10.7621     79.1199     67.4162   9.4549599959e+01   5.4799607520e+01     0.534465    0.4569099  58.45  0.002544979    1.230    0.187
       184  -9.6451     33.0738     77.6074   1.1833676069e+02   5.9793736613e+01    0.2492691    0.1980944 -57.68  0.001278454    1.198    0.165
       185 -11.8985     40.6746     70.1444   1.1256717215e+02   6.0733295304e+01    0.5855366    0.3236181 -55.32  0.001507168    1.731    0.422
       186 -11.3954     32.2467     71.9608   1.1732703209e+02   6.1292545888e+01    0.6476224    0.3129966  25.09  0.002500925    2.104    0.525
       187 -12.3366      5.2704     62.2978   1.2980132906e+02   6.5815515460e+01    0.9874138    0.3910986 -39.03  0.002874761    2.475    0.596
       188 -11.0638     10.0976     62.5539   1.2709698856e+02   6.5493707271e+01    0.4444152    0.2893812 -21.70  0.001133448    1.618    0.382
       189  -9.7792    134.9225     77.3935   8.0908611125e+01   3.9930596864e+01    0.3543225    0.1876878  64.84  0.001329423    2.271    0.560
       190  -9.6210    126.9576     76.9479   8.2727387582e+01   4.1943434465e+01    0.2320599    0.2229435  74.89 0.0003174137    1.011    0.011
       191 -12.0181    186.6462     70.5481   6.9245794145e+01   2.8768710428e+01    0.8733439    0.5472288 -44.23  0.003044034    1.476    0.322
       192  -9.7141    184.4222     61.2633   6.7127857643e+01   3.0644924341e+01    0.2597189    0.2227962   3.81  0.001206505    1.481    0.325
       193 -11.4273    142.6667     84.0316   8.1080687149e+01   3.6845462355e+01    0.6106191    0.3865644  45.63  0.001242479    1.610    0.379
       194 -11.8512      1.9437     71.4576   1.3309642400e+02   6.3666413315e+01    0.8421633      0.18663 -71.53  0.002840854    3.511    0.715
       195  -9.3983    151.2217     73.4805   7.6166196250e+01   3.6652524606e+01    0.2864972     0.136697  51.49   0.00112266    2.071    0.517
       196 -10.0734    128.6429     64.3766   7.8301908029e+01   4.3793923269e+01    0.6345827    0.5153267 -50.32  0.003199957    1.266    0.210
       197 -10.2957    123.3329     72.9485   8.2396136009e+01   4.3569563756e+01    0.3884361    0.3163912  88.36 0.0004061869    1.411    0.291
       198 -11.1733    123.5026     68.4942   8.0913359129e+01   4.4343171206e+01    0.4222717    0.3502028 -70.02  0.001121477    1.330    0.248
       199 -10.6347    120.3090     68.6834   8.1801495412e+01   4.5092827766e+01    0.3238505    0.2810176  84.13 0.0006499087    1.226    0.184
       200  -8.9384     61.0350     72.7774   1.0383222454e+02   5.7043017527e+01    0.1958046    0.1202554  36.00 0.0003974405    1.605    0.377
       201  -9.8999    162.0509     70.6244   7.3271055943e+01   3.4503722028e+01    0.3278786    0.2671756 -89.62  0.001185117    1.311    0.237
       202  -9.2477     67.8715     70.0788   1.0000028632e+02   5.6434401295e+01    0.2186598    0.2138895 -30.14 0.0002700703    1.040    0.039
       203  -8.9490     70.2317     66.9773   9.7940944720e+01   5.6668265786e+01    0.1876925    0.1257817 -48.11 0.0005873051    1.534    0.348
       204 -10.7430    171.6452     66.5743   7.0491678809e+01   3.2847586979e+01    0.6101837    0.2874725 -45.77  0.002516231    2.069    0.517
       205  -9.1996    114.9778     69.2665   8.3432280237e+01   4.6283383413e+01    0.2255996    0.1976051  55.75 0.0007438185    1.096    0.088
       206 -11.3584    219.8224     66.6046   6.4077837484e+01   2.2267252344e+01    0.5730718    0.3110613  63.25  0.002746831    2.048    0.512
       207  -9.3616    207.8522     68.5439   6.5913616777e+01   2.4445937204e+01    0.2350787    0.1219464  57.41  0.001132208    2.083    0.520
       208  -8.7477    111.6010     67.2683   8.3707423506e+01   4.7472107467e+01    0.1603929    0.1196553  87.04 0.0006978383    1.734    0.423
       209 -10.1141     21.2915     65.2829   1.2143613266e+02   6.4008671387e+01       0.3293    0.2265234  64.09  0.001123878    1.845    0.458
       210  -9.3151     25.8409     65.2073   1.1892547086e+02   6.3612661131e+01    0.2720203    0.1798816 -22.91 0.0003551746    1.683    0.406
       211  -9.7362    192.5787     65.7347   6.7172392554e+01   2.8147917690e+01    0.2560809    0.2007603 -74.77 0.0007057079    1.328    0.247
       212  -9.4779     53.5814     66.0549   1.0499552804e+02   5.9821787730e+01    0.2985502     0.188075  48.43  0.001231274    1.765    0.433
       213 -10.3096    106.3411     63.7604   8.4021872897e+01   4.9389576089e+01    0.4532685    0.3640209 -21.56  0.002210952    1.449    0.310
       214 -10.3242    103.8158     58.1500   8.2767009413e+01   5.1016765599e+01    0.4717893    0.2911825  44.37  0.001957364    1.595    0.373
       215 -10.6845     22.9851     36.9069   1.1130321565e+02   7.0414099825e+01     0.541986    0.3713146  58.81  0.002524649    2.174    0.540
       216 -10.0546     53.0184     49.3487   9.9025143310e+01   6.3533206840e+01     0.489752    0.3599156  78.41     0.002244    2.231    0.552
       217 -10.9109     58.2881     62.0757   1.0140960000e+02   5.9924686364e+01      0.60549    0.4808927  85.53  0.002971794    1.733    0.423
       218  -9.3716    175.2494    246.3936   1.0644896151e+02   2.3081054780e+00    0.1632315    0.0858409  34.59 0.0007693393    1.661    0.398
       219  -9.1981    156.7929    246.5752   1.1007316857e+02   4.5766302866e+00    0.1699669   0.08685613  36.62  0.000945791    1.688    0.408
       220 -11.2963     21.0749     47.4349   1.1645204445e+02   6.8278697287e+01    0.5632603    0.3423244 -35.89   0.00134327    1.610    0.379
       221 -10.6067     27.5494     47.1408   1.1231935918e+02   6.7675686469e+01    0.5778924     0.321111 -16.80  0.002447443    2.486    0.598
       222 -10.6223     33.6808     43.4302   1.0716640638e+02   6.7735617671e+01    0.4727482    0.2990734 -49.83   0.00135735    1.554    0.356
       223 -11.4162     40.0856     55.9291   1.0828010239e+02   6.4133875708e+01    0.6863314    0.4552298  68.28  0.002924715    2.471    0.595
       224 -11.3635     33.1008     58.7238   1.1303938979e+02   6.4385924601e+01     0.771264    0.3772202   5.98  0.002814295    3.220    0.689
       225 -11.9281     24.8902     54.5568   1.1640977865e+02   6.6258321299e+01     1.113926    0.6190757   8.86  0.004904694    2.069    0.517
       226  -9.8998    199.0882    244.5280   1.0178866466e+02  -2.9131317823e-01    0.1723454   0.08707307  27.71  0.001036194    1.607    0.378
       227 -11.1499     60.7293     36.3632   8.9554552543e+01   6.4530965449e+01     0.382669    0.2573347 -30.13 0.0009742854    1.606    0.377
       228 -11.3665     57.0172     31.5588   8.8944210110e+01   6.6086891205e+01    0.3895132    0.3615547  12.23  0.001119416    1.035    0.034
       229 -11.4408     48.5338     30.6049   9.2725386646e+01   6.7871433260e+01    0.7752246    0.2905126  36.57  0.002316399    2.742    0.635
       230 -12.0113     50.7662     61.0701   1.0462235859e+02   6.1396923369e+01    0.3719994    0.3232994  56.44 0.0005330505    1.298    0.229
       231 -11.1823     46.0976     58.3253   1.0597997202e+02   6.2731021194e+01    0.4655107    0.2820104 -55.49  0.001114266    1.708    0.414
       232  -9.3813    198.1907     63.0322   6.5756704325e+01   2.7292185586e+01       0.2733    0.1581184 -50.99  0.001338732    1.648    0.393
       233 -10.2158     98.9412     61.8174   8.5594151343e+01   5.1510588247e+01    0.5080359     0.341173   2.40  0.001836482    2.629    0.620
       234 -11.5644     91.2640     62.7393   8.8455130741e+01   5.3108867411e+01    0.9852825    0.4653796  52.24  0.002821161    2.137    0.532
       235 -10.9016     87.8029     57.1081   8.7554807570e+01   5.4967457481e+01     0.538254    0.2983301 -43.89  0.001798835    1.900    0.474
       236 -10.5352     91.5013     57.5226   8.6440274644e+01   5.4044568690e+01    0.3566031    0.2720618  56.83 0.0009127725    1.304    0.233
       237 -10.6521    159.3262     61.7394   7.1192291121e+01   3.6571306868e+01    0.4391749    0.2782629  47.05  0.001724286    1.706    0.414
       238  -9.9818    131.1809    240.6011   1.1461917766e+02   8.7686887052e+00    0.2730863    0.1291503  19.19  0.001273855    2.296    0.564
       239 -11.0019    123.4520     57.7555   7.7340908345e+01   4.6217052618e+01    0.9770507    0.5876506  30.03  0.003818888    2.429    0.588
       240 -10.5578    117.4220     56.0585   7.8256816397e+01   4.8017383290e+01    0.8632478    0.5972574  17.77  0.003429431    2.167    0.538
       241 -11.5764    113.2064     49.6000   7.7024363934e+01   5.0133571739e+01    0.7969953    0.6650442  72.10  0.003853211    1.190    0.159
       242  -8.9772    163.5117    243.5217   1.0835042247e+02   4.1530347674e+00    0.1192805   0.09089267  19.10 0.0001002931    1.039    0.037
       243 -12.2521    117.5341     43.5727   7.3737686796e+01   4.9955207233e+01     1.144483    0.5071957  70.67  0.003901643    2.908    0.656
       244  -9.1574    146.9532     60.5564   7.3127976554e+01   3.9831216644e+01    0.2248649     0.141111  60.78 0.0009123564    1.550    0.355
       245 -11.6462    145.7436     47.5485   6.9268426879e+01   4.2101371585e+01     1.083304    0.4781142 -26.15  0.004028921    2.747    0.636
       246 -10.9994    139.7950     43.7456   6.9121182319e+01   4.4170680548e+01    0.6352358    0.3939272  36.04  0.001649251    2.090    0.521
       247 -10.8068    136.6348     56.3308   7.3882652014e+01   4.3105960753e+01    0.5897784    0.4282911  -5.95  0.001687227    1.939    0.484
       248 -10.5883    133.7235     49.5936   7.2264410767e+01   4.4888181767e+01    0.4199435    0.2591828 -56.37 0.0009607025    1.838    0.456
       249 -11.1703    157.6132     54.9622   6.9482085538e+01   3.8020118429e+01    0.5207996    0.4360394 -69.01  0.002291184    1.179    0.152
       250 -11.1450    155.1491     49.5635   6.8266505814e+01   3.9422603397e+01    0.4163212    0.2933025 -15.17 0.0005060825    1.818    0.450
       251  -9.3978      2.0468     56.0453   1.3053947660e+02   6.7497656190e+01    0.1924934    0.1677925 -43.22 0.0004715724    1.045    0.043
       252  -9.5827    187.9615     55.0541   6.5012321575e+01   3.0705764045e+01    0.2643656    0.1841422  67.23  0.001407237    1.469    0.319
       253  -9.8742     66.9908     54.6968   9.4721158970e+01   5.9860441940e+01    0.2690201    0.2187496 -57.20 0.0006728631    1.385    0.278
       254 -10.0964    244.5145     50.9734   5.8319873614e+01   1.9549744754e+01    0.2291074     0.192411 -57.73 0.0009274467    1.091    0.083
       255 -10.9686    240.2390     50.3357   5.8526553984e+01   2.0413271472e+01    0.3472451    0.2702029 -20.53  0.001868974    1.452    0.311
       256  -9.5847    210.5973     52.9159   6.1844201000e+01   2.5984955365e+01    0.2021262    0.1743132  62.13 0.0005905677    1.314    0.239
       257 -10.3593    209.0927     46.9923   6.0569803651e+01   2.7066819586e+01    0.5367211    0.2378913 -78.77  0.001892347    4.224    0.763
       258 -11.2272    201.6789     46.7612   6.1277380845e+01   2.8711587772e+01    0.6298536    0.3801809 -56.53  0.003286375    1.575    0.365
       259 -10.9314    174.0814     48.0986   6.4969116293e+01   3.4939947626e+01    0.5997885    0.3672528  78.87  0.002870172    1.730    0.422
       260 -10.0462    176.2347     43.4203   6.3372180952e+01   3.5042518606e+01     0.363589    0.2479186 -73.20  0.001487207    1.532    0.347
       261 -11.7099    114.2589     39.0675   7.2834326664e+01   5.1451227525e+01    0.5722952    0.2890149 -31.39  0.001297573    2.143    0.533
       262 -10.2094     90.9670     47.7702   8.2818480741e+01   5.5902163102e+01    0.3250313    0.2309911 -45.44  0.000871497    1.515    0.340
       263 -10.3089     13.7377     46.6884   1.2093143413e+02   6.9070664987e+01    0.5272937    0.1984366 -32.73  0.001935405    3.258    0.693
       264 -10.0346     17.8275     41.5526   1.1655644238e+02   6.9909042146e+01    0.4232768    0.2416839 -27.99   0.00204991    1.861    0.463
       265  -9.5051      2.4756     48.8983   1.2883772065e+02   6.9207904246e+01    0.2758402    0.2208005   8.80  0.001662934    1.331    0.249
       266  -9.6321      3.1197     44.6154   1.2743493098e+02   7.0195766160e+01    0.3166216    0.1549344 -10.56  0.001125869    2.267    0.559
       267  -9.2274    193.3236     45.7038   6.1923943407e+01   3.0725525321e+01     0.217697    0.1532616 -79.52 0.0009571525    1.461    0.315
       268  -9.5781    234.6430     45.3334   5.7895611965e+01   2.2074825994e+01    0.2495262    0.1368464 -58.87 0.0009502938    1.739    0.425
       269 -10.3607    162.3610     44.7841   6.5689080934e+01   3.8275266189e+01    0.4668969    0.3473405  24.37  0.002319407    1.865    0.464
       270 -11.4189    156.0192     41.8943   6.5778836578e+01   4.0261644252e+01    0.3742476    0.3685914 -64.55  0.001009227    1.134    0.118
       271 -10.7343    153.3337     36.2924   6.4451744194e+01   4.1676966145e+01    0.3420659    0.2690409 -67.83 0.0005386886    1.244    0.196
       272  -9.5156    101.4903     44.4965   7.8277352333e+01   5.3879681423e+01    0.2532165    0.1881889  86.71 0.0007957656    1.660    0.398
       273 -11.0182     94.6385     41.2766   7.9011212787e+01   5.6072676161e+01    0.7873977    0.3023775  57.25  0.002778798    2.531    0.605
       274  -9.0953     86.4038     30.7753   7.7063528746e+01   5.9634878896e+01    0.2701657    0.2070987   6.62 0.0008550347    1.610    0.379
       275  -8.7465     87.4947     27.4836   7.5235692501e+01   5.9817190272e+01    0.1450229    0.1319129  52.56 -0.0001040576    1.003    0.003
       276 -10.8738     81.1098     39.7857   8.2856502782e+01   5.9531726503e+01     0.696776    0.3697551  55.64  0.002933579    1.862    0.463
       277 -10.9300     77.5956     34.3403   8.1689765428e+01   6.1200224282e+01    0.4676512    0.2690343  52.21  0.001038738    1.616    0.381
       278 -10.4153     82.0306     31.5422   7.8846407092e+01   6.0577784868e+01    0.4259486    0.3058195 -59.90  0.002063025    1.781    0.439
       279 -10.1641    231.5512     39.4498   5.6846193603e+01   2.3373942072e+01    0.2630981    0.1614197 -49.76 0.0008780212    1.336    0.251
       280  -9.0352    217.6179     38.7924   5.7829329959e+01   2.6271048983e+01     0.184034   0.09173895 -42.87 0.0007568147    1.652    0.395
       281  -9.8123    206.8310     37.2044   5.8406663373e+01   2.8765068282e+01    0.2208305    0.1786354 -55.64 0.0006290916    1.052    0.049
       282 -10.0321    182.2005     32.1523   5.9555690204e+01   3.5013203815e+01    0.2886676    0.1994958  42.22 0.0008200154    1.846    0.458
       283 -10.8745    176.7798     36.5252   6.1378393272e+01   3.5788541437e+01      0.36579    0.3396201  -5.09  0.001633557    1.322    0.244
       284  -9.8616    172.0632     33.0501   6.0961100903e+01   3.7367094776e+01    0.3005519    0.2230454  88.88  0.001393925    1.287    0.223
       285 -10.9355    127.8721    242.9533   1.1559504993e+02   8.8353057466e+00    0.3040172    0.2117397 -68.84  0.001845253    2.220    0.550
       286 -10.5863    176.8318     29.8610   5.9509568513e+01   3.6579276939e+01    0.4164571     0.251927  50.88  0.001368708    1.878    0.467
       287 -11.7117    182.5090     25.4037   5.7686492722e+01   3.5720223572e+01    0.6147773    0.3059314  59.28  0.002904421    2.047    0.512
       288  -9.8195    133.0550     36.8858   6.8059803160e+01   4.6857395930e+01    0.4070609      0.21931 -61.42  0.001612209    2.400    0.583
       289  -9.1490     68.3199    240.3197   1.2843349640e+02   1.6825154649e+01    0.1129995   0.08895473  -4.30 0.0007043077    1.666    0.400
       290 -10.5753      5.0965     35.7959   1.2364029147e+02   7.2133142060e+01    0.5383294     0.245148   7.32  0.002500713    2.333    0.571
       291  -9.1495      8.4461     29.4399   1.1891366156e+02   7.3328680417e+01    0.7092687    0.3461054 -22.40  0.003249476    2.316    0.568
       292  -8.6527    221.5093    239.5060   9.7197896647e+01  -2.2171186770e+00    0.1096286   0.07908334   4.28 0.0008104747    1.024    0.023
       293 -10.1287    167.8421    237.8465   1.0674330766e+02   4.3921711474e+00    0.1553251    0.1277308  32.12 0.0009805311    1.340    0.253
       294 -10.8194    148.9314    237.3383   1.1049519308e+02   6.9268413350e+00    0.3894069    0.1632235  36.96  0.001797481    1.994    0.498
       295  -8.9266    199.3196    235.2931   1.0043899648e+02   8.2459444470e-01    0.1174656   0.07039949   2.55 0.0004228527    1.607    0.378
       296  -9.7421     15.0917    233.7207   1.3992266138e+02   2.3722153304e+01    0.1955152    0.1562096  85.16  0.001014253    1.338    0.253
       297 -10.3020    242.7121    231.4628   9.2600699491e+01  -3.5656392899e+00    0.2046759    0.1398998  39.28   0.00142155    2.242    0.554
       298 -10.1314    240.1436     32.2798   5.4675300358e+01   2.2540828987e+01    0.4074341    0.3648265 -36.57  0.003011681    1.255    0.203
       299 -10.4927    197.6931    231.9933   1.0025336789e+02   1.4413189017e+00    0.2661337    0.1301216  22.57  0.001483458    1.790    0.441
       300 -12.0971    105.7865     32.9178   7.2501126271e+01   5.4482468384e+01    0.6287014    0.3591608  29.39  0.002135342    2.526    0.604
       301  -9.5082     23.4429    231.6939   1.3799688271e+02   2.3325219400e+01    0.2159984    0.0995523  39.16 0.0007492568    1.579    0.367
       302 -10.8460    189.3952     41.4959   6.1267594917e+01   3.2168463368e+01    0.4200581    0.3121309 -20.90 0.0008480425    1.558    0.358
       303  -9.5526    248.6180     33.5208   5.4385877296e+01   2.0828649500e+01    0.2165689    0.1553879 -39.14  0.001479886    1.184    0.156
       304  -8.9252    161.5086     23.4883   5.9414145750e+01   4.1116066935e+01    0.2275488    0.2054761  50.23 -0.0001080541    1.271    0.213
       305 -11.0648    160.1536     30.5751   6.1729090942e+01   4.0642982911e+01    0.5702593    0.2153088 -28.04  0.002185566    2.793    0.642
       306 -11.8543    164.1893     27.8140   6.0387560541e+01   3.9948266004e+01    0.4212821    0.3241366 -10.38 0.0003281697    1.654    0.395
       307 -10.3232     68.5182     32.7642   8.4459408767e+01   6.3484596160e+01    0.4542327    0.2917848  51.34    0.0021911    1.487    0.327
       308 -10.8877    197.7694     29.0358   5.7199040890e+01   3.1744990534e+01    0.4110072    0.3529304 -51.00  0.001825194    1.103    0.093
       309  -9.8029    199.5094     25.4808   5.6149578317e+01   3.1753393540e+01    0.2343875    0.2029568 -53.92 0.0008527842    1.095    0.087
       310  -9.0848    216.6176     32.1825   5.6366683500e+01   2.7256703525e+01     0.162333    0.1123692 -21.55 0.0004494173    1.656    0.396
       311 -10.7724    189.3447     28.8492   5.7938839998e+01   3.3709254361e+01    0.5351095    0.2825884 -25.70  0.002248517    2.051    0.512
       312  -9.6630    147.9709     31.8783   6.3858879141e+01   4.3609497266e+01    0.2205985    0.1909644 -87.11 0.0008067695    1.060    0.056
       313 -10.9992     31.0513     28.1837   1.0186077151e+02   7.1160713908e+01     0.570757    0.3953332  55.94  0.002045877    2.095    0.523
       314  -9.4356    210.9581     29.9936   5.6304968168e+01   2.8714149566e+01    0.2244539    0.1474852 -38.77 0.0008010106    1.353    0.261
       315  -8.9358    204.4642     30.9457   5.7083135333e+01   3.0023688529e+01    0.1957993   0.07096761 -49.73 0.0008084993    2.477    0.596
       316  -9.8037    230.5921     27.6772   5.4317663399e+01   2.4907440517e+01    0.3828642    0.1415353 -38.30   0.00186809    2.063    0.515
       317  -9.4974    221.2759     29.4338   5.5371467286e+01   2.6598537571e+01    0.2150704    0.1463986 -38.99 0.0005684207    1.289    0.224
       318 -11.4324     98.5001     27.1678   7.1981945532e+01   5.7098637530e+01    0.3650725    0.2765656 -44.46 0.0005130044    1.439    0.305
       319  -9.5337    247.1980    231.3436   9.1894324758e+01  -4.0108034066e+00    0.1474315   0.09687381  -8.17 0.0004686022    1.135    0.119
       320  -9.8558    234.2315    222.8038   9.2619826765e+01  -1.6811322928e+00    0.1552159   0.09801192   0.75 0.0007493691    1.319    0.242
       321 -10.9553    154.1179     25.4792   6.0951532204e+01   4.2778668933e+01    0.7283585    0.3539661  54.30  0.003177406    2.067    0.516
       322 -10.2173    157.0803     20.4848   5.9024824465e+01   4.2571537678e+01    0.4694209    0.2232004  67.79  0.002091275    1.902    0.474
       323  -9.6761      9.9774    217.6848   1.4050242585e+02   2.7359189307e+01    0.1697519    0.1270552  47.73 0.0005900752    1.054    0.051
       324 -10.0944    165.6560    212.7690   1.0357262712e+02   8.4102159155e+00    0.2320078    0.1458955  49.29  0.001090471    2.110    0.526
       325  -9.7022    250.5628     26.5848   5.2847600134e+01   2.1236714506e+01    0.2308772   0.08924381 -32.63 0.0006919416    2.114    0.527
       326  -8.9258     41.7300     27.1330   9.4687901982e+01   6.9676135709e+01    0.1743459    0.1391633   6.12 0.0005141459    1.265    0.209
       327 -10.5970    214.2419     23.7577   5.4571728796e+01   2.8707547655e+01    0.3884987    0.2862332 -23.70  0.001810762    1.525    0.344
       328 -10.3635    211.3426     18.7742   5.3601367448e+01   2.9867515012e+01    0.2020494    0.1796553 -68.33 0.0002416231    1.124    0.110
       329  -9.3477    169.5858     23.8517   5.8598591804e+01   3.9048527911e+01    0.2339163    0.1706778  67.26  0.001086729    1.337    0.252
       330  -9.5350     80.7153     19.1582   7.3405189740e+01   6.2528231074e+01    0.3316368    0.1978525  56.33  0.000814334    1.486    0.327
       331  -9.5769    152.7660    207.7958   1.0553258103e+02   1.1086590771e+01    0.1713202     0.143973  41.58 0.0007466216    1.317    0.241
       332  -9.0754     61.0352    207.0340   1.2740861478e+02   2.4231595285e+01     0.211876    0.1255406  53.82 0.0004886115    1.571    0.364
       333 -10.2960    238.8479    204.0770   8.8912134803e+01   3.7077771451e-02     0.206813    0.1254565 -21.43  0.001359944    1.381    0.276
       334  -9.4396     86.2520     23.6470   7.3849214334e+01   6.0619299854e+01    0.2424239    0.1983633 -53.50 0.0005247477    1.393    0.282
       335 -10.9659      4.9761    202.8760   1.4116729438e+02   3.0892192062e+01     0.527598     0.147015 -69.25  0.002180047    3.595    0.722
       336 -10.2492     47.3072     18.9446   8.7002211675e+01   6.9971068249e+01    0.3639548    0.2892468  28.16  0.001273257    1.151    0.131
       337  -9.8023     16.5090    204.5203   1.3841265960e+02   2.9545508556e+01     0.124619   0.09991753  53.97 2.735174e-05    1.009    0.009
       338 -10.0611     38.5392     21.9646   9.3730511039e+01   7.1095203038e+01    0.3310049    0.2043157 -28.67   0.00135025    1.728    0.421
       339 -10.5762    245.7946    200.8557   8.7319921704e+01  -3.7237360357e-01     0.172802    0.1178467  -4.37 0.0006933431    1.184    0.155
       340  -9.4614    241.9817     22.2674   5.2446390256e+01   2.3288009840e+01    0.1598908    0.1268094 -64.29 0.0006677207    1.096    0.088
       341  -8.5833    207.4702    201.4664   9.3701971866e+01   4.2948742419e+00    0.1218744   0.09541636   0.84 0.0007410474    1.023    0.023
       342  -8.6464      1.3045    200.3052   1.4197497827e+02   3.1740702359e+01    0.1070322   0.08920385 -44.00 0.0003658412    1.601    0.375
       343  -9.8101     74.4666     19.5508   7.5655280902e+01   6.3984628288e+01    0.2645051    0.2009867  29.60 0.0008464048    1.355    0.262
       344 -10.2585    234.4381    197.0671   8.8439406799e+01   1.4376180876e+00    0.3629309    0.2223363   5.52  0.001782264    1.604    0.377
       345 -12.2659      4.7000    184.6439   1.4055830080e+02   3.4966735423e+01    0.8129373    0.4883632  66.93  0.004361905    1.443    0.307
       346  -8.7526      1.3024     20.7213   1.2146661758e+02   7.5643109774e+01    0.1115496   0.09233935  48.63 0.0004507943    1.546    0.353
       347 -10.0132    239.8798    184.8141   8.5500920652e+01   2.3370517056e+00    0.1745605    0.1242171  -2.98 0.0006084902    1.205    0.170
       348  -9.8430    206.1236     18.1296   5.3816366697e+01   3.1075185280e+01    0.3699862    0.1704172 -67.91  0.001727672    2.262    0.558
       349 -10.0228    250.0036    179.7794   8.3129376321e+01   1.7308565439e+00    0.2858503    0.1118347 -25.95  0.001400772    2.460    0.593
       350  -9.5766     28.1972    176.1748   1.3365052043e+02   3.4902195837e+01    0.2333122    0.2053364  61.67  0.001150687    1.033    0.032
       351  -9.0843    230.4435    175.4837   8.5306539671e+01   4.8035430272e+00    0.1195588   0.09465434 -10.25 7.785838e-05    1.008    0.008
       352  -9.2895     57.2740    174.9791   1.2520131393e+02   3.1923854933e+01    0.1874187    0.1724687  61.88 0.0004279742    1.052    0.050
       353  -9.9407     51.8953    173.4058   1.2658332919e+02   3.2967754237e+01    0.3398419    0.1894975  83.02  0.001362345    2.187    0.543
       354  -9.9555    169.6605    191.4968   9.9289826293e+01   1.1266456244e+01    0.3323135    0.1617191  26.34 0.0009693114    2.100    0.524
       355  -9.6987    247.3043    174.0174   8.2505537735e+01   2.7981000318e+00    0.3152524    0.1346517  21.24  0.001351555    3.892    0.743
       356  -9.7334    219.6351     12.6810   5.1653564945e+01   2.8737522334e+01    0.2846123    0.1329916  75.09  0.001496657    2.142    0.533
       357  -9.5458     39.5052    173.5037   1.3018740375e+02   3.4374016687e+01    0.2271103    0.1119862 -60.51 -0.0001126586    2.114    0.527
       358 -12.3227    105.9444     20.1489   6.7223761806e+01   5.6011550624e+01    0.3058233    0.2714323 -36.48 0.0003522845    1.239    0.193
       359 -10.5577     35.7760    170.7396   1.3102576584e+02   3.5443724457e+01    0.4694283     0.234939  75.15    0.0020202    2.311    0.567
       360  -8.5655    170.6486    172.2612   9.5620072418e+01   1.4405441238e+01       0.1267    0.1062124  61.28 0.0003877227    1.611    0.379
       361 -12.1316     22.7315    149.4027   1.3316281801e+02   4.2038469239e+01    0.7077118    0.4594845 -45.17  0.002148559    1.793    0.442
       362 -10.4761     15.5500    147.8460   1.3534735139e+02   4.3037545109e+01    0.3601181    0.2452971  42.04 0.0008971739    1.367    0.268
       363 -11.5819     12.7990    139.4913   1.3561264866e+02   4.5384770647e+01    0.9435949    0.4976595  89.05  0.004423069    1.844    0.458
       364 -11.9359      9.7539    166.5806   1.3831934619e+02   3.8835176103e+01    0.6427864    0.4422244 -78.21  0.002650063    1.412    0.292
       365 -10.9150     13.9832    158.1653   1.3656264042e+02   4.0568130315e+01    0.4386105    0.2601753 -83.17  0.002266679    1.597    0.374
       366  -8.9179    197.9598    168.0004   8.9436904302e+01   1.0667854931e+01    0.1586303    0.1324741 -15.97 0.0007235513    1.076    0.071
       367  -9.8032     40.3569    163.7658   1.2900349107e+02   3.6662832711e+01    0.5469664    0.1671957 -76.11  0.001826105    3.665    0.727
       368  -9.8426    188.8241    164.0473   9.0388318416e+01   1.2784823032e+01    0.2933909    0.1973203 -23.72 0.0009305592    1.487    0.327
       369 -10.4925     28.1485    163.7150   1.3268863496e+02   3.7938998655e+01    0.3637705    0.2290018  64.59  0.001862879    1.523    0.343
       370 -10.3725     18.9888    164.9596   1.3551766761e+02   3.8472436021e+01     0.331812    0.1966247  23.67  0.001700851    1.702    0.412
       371  -9.6761    208.7470    162.3457   8.6427340996e+01   9.8583929720e+00    0.4639597    0.1282486 -44.05  0.001575759    4.217    0.763
       372  -9.5231    204.9748    163.0076   8.7213690187e+01   1.0346112773e+01    0.1974392    0.1655011  -3.28 0.0006137854    1.055    0.052
       373  -9.4271     79.2091    160.1882   1.1678886562e+02   3.2433054525e+01    0.2150604    0.1651808  65.94  0.001077776    1.393    0.282
       374  -9.9791    246.4180    158.7567   7.9870596118e+01   4.9115526102e+00    0.1708401   0.09089644 -24.39 0.0009576699    1.669    0.401
       375  -9.5667    215.0448    158.2157   8.4560380941e+01   9.5102907119e+00    0.2376127    0.1419178 -22.01  0.001106434    1.663    0.399
       376 -10.6017    105.2731    154.3072   1.0820310728e+02   2.9553045105e+01     0.492597    0.4551763  15.31  0.002703558    1.110    0.099
       377 -10.0885      8.9917    156.2332   1.3795988136e+02   4.1431795014e+01    0.3008624    0.1586691 -68.86  0.001483514    1.830    0.454
       378 -11.0749     31.4315    152.8599   1.3069490581e+02   4.0339735029e+01    0.5672616    0.3365328  88.26  0.002712504    1.742    0.426
       379 -11.8304      3.8240    147.1219   1.3903813159e+02   4.4067178418e+01    0.7659128    0.5080331 -84.81  0.003574778    1.379    0.275
       380 -12.1539      3.9909    137.0136   1.3838733695e+02   4.6617541874e+01    0.3233821    0.2323593 -66.19 0.0003435561    1.360    0.265
       381 -10.9448      1.9955    142.9998   1.3939240496e+02   4.5220909268e+01    0.2923106    0.2133336 -88.43 0.0009484886    1.236    0.191
       382 -10.7943      5.5183    141.4955   1.3816219886e+02   4.5378473677e+01    0.3050768    0.2194088  71.24 0.0006161889    1.260    0.207
       383 -10.2117     70.7451    151.5704   1.1802758597e+02   3.5807266433e+01    0.3846296    0.2170218  49.98  0.001081138    1.789    0.441
       384  -9.7131     47.8955    151.8907   1.2532093737e+02   3.8778504429e+01    0.3685241    0.2641198  34.97  0.001053193    1.318    0.241
       385 -11.2876     47.7168    146.8986   1.2474350721e+02   4.0074356540e+01    0.5897698    0.5175413  15.63  0.003006123    1.247    0.198
       386 -11.3764     62.9256    150.1139   1.2027220916e+02   3.7286473213e+01    0.5054432    0.4336571  16.83  0.001639223    1.261    0.207
       387  -9.6658    234.6022    150.2499   7.9962084480e+01   7.7300476381e+00    0.1762298   0.09731884 -25.30 0.0009527563    1.656    0.396
