#   1 NUMBER                 Running object number                                     
#   2 MAG_AUTO               Kron-like elliptical aperture magnitude                    [mag]
#   3 X_IMAGE                Object position along x                                    [pixel]
#   4 Y_IMAGE                Object position along y                                    [pixel]
#   5 X_WORLD                Barycenter position along world x axis                     [deg]
#   6 Y_WORLD                Barycenter position along world y axis                     [deg]
#   7 A_WORLD                Profile RMS along major axis (world units)                 [deg]
#   8 B_WORLD                Profile RMS along minor axis (world units)                 [deg]
#   9 THETA_WORLD            Position angle (CCW/world-x)                               [deg]
#  10 FWHM_WORLD             FWHM assuming a gaussian core                              [deg]
#  11 ELONGATION             A_IMAGE/B_IMAGE                                           
#  12 ELLIPTICITY            1 - B_IMAGE/A_IMAGE                                       
         1 -13.0717    166.0237     55.4091   5.0750705633e+01   3.6480589336e+01     1.136812      1.00198 -22.82  0.003865867    1.253    0.202
         2 -13.1477    181.8292     27.7746   4.0749084608e+01   3.6338590061e+01    0.9659263    0.7851269 -76.62   0.00361317    1.163    0.140
         3 -11.5340    190.5710     14.9234   3.6455020650e+01   3.5709927929e+01    0.3406971    0.2265993 -29.54  0.001940899    1.675    0.403
         4 -10.3372    120.2658      9.0440   4.4604647064e+01   5.2984326019e+01    0.4203717    0.3137173  41.40   0.00175624    1.262    0.208
         5  -9.6648    117.7407    245.3656   1.0305484555e+02   7.2794421789e+00    0.1410529    0.1266561  13.76 0.0003127276    1.238    0.193
         6 -19.2499     61.6854    216.8911   1.1181062041e+02   2.0925852367e+01     6.302691     5.471389 -66.44   0.02272757    1.273    0.215
         7 -10.7980      1.3050    203.4749   1.2353731705e+02   3.0356655066e+01     0.267261   0.08738773 -79.28  0.001128886    2.583    0.613
         8 -11.5346    199.4260    228.8893   8.3917208160e+01  -2.3922429593e+00    0.3962272    0.2842207  51.27  0.001690132    1.933    0.483
         9 -10.9441    202.0256    185.4313   7.5418284231e+01   4.5562808597e+00    0.3351923    0.2456627  25.73  0.001558624    1.359    0.264
        10 -11.2879    208.5150    184.1096   7.3876088756e+01   3.6939211796e+00    0.3500353    0.2475421  25.97  0.001516967    1.429    0.300
        11 -11.1509    160.9098    226.1688   9.1312880551e+01   4.0267883018e+00    0.3875134    0.2804446 -62.86  0.001341309    1.885    0.469
        12 -10.8519    157.3061    219.8845   9.1074961729e+01   5.7434433251e+00    0.4062455    0.2586199 -47.80  0.001685617    1.738    0.425
        13  -9.2072    135.8885    229.7696   9.7182578042e+01   7.3544862434e+00    0.1836591     0.162491  16.07 0.0004080773    1.141    0.124
        14  -9.0781    114.9474    221.9782   1.0065292525e+02   1.2161609084e+01    0.1798993    0.1745975  57.41 0.0003530389    1.087    0.080
        15 -10.3290    221.3731    176.2188   6.9844462026e+01   2.9360790804e+00    0.3006123    0.1774713 -51.19  0.001311108    2.098    0.523
        16 -11.3058    170.3452    236.8818   9.1026853714e+01   7.2258594322e-01    0.3428515    0.2245407 -36.93  0.001929537    1.677    0.404
        17 -11.3243    188.0121    171.4666   7.5431369601e+01   9.6807874511e+00    0.4384016    0.3704248 -65.06  0.001190417    1.499    0.333
        18 -10.3118    187.1514    165.9406   7.4443872104e+01   1.0929044582e+01    0.3846617    0.3239244 -75.15   0.00146266    1.601    0.375
        19  -8.9900      5.7609    218.5786   1.2350269739e+02   2.6722606779e+01    0.1497684    0.1259641 -83.68 0.0004781006    1.259    0.206
        20 -11.4571      9.4789    215.8194   1.2261967123e+02   2.6963842867e+01    0.2664388     0.175829  38.47 0.0002737233    1.560    0.359
        21  -9.2877    193.0335    165.3071   7.3086748688e+01   9.9507288183e+00    0.2062842    0.1862076  20.58 0.0006216795    1.115    0.103
        22 -11.0533    119.8803    234.8423   1.0129325262e+02   8.8937830510e+00    0.2800386     0.184623 -47.38 0.0007215918    1.753    0.430
        23  -9.9542    152.3661    216.4682   9.1588950613e+01   7.1912731590e+00    0.3874478    0.3329391  52.58  0.001981945    1.268    0.211
        24 -10.1745     17.8149    154.9802   1.1590705387e+02   4.0314635713e+01    0.2320505    0.1694608 -58.10 0.0002443389    1.311    0.237
        25  -9.2287    125.3432    231.1793   9.9641069873e+01   8.7427290565e+00    0.4364937    0.3340526 -74.27  0.002524021    1.614    0.380
        26 -10.1876     17.8839    148.8665   1.1522758520e+02   4.1817032355e+01    0.3142995    0.2635997 -24.55  0.001618634    1.500    0.333
        27  -8.3487     14.6646    143.7965   1.1554087053e+02   4.3326331425e+01    0.1154422   0.08795187 -38.77  0.000216132    1.506    0.336
        28  -9.7880    185.4468    140.5826   6.9144986665e+01   1.6355527911e+01    0.2504994    0.2328473 -33.37 0.0002752492    1.029    0.029
        29  -8.5206      2.6700    135.7544   1.1799790918e+02   4.6137338037e+01    0.1202252   0.08052605 -46.32   0.00045286    1.543    0.352
        30  -9.9673     32.1801    132.5751   1.0902568903e+02   4.4635699508e+01    0.3210973    0.1782198 -40.17  0.001351712    2.008    0.502
        31 -14.3610     33.4387    236.3155   1.1923983699e+02   2.0250046348e+01    0.4013351    0.3050976 -79.93  0.001502992    1.309    0.236
        32 -11.3581    160.5756    129.6702   7.2002686558e+01   2.3852651100e+01    0.4832816    0.3585722 -22.62  0.002197133    1.548    0.354
        33  -9.4983     29.7074    127.4830   1.0900269783e+02   4.6142374767e+01    0.4108625    0.2370311  -9.00   0.00185217    2.701    0.630
        34  -8.6485    143.0077    232.8341   9.6106072888e+01   5.6720485558e+00    0.2130354    0.1669668 -48.56 0.0009552223    1.454    0.312
        35 -11.3575     44.8518    114.9306   1.0196513562e+02   4.7770079897e+01    0.4960627    0.3462047  83.23  0.002445269    1.842    0.457
        36 -10.4986    168.1646    113.7881   6.6290591226e+01   2.5516309060e+01    0.3874134    0.3101027 -71.89 0.0008807465    1.504    0.335
        37  -9.9441     44.3086    105.7026   1.0024629248e+02   5.0099079730e+01    0.2070947    0.1940752  81.93 0.0005670353    1.201    0.167
        38 -11.1245     40.1841    103.4103   1.0118543773e+02   5.1094984636e+01     0.507665    0.2667622  19.14  0.001785006    2.284    0.562
        39  -9.9631    156.6009    230.0340   9.2821031929e+01   4.0280920177e+00    0.3552008    0.2957777 -23.25  0.002172659    1.301    0.232
        40  -8.0379      5.3023    105.3144   1.1347748146e+02   5.3387472580e+01    0.1335375   0.07431312 -45.93 0.0003890342    1.615    0.381
        41 -10.8244     34.5723     98.2589   1.0206789954e+02   5.2894861763e+01    0.4873703    0.3391095 -18.31  0.002603364    1.659    0.397
        42  -9.3651     21.9592     99.9516   1.0688663851e+02   5.3574773525e+01    0.2011111    0.1720003 -55.04 0.0005911684    1.030    0.029
        43 -10.5567     96.9465     98.2771   8.0795284937e+01   4.3998993342e+01    0.2867213    0.2582192 -60.42  0.000865869    1.185    0.156
        44 -10.4976     90.9721     95.2010   8.1805033312e+01   4.5782912877e+01     0.346873    0.2134765  38.42  0.001061131    1.685    0.407
        45 -10.4903     67.3765     94.9348   8.9614773971e+01   4.9714133011e+01    0.5111791    0.2021346  34.66  0.001666612    2.668    0.625
        46  -8.9754    190.1567     93.5863   5.6688556786e+01   2.4444908586e+01    0.2901537    0.1918109 -22.78  0.001176908    1.835    0.455
        47 -10.5327     94.3284     90.5989   7.9399097257e+01   4.6175561671e+01    0.2812724    0.2582958   8.15 0.0003332542    1.097    0.088
        48  -9.9678     54.5963     91.0110   9.3104213611e+01   5.2374093543e+01    0.3033401    0.2000302  27.42 0.0006217636    1.651    0.394
        49 -10.4386     23.6186     87.8545   1.0385210678e+02   5.6314149158e+01    0.3591108    0.2800814 -18.61  0.001863523    1.353    0.261
        50  -9.3451      1.4702     87.4564   1.1203253817e+02   5.7814979883e+01    0.1247459   0.09943506 -59.38  4.38189e-05    1.025    0.024
        51  -9.7543     32.8071     86.2883   1.0001829160e+02   5.5881298559e+01    0.2143466    0.1588394  22.12 0.0008545979    1.520    0.342
        52 -10.7320    153.4501     78.4250   5.9872631344e+01   3.5725973839e+01    0.5859549    0.3462166  79.72   0.00209199    3.008    0.668
        53 -12.2314    154.4452     68.4731   5.6765587645e+01   3.7208279344e+01    0.8654817    0.5872781  57.14  0.001153053    1.459    0.315
        54  -9.4795    139.2378    209.0396   9.3287731780e+01   1.0828408004e+01    0.2179829    0.1719055  27.56            0    1.220    0.181
        55  -9.3208     38.4805     69.4692   9.3315697425e+01   5.9055200172e+01    0.3049242    0.1957314 -41.72  0.001148171    1.335    0.251
        56  -9.9181     32.9311     70.0000   9.5742923168e+01   5.9512026373e+01    0.4536923    0.1865277  21.91  0.001571498    2.755    0.637
        57  -9.1645    130.3369    239.3431   9.9675468746e+01   6.4634144500e+00    0.1929787    0.1375979 -38.22 0.0008364328    1.682    0.405
        58 -11.7516    171.6579     46.8741   4.7391505227e+01   3.6344497259e+01    0.4787632    0.4429057 -73.61 0.0008053903    1.045    0.043
        59  -9.3078    107.2778     59.4768   6.5463289972e+01   4.9573340169e+01    0.3551863    0.1421638  52.32  0.001285194    2.644    0.622
        60 -10.4276    220.1175    223.1037   7.8964232226e+01  -4.5139475714e+00    0.2041885    0.1737295 -11.47  0.001353403    1.153    0.132
        61 -11.1726    201.0014    246.7829   8.6516675945e+01  -5.2893622079e+00    0.2427417    0.1954843   3.28 0.0007301753    1.068    0.064
        62  -8.3443    229.8361     27.3905   3.5549883253e+01   2.5543518969e+01     0.158691    0.1035957  63.11 0.0003164007    1.628    0.386
        63 -10.2310    105.1664    247.3121   1.0586008513e+02   8.7723249743e+00    0.1596733    0.1560648  36.52 0.0003437513    1.191    0.161
        64  -8.0548    124.6957     33.2548   5.2027296894e+01   4.9425095868e+01    0.1299901    0.1048264 -82.39 0.0002130391    1.509    0.337
        65  -8.7921    115.9964     13.0000   4.6825043036e+01   5.3623440386e+01     0.260218    0.1306008  54.72  0.001258741    1.670    0.401
