#   1 NUMBER                 Running object number                                     
#   2 MAG_AUTO               Kron-like elliptical aperture magnitude                    [mag]
#   3 X_IMAGE                Object position along x                                    [pixel]
#   4 Y_IMAGE                Object position along y                                    [pixel]
#   5 X_WORLD                Barycenter position along world x axis                     [deg]
#   6 Y_WORLD                Barycenter position along world y axis                     [deg]
#   7 A_WORLD                Profile RMS along major axis (world units)                 [deg]
#   8 B_WORLD                Profile RMS along minor axis (world units)                 [deg]
#   9 THETA_WORLD            Position angle (CCW/world-x)                               [deg]
#  10 FWHM_WORLD             FWHM assuming a gaussian core                              [deg]
#  11 ELONGATION             A_IMAGE/B_IMAGE                                           
#  12 ELLIPTICITY            1 - B_IMAGE/A_IMAGE                                       
         1 -15.2101    137.5873     25.2357   6.1961651649e+01   4.7882373684e+01     3.408117     2.641334 -16.72   0.00617666    1.346    0.257
         2 -17.0427    241.9034     96.7852   6.5337484182e+01   1.1678231012e+01     8.080994     3.411736 -22.87   0.03091479    2.607    0.616
         3 -12.9547    200.1847     12.5961   4.8004452785e+01   3.2747426809e+01    0.5528529    0.2294442 -24.19  0.002176265    2.435    0.589
         4 -17.8387    230.4096     21.9831   4.7494620789e+01   2.4076710928e+01     7.365545     2.980127  60.01    0.0304883    2.416    0.586
         5 -10.9051    146.0163     12.8935   5.5690576149e+01   4.7122294338e+01    0.4076926    0.2124053 -31.53  0.001324686    1.936    0.483
         6 -11.3494    142.5998      7.7504   5.4352057534e+01   4.8536876623e+01    0.5676931    0.3317436  40.18  0.002073077    1.738    0.425
         7 -15.0361    186.5162     88.8425   7.2567357320e+01   2.5639378106e+01      7.54599     2.278112 -39.77   0.02346922    3.207    0.688
         8 -11.4576    123.0035      8.2877   5.8309019463e+01   5.3490245877e+01    0.2583373    0.2001103 -29.94 0.0003821812    1.351    0.260
         9 -10.6891    207.1840      8.2543   4.6005164371e+01   3.1368005318e+01    0.1810366    0.1390019 -59.70 0.0003807804    1.272    0.214
        10 -11.5010    135.2187      3.9186   5.4167190594e+01   5.0815630473e+01    0.4695136     0.241857 -11.19  0.001250447    2.229    0.551
        11 -10.7416    208.9082      3.6146   4.4518871853e+01   3.1375507389e+01    0.1781016    0.1631754 -56.87  0.000320299    1.055    0.053
        12 -10.3600    119.3656      2.2389   5.6520687440e+01   5.4975857273e+01    0.2739232    0.1452575  47.84  0.001241937    1.702    0.412
        13 -10.8350    134.0000    147.1274   9.7962546415e+01   2.6214810938e+01    0.6255279    0.2008741 -54.95  0.001998659    4.018    0.751
        14 -12.4645    160.5673    128.4711   8.8062268227e+01   2.4444215867e+01    0.4518176    0.3753651 -48.56  0.001521271    1.274    0.215
        15 -13.4271    185.7465     71.2014   6.7715819962e+01   2.8729690324e+01    0.9770421    0.3936143  38.90  0.003002901    3.503    0.715
        16 -13.4805    167.5853    114.3716   8.3168675608e+01   2.5543085877e+01    0.6777456    0.5417294  -5.10  0.001149445    1.507    0.336
        17 -10.0209    150.9978    121.5028   8.8587716208e+01   2.7836204195e+01    0.2369112    0.1425343  46.22  0.001038723    1.608    0.378
        18  -9.6600    141.3461    121.6657   9.0867677544e+01   2.9849642363e+01    0.1543882    0.1167238  86.65 0.0007049245    1.769    0.435
        19 -10.8404    135.0000    112.9860   9.0330104966e+01   3.2942325504e+01    0.4352274    0.1589206 -41.35   0.00146042    2.953    0.661
        20 -11.7057    134.6245    106.3253   8.8767086321e+01   3.4385907561e+01    0.7412511    0.2832397 -46.28  0.002588874    2.653    0.623
        21 -12.0194    151.9115    106.9548   8.4793540401e+01   3.0477708033e+01    0.6347496    0.3987797 -76.44  0.001491167    3.134    0.681
        22 -11.5071    145.8517    100.3102   8.4474156059e+01   3.3136790898e+01      0.34558    0.3237511  76.99 0.0006488248    1.119    0.107
        23 -10.2030    108.0025    233.2605   1.1506045691e+02   1.5303025344e+01     0.145026   0.07556982  43.88 0.0002813295    1.480    0.324
        24 -12.5129    166.4047    102.5818   8.0405795665e+01   2.7997347301e+01    0.4495379    0.3564997 -37.58   0.00158236    1.276    0.216
        25 -10.3845    140.8224    104.3370   8.6739993243e+01   3.3450985225e+01    0.2570242    0.2057253 -54.53  0.000701995    1.306    0.234
        26 -12.5614    154.3548     93.3620   8.0596807255e+01   3.2531279160e+01    0.5988884    0.5524507  33.18  0.002580329    1.095    0.087
        27 -12.1576    155.2431    100.1837   8.2251951260e+01   3.1028027549e+01    0.6356609    0.4687581 -67.56  0.002887679    1.737    0.424
        28 -11.4770    159.8218     98.5320   8.0774527348e+01   3.0282446531e+01    0.2775486    0.2713271  -5.51  0.000265547    1.030    0.029
        29  -9.6214    127.2972    104.3406   9.0101485050e+01   3.6336885421e+01    0.1497779     0.119766  -4.69 0.0007033107    1.662    0.398
        30 -10.6156    112.1431    104.1308   9.4010445586e+01   3.9417690781e+01    0.2050998    0.1730706  85.74 0.0005860031    1.327    0.247
        31 -10.6507    123.6654    101.6591   9.0347896038e+01   3.7647373025e+01    0.1529805    0.1199493  -1.78 0.0001233485    1.755    0.430
        32 -11.0775    132.5191     96.6182   8.6750197533e+01   3.6817818824e+01    0.3074152    0.2729094 -65.49 0.0008490623    1.188    0.158
        33  -9.8184    113.4788     95.0420   9.1323807364e+01   4.1101842268e+01    0.2163663    0.1424823 -46.65 0.0003016105    1.489    0.328
        34 -11.8606    139.2028     90.0732   8.3273472183e+01   3.6648463775e+01    0.4695294    0.3313869 -63.59 0.0006540847    1.755    0.430
        35 -13.3101    168.3405     84.0530   7.4885117521e+01   3.0893247017e+01    0.7668989    0.5830444  16.71   0.00353211    1.621    0.383
        36 -11.8251    158.1899     82.3171   7.6581566572e+01   3.3669366631e+01    0.3876929    0.3233422 -59.36 0.0007883376    1.320    0.243
        37 -12.1525    191.5505    152.0357   8.6804536423e+01   1.3836685067e+01    0.3409823    0.2237802 -59.22  0.001527957    2.275    0.560
        38 -10.5670     87.1973     75.9087   9.3684858112e+01   5.0077374951e+01    0.4794278    0.2198024 -64.91  0.001464951    4.314    0.768
        39 -12.7958    152.3165     83.6402   7.8297370501e+01   3.4835044082e+01    0.3690461    0.2841167 -31.54  0.001337136    1.332    0.249
        40 -10.4179    206.4653     74.2649   6.4985222212e+01   2.3100098819e+01    0.2552127    0.2242156 -79.90 0.0006777681    1.286    0.222
        41  -9.8700    123.5193     73.0186   8.2221916429e+01   4.3490909241e+01    0.2200824      0.12662 -61.10 0.0008102022    2.551    0.608
        42 -12.3878    148.8498     69.2718   7.4742720202e+01   3.8278551028e+01    0.7149242     0.606011  69.60  0.003585998    1.279    0.218
        43 -10.9022    130.6586     66.1186   7.8149068001e+01   4.3178246452e+01    0.3234722    0.2822673 -41.73  0.000933875    1.144    0.126
        44 -10.8666    128.9966     62.2297   7.7294787853e+01   4.4270158489e+01    0.2774421    0.2151619  67.02  0.001131663    1.474    0.321
        45 -14.3513      5.3005    200.7454   1.3103788873e+02   3.3085747320e+01     1.434167    0.5717765 -89.25  0.008662688    2.142    0.533
        46 -13.4418    199.6058     61.2207   6.2425815161e+01   2.6755773937e+01     1.423187     1.257187 -12.79  0.007574632    1.173    0.147
        47 -11.4930    147.8419     58.9286   7.1646429446e+01   4.0306975318e+01    0.3990646    0.2363136 -46.28 0.0005849369    1.801    0.445
        48 -11.9273     94.4746     59.1940   8.6115423529e+01   5.2181902273e+01     0.494753    0.1904631  45.39  0.001827525    2.743    0.635
        49 -11.4538    135.1682     57.7241   7.4230516047e+01   4.3607991128e+01    0.2693223    0.1973993 -44.29 0.0005996248    1.397    0.284
        50 -13.3987    213.0895     51.8595   5.7731669570e+01   2.4683527547e+01    0.5699893    0.3311758  42.32  0.002475891    1.943    0.485
        51 -13.5486     70.4189    147.5278   1.1306876586e+02   3.6648803790e+01     1.666677    0.9604658 -79.67  0.005427226    1.825    0.452
        52 -13.9404     62.1498    160.3908   1.1661907845e+02   3.4986135685e+01    0.7271475    0.4468234  68.31  0.001531508    1.594    0.373
        53 -12.0721    190.9410     53.0955   6.1449007315e+01   3.0153249777e+01     0.300457    0.2436922 -51.21 0.0004851244    1.269    0.212
        54 -14.0512     49.8816    170.6022   1.2038878428e+02   3.4366742683e+01    0.6862583    0.5439691  45.83  0.001521475    1.320    0.242
        55  -9.2555    210.5558     40.1100   5.4751549269e+01   2.6870778213e+01    0.3988301    0.1737697 -49.33  0.001466683    2.581    0.613
        56 -14.3354     57.0646    165.3740   1.1830515530e+02   3.4581466598e+01       1.1779    0.8051375  45.36  0.002576879    1.402    0.287
        57 -11.7499      5.0579    170.4711   1.2966919587e+02   3.8834503844e+01    0.1832238    0.1310583  73.00 0.0003994103    1.052    0.049
        58  -9.1241     81.3175     22.6931   7.6075596301e+01   6.1030318562e+01    0.1280047    0.1080784 -65.66 0.0005565621    1.632    0.387
        59 -10.5189    185.9588     21.3008   5.2404772274e+01   3.5567356618e+01    0.2009771    0.1789373 -76.19 0.0005445246    1.127    0.113
        60 -11.4327    246.1596    163.8161   7.9550252083e+01   1.8425734393e+00    0.4539011    0.2381256  12.75  0.001981885    2.756    0.637
        61 -10.9056     39.1897     18.8337   9.1342098472e+01   6.8312916848e+01    0.1798752    0.1263794 -18.32  0.001080765    1.375    0.273
        62 -15.1420     21.6189    190.0567   1.2754377958e+02   3.3548849400e+01    0.9596682    0.6803224  82.70  0.003888615    1.124    0.110
        63 -12.0650    192.7829    194.8997   9.4542340412e+01   7.1658312043e+00    0.8545586    0.4640307 -63.22  0.002802697    6.790    0.853
        64 -13.8793     36.0964    180.3580   1.2407744618e+02   3.3948486130e+01     1.453897    0.5652889  69.54  0.006261589    2.989    0.665
        65 -13.8717    166.3577     68.8881   7.0805242852e+01   3.3998870856e+01    0.8432904    0.6100364  -5.60  0.001742018    1.749    0.428
        66 -10.3374    202.1595    248.1845   1.0071577952e+02  -7.3106314288e-01    0.1617128     0.112319  27.31 0.0003668422    1.142    0.125
        67 -10.3669    132.4324    138.9233   9.6707227571e+01   2.8158001704e+01    0.4032739    0.1935375 -55.92  0.001624878    2.388    0.581
        68 -11.1646    136.0000    130.3707   9.4081235229e+01   2.9185970052e+01    0.8300923    0.1534537 -48.44   0.00206296    5.837    0.829
        69 -11.1373    135.1977    121.4661   9.2286271120e+01   3.1163480354e+01    0.5840634    0.1953267 -48.22  0.001792807    3.112    0.679
        70  -9.4637     98.2968    135.2770   1.0425561308e+02   3.5108123657e+01    0.1257705    0.1096481 -14.87  0.000273144    1.532    0.347
        71 -10.6078    166.0879    134.2262   8.8164166763e+01   2.2195559472e+01    0.2210071    0.1912025  20.17 0.0004272757    1.218    0.179
