#   1 NUMBER                 Running object number                                     
#   2 MAG_AUTO               Kron-like elliptical aperture magnitude                    [mag]
#   3 X_IMAGE                Object position along x                                    [pixel]
#   4 Y_IMAGE                Object position along y                                    [pixel]
#   5 X_WORLD                Barycenter position along world x axis                     [deg]
#   6 Y_WORLD                Barycenter position along world y axis                     [deg]
#   7 A_WORLD                Profile RMS along major axis (world units)                 [deg]
#   8 B_WORLD                Profile RMS along minor axis (world units)                 [deg]
#   9 THETA_WORLD            Position angle (CCW/world-x)                               [deg]
#  10 FWHM_WORLD             FWHM assuming a gaussian core                              [deg]
#  11 ELONGATION             A_IMAGE/B_IMAGE                                           
#  12 ELLIPTICITY            1 - B_IMAGE/A_IMAGE                                       
         1 -17.3319    143.4447    104.7126   8.4876371554e+01   3.2697795264e+01     6.276298     3.486641 -53.17   0.02182801    1.994    0.498
         2 -14.9849     23.3031     74.8575   1.1323029929e+02   5.8041830174e+01     2.659987     1.470168 -61.32   0.01504487    1.411    0.291
         3 -14.3119     49.1326     89.4858   1.0791301735e+02   5.2350016539e+01     2.158545      1.08682 -69.87  0.009774452    2.139    0.532
         4 -15.3028     65.5237     47.2519   8.9995775844e+01   5.9209381784e+01     2.362369     1.921477  31.26   0.01424517    1.361    0.265
         5 -14.6100     17.4593      9.9081   9.5210232307e+01   7.1231320328e+01     1.346555    0.8735934  -4.71  0.008139712    1.532    0.347
         6 -15.1657    187.4442      8.5550   4.6823204982e+01   3.6851228551e+01     2.567897     1.028979  59.35   0.01040388    2.197    0.545
         7 -14.5106    164.0835      5.7350   4.9023056441e+01   4.3210750939e+01     1.554742    0.9019626  74.93   0.00724665    1.696    0.410
         8 -13.8337     56.7980      5.8990   7.5321991871e+01   6.6955387061e+01    0.9914276    0.6639871   2.87   0.00592006    1.420    0.296
         9 -11.8837     87.3305      3.0074   6.3627803128e+01   6.1728787838e+01    0.2868772    0.1762082  26.53  0.001517593    1.568    0.362
        10 -13.5598    208.1441    228.8319   9.6821708936e+01  -2.3195507155e+00    0.9523382    0.2859964  36.83  0.003825085    3.005    0.667
        11 -10.0213    140.3153    227.3275   1.0890763791e+02   9.2347463283e+00     0.115064    0.0912667  15.99 0.0004149531    1.673    0.402
        12 -11.4210    187.4738    226.0110   1.0007851916e+02   1.4897948253e+00    0.1624896     0.122412 -35.32 0.0006530596    1.594    0.373
        13 -11.0441    163.6607    228.5418   1.0477903442e+02   5.1512779982e+00    0.3396007     0.205685  18.79  0.001682276    2.524    0.604
        14 -12.8451    223.2865    218.4356   9.2481820439e+01  -3.4986235450e+00    0.4233801    0.2849174 -16.64  0.002576876    1.613    0.380
        15 -15.3105     74.4894    182.8967   1.1640082282e+02   2.7851481620e+01     1.560999    0.8423329  48.65  0.008342217    1.690    0.408
        16 -16.1691     73.3324    198.8065   1.1838583939e+02   2.4763532104e+01     2.929972     1.241901  57.08   0.01390608    2.310    0.567
        17 -11.0969    204.7682    211.3684   9.4598527472e+01   5.5108897680e-01    0.1864666    0.1003919  34.65 0.0009500724    1.632    0.387
        18 -10.7801    163.3213    208.5422   1.0193074756e+02   8.3072266216e+00    0.2079257    0.1215722 -45.49  0.001083863    2.007    0.502
        19 -11.7218    201.7069    207.4258   9.4491385276e+01   1.6401637785e+00    0.2499611     0.109722  45.66  0.001133149    2.082    0.520
        20 -13.2916    148.4687    202.1560   1.0385582011e+02   1.2031610767e+01    0.5086772    0.4072439  80.76  0.001935607    1.468    0.319
        21 -11.0258    130.5846    201.1712   1.0727299116e+02   1.5346477731e+01    0.1672942    0.1228789 -43.17 0.0009499893    1.681    0.405
        22 -11.7454    139.0482    199.9598   1.0540241767e+02   1.4091566720e+01    0.3239714    0.1768616  66.67  0.001365093    2.770    0.639
        23 -10.4136    204.6729    197.3054   9.2165661306e+01   2.5817553003e+00    0.1220734    0.1033948  71.29 0.0006318981    1.650    0.394
        24 -12.8176    123.7834    194.7452   1.0772898731e+02   1.7716230287e+01    0.4173073    0.2689444  54.63  0.001972198    1.419    0.295
        25 -12.8950    192.4144    192.0112   9.3530073569e+01   5.6448822977e+00    0.4665617    0.3630778 -61.48  0.002601026    1.767    0.434
        26 -12.1333    142.5350    188.9943   1.0299439363e+02   1.5481467416e+01    0.2987107    0.2774853  49.57  0.001865356    1.067    0.062
        27 -12.2173    149.6286    187.0049   1.0120271700e+02   1.4545233236e+01    0.3216046    0.2293835 -74.71  0.001651988    1.852    0.460
        28 -12.9775    144.6213    184.3527   1.0179822764e+02   1.5971264781e+01    0.6275238    0.3139791 -65.89  0.002427421    3.249    0.692
        29 -11.7996    147.2376    179.7091   1.0045692543e+02   1.6365711410e+01    0.2754842     0.232486  54.74 0.0008685186    1.102    0.092
        30 -15.5851     94.7267    192.3255   1.1335636864e+02   2.2934799707e+01     1.744055     1.045738 -82.35  0.009115925    1.907    0.476
        31 -12.0736    113.1947    187.8708   1.0893251358e+02   2.0852957730e+01    0.2935033    0.2484638 -52.96  0.001795608    1.363    0.266
        32 -11.6680      8.4894    186.6881   1.2975155725e+02   3.4570190301e+01    0.3519556    0.1570517 -65.42  0.002085357    2.123    0.529
        33 -12.1661    159.6632    185.7437   9.8923575500e+01   1.2893561546e+01    0.4529444    0.2011168  43.45  0.001919652    2.026    0.506
        34 -11.0303    130.5010    184.0114   1.0470847856e+02   1.8612590281e+01    0.1976867    0.1336245 -56.39 0.0007216018    1.600    0.375
        35 -11.2691    166.4597    180.2146   9.6541851715e+01   1.2593146970e+01    0.3189813    0.1385074 -48.13   0.00129414    2.587    0.613
        36 -12.3077    121.0002    179.9597   1.0609119681e+02   2.1102881153e+01    0.4231917    0.2401929  26.00  0.001779933    2.712    0.631
        37 -11.4608    131.3825    178.1381   1.0356677747e+02   1.9614106321e+01    0.2364963     0.179462  38.38 0.0008446862    1.320    0.242
        38 -11.9303    140.1238    175.5656   1.0125058294e+02   1.8509133254e+01    0.2741241    0.1833915 -33.98  0.001326126    1.939    0.484
        39 -12.9256    152.0158    210.5716   1.0441747978e+02   9.9703175025e+00    0.6301818    0.4061329 -32.09  0.003078688    2.175    0.540
        40 -12.9093    147.4647    209.5860   1.0515497243e+02   1.0931452676e+01    0.4684322    0.3521725  45.04  0.002003848    1.134    0.118
        41 -11.8567    108.0028    171.4081   1.0758682368e+02   2.5111842401e+01    0.2857558     0.211201  64.25  0.001450903    1.317    0.241
        42 -11.0566    121.0249    171.4908   1.0471820559e+02   2.2834348271e+01    0.2099174    0.1281858  43.85 0.0004610305    1.550    0.355
        43 -12.0867    135.1249    168.8634   1.0115502941e+02   2.0792091458e+01    0.3416894    0.2011164  44.26  0.001500214    1.596    0.374
        44 -12.0246    130.6484    167.9724   1.0198524926e+02   2.1811191173e+01     0.282042    0.2265011  67.92  0.001240908    1.266    0.210
        45 -12.1237    135.8559    210.4879   1.0753587683e+02   1.2780868264e+01    0.2994026     0.261876 -38.16  0.001948428    1.441    0.306
        46 -11.3285    206.7293    166.2917   8.5754474815e+01   7.0538734209e+00    0.3032181    0.1533311  28.09   0.00118437    2.550    0.608
        47 -10.2820    124.6692    160.6880   1.0202247599e+02   2.4444307495e+01    0.1374735    0.1147465  -4.19 0.0004903657    1.673    0.402
        48 -12.2418     19.4000    153.7524   1.2515939132e+02   4.0513082865e+01    0.5698291    0.4007778 -77.94  0.003870922    1.158    0.136
        49 -12.2910    197.7173    150.1262   8.4035135159e+01   1.1670862118e+01    0.4629051    0.1892361  39.78    0.0016858    2.537    0.606
        50 -12.6241    106.9122    147.8570   1.0382885174e+02   3.0442324464e+01    0.3708594     0.341091  13.64  0.001627586    1.343    0.256
        51 -13.7211    106.6378    142.0801   1.0280447077e+02   3.1790374256e+01    0.8369722    0.6375162  43.00  0.003201678    1.351    0.260
        52 -15.0189    134.9241    117.0885   9.0205078739e+01   3.1904169013e+01     1.964595     1.129299 -57.88  0.007907862    1.997    0.499
        53 -15.2976    149.1373    132.0857   9.0394923025e+01   2.5663293669e+01     1.673448     1.100302  45.57  0.006377504    1.507    0.337
        54 -11.9583    186.0266    248.6858   1.0353765691e+02  -1.2212871666e+00    0.4878261    0.1505041  42.46  0.002197855    2.496    0.599
        55 -13.0682    185.4213    118.7221   7.9069829198e+01   2.0212349677e+01    0.5862669    0.4305413 -14.67  0.002650943    1.637    0.389
        56 -14.7754    186.1613    111.0805   7.6949294856e+01   2.1489926711e+01     1.633933     1.112801  28.72  0.007062633    1.761    0.432
        57 -14.3152     37.3601    108.4933   1.1510263520e+02   4.9169291483e+01      1.60325     1.335857  56.38   0.01052638    1.349    0.259
        58 -11.7656    192.8675    244.6849   1.0181716712e+02  -1.8167960883e+00    0.2137526    0.1621219 -22.99  0.001476866    1.618    0.382
        59 -10.2589    132.0621    242.1815   1.1215193302e+02   8.2670386601e+00    0.2006761    0.1051904  58.72  0.001084732    1.935    0.483
        60 -12.5240    104.0634     76.0222   8.7118826854e+01   4.6993350201e+01    0.6286773    0.4899592 -73.46  0.003069028    1.677    0.404
        61 -11.8842     95.3732     74.5779   8.9271743553e+01   4.8918384342e+01    0.5699844    0.5182506  76.00  0.003190946    1.310    0.237
        62 -12.2122    105.1636     69.3970   8.4683196406e+01   4.8114758999e+01    0.5370099    0.4481159 -76.34  0.002104658    1.536    0.349
        63 -12.2573     99.1522     69.3720   8.6470303760e+01   4.9279936196e+01    0.4573539    0.3578779  41.30  0.001814289    1.360    0.264
        64 -12.8189    178.0310     65.1381   6.5590254999e+01   3.1780692790e+01    0.6102157    0.3994764  48.51  0.002607234    1.538    0.350
        65 -11.2360      7.5263    241.4835   1.3258754812e+02   2.4585483263e+01    0.1827043    0.1202082  71.24  0.001358395    1.016    0.016
        66 -13.6918     82.6743     49.4927   8.4839643186e+01   5.6060481544e+01    0.9535425    0.6801724 -39.71  0.005088492    1.312    0.238
        67 -12.1342      2.8217     51.9591   1.1572953050e+02   6.4242360532e+01    0.7263261    0.1270838 -57.72  0.003008528    2.954    0.661
        68 -12.4163     10.2048     47.0102   1.1162494192e+02   6.4869967860e+01    0.5410396    0.3541962 -37.66  0.003579907    1.331    0.249
        69 -12.0241    249.6933     49.2648   5.0531116030e+01   1.6413901394e+01    0.8324161    0.2816481 -26.47  0.002869155    3.281    0.695
        70 -10.5552    170.3199     46.6484   6.1308629440e+01   3.6664013236e+01    0.1624002    0.1141411 -64.78 0.0007047705    1.745    0.427
        71 -12.0889    123.5922     41.0531   6.9596373110e+01   4.9118091742e+01    0.4234631    0.3250507  50.80  0.002162587    1.303    0.233
        72 -13.2924    184.3067    238.8318   1.0249794493e+02   2.9992571132e-01     0.643895    0.2598986  37.62  0.003133427    2.069    0.517
        73 -11.3163    201.1552    237.8775   9.9410830704e+01  -2.3086407294e+00    0.2874389    0.1607785 -23.74  0.001595435    2.399    0.583
        74 -13.2404     10.4948    229.3116   1.3162112555e+02   2.6375943967e+01    0.4749272    0.2637279  67.70  0.003524557    1.276    0.216
        75 -11.2292    139.5620    232.9924   1.0974646448e+02   8.4708418867e+00    0.2046307    0.1321147  44.76  0.001247644    1.246    0.198
