#   1 NUMBER                 Running object number                                     
#   2 MAG_AUTO               Kron-like elliptical aperture magnitude                    [mag]
#   3 X_IMAGE                Object position along x                                    [pixel]
#   4 Y_IMAGE                Object position along y                                    [pixel]
#   5 X_WORLD                Barycenter position along world x axis                     [deg]
#   6 Y_WORLD                Barycenter position along world y axis                     [deg]
#   7 A_WORLD                Profile RMS along major axis (world units)                 [deg]
#   8 B_WORLD                Profile RMS along minor axis (world units)                 [deg]
#   9 THETA_WORLD            Position angle (CCW/world-x)                               [deg]
#  10 FWHM_WORLD             FWHM assuming a gaussian core                              [deg]
#  11 ELONGATION             A_IMAGE/B_IMAGE                                           
#  12 ELLIPTICITY            1 - B_IMAGE/A_IMAGE                                       
         1 -14.9389    166.7511     49.1304   6.8332778996e+01   3.7254453261e+01      1.30143     0.990674  -0.53  0.003989597    1.523    0.344
         2 -15.0868    182.8608     19.4067   5.5689324561e+01   3.6910084593e+01     1.075466    0.9482239  34.35  0.004940924    1.179    0.152
         3 -10.9923    127.9730    246.2703   1.1583486655e+02   1.1261111065e+01    0.1348869    0.1014305  50.06 0.0003033346    1.043    0.041
         4 -11.1260    102.8920    249.6527   1.2007181707e+02   1.4264573775e+01    0.1491458    0.1087193  65.87 0.0002077465    1.188    0.158
         5 -11.2113     97.9728    250.4665   1.2089808539e+02   1.4805312611e+01    0.1341464   0.08578254  48.21 0.0003811299    1.184    0.155
         6 -18.9518     77.0082    216.3711   1.2165252125e+02   2.2648030709e+01     6.389359     4.773938 -86.94   0.03927979    1.331    0.249
         7 -11.7036     11.5831    206.1440   1.3205699901e+02   3.1676840081e+01    0.1745323    0.1159416  49.74  0.001408071    1.390    0.280
         8 -12.7789    205.6712    200.7395   9.7129873933e+01   4.8820201551e+00    0.2715605    0.2056236 -87.52  0.001499608    2.783    0.641
         9 -12.2092    116.9101    235.9512   1.1666140786e+02   1.4216488984e+01    0.2303541    0.1773893 -69.77 0.0008700956    1.593    0.372
        10 -13.1564    203.7353    189.4099   9.5594166201e+01   6.6375846624e+00    0.2864011     0.198859  54.63  0.001679792    1.626    0.385
        11 -13.9945    133.0484    195.0705   1.0927279121e+02   1.7944814000e+01    0.4027705     0.245778  57.91 0.0009255094    1.579    0.367
        12 -19.1545     60.9234     98.0323   1.1023840673e+02   4.8710382178e+01     17.50688    0.8445939 -60.28    0.0257661   18.704    0.947
        13 -13.0716    151.5029    228.2464   1.1011727611e+02   1.0140914504e+01    0.2895113    0.2531085 -11.99  0.001960319    1.557    0.358
        14 -14.3858    164.9987    226.6525   1.0767084090e+02   8.2569785111e+00     0.416831    0.3249899  54.95  0.001306563    1.241    0.194
        15 -13.5827    158.9388    227.9737   1.0884259371e+02   9.0299438518e+00    0.3432039    0.2720418  77.41  0.001522814    1.601    0.376
        16 -12.1085     11.3887    175.1461   1.3058577842e+02   3.7326885057e+01     0.379319    0.2026031  86.48  0.002557639    1.471    0.320
        17 -13.5888    186.9830    175.2632   9.6116845206e+01   1.1596691091e+01    0.3583424    0.3333752  39.89 0.0009098382    1.116    0.104
        18 -13.0091    185.5148    170.0007   9.5439183336e+01   1.2654640892e+01    0.2877365    0.2566551 -66.94  0.001676761    1.420    0.296
        19 -11.2307     26.1225    173.8197   1.2771245485e+02   3.6212435345e+01    0.1578202    0.1072567  70.42  0.000315919    1.137    0.120
        20 -12.2081    193.3666    170.5059   9.4089417330e+01   1.1112249690e+01    0.2255345    0.1998398   1.60 0.0007468226    1.150    0.130
        21 -11.2126     25.5437    165.0512   1.2721135908e+02   3.7993527634e+01    0.1561038    0.1476997  54.15 0.0003733824    1.472    0.320
        22 -11.7551     35.1380    169.5001   1.2563258606e+02   3.6147851696e+01    0.2557543    0.1956326  18.74  0.001164954    2.059    0.514
        23 -12.6976    159.2957    223.6633   1.0826000841e+02   9.5345465970e+00    0.2041517    0.1508309  69.68  0.001319444    1.650    0.394
        24 -12.4643     22.9525    156.0824   1.2707466784e+02   4.0047794843e+01    0.1860801    0.1597459  72.64 0.0005108948    1.230    0.187
        25 -11.2329    140.2710    240.4743   1.1329819155e+02   1.0235515558e+01    0.1605917    0.1548931 -27.90 0.0008694924    1.436    0.304
        26 -13.7497    148.2552    149.2375   9.8898150861e+01   2.3257206523e+01     0.401301    0.2538548  59.32  0.001946988    1.731    0.422
        27 -14.9587    143.4858    145.4725   9.9182184017e+01   2.4873719722e+01     1.158183    0.3995825 -57.69  0.003317015    5.391    0.815
        28 -15.7838    133.2676    145.7647   1.0144023669e+02   2.6743814968e+01     1.458909    0.6655799 -62.53  0.005458665    3.240    0.691
        29 -12.5064    161.4925    149.3336   9.6181893135e+01   2.0669048078e+01    0.2700863    0.1918847 -82.09  0.001063699    2.195    0.544
        30 -14.1226    175.0343    220.5971   1.0521464413e+02   7.4387555108e+00     0.506404    0.1826904 -45.77    0.0024547    3.594    0.722
        31 -13.4780    166.0105    218.1892   1.0642717869e+02   9.1908518879e+00    0.2576284     0.231821 -56.19  0.000684135    1.421    0.296
        32 -13.1899      8.3398    138.2037   1.2887644392e+02   4.4998828190e+01    0.2873084     0.201294 -66.32  0.001316219    1.432    0.302
        33 -13.6933    135.2048    122.4723   9.6239269256e+01   3.0992128178e+01    0.5840845    0.1890987 -50.08  0.001937407    3.275    0.695
        34 -12.8355    152.1584    218.9229   1.0889287793e+02   1.1294475882e+01    0.2020502    0.1778467  69.24 0.0009159239    1.244    0.196
        35 -14.3863    187.3068    213.4113   1.0215502656e+02   6.3583701006e+00    0.4405626    0.2575774  33.70  0.001807259    1.493    0.330
        36 -12.8658    114.1053    116.9654   1.0004349076e+02   3.6173380081e+01    0.2828658     0.201557 -61.98 0.0005413289    1.420    0.296
        37 -10.9742    231.1393    113.8380   7.5274769119e+01   1.1851208127e+01    0.2034265    0.1906328 -34.53 0.0008177613    1.188    0.159
        38 -12.3209    168.1087    113.1219   8.6755937644e+01   2.5851168902e+01    0.3861099    0.2956731 -79.13  0.001820444    1.796    0.443
        39 -12.6769    160.4659    128.1147   9.1919094901e+01   2.4729015993e+01    0.3209685    0.2473031 -58.70  0.001642332    1.464    0.317
        40 -12.0972    135.7538    237.9450   1.1377429024e+02   1.1225995725e+01    0.2913316    0.2424287 -80.75   0.00122794    1.490    0.329
        41 -11.1463    205.7974    110.1922   7.8685708824e+01   1.7909575013e+01    0.2051469    0.1655362  14.90 0.0005278144    1.313    0.238
        42 -11.1939    109.1880    245.2085   1.1872301019e+02   1.4016379691e+01    0.1882512    0.1292178 -50.05  0.001399625    2.117    0.528
        43 -13.7103    154.7169     62.9721   7.5352670490e+01   3.8060395845e+01    0.4347696    0.4273008  41.56 0.0008764478    1.044    0.042
        44 -10.6514     13.5118     59.9896   1.1794323848e+02   6.1878011716e+01    0.1804899   0.09231467 -67.64 0.0004228232    1.510    0.338
        45 -13.1500    183.4528    206.5031   1.0180973937e+02   7.8727414966e+00    0.2119199    0.1770157  36.79 0.0006534496    1.037    0.036
        46 -13.1777    171.6983     40.9763   6.4692221180e+01   3.7155844712e+01    0.4751837    0.4061503  -2.97 0.0008367248    1.235    0.190
