#   1 NUMBER                 Running object number                                     
#   2 MAG_AUTO               Kron-like elliptical aperture magnitude                    [mag]
#   3 X_IMAGE                Object position along x                                    [pixel]
#   4 Y_IMAGE                Object position along y                                    [pixel]
#   5 X_WORLD                Barycenter position along world x axis                     [deg]
#   6 Y_WORLD                Barycenter position along world y axis                     [deg]
#   7 A_WORLD                Profile RMS along major axis (world units)                 [deg]
#   8 B_WORLD                Profile RMS along minor axis (world units)                 [deg]
#   9 THETA_WORLD            Position angle (CCW/world-x)                               [deg]
#  10 FWHM_WORLD             FWHM assuming a gaussian core                              [deg]
#  11 ELONGATION             A_IMAGE/B_IMAGE                                           
#  12 ELLIPTICITY            1 - B_IMAGE/A_IMAGE                                       
         1  -7.9076    104.0424      1.3820   3.1350655665e+01  -4.4585994881e+01  0.009362456  0.006051422 -30.06            0    1.491    0.329
         2  -9.0481    245.3142    247.5347   3.1323259396e+01  -4.1031470735e+01   0.01207044  0.007461063  37.74  0.001197987    1.813    0.448
         3  -7.4439     94.8070    250.6562   3.3620773413e+01  -4.1933940912e+01  0.009071209  0.005575681 -37.13 0.0002755435    1.567    0.362
         4  -7.7831    205.5351    248.4413   3.1924607448e+01  -4.1273395075e+01  0.006450035  0.006195565 -12.28 6.399358e-05    1.011    0.011
         5  -7.0926     40.5131    230.5281   3.4294236697e+01  -4.2482105140e+01  0.006474101  0.006227789  -6.93 0.0008098214    1.016    0.016
         6  -7.0918     92.3054    229.6544   3.3487404397e+01  -4.2178994306e+01  0.006812876  0.004910251 -63.51 0.0007041884    1.693    0.409
         7  -7.3311     20.9976    230.0000   3.4593331808e+01  -4.2604278787e+01   0.01084361  0.003612369 -27.30 0.0007976534    2.909    0.656
         8  -8.3876      2.6612    226.5970   3.4852057105e+01  -4.2750434922e+01   0.01693985  0.009598379  26.25  0.001299876    2.480    0.597
         9  -7.6158     33.3453    222.9840   3.4344442471e+01  -4.2607953949e+01  0.009013806  0.008059287  50.61  0.000410246    1.141    0.123
        10  -7.3556     55.9776    220.0079   3.3968931187e+01  -4.2504830734e+01  0.007444489  0.007187791  48.74            0    1.065    0.061
        11  -9.7247     87.1649    217.4944   3.3466548714e+01  -4.2343347489e+01   0.01311515   0.01058124  51.14 0.0003116432    1.259    0.206
        12  -8.6419     93.2750    216.0370   3.3360469114e+01  -4.2322002984e+01   0.01141879   0.00917799 -22.60 0.0005450252    1.220    0.180
        13  -7.4773    100.8741    214.8709   3.3233983220e+01  -4.2288260283e+01   0.00865356  0.007265038 -56.49  0.001013615    1.286    0.222
        14  -6.7196     55.9610    214.9581   3.3927931775e+01  -4.2560352075e+01  0.007383222  0.007221852   1.19 0.0009377099    1.019    0.019
        15  -7.2899    119.9089    213.2077   3.2928203746e+01  -4.2189422188e+01  0.008759641  0.007254874  23.73 0.0003623397    1.301    0.231
        16  -7.3130     94.5269    208.5658   3.3279487665e+01  -4.2396006893e+01  0.006463659  0.006188734 -10.33 0.0001192754    1.018    0.017
        17  -8.1233    178.1367    204.8193   3.1971135835e+01  -4.1917874954e+01   0.01045332  0.009333695  60.75 0.0005623847    1.165    0.142
        18  -7.1995    138.7968    198.9257   3.2520096061e+01  -4.2227913890e+01  0.008260648  0.005132341  57.57 0.0002882687    1.638    0.389
        19  -7.2885    132.8374    198.8751   3.2610792964e+01  -4.2265499536e+01  0.008287476  0.007269291 -62.37 0.0009925606    1.242    0.195
        20  -7.0576    222.8016    196.5533   3.1227272178e+01  -4.1724055104e+01  0.009049378  0.005794413 -40.77 0.0006603691    1.541    0.351
        21  -8.7279     31.2006    195.0549   3.4150333575e+01  -4.2927937726e+01   0.01053942  0.008867618 -21.38 0.0004536156    1.163    0.140
        22  -7.1815    223.0564    188.1968   3.1152008001e+01  -4.1812403066e+01  0.008465261  0.005007646 -27.85 0.0008296669    1.657    0.397
        23  -9.1215    106.4019    174.7456   3.2814631615e+01  -4.2691980611e+01   0.01651136   0.01277917  36.83  0.001033518    1.364    0.267
        24  -7.0672    101.1496    175.8634   3.2905070804e+01  -4.2712242672e+01  0.008434576  0.007154887  21.52 0.0009922916    1.259    0.205
        25  -7.5395     44.8122    172.8105   3.3754608251e+01  -4.3090065810e+01  0.009503777  0.008378011  24.64 0.0008898565    1.180    0.153
        26  -7.6847     86.7906    155.8440   3.2959269744e+01  -4.3019102812e+01  0.008791086  0.007277921 -53.43 0.0004942298    1.287    0.223
        27  -7.1080     91.5557    151.4201   3.2848040700e+01  -4.3037926020e+01  0.006496913  0.006100349   5.44 9.352301e-05    1.070    0.065
        28  -8.3519     29.1249    148.0584   3.3794941690e+01  -4.3456453493e+01   0.01183203  0.008947937 -26.82 0.0009516206    1.281    0.219
        29  -6.9340    134.0335    140.0013   3.2094313859e+01  -4.2897421968e+01  0.007660641  0.007222834 -21.72 0.0009558601    1.026    0.025
        30  -7.2282     27.8219    139.3379   3.3742756489e+01  -4.3559967479e+01  0.008772301   0.00599419 -15.10 0.0002007402    1.563    0.360
        31 -10.3312     17.3156    134.2616   3.3866001423e+01  -4.3679189785e+01   0.01260863   0.01113374  -6.75 0.0006549574    1.146    0.127
        32  -6.8281    183.6459    127.6927   3.1227579009e+01  -4.2716063357e+01  0.006889559  0.004926649  18.34 0.0002718896    1.719    0.418
        33  -8.2117    166.1279    126.1947   3.1482504125e+01  -4.2843935367e+01   0.01006192  0.008982101  58.01 0.0002927669    1.159    0.137
        34  -7.7343    179.4918    124.9660   3.1267365965e+01  -4.2771996607e+01  0.009151963  0.006420177  57.19 -0.0001681828    1.460    0.315
        35  -7.4462    100.0978    117.1626   3.2424268361e+01  -4.3357722454e+01  0.008610708  0.007199185 -52.95  0.001007653    1.268    0.211
        36  -8.0659     94.0294    112.8218   3.2481603785e+01  -4.3442729543e+01  0.009215748  0.008859714 -10.29 0.0003736327    1.014    0.014
        37  -7.3703     63.9817    105.9940   3.2893191582e+01  -4.3703400176e+01  0.007645885  0.007349338 -17.08 0.0009634618    1.005    0.005
        38  -6.9513    136.9722    101.2220   3.1715026153e+01  -4.3298779989e+01  0.008252079  0.005182066 -29.66 0.0002075629    1.536    0.349
        39  -7.4419     68.6737    101.7382   3.2783262258e+01  -4.3720777880e+01  0.006553827  0.004923057  15.64 0.0003007006    1.562    0.360
        40  -8.9187     68.7059     94.6598   3.2722205504e+01  -4.3797669701e+01   0.01580656   0.01183987  48.06 0.0005654674    1.357    0.263
        41  -8.0386    120.8081     81.3297   3.1792868941e+01  -4.3616203269e+01  0.009403849  0.008719689  74.75  0.000357821    1.153    0.133
        42  -7.6656     69.7323     77.9680   3.2562657476e+01  -4.3972945777e+01  0.008553093  0.008221637  66.54 0.0002037734    1.090    0.083
        43  -7.7402    241.9452     69.3057   2.9826289796e+01  -4.2963794455e+01  0.009130782   0.00782824 -23.21 0.0002792913    1.144    0.126
        44  -8.2461    160.5547     67.4919   3.1055594553e+01  -4.3512253661e+01   0.01054362   0.01002881  42.25  0.000191348    1.073    0.068
        45  -6.8849    157.2648     54.6811   3.0993274640e+01  -4.3671203697e+01  0.006431076  0.004990128 -67.84 0.0001407166    1.553    0.356
        46  -8.3304    201.6991     41.2273   3.0188605875e+01  -4.3527418794e+01   0.01097192  0.009589962  -1.32 0.0003123754    1.198    0.165
        47  -6.9390    174.2609     34.2726   3.0548829025e+01  -4.3780536678e+01  0.006281659  0.004887267  21.38 0.0006846545    1.464    0.317
        48  -7.3961     68.8515     31.8671   3.2175918894e+01  -4.4479088014e+01   0.00876087  0.007537383 -64.18 0.0004018584    1.288    0.223
        49  -8.0098     85.1114     28.9960   3.1893857315e+01  -4.4407920115e+01  0.009710409  0.009212438  -6.05 0.0006090901    1.039    0.038
        50  -6.9234    222.2718     22.2547   2.9702343589e+01  -4.3594745176e+01  0.006218405  0.004910275  16.47 0.0006823823    1.454    0.312
        51  -7.4285    115.5434     19.0940   3.1327622136e+01  -4.4321688173e+01  0.009505701  0.006525345  63.91  0.001007453    1.561    0.359
        52  -8.1482    106.8473     17.2915   3.1448147190e+01  -4.4396584801e+01   0.01004667  0.008765307  77.10 0.0004005557    1.260    0.207
        53  -8.5043     90.8295     17.5720   3.1702844148e+01  -4.4495305685e+01   0.01108533  0.009515456  74.13 0.0006144284    1.274    0.215
        54  -6.5731     14.7484     17.7286   3.2914149658e+01  -4.4969197754e+01  0.006258162  0.004833366  24.35            0    1.449    0.310
