#   1 NUMBER                 Running object number                                     
#   2 MAG_AUTO               Kron-like elliptical aperture magnitude                    [mag]
#   3 X_IMAGE                Object position along x                                    [pixel]
#   4 Y_IMAGE                Object position along y                                    [pixel]
#   5 X_WORLD                Barycenter position along world x axis                     [deg]
#   6 Y_WORLD                Barycenter position along world y axis                     [deg]
#   7 A_WORLD                Profile RMS along major axis (world units)                 [deg]
#   8 B_WORLD                Profile RMS along minor axis (world units)                 [deg]
#   9 THETA_WORLD            Position angle (CCW/world-x)                               [deg]
#  10 FWHM_WORLD             FWHM assuming a gaussian core                              [deg]
#  11 ELONGATION             A_IMAGE/B_IMAGE                                           
#  12 ELLIPTICITY            1 - B_IMAGE/A_IMAGE                                       
         1 -13.3668    170.4288     55.6416   6.0419878100e+01   3.5276251762e+01     1.998613     1.191451  29.22  0.005939566    2.368    0.578
         2 -13.3463    185.2462     41.1013   5.3419853880e+01   3.3540523201e+01     1.007795    0.9619604 -34.03  0.003358395    1.103    0.094
         3 -13.9200    207.8539     10.6160   4.1951109730e+01   3.1403754440e+01     1.171307      1.06162  30.61  0.005902495    1.345    0.256
         4 -11.5824    191.1303     15.7219   4.5198973470e+01   3.5112579793e+01    0.4849046    0.2804133  89.97  0.002194639    1.899    0.473
         5 -12.3507    240.2870      2.9346   3.7281150577e+01   2.4423219195e+01     1.526396    0.3152028  73.32  0.005066783    4.450    0.775
         6 -13.2316     11.3569    206.5773   1.2867127909e+02   3.0194850879e+01    0.3511622    0.2368391  43.65  0.002543258    1.548    0.354
         7 -13.5566    246.0850    239.3059   8.8413638659e+01  -9.9858404213e+00     1.645495     0.711467 -26.04  0.008842754    2.498    0.600
         8 -10.8037    192.9470    194.9374   9.0420260355e+01   4.6236421042e+00     0.862811    0.4312667 -61.13  0.002517069    6.585    0.848
         9  -9.2444     87.7935    202.6423   1.1345085661e+02   2.1633130412e+01    0.1795925    0.1567202  29.11 0.0008218737    1.450    0.311
        10 -10.6264     15.4231    201.3016   1.2763065600e+02   3.0852328708e+01    0.1140268   0.08146989  60.75  0.000815744    1.203    0.169
        11 -10.1965    204.2093    200.5841   8.9264783652e+01   1.6935453035e+00    0.2007467    0.1096756  31.27 0.0009576703    1.750    0.429
        12  -9.3198     82.4916    194.9979   1.1366636291e+02   2.3994033314e+01    0.3194253    0.1717454  87.29  0.001448005    2.471    0.595
        13  -9.8340     79.0435    193.8700   1.1426626490e+02   2.4734364071e+01    0.2567345    0.1597078  60.98 0.0004997216    1.491    0.329
        14 -11.5096     65.3043    194.2337   1.1720296125e+02   2.6574802328e+01    0.3453884    0.2238344 -48.56  0.001306038    2.049    0.512
        15 -11.7600    149.6446    188.0373   9.8126957819e+01   1.3983650433e+01    0.4425241    0.2380719  46.01  0.001661514    1.696    0.410
        16 -19.4269     33.4102    145.5030   1.1906989456e+02   4.1276424933e+01     19.17865     5.180554 -73.74   0.06775358    3.640    0.725
        17 -10.5722     71.5887    243.4968   1.2045584369e+02   1.6278004376e+01    0.2315386     0.129994  88.83 0.0007699836    1.915    0.478
        18  -9.1930    156.5084    189.4916   9.6913689057e+01   1.2416851290e+01    0.1401044    0.1261826  44.07 -4.047157e-05    1.014    0.014
        19 -11.2829      6.5203    206.4802   1.2952675551e+02   3.0667681774e+01     0.169591   0.09605026 -82.75 0.0005608813    1.451    0.311
        20  -8.5172     81.2473    220.2978   1.1664570432e+02   1.9134102843e+01   0.09798647   0.09428333 -48.80 0.0002840173    1.487    0.327
        21 -11.3991    150.9372    179.8892   9.6402626200e+01   1.5319331571e+01    0.4293176    0.2966626 -75.04  0.002001248    2.061    0.515
        22 -11.2706    144.9748    180.8028   9.7875370958e+01   1.6278372435e+01    0.3235512    0.2585051  30.46  0.001740924    1.295    0.228
        23 -12.1038    141.6434    175.4222   9.7648185553e+01   1.7997572814e+01    0.5631173    0.4081441 -73.74  0.001920382    1.730    0.422
        24 -10.6467    188.8954    176.8181   8.7764503331e+01   8.4656582810e+00    0.5080972    0.3492605 -56.89  0.002124121    1.913    0.477
        25 -11.5375     61.2449    204.0609   1.1900781110e+02   2.5076067353e+01    0.2108819    0.1641652  74.62  0.000547494    1.036    0.035
        26 -11.2737    238.6332    175.2492   7.7979847362e+01  -6.1216275577e-01    0.2486937    0.1620317 -19.24  0.001314163    1.507    0.336
        27 -10.0022      1.7426    162.9488   1.2789875627e+02   4.0094926288e+01    0.1617477    0.1184154 -77.22 0.0005668356    1.208    0.172
        28 -12.8981     75.1824    249.0340   1.2026327835e+02   1.4853521507e+01    0.3030354    0.1564128 -62.98  0.001851133    2.255    0.557
        29 -10.8850     93.7820    156.9412   1.0567401498e+02   3.0650579857e+01    0.2634615     0.224705 -62.34 0.0003342457    1.173    0.148
        30 -12.1997     99.1955    150.5016   1.0319533208e+02   3.1241317219e+01     0.602348    0.4905679 -31.13  0.003178598    1.547    0.354
        31 -11.0817    133.9055    145.8999   9.3635692314e+01   2.5822729876e+01     1.244522    0.3095113 -54.42  0.002967028    5.824    0.828
        32  -9.6904    187.8589    152.0002   8.2736539735e+01   1.3216820127e+01    0.3620165    0.1970242 -60.62  0.001251634    3.283    0.695
        33 -10.0149    113.4873    151.4790   9.9803510972e+01   2.8495272004e+01    0.3338487    0.2121559  79.72   0.00135841    2.384    0.581
        34  -9.6833    174.5350    149.1658   8.4946778988e+01   1.6605351864e+01    0.2816025    0.2126745  44.26 0.0008637652    1.291    0.225
        35  -8.9390    149.3948    156.1781   9.2129470897e+01   2.0455714785e+01    0.2125268    0.1418732 -60.83 0.0009438238    1.753    0.430
        36 -11.6556     57.7906    214.3446   1.2060162421e+02   2.3468312989e+01    0.2378852    0.1569518  59.60 0.0009176949    1.230    0.187
        37  -9.1534    113.3950    142.1895   9.7977548214e+01   3.0641771843e+01    0.2641138    0.1836565  73.80 0.0005810325    1.833    0.455
        38 -11.5450    109.3823    137.7677   9.8094434788e+01   3.2406653998e+01    0.6851877    0.3541657 -40.56  0.002688213    2.306    0.566
        39 -11.8187     98.0934    136.6404   1.0082626549e+02   3.4676168930e+01    0.3072218    0.2917518 -53.75 0.0006033285    1.115    0.103
        40 -11.0448    105.9443    130.8498   9.7526495154e+01   3.4649494341e+01    0.4074775    0.3294467 -66.33  0.001203188    1.228    0.185
        41  -9.9675    161.7883    128.4784   8.2948548528e+01   2.3621873248e+01    0.4295964     0.283601  70.12  0.001713881    2.156    0.536
        42 -10.3606    116.3006    128.5295   9.4259795998e+01   3.3243850998e+01    0.3002241    0.2619005 -15.84 0.0007026696    1.372    0.271
        43 -10.5513    104.0007    124.1425   9.6564096496e+01   3.6574657069e+01    0.3170267    0.2602453 -19.65 0.0009311186    1.524    0.344
        44 -10.0332    120.5103    123.3334   9.1932335984e+01   3.3608977469e+01    0.3064761    0.2094719 -20.76  0.001110309    2.169    0.539
        45 -10.5618    135.0000    120.9428   8.7582037176e+01   3.1147494420e+01    0.6116419   0.08817194 -46.14  0.001248071    6.887    0.855
        46  -9.5087    152.1542    119.3554   8.2928272267e+01   2.7715028399e+01    0.2655971    0.1836926 -48.77 0.0006812108    1.469    0.319
        47  -9.5155    111.0031    118.0181   9.3211158593e+01   3.6693121225e+01    0.2216725    0.2143711 -62.15            0    1.017    0.016
        48  -9.9088    231.2616    113.7917   6.5471698267e+01   1.0702898631e+01    0.2511162    0.2311111  31.06 0.0008036817    1.149    0.129
        49  -9.8610    167.6196    112.5693   7.7550314529e+01   2.5554733038e+01    0.3778076    0.2794034 -89.49  0.001554417    1.961    0.490
        50 -10.3867    134.6375    105.0802   8.3523642408e+01   3.4704640318e+01    0.4863061    0.1526806 -45.35  0.001452959    3.154    0.683
        51 -11.4515    119.1994    110.5005   8.9082775716e+01   3.6789479127e+01    0.5999973    0.3928352  68.36   0.00243624    2.165    0.538
        52  -9.7389    205.3377    110.2579   6.9161621613e+01   1.7118394828e+01    0.3204452    0.2131114  46.04  0.001245033    1.552    0.356
        53  -9.8544    186.1335     85.9983   6.6337022715e+01   2.6144925180e+01    0.3053229    0.2603966 -36.85  0.001130815    1.152    0.132
        54  -8.4650    184.3605     77.2976   6.4207971739e+01   2.8125184430e+01     0.162441    0.1202055  23.31 0.0007033941    1.711    0.415
        55  -9.3463     74.1554     73.8227   9.2451625722e+01   5.3079015004e+01    0.1958899    0.1847539 -54.19 0.0004484966    1.134    0.118
        56  -8.9696     89.1636    241.8220   1.1719563412e+02   1.4126236153e+01    0.1305175    0.1165209  84.94 0.0008349468    1.277    0.217
        57  -8.9426     85.7402    239.9618   1.1764587630e+02   1.4933731999e+01    0.1167333   0.09185489 -86.02 0.0002814471    1.324    0.245
        58 -12.6954    190.0919     35.1062   5.0924985071e+01   3.3077959228e+01    0.5993493    0.5744786 -38.37  0.001390724    1.108    0.097
        59 -11.4599     70.3191    207.0538   1.1748346921e+02   2.3253696526e+01    0.4893235    0.2821362  25.54  0.001161324    2.620    0.618
        60  -9.1180    167.5515    229.0743   1.0098035006e+02   3.7394450276e+00    0.1568228    0.1265853 -46.70 0.0005151212    1.521    0.343
        61 -11.4183     63.3013    221.4902   1.2016548320e+02   2.1371928488e+01    0.3944671    0.1879574  73.16  0.001810136    2.391    0.582
