#   1 NUMBER                 Running object number                                     
#   2 MAG_AUTO               Kron-like elliptical aperture magnitude                    [mag]
#   3 X_IMAGE                Object position along x                                    [pixel]
#   4 Y_IMAGE                Object position along y                                    [pixel]
#   5 X_WORLD                Barycenter position along world x axis                     [deg]
#   6 Y_WORLD                Barycenter position along world y axis                     [deg]
#   7 A_WORLD                Profile RMS along major axis (world units)                 [deg]
#   8 B_WORLD                Profile RMS along minor axis (world units)                 [deg]
#   9 THETA_WORLD            Position angle (CCW/world-x)                               [deg]
#  10 FWHM_WORLD             FWHM assuming a gaussian core                              [deg]
#  11 ELONGATION             A_IMAGE/B_IMAGE                                           
#  12 ELLIPTICITY            1 - B_IMAGE/A_IMAGE                                       
         1 -14.4765      9.3357    206.6272   1.4965249870e+02   3.1444276696e+01     8.617299     4.858387  58.60   0.02813981    1.377    0.274
         2 -14.6628      2.6432    152.5583   1.4773396484e+02   4.3015162940e+01     3.784748     1.422156 -76.16  0.009010466    2.042    0.510
         3 -13.1693    191.1039     28.7472   7.1113953354e+01   3.3879583673e+01     1.376163     1.275353  89.85  0.007174237    1.003    0.003
         4 -13.4965    205.7810      9.7647   6.3967018863e+01   3.2202671865e+01     1.591237     1.098588  38.73   0.00816122    1.774    0.436
         5 -11.8335      2.0000     12.9525   1.2396003093e+02   7.2556737153e+01    0.9434032    0.1168907 -55.69  0.002940003    6.457    0.845
         6 -12.9318      9.2227      8.3976   1.1804425597e+02   7.2847556334e+01     1.980322    0.4208623 -41.08  0.008246864    3.446    0.710
         7  -9.1938    161.3634    249.3181   1.2610167962e+02   3.1212551980e+00    0.1169559   0.07978342  21.62 8.939731e-05    1.772    0.436
         8 -11.2094    139.5984    250.0848   1.3000817936e+02   6.4794680923e+00    0.3478368    0.1874492  42.43  0.002061399    1.438    0.304
         9 -10.1030    109.9770    250.5343   1.3521533874e+02   1.0971893534e+01    0.2958679   0.08738995  42.34  0.001089183    2.619    0.618
        10 -10.6830     98.7027    250.0112   1.3710966023e+02   1.2714755288e+01    0.3420588    0.1951896  36.51  0.002068251    1.813    0.449
        11 -10.6180    101.5987    246.7612   1.3631978210e+02   1.2803172148e+01    0.2317992    0.1450786  65.04 0.0009618578    1.427    0.299
        12 -10.3428     29.1015    249.8487   1.4853100850e+02   2.1704100436e+01    0.2397446    0.1392449  53.15  0.001350611    1.296    0.228
        13 -10.1390      2.4140    249.0380   1.5253253225e+02   2.4606705381e+01    0.2667118    0.1517337  86.63  0.002116053    1.399    0.285
        14 -10.6165      1.6961    239.6451   1.5230889572e+02   2.6239446138e+01    0.3691994   0.07915815 -78.43  0.001795305    3.948    0.747
        15  -9.9652      5.8279    240.9792   1.5173014923e+02   2.5615063342e+01    0.1798874    0.1079752  49.08 0.0004327786    1.452    0.311
        16  -9.2583    152.3486    248.2961   1.2756423595e+02   4.7055397026e+00    0.1141267   0.08043698  23.86 0.0002602452    1.678    0.404
        17 -10.3743     35.5697    243.8210   1.4720393664e+02   2.1982416798e+01    0.3056844    0.1986329  34.46  0.001762799    1.989    0.497
        18 -10.6402    128.1480    244.8782   1.3146322677e+02   9.0480877330e+00    0.1893699    0.1303221  59.51  0.001024611    1.278    0.218
        19 -10.1043    121.0867    249.8484   1.3322030837e+02   9.3942285614e+00    0.1885597    0.1232203  58.57   0.00123465    1.293    0.226
        20 -10.2837     81.6816    242.1623   1.3938071613e+02   1.6408255581e+01    0.2832771    0.1562651  78.53  0.001261305    1.966    0.491
        21  -9.2724     12.5109    240.7699   1.5069532808e+02   2.4985442405e+01    0.1781199    0.1103054  53.55  0.001389479    1.305    0.233
        22  -8.8528     94.3026    240.3407   1.3701664141e+02   1.4911287616e+01   0.09756499   0.08926675  17.80 0.0007038742    1.675    0.403
        23  -8.9594     71.6427    239.8501   1.4093288333e+02   1.8170929221e+01    0.1522294   0.08782367  88.94 0.0009520663    1.783    0.439
        24  -9.4617    194.7552    237.4299   1.1863529850e+02  -7.4419210855e-01    0.1760964   0.09081215  33.77 0.0009476307    1.658    0.397
        25  -9.9802    232.7227    235.4613   1.1179561228e+02  -6.5239385758e+00    0.2242577    0.1778581 -80.63  0.001277263    3.227    0.690
        26 -10.1205    249.5715    248.9097   1.1110595368e+02  -1.0362058436e+01    0.1906186    0.1490364  -0.12  0.001474165    1.242    0.195
        27 -10.1892    150.8541    228.9094   1.2543351977e+02   7.7908994597e+00    0.1895128    0.1515275  31.67  0.001058211    1.264    0.209
        28  -9.0493     94.3048    216.5851   1.3469862029e+02   1.9050442488e+01    0.2335524    0.1369766  67.54 0.0005978951    1.694    0.410
        29 -10.0514    244.1841    249.0148   1.1198715641e+02  -9.6156480409e+00     0.141833     0.132889 -61.28   0.00102452    1.999    0.500
        30  -8.6499    152.4792    212.9575   1.2293383181e+02   1.0056699256e+01    0.1595889    0.1296797 -54.29 0.0004251158    1.468    0.319
        31 -11.4073     21.2775    200.3526   1.4716097044e+02   3.1486357484e+01    0.3602802    0.1591821  58.03  0.001545812    1.846    0.458
        32 -10.0495    193.0230    195.2889   1.1221693370e+02   5.5117794278e+00    0.7330145    0.3619557 -61.30  0.002199567    6.558    0.848
        33 -11.1286     65.2767    198.4366   1.3854367731e+02   2.6702615722e+01    0.3227022    0.2314695 -49.11  0.001559814    1.948    0.487
        34 -10.5285    173.5681    222.4836   1.2030676706e+02   4.8740770987e+00     0.386684    0.2645231  65.46  0.002149992    1.910    0.477
        35  -8.6750     51.1969    197.1598   1.4122033511e+02   2.8768571491e+01    0.1620811    0.1049872  67.65   0.00039026    1.279    0.218
        36  -9.5626    229.4964    230.0504   1.1148549691e+02  -5.4183768167e+00    0.2216054    0.1090971 -39.97  0.001190779    2.584    0.613
        37 -11.5351     70.8049    190.6872   1.3662767573e+02   2.7524506558e+01    0.2579003    0.2169756 -68.72 0.0006783238    1.342    0.255
        38 -10.6130     80.1892    177.9377   1.3313631272e+02   2.8857773576e+01    0.2270627    0.2031837  69.61 0.0003873428    1.135    0.119
        39 -12.9952     67.3357    175.9557   1.3571808885e+02   3.1103216063e+01    0.4554146    0.2689191 -47.54  0.001523352    2.258    0.557
        40  -8.4760    102.1948    178.4521   1.2835428383e+02   2.5308179930e+01    0.1818727    0.1099945  55.65 0.0004407094    1.551    0.355
        41  -8.1514    171.2899    173.2847   1.1249905700e+02   1.3436556719e+01    0.1369851    0.1079306  12.40 0.0002526535    1.533    0.348
        42  -8.4851    251.0000    171.9816   9.7324932278e+01  -1.6385516172e+00    0.2001134   0.06782822 -32.83 0.0003772941    2.855    0.650
        43 -11.6414     87.5990    168.3277   1.3018092055e+02   2.9813834455e+01    0.6290702    0.5382075  47.24  0.003854751    1.234    0.190
        44 -12.4655     39.8477    233.0980   1.4589173952e+02   2.3339833779e+01    0.2634119    0.2116673 -85.11 0.0008117592    1.387    0.279
        45 -10.2746    188.4125    151.8136   1.0457504735e+02   1.3807317122e+01    0.4691743    0.3204288 -83.65  0.001876827    2.814    0.645
        46  -9.7539     99.5115    152.3256   1.2485059302e+02   3.1429287210e+01    0.2657004     0.241862  78.42 0.0008064738    1.026    0.025
        47 -11.8924     88.2068    151.7164   1.2750088248e+02   3.3413220116e+01      0.26972    0.2457336 -47.86 0.0005234031    1.299    0.230
        48 -12.3439     67.0085    143.8967   1.3152719720e+02   3.8313055578e+01    0.7552835       0.4885  77.27  0.003904197    1.700    0.412
        49 -11.4243     29.5545    144.8672   1.4089483947e+02   4.2416597715e+01    0.3145341    0.1993585  51.25  0.001738574    1.576    0.366
        50  -8.8061    102.1529    148.1462   1.2346781873e+02   3.1915986292e+01    0.2004304    0.1887741 -40.33  0.000463136    1.258    0.205
        51  -9.2264    183.0403    146.2923   1.0446564462e+02   1.5980137854e+01    0.2406296    0.2048521 -81.65 0.0004817007    1.457    0.314
        52  -8.4945    192.0056    143.9634   1.0210825290e+02   1.4461031580e+01    0.1748003    0.1615485 -27.50 0.0004437181    1.104    0.095
        53  -9.5223    110.4828    137.2515   1.1930400491e+02   3.2886872495e+01    0.3833698    0.2373067 -30.99  0.001327683    2.485    0.598
        54 -10.1033     86.0090    136.1369   1.2536618316e+02   3.7324500888e+01    0.2738394    0.2015869  63.62 0.0005318796    1.403    0.287
        55 -10.7188     97.3582    134.6922   1.2214946800e+02   3.5795591532e+01    0.3336851    0.2509364  30.70 0.0008959784    1.559    0.358
        56 -14.2552     45.8213    225.8168   1.4440523960e+02   2.3935420199e+01      1.81389     1.485041  32.63  0.005995639    1.747    0.428
        57  -9.3609    161.8022    126.7284   1.0453251938e+02   2.4516381404e+01    0.4149303    0.2723008 -88.99  0.001522375    2.825    0.646
        58 -10.4544     54.5298    124.5281   1.3175163403e+02   4.4408920020e+01    0.3117337    0.1736714  72.43  0.001399579    2.436    0.589
        59  -9.3141    107.3365    123.9896   1.1730771510e+02   3.6470105751e+01    0.1955502    0.1743694 -60.94 0.0003672224    1.090    0.082
        60  -9.2645    123.3172    226.6724   1.3030989657e+02   1.2716547025e+01    0.1270867   0.08018728  66.73 0.0006957487    1.678    0.404
        61 -10.3920    167.9743    113.1469   9.9752382475e+01   2.5815471979e+01    0.3666778    0.3056658 -85.73 0.0009048799    1.431    0.301
        62  -9.3729    203.5166    111.3194   9.2019668283e+01   1.7753460934e+01    0.2667817    0.1779988  31.49 0.0009510046    1.769    0.435
        63  -8.0956     34.9727     93.0000   1.3197347010e+02   5.3798056232e+01    0.1744635   0.07322946  26.53 0.0006228056    2.878    0.653
        64  -9.3541     74.2210     86.9029   1.1796376680e+02   5.0451109879e+01    0.3594534    0.1954589  58.90  0.001446199    2.881    0.653
        65  -8.8122    156.3325     76.3239   9.2031664404e+01   3.5705409873e+01    0.1627005    0.1227971  17.51 0.0007050593    1.706    0.414
        66 -10.4814      1.9834     61.9425   1.3744421102e+02   6.2963671760e+01    0.3133014    0.1958598  42.36  0.002010399    2.072    0.517
        67 -11.4563     13.0524     65.0413   1.3394313597e+02   6.1693670752e+01    0.3542457    0.2182064  35.21  0.001232387    2.013    0.503
        68 -10.8642      7.6940     63.1275   1.3554535880e+02   6.2417523446e+01    0.2204456    0.1726978 -64.24 0.0004041183    1.070    0.066
        69  -8.6624     36.8401     63.8544   1.2475227314e+02   6.0070064076e+01    0.1528753    0.1396913  88.94 0.0003996412    1.305    0.233
        70  -9.8158     30.2451     61.1563   1.2653660006e+02   6.1245983637e+01    0.2313855     0.168139  33.74 0.0004748752    1.657    0.396
        71 -10.0983     13.5319     55.4852   1.3163136339e+02   6.3688895425e+01    0.2298051   0.09129364  32.09   0.00115801    3.008    0.668
        72  -9.9174    127.2017    249.6094   1.3212813899e+02   8.4873165308e+00    0.1652493   0.08930925  38.27 0.0006254204    1.645    0.392
        73  -9.6813     81.1785    248.2009   1.3994950606e+02   1.5486824017e+01       0.3881    0.1670687  72.82  0.001794376    3.390    0.705
        74  -9.2236     46.3886    248.6128   1.4573288046e+02   1.9912732857e+01    0.2630357    0.1167246  74.91  0.001398141    2.203    0.546
