#   1 NUMBER                 Running object number                                     
#   2 MAG_AUTO               Kron-like elliptical aperture magnitude                    [mag]
#   3 X_IMAGE                Object position along x                                    [pixel]
#   4 Y_IMAGE                Object position along y                                    [pixel]
#   5 X_WORLD                Barycenter position along world x axis                     [deg]
#   6 Y_WORLD                Barycenter position along world y axis                     [deg]
#   7 A_WORLD                Profile RMS along major axis (world units)                 [deg]
#   8 B_WORLD                Profile RMS along minor axis (world units)                 [deg]
#   9 THETA_WORLD            Position angle (CCW/world-x)                               [deg]
#  10 FWHM_WORLD             FWHM assuming a gaussian core                              [deg]
#  11 ELONGATION             A_IMAGE/B_IMAGE                                           
#  12 ELLIPTICITY            1 - B_IMAGE/A_IMAGE                                       
         1 -13.9137      7.3217     12.3197   1.2089335843e+02   7.2270833979e+01      2.05577    0.7705724 -42.15   0.01116253    1.954    0.488
         2 -14.4008    198.8421     17.2362   6.5362172364e+01   3.2732431674e+01      2.66882     1.581698  31.34   0.01004075    2.369    0.578
         3 -13.7730    203.9724     10.1034   6.2850030462e+01   3.2148424085e+01     1.456636    0.7474834  46.83  0.001439873    2.200    0.545
         4  -9.5027    199.7766    245.7847   1.1770041578e+02  -2.6995977242e+00    0.1502525    0.1209699  43.70 0.0003901004    1.318    0.241
         5  -9.6401    184.1640    250.5853   1.2117564389e+02  -7.9267451622e-01     0.172844   0.08678567  32.80 0.0004163368    1.667    0.400
         6 -10.5349    152.6492    243.7703   1.2606716586e+02   5.2376808991e+00    0.3250262    0.1826262  58.34  0.001625574    2.047    0.511
         7  -9.4078    150.9572    239.4596   1.2584402826e+02   6.1425508742e+00    0.2288085     0.126219  45.90 0.0009011853    1.432    0.302
         8 -10.9705    136.1474    227.8267   1.2720936752e+02   1.0408131179e+01    0.3404057    0.1827796 -47.66  0.001805228    2.360    0.576
         9 -11.1861    146.1555    240.7436   1.2690621408e+02   6.7427168661e+00    0.2791477    0.1984425  50.81 0.0004125767    1.194    0.162
        10 -11.6374    143.0556    244.7315   1.2796519824e+02   6.6583699785e+00     0.547101      0.15424  45.45  0.002241275    2.760    0.638
        11 -10.6322    143.6961    249.5557   1.2841091832e+02   5.8561489784e+00    0.2725467    0.1998087  73.07  0.001605035    1.700    0.412
        12 -11.4719    149.8193    247.9621   1.2710104370e+02   5.0997242912e+00    0.4900988     0.233706  44.23  0.001920655    1.591    0.371
        13 -11.1507    135.8077    240.9821   1.2887554839e+02   8.3917260513e+00    0.2279249    0.2150492  22.35  0.000752747    1.312    0.238
        14 -12.5036    135.1782    236.7449   1.2849343269e+02   9.1478520678e+00    0.5175552    0.3892644 -71.51  0.002349306    1.708    0.415
        15 -10.4555    135.7137    250.6714   1.2999341593e+02   6.9630664498e+00    0.2046423    0.1860209 -43.05 0.0008231085    1.495    0.331
        16 -10.9950    132.7078    249.3615   1.3039738593e+02   7.6290360410e+00    0.3345803    0.1851732  60.62  0.001605598    1.992    0.498
        17 -11.9875     96.4154    239.1808   1.3602802451e+02   1.4798697286e+01    0.7516581    0.4072957  88.35  0.003951258    2.636    0.621
        18 -11.0280    124.4594    249.6507   1.3193140687e+02   8.8768096738e+00    0.5695716    0.1767771  38.17   0.00240885    2.846    0.649
        19 -12.3645    125.3309    241.9465   1.3094337194e+02   9.9195637810e+00    0.6222327    0.4523463  24.50  0.003900761    1.693    0.409
        20 -12.1437    111.3751    248.2920   1.3416906474e+02   1.1092197793e+01    0.9199554     0.298453  43.45  0.004305248    2.285    0.562
        21 -11.8632     99.6757    246.4324   1.3610855496e+02   1.3132785782e+01    0.5011653    0.4500611  71.29  0.003871083    1.256    0.204
        22 -10.6575    104.3632    238.0598   1.3444516480e+02   1.3797449962e+01    0.2696069    0.1840084  39.55  0.001070012    1.351    0.260
        23  -9.8835     93.8200    217.2144   1.3431892647e+02   1.9040587813e+01    0.3041117    0.1718082  83.93  0.001529057    2.357    0.576
        24  -9.7983    100.9359    215.9122   1.3275422154e+02   1.8189969153e+01    0.2887933    0.1740946  72.09  0.001292495    1.905    0.475
        25 -10.4434    102.1839    212.0752   1.3206105709e+02   1.8704488302e+01    0.3997604    0.2031666  63.66  0.001509518    2.325    0.570
        26 -12.0699    109.6873    230.2972   1.3262872899e+02   1.4281359188e+01    0.9152337    0.2831381  44.13  0.002706189    2.489    0.598
        27 -10.9977     98.4069    231.2061   1.3487878874e+02   1.5854270194e+01    0.3404126    0.2448835  81.80   0.00155988    1.450    0.310
        28 -10.6197    110.1829    222.5101   1.3166461844e+02   1.5550344661e+01    0.2541612    0.2443816  71.11 0.0006984554    1.261    0.207
        29 -10.4226    105.1544    219.1660   1.3227967462e+02   1.6939230685e+01    0.3020805    0.2037833  77.33  0.000393576    1.642    0.391
        30 -10.6578     92.7535    226.0740   1.3544455138e+02   1.7597043626e+01    0.2987572    0.1892399  57.12 0.0004242004    1.304    0.233
        31 -12.1253     98.9346    223.3100   1.3396108320e+02   1.7159144203e+01    0.5000368    0.2786389  37.86  0.001429887    1.679    0.404
        32 -11.2354     87.5136    249.1406   1.3851757686e+02   1.4448801727e+01     0.434268    0.2817177  51.49  0.002354738    1.146    0.128
        33 -11.1458     81.0415    246.0685   1.3940983405e+02   1.5852618118e+01    0.4268771    0.2250046  86.57  0.002410577    2.385    0.581
        34 -10.3228     83.7894    242.1944   1.3859895538e+02   1.6112323576e+01    0.2973687    0.2399257  11.17  0.001971025    2.136    0.532
        35 -11.1494     84.4872    237.8743   1.3810086149e+02   1.6742448512e+01    0.4481817    0.2366206  32.92  0.002270496    2.167    0.539
        36 -10.5981     90.0347    236.0404   1.3691496592e+02   1.6260675382e+01    0.3849097    0.2058387  60.11  0.002202544    1.684    0.406
        37  -9.3706     74.5262    250.6354   1.4090384777e+02   1.5993522543e+01    0.2646897   0.09108953  37.17  0.001253028    2.807    0.644
        38 -13.0585     61.5606    245.8993   1.4279948957e+02   1.8473825212e+01     1.410679    0.5439785  45.88  0.007919168    1.910    0.476
        39 -12.6104     41.9404    236.7110   1.4557836493e+02   2.2448176024e+01    0.5766969    0.2327505  57.52   0.00115248    1.957    0.489
        40 -13.3845     20.1792    232.5914   1.4903588378e+02   2.5565347131e+01    0.8073002     0.438598 -82.23  0.004468451    1.671    0.402
        41 -13.2946     46.4500    228.9636   1.4429516603e+02   2.3288940574e+01    0.6469576    0.3636501  81.93  0.001602449    1.641    0.391
        42 -14.8206     54.6427    217.1100   1.4192954254e+02   2.4472303688e+01      2.16087     1.736046  44.25   0.01556653    1.365    0.267
        43  -9.0007    211.6693    239.7000   1.1467021939e+02  -3.8653439774e+00    0.1240752   0.07579332  17.71 0.0006468244    1.646    0.392
        44 -10.1765     73.7188    238.5401   1.4011096598e+02   1.8120136197e+01    0.3467226    0.1115149  54.91  0.001554589    2.836    0.647
        45  -9.9064     70.7676    234.9716   1.4035857381e+02   1.9135017289e+01     0.196223     0.127614 -73.94  0.001305898    1.657    0.397
        46 -13.0000     14.0295    239.1105   1.5033974283e+02   2.5059938949e+01    0.3474014    0.1880703  50.95  0.001554469    1.411    0.291
        47 -11.0949    128.7869    234.4179   1.2943466077e+02   1.0555929210e+01    0.4210141    0.2629807  65.03  0.002024193    1.798    0.444
        48 -10.4925    165.7797    235.5298   1.2252972894e+02   4.2415938141e+00    0.2371687    0.1971197  46.86  0.001599976    1.147    0.128
        49 -10.3146    161.9523    232.7924   1.2288225552e+02   5.2851737830e+00    0.2493752    0.1440195  59.07  0.001226792    2.152    0.535
        50 -10.9190    121.8980    232.8637   1.3057220421e+02   1.1919293412e+01    0.3163796    0.2549192  44.73  0.001197002    1.115    0.103
        51 -15.4771     10.9789    208.7210   1.4943292798e+02   3.0838337923e+01     4.325017     1.059659 -70.50   0.02056217    3.414    0.707
        52 -10.3465    181.2406    230.1447   1.1883722601e+02   2.3858843525e+00    0.2680885    0.2078477 -77.05  0.001579604    2.187    0.543
        53 -10.4123     74.0258    230.7701   1.3941544831e+02   1.9432494196e+01    0.3286955    0.1771122  30.67  0.001763987    2.355    0.575
        54 -11.2028    165.5584    227.4420   1.2144178017e+02   5.4628221387e+00    0.4178905    0.3008583 -83.70  0.001746965    2.412    0.585
        55  -9.8486    160.5544    223.9557   1.2191501006e+02   6.8567337101e+00    0.1652145    0.1290531 -43.99  0.001025032    1.588    0.370
        56  -9.7793    164.5118    220.8667   1.2069051949e+02   6.6436549599e+00    0.2621334    0.1813795 -27.11 0.0009290566    1.929    0.482
        57  -9.4055    150.9774    229.7952   1.2458511841e+02   7.5978006575e+00    0.2515229    0.1414973  52.07 0.0009837149    1.646    0.393
        58 -10.5932     84.5357    229.7933   1.3736641088e+02   1.8135810585e+01    0.2442922    0.1884099  35.65 0.0008477632    1.470    0.320
        59 -10.1197     79.3598    228.9030   1.3825873838e+02   1.9026070833e+01     0.265662    0.1874945 -59.89  0.001052479    1.748    0.428
        60  -9.6443     78.6723    224.6878   1.3800829502e+02   1.9879150523e+01    0.2525046     0.157195  35.21 0.0009026591    1.710    0.415
        61 -10.5376     77.9354    221.4425   1.3785073762e+02   2.0574606003e+01    0.5215959    0.1868558  60.48  0.002032243    3.668    0.727
        62 -10.0687    190.9056    228.0717   1.1670228714e+02   1.0279881352e+00    0.1882779    0.1482381  31.56 0.0003081683    1.004    0.004
        63 -10.8846    156.6905    231.2849   1.2368444902e+02   6.4015326318e+00    0.2651476    0.2199109 -63.01 0.0005304812    1.573    0.364
        64  -8.9779    158.3455    241.8204   1.2476012602e+02   4.5809509980e+00    0.1407123    0.1126597 -25.87 0.0003584337    1.665    0.399
        65 -11.2809    132.6555    225.1389   1.2755259098e+02   1.1432902307e+01    0.3322028    0.2198292 -32.87  0.001378881    2.328    0.570
        66 -10.8385    117.3678    224.3466   1.3046288639e+02   1.4080399212e+01    0.2220437    0.1873983  52.43 0.0003018634    1.074    0.068
        67  -8.9490    220.0131    223.6691   1.1062433088e+02  -3.2640253605e+00    0.1698013    0.1287667  25.38  0.001093663    1.035    0.034
        68  -9.5794    155.9220    223.5070   1.2275835378e+02   7.7296003806e+00     0.194383    0.1046052  42.43 0.0003666015    1.494    0.331
        69 -10.6662    150.0002    222.4517   1.2377607859e+02   8.9214842340e+00    0.1948926    0.1894767 -29.47 0.0001248351    1.272    0.214
        70 -12.0587    142.1218    221.2380   1.2516987892e+02   1.0475489325e+01    0.3692791    0.3307238 -58.59  0.002479002    1.365    0.267
        71 -10.9747    137.4498    214.7058   1.2521445267e+02   1.2380695000e+01    0.3055761    0.2284865  75.14  0.001118934    1.596    0.374
        72  -9.9599    141.2880    212.4388   1.2411622821e+02   1.2102348859e+01      0.34754    0.1988525  42.28  0.001608914    1.452    0.311
        73 -11.4719    141.8654    230.2834   1.2641164270e+02   9.0575500914e+00    0.3719959    0.2608106 -33.60  0.001729946    2.019    0.505
        74  -9.5372     89.2044    219.4114   1.3546064004e+02   1.9325604612e+01    0.2115239    0.1496119 -49.72  0.001291612    1.901    0.474
        75 -10.7851     88.2114    213.0419   1.3499522880e+02   2.0657333886e+01     0.248467    0.2256646  82.41   0.00043134    1.208    0.172
        76  -9.0572    182.7021    213.7054   1.1601286137e+02   4.5124188645e+00    0.1292602    0.0913174  16.09 0.0002091572    1.567    0.362
        77 -12.3669    131.8464    211.6631   1.2593794039e+02   1.3878450587e+01    0.3280929    0.2759144  15.17 0.0003874078    1.484    0.326
        78  -9.5764    152.1511    211.9531   1.2183578963e+02   1.0264482319e+01    0.1975581    0.1584757  58.70 0.0005360583    1.259    0.206
        79  -9.6839    109.4671    210.5012   1.3038252647e+02   1.7835143507e+01    0.1300129    0.1057458  57.79 0.0001091315    1.023    0.023
        80 -10.4062    173.2600    239.9822   1.2173559612e+02   2.3682637251e+00    0.2446323    0.2074732 -71.86 0.0009295281    1.712    0.416
        81  -8.7165    197.6874    208.2604   1.1219294278e+02   2.6367515321e+00    0.1207969   0.09670445  57.02 0.0002051593    1.533    0.348
        82 -10.7232    174.2144    206.0123   1.1643964206e+02   7.2416675486e+00    0.3722901    0.2818523  31.41  0.001080175    1.170    0.145
        83 -11.6694     93.0390    205.0146   1.3312031675e+02   2.1465003845e+01    0.6259277    0.3035392  47.42  0.001545035    1.736    0.424
        84 -11.7320    247.1737    205.4264   1.0263390380e+02  -5.4080822250e+00    0.5044338    0.2673877  21.34  0.002592945    1.924    0.480
        85  -9.9060    149.5808    204.4626   1.2122810376e+02   1.2004441769e+01    0.2939332    0.2216591  -3.95 0.0009988616    1.943    0.485
        86  -9.6100    125.9320    205.7258   1.2634310166e+02   1.5966026835e+01    0.1925846    0.1440005  49.51 0.0004353494    1.126    0.112
        87 -10.1632    120.4465    199.8894   1.2668711534e+02   1.7998051106e+01    0.5362716    0.2151203  55.75  0.001992145    3.108    0.678
        88  -9.3467    113.6802    204.7797   1.2878075704e+02   1.8214390615e+01    0.3121981    0.1196462 -63.91  0.001227445    3.492    0.714
        89 -10.0995    115.2016    200.4366   1.2787954559e+02   1.8784846790e+01    0.2026211    0.1750192 -79.22 0.0001965171    1.253    0.202
        90 -10.8576    103.1093    202.9698   1.3076922040e+02   2.0284148848e+01    0.3864603    0.2191979  54.34  0.001458784    1.590    0.371
        91  -9.6528    100.5096    198.4294   1.3074835652e+02   2.1584747189e+01    0.2432482    0.2261134  -3.26 6.077271e-05    1.478    0.323
        92 -10.6470     99.1454    195.0975   1.3061524329e+02   2.2462997118e+01    0.5362036    0.3186074  24.98  0.001510102    2.407    0.585
        93  -9.3620     75.3730    203.5795   1.3661359675e+02   2.4338593630e+01    0.3068155    0.1991177  28.50  0.001433807    1.948    0.487
        94  -9.8200    166.9541    203.2562   1.1745764445e+02   9.0268455041e+00    0.1910277    0.1482533  40.86 0.0002980275    1.091    0.084
        95 -10.3333    169.7877    200.2170   1.1637286989e+02   9.0061009973e+00    0.2314603     0.195196  29.05 0.0003512609    1.094    0.086
        96  -9.8371    133.1059    202.8770   1.2443326863e+02   1.5237516502e+01    0.1990508     0.196376  44.82 0.0002983054    1.190    0.159
        97 -10.3605    133.9699    197.7448   1.2348795504e+02   1.6030384833e+01    0.3137054    0.2129855 -75.76   0.00120516    1.973    0.493
        98  -9.3839    224.9404    202.5332   1.0605123084e+02  -1.3570637066e+00    0.1871125    0.1098223  37.60  0.000341222    1.483    0.326
        99 -10.5095    197.3693    200.8777   1.1096558074e+02   3.7869640201e+00    0.3631048    0.2160938  49.35  0.001717758    1.718    0.418
       100  -9.2010    163.8110    205.8289   1.1851640897e+02   9.1779976059e+00    0.2252852     0.152544  71.15  0.001087474    2.242    0.554
       101 -10.3060     86.0736    197.1391   1.3366905113e+02   2.4071267589e+01    0.4285329    0.1747974 -65.90   0.00124283    2.658    0.624
       102  -9.9457     82.9468    193.7339   1.3393978448e+02   2.5223201350e+01    0.3144177     0.225936   6.43 0.0009748976    2.629    0.620
       103  -9.3867    192.1000    197.9143   1.1147324103e+02   5.2123578031e+00     0.187802    0.1682647  45.09            0    1.210    0.173
       104 -11.9449     70.3931    194.7366   1.3672842098e+02   2.6804374472e+01    0.4215468    0.3093765 -35.03  0.001623946    2.222    0.550
       105 -12.0216     75.1266    187.9247   1.3495912655e+02   2.7549158164e+01    0.3161346    0.2803699  59.43   0.00081738    1.151    0.131
       106  -9.4978    112.8293    195.6205   1.2772680478e+02   2.0115853175e+01    0.3340794    0.1834624  60.40  0.001555826    2.007    0.502
       107  -9.5364    112.8680    192.1589   1.2723239667e+02   2.0790598702e+01    0.1989725    0.1782483  54.02  0.001234579    1.080    0.074
       108  -9.4713    107.2278    195.9174   1.2897760100e+02   2.0990640692e+01    0.2047081    0.1579612  67.81 0.0006816009    1.230    0.187
       109 -10.4465    248.4376    194.2394   1.0033575393e+02  -4.2212592764e+00    0.2982501    0.1546053  19.85  0.001385445    2.212    0.548
       110 -10.2730    159.5815    194.0677   1.1745523020e+02   1.1975191673e+01    0.3284609    0.2305081  59.42  0.001034016    1.573    0.364
       111 -10.9818    120.4633    193.1938   1.2572375867e+02   1.9282822690e+01    0.3652762     0.342937  50.98 0.0008374039    1.130    0.115
       112 -10.7670     38.5551    192.8086   1.4315184075e+02   3.1151797397e+01    0.2786186    0.1778252 -68.21  0.001773873    1.561    0.359
       113 -14.7321     27.6126    247.7113   1.4855453466e+02   2.2185284214e+01       1.5479    0.7358494  38.29   0.01001872    2.032    0.508
       114  -9.4988    178.2800    193.7119   1.1350734718e+02   8.4882658893e+00      0.30189    0.1543164  25.33 0.0009776466    2.686    0.628
       115  -9.9616    173.1533    192.4144   1.1433289933e+02   9.6828411854e+00    0.3402701    0.2274117  -9.03   0.00119592    2.287    0.563
       116  -9.7306     47.2779    192.9411   1.4138164620e+02   3.0124048507e+01    0.1627364    0.1380854 -74.09 0.0007125677    1.315    0.239
       117 -13.5252      7.8872    227.2654   1.5082959017e+02   2.7727511639e+01     0.536806    0.4230917 -61.77  0.004007226    1.828    0.453
       118 -10.3188    191.4430    191.3802   1.1041849140e+02   6.3652909507e+00    0.2652507    0.2200273  21.26  0.000575695    1.110    0.099
       119 -10.3337     29.8144    182.5571   1.4413244232e+02   3.4199724327e+01    0.3579369     0.208928  67.18  0.002128355    1.502    0.334
       120 -15.1003      5.4681    244.4506   1.5189939317e+02   2.4998416078e+01     1.159296    0.6347628  83.77  0.008783012    1.447    0.309
       121 -11.6852     31.1206    190.0876   1.4444399831e+02   3.2510359676e+01    0.4101765    0.2267426  44.84  0.002234278    1.648    0.393
       122 -10.6137     29.3101    186.6512   1.4455204216e+02   3.3403292632e+01    0.2490447    0.1307216  66.14  0.001254726    1.712    0.416
       123  -9.3931    135.3205    190.1621   1.2201861859e+02   1.7215357838e+01    0.1807018    0.1663479  72.40 0.0005594578    1.119    0.106
       124 -11.4216    249.9034    187.6609   9.8823675290e+01  -3.6187796907e+00    0.3554952     0.204782 -19.25  0.001889082    1.740    0.425
       125 -10.3377    115.8419    240.1235   1.3251613342e+02   1.1697936272e+01    0.2157794    0.1612823  62.25 0.0007686818    1.204    0.170
       126  -9.9163    175.8541    186.9750   1.1279245426e+02   1.0091554056e+01    0.2097908    0.1857657  33.38  0.000403333    1.017    0.017
       127  -9.5251     67.5591    186.8078   1.3648287391e+02   2.8828703697e+01    0.2160235    0.1595168  23.03 0.0007184527    1.838    0.456
       128  -9.2088    154.5307    184.9938   1.1696888146e+02   1.4576328675e+01    0.1949916    0.1417687 -45.41 0.0006694607    1.561    0.359
       129 -10.5990    140.7592    183.6730   1.1975603748e+02   1.7450593080e+01    0.4500121    0.2365759  57.18  0.001298083    2.220    0.550
       130 -10.8774    131.9356    180.1793   1.2113591939e+02   1.9785376561e+01    0.7404999    0.3134554  42.92  0.002115688    2.105    0.525
       131  -9.1697     87.4942    183.5595   1.3168588744e+02   2.6645469951e+01    0.4594667      0.17012  36.76  0.001861664    2.682    0.627
       132  -9.2779     37.3499    184.1546   1.4268940521e+02   3.3069833906e+01    0.2295759    0.1410437  47.94   0.00142171    1.486    0.327
       133  -9.3183    217.2656    183.2335   1.0382935143e+02   2.7542152691e+00    0.1649957     0.156333  46.42 0.0003695655    1.317    0.241
       134  -9.9440     46.2671    187.3170   1.4109280055e+02   3.1403440649e+01    0.3422002    0.1752073  26.45  0.001726794    2.663    0.625
       135  -9.9028     65.9890    181.9943   1.3629360690e+02   3.0054851653e+01    0.1825901    0.1552249  72.79  0.001195257    1.038    0.036
       136 -10.3122    115.0143    177.9445   1.2461917282e+02   2.3299581656e+01    0.4887143    0.2017602 -59.53  0.001935086    2.775    0.640
       137  -9.4287    104.0908    180.6885   1.2753497911e+02   2.4598850242e+01    0.1839538    0.1526678  50.43 0.0002826744    1.106    0.096
       138  -9.5692    175.9005    179.9285   1.1146745888e+02   1.1306876294e+01     0.214816    0.1809638  14.07 0.0004590403    1.235    0.190
       139  -9.1939     81.7428    184.0109   1.3302962986e+02   2.7412823012e+01    0.1746234    0.1462563  78.69 0.0002608926    1.067    0.062
       140  -9.3072     48.1559    179.7986   1.3998332079e+02   3.2764083568e+01    0.1787745     0.129266  62.48 0.0004934428    1.202    0.168
       141 -11.6830     84.0926    175.8979   1.3144612981e+02   2.8788846322e+01    0.3705863    0.3247595  72.25 0.0009727741    1.020    0.020
       142  -9.9613     77.1861    175.6389   1.3300205875e+02   2.9861783540e+01    0.2023376    0.1631469 -82.71 0.0005512768    1.175    0.149
       143 -12.2040     70.5965    174.1439   1.3432827980e+02   3.1115204752e+01    0.3986556    0.3325629   3.74 0.0008484655    1.795    0.443
       144 -10.9727     68.9595    167.3578   1.3385291851e+02   3.2826245939e+01    0.3278224    0.1693065 -63.15            0    1.858    0.462
       145 -10.2697     29.7859    177.3755   1.4372277933e+02   3.5289833002e+01    0.3068095    0.1415122  46.36 0.0005414489    1.948    0.487
       146  -9.6608    109.0415    176.0646   1.2569952702e+02   2.4728771635e+01    0.2173168    0.1513427  73.16 0.0003364084    1.629    0.386
       147 -12.3707    248.2361    101.5732   8.0390160563e+01   9.1618593704e+00    0.8743283    0.4684384 -29.88  0.003982884    1.762    0.432
       148 -13.3337    247.8526    116.9145   8.4028017787e+01   6.9152214620e+00     2.093652    0.8211632 -25.52  0.007505582    3.002    0.667
       149 -12.5717    248.1536    172.0800   9.6027590019e+01  -1.2379168540e+00    0.7191821    0.4752221  -1.41  0.003864332    1.601    0.375
       150 -12.6331    245.3664    163.5554   9.4745752917e+01   4.5346926883e-01    0.6048067    0.5040277 -39.72  0.003628714    1.421    0.296
       151 -12.5223    246.4726    157.6094   9.3304892399e+01   1.1058554699e+00      1.23489    0.9393663 -85.00  0.005973794    2.755    0.637
       152 -12.1252    248.3113    134.2619   8.7903346958e+01   4.2021673947e+00     0.785318    0.5028911 -21.22  0.003694326    1.538    0.350
       153  -9.9717    179.1449    174.9030   1.0981288063e+02   1.1544931206e+01    0.2077337    0.1878892  57.44 0.0002679516    1.209    0.173
       154 -10.3809     95.7903    173.6801   1.2841818982e+02   2.7442653628e+01    0.3227167    0.2010643 -55.68  0.001193119    1.697    0.411
       155  -8.6537     42.2574    174.3293   1.4074824523e+02   3.4611242894e+01    0.1107625   0.08483861 -54.48 0.0003786455    1.560    0.359
       156  -9.6346    154.7457    172.5229   1.1464667689e+02   1.6886705768e+01    0.2603039    0.1923659  21.12  0.001196543    1.582    0.368
       157  -9.5833    139.0359    173.4992   1.1836704485e+02   1.9775639953e+01    0.2191957    0.1296818  44.81 0.0004199822    1.527    0.345
       158 -10.7624     80.7091    163.5588   1.3052412219e+02   3.1994663958e+01    0.2473361    0.2165064 -84.02 0.0002832645    1.085    0.078
       159 -12.6128     89.4186    166.9612   1.2892861922e+02   2.9914225591e+01    0.8072699    0.6555475 -73.91  0.004729785    1.214    0.176
       160 -10.3360     89.5388    160.5047   1.2791290148e+02   3.1323092610e+01    0.2660477    0.2054765  78.70  0.000734594    1.316    0.240
       161 -10.4403     31.4983    171.5684   1.4286170267e+02   3.6352514161e+01    0.1877994    0.1270614  57.45 2.315541e-05    1.333    0.250
       162 -10.4278    222.9547    244.5087   1.1340681572e+02  -6.1724762517e+00    0.1882172   0.08987404  36.69  0.001040216    1.617    0.381
       163 -12.4813    248.8011    240.4430   1.0834889623e+02  -9.5661046849e+00    0.5564743    0.3602942 -14.22  0.003753203    1.548    0.354
       164 -10.4130      1.7698    172.9762   1.4923342035e+02   3.8715565035e+01    0.2102985    0.1173361 -89.12  0.001360864    1.408    0.290
       165 -11.1787      2.4239    169.2031   1.4887485934e+02   3.9445389160e+01    0.2976363    0.1142436 -89.33  0.001521696    2.299    0.565
       166  -9.2045    183.5270    171.4549   1.0820739797e+02   1.1267139541e+01    0.1457136    0.1294864  27.90  3.33215e-05    1.019    0.019
       167  -9.1418    100.6025    170.7167   1.2684101868e+02   2.7292079616e+01    0.1803416    0.1269452 -76.46 0.0007610081    1.538    0.350
       168  -9.0310    167.3195    170.1924   1.1142294581e+02   1.4794192754e+01    0.1939395    0.1349594 -53.16  0.000933735    1.687    0.407
       169 -10.9563     43.9830    168.8875   1.3982293981e+02   3.5596922821e+01    0.3109628    0.3017902  72.57  0.001460929    1.303    0.233
       170 -10.1596     47.6958    168.3298   1.3891835326e+02   3.5294815956e+01    0.2722142    0.1565473 -87.02 0.0006643898    1.689    0.408
       171  -9.6537    108.2624    242.5159   1.3416722907e+02   1.2478648161e+01    0.1889514    0.1574073  89.62  0.001202158    1.336    0.251
       172  -9.6149    107.3146    168.1799   1.2484742674e+02   2.6701307452e+01    0.2202078    0.1781063  39.03  0.000427367    1.248    0.199
       173  -9.4948     58.7244    167.7567   1.3630482425e+02   3.4084259910e+01    0.1742623    0.1252489  74.21  0.000376974    1.293    0.226
       174 -10.6563    165.9054    241.6340   1.2332684372e+02   3.3588590634e+00    0.3373144    0.1654996  31.80  0.001102455    1.964    0.491
       175  -9.1428    175.6792    166.3070   1.0883197109e+02   1.3798497308e+01    0.1429493    0.1158227  77.85 0.0002352316    1.639    0.390
       176  -9.7287    136.3527    165.6406   1.1754462595e+02   2.1886748262e+01    0.2582708    0.2187633 -84.82 0.0007994811    1.340    0.254
       177  -8.6371    124.2846    165.3259   1.2032540024e+02   2.4256368398e+01    0.1367522    0.1145685  -7.16 0.0001635838    1.603    0.376
       178  -9.8469     47.2394    163.6049   1.3851253409e+02   3.6387846457e+01    0.2004518    0.1159624  68.32  0.000616758    1.763    0.433
       179 -12.6480    247.9775    142.4958   8.9785273076e+01   3.0385331886e+00     1.067376    0.7436331 -29.99  0.005785116    1.342    0.255
       180  -9.9087     37.0826    162.8327   1.4078910585e+02   3.7674459886e+01      0.18939    0.1353366  72.57 0.0005922481    1.242    0.195
       181  -9.8502    123.1691    160.8439   1.1977623481e+02   2.5415539557e+01    0.2350616    0.2170596  15.71 0.0002816086    1.244    0.196
       182 -11.0945     96.2837    158.9125   1.2599772084e+02   3.0590300243e+01    0.3831256    0.2580729 -56.54  0.001966735    1.517    0.341
       183 -11.1123     73.3446    158.0012   1.3152140577e+02   3.4305777245e+01    0.4641485    0.3451328  88.49  0.001771613    1.328    0.247
       184 -10.0223     79.0487    158.9437   1.3025353795e+02   3.3271383226e+01    0.1990352    0.1775136  79.69 0.0003953638    1.009    0.009
       185  -9.2249     52.3250    158.5553   1.3672380785e+02   3.6917682153e+01    0.1483215    0.1244138  24.19 0.0009290443    1.512    0.339
       186  -9.6031     47.6729    157.8176   1.3775551237e+02   3.7626873768e+01    0.2067325    0.1672453  61.35 0.0009725299    1.170    0.145
       187 -11.2929    133.6248    142.4543   1.1354613161e+02   2.7315178026e+01     1.039313    0.3517349 -50.35  0.003395322    3.160    0.684
       188  -9.2465    228.3646    155.3130   9.5988158701e+01   4.8931634275e+00    0.1840947    0.1251146 -38.86 0.0004777597    1.550    0.355
       189 -11.6949     14.0973    153.8045   1.4524664171e+02   4.1798289133e+01    0.2754308    0.2014219  66.71  0.001472849    1.235    0.190
       190 -10.2761      8.2596    155.4035   1.4669115856e+02   4.1915929031e+01    0.1509578   0.08753705  48.75 0.0008953265    1.676    0.403
       191 -10.4182    113.1417    152.1104   1.2060694961e+02   2.9170057272e+01    0.3598065     0.296918  60.86 0.0008821502    1.182    0.154
       192 -10.2140     95.8527    152.6461   1.2504831601e+02   3.2062713265e+01    0.2735799     0.204783   2.22 0.0009335994    2.130    0.530
       193 -10.7893    102.0900    151.1036   1.2319991962e+02   3.1355746352e+01    0.3503872    0.2989394  70.15   0.00146891    1.145    0.127
       194 -10.0875    104.8588    146.2174   1.2159153256e+02   3.1970202896e+01    0.4653526    0.2327541 -61.52  0.001911459    2.186    0.543
       195  -9.3985     62.0358    152.2433   1.3352156805e+02   3.7139365886e+01    0.1769953    0.1543045  68.11 0.0003240884    1.090    0.083
       196  -8.8112    119.7123    151.3402   1.1882340173e+02   2.8118892994e+01    0.1494861    0.1114219  80.34 0.0003452144    1.641    0.390
       197 -10.8085     90.6332    150.1492   1.2594437507e+02   3.3477468378e+01    0.2355569    0.2206195  66.95 0.0003736901    1.066    0.062
       198 -11.0865     55.4900    149.2072   1.3475468189e+02   3.8652439751e+01    0.5353101    0.3230536  75.48  0.002720202    1.870    0.465
       199 -13.0963     67.5178    144.3179   1.3096379247e+02   3.8232123929e+01    0.7787384    0.5238593  80.20  0.004054574    1.656    0.396
       200 -11.2841     35.7188    149.3721   1.3969682481e+02   4.0812956960e+01    0.3661195    0.1540493  53.01  0.001543893    2.503    0.600
       201 -11.3795     32.5262    145.4996   1.4005522266e+02   4.2001967785e+01    0.3127285    0.1759853 -60.40  0.001215577    1.634    0.388
       202 -11.9332     32.4318    141.7749   1.3965985342e+02   4.2854238519e+01    0.3323489    0.3027463 -30.12  0.001552208    1.432    0.302
       203  -9.7310    134.4737    155.5536   1.1604578543e+02   2.4354459894e+01    0.2500767    0.2176255 -69.04 0.0005354579    1.239    0.193
       204 -12.1560     33.6270    136.0822   1.3868050309e+02   4.4036542689e+01    0.7539138    0.2929143 -41.05  0.002668635    4.851    0.794
       205 -10.2948     41.2610    146.9944   1.3805094821e+02   4.0777177908e+01    0.2346116    0.1566059 -19.29  0.001199877    2.665    0.625
       206 -13.1655      4.3843    141.6842   1.4652398055e+02   4.5178569061e+01    0.6437817    0.5219834  70.30  0.004811604    1.184    0.156
       207  -9.3316     44.6533    142.3150   1.3660860964e+02   4.1480042150e+01    0.1347975   0.08363204  69.29 0.0007047577    1.719    0.418
       208  -9.2241     53.7927    140.1909   1.3394329862e+02   4.0927623655e+01    0.1648874    0.1415226 -55.28 0.0006435263    1.244    0.196
       209 -11.7876     48.1121    138.5242   1.3520286965e+02   4.1969068648e+01    0.5278764    0.2404091  21.42  0.002246052    3.263    0.694
       210 -10.8152     26.1272    139.5613   1.4100511033e+02   4.3937776081e+01    0.2018408    0.1436585 -60.77  0.001277288    1.344    0.256
       211 -10.5360    236.4522    146.0228   9.2513971805e+01   4.7374742502e+00    0.3564214    0.1912943  44.26  0.001639869    1.863    0.463
       212  -9.7676    119.0539    138.4136   1.1636880504e+02   3.1093099693e+01    0.2295122    0.2029323 -39.37 0.0004014271    1.225    0.184
       213 -12.4357     73.0339    138.5239   1.2857301601e+02   3.8809496727e+01    0.7754459    0.5126792  54.33  0.003155987    1.562    0.360
       214 -11.6747     58.8346    133.4342   1.3157708124e+02   4.1881211484e+01    0.3263481    0.2544726  30.47  0.001651068    1.471    0.320
       215 -10.3299     37.4361    143.9675   1.3865145478e+02   4.1862267164e+01    0.1758351    0.1553399  61.16 0.0005147509    1.187    0.157
       216 -10.7617    112.5584    136.2683   1.1760535884e+02   3.2807854713e+01    0.4410612    0.3202465  40.29  0.001599283    1.374    0.272
       217 -12.0545      2.0993    122.3901   1.4543357023e+02   4.9578571517e+01    0.7122558    0.1230684 -76.81  0.002260372    5.229    0.809
       218  -9.8434    132.1086    152.3138   1.1596985609e+02   2.5509305049e+01    0.2514872    0.2115264 -66.16 0.0003362779    1.281    0.219
       219 -12.0364     31.8451    126.8037   1.3798332185e+02   4.6331867663e+01     0.368661    0.2433163  38.96  0.001897057    1.659    0.397
       220 -10.4213    209.7693    125.9627   9.2736254084e+01   1.3639313568e+01    0.2936055     0.241731 -22.27 0.0005580273    1.216    0.178
       221  -8.5396     93.3887    127.5206   1.2094713787e+02   3.8213492857e+01    0.1424385    0.1324051 -79.38 0.0001391207    1.033    0.032
       222  -9.7925     85.9001    126.6394   1.2285283855e+02   3.9640235834e+01    0.2773719     0.218209  -8.91  0.001321184    1.779    0.438
       223 -11.2196      9.4890    127.5056   1.4400567203e+02   4.7962251748e+01    0.2035141     0.129495 -86.78 0.0008063109    1.312    0.238
       224  -9.2066    159.6701    126.3249   1.0348805109e+02   2.5058445269e+01    0.1591967    0.1254315  89.67 0.0002924834    1.702    0.412
       225 -12.2119     45.6402    131.5864   1.3488688178e+02   4.3846234088e+01    0.5480614    0.4017072  65.74  0.002856131    1.402    0.287
       226 -11.6508     37.9338    123.3881   1.3583209912e+02   4.6542027498e+01     0.407558    0.2396043 -50.16  0.002204356    1.690    0.408
       227  -9.5649     50.0847    122.8585   1.3231814466e+02   4.5384466600e+01    0.2187851    0.1288332  62.03  0.001067655    2.047    0.511
       228  -9.7018    238.9183    121.6139   8.6542211732e+01   8.0308805645e+00    0.3136496    0.1749171 -13.48  0.001259938    2.473    0.596
       229 -11.8893     20.8225    120.8480   1.4025013610e+02   4.8632925863e+01    0.3134331    0.2184439 -25.11  0.001878537    1.979    0.495
       230 -12.1226     31.3583    117.3808   1.3683272850e+02   4.8546328765e+01    0.4072446    0.2786829 -46.53  0.002075965    1.519    0.342
       231 -11.2714     12.3682    120.3354   1.4249925067e+02   4.9373120326e+01    0.1825319    0.1127546 -49.37  0.001057166    1.663    0.399
       232  -9.4302    231.8015    116.5919   8.6537667133e+01   1.0335206901e+01    0.1876891    0.1410532  65.06 0.0004768101    1.602    0.376
       233 -11.0759    168.2751    113.5293   9.8253606894e+01   2.5603398999e+01    0.4016031    0.3316582 -84.07 0.0008953513    1.527    0.345
       234  -8.8054     81.9661    114.2475   1.2138723314e+02   4.3130801494e+01    0.1697789    0.1204642  39.03 0.0002234669    1.478    0.324
       235  -9.1939    203.6524    111.6890   9.0377020540e+01   1.7524144904e+01    0.1603415    0.1166328  16.72 0.0007045544    1.712    0.416
       236  -9.7423     70.1449    111.3622   1.2429227146e+02   4.5544256373e+01    0.1872766    0.1215486  47.68 0.0003865701    1.671    0.402
       237 -11.0038     56.3227    110.9376   1.2838385073e+02   4.7438612386e+01     0.375588    0.1995249  16.14   0.00162112    2.871    0.652
       238  -9.7126     59.1472    116.8520   1.2865174309e+02   4.5713712538e+01    0.1783622    0.1468691 -40.70 0.0002961353    1.307    0.235
       239 -11.9393     66.8846    128.1176   1.2846372402e+02   4.2080631391e+01    0.4986986    0.4049844  61.72  0.001593157    1.265    0.210
       240 -10.7078     62.3889    106.8432   1.2571370698e+02   4.7634341939e+01    0.2535403    0.1569079 -53.78  0.001281863    1.455    0.313
       241 -10.2342    134.5806    105.1498   1.0426698770e+02   3.5112112606e+01    0.3754041    0.1466329 -35.25  0.001144144    3.297    0.697
       242 -10.7284     27.9403    106.1774   1.3617863505e+02   5.1419064481e+01    0.2160512    0.1731497  43.89  0.001410002    1.422    0.297
       243  -9.3238    106.2754    103.0011   1.1152939196e+02   4.1461486687e+01    0.2016609     0.185523 -51.23 0.0002099544    1.072    0.067
       244  -8.9444     42.6955    103.6826   1.3121512467e+02   5.0634575265e+01    0.1316926   0.08709317 -39.32 0.0003712046    1.626    0.385
       245  -9.0734     62.6951     99.6898   1.2408001091e+02   4.9245633673e+01    0.1375281   0.09816834 -30.84 0.0002503078    1.612    0.380
       246  -8.9362    136.7073     94.3110   1.0069020585e+02   3.6864902308e+01    0.1551477    0.1256024 -83.41 0.0002478242    1.589    0.371
       247 -10.6457     47.1122     90.0335   1.2704420891e+02   5.3301171659e+01    0.3391238    0.2082086  13.94 0.0008803019    2.125    0.529
       248  -9.9888    169.1418    248.8964   1.2367749867e+02   1.8439483092e+00    0.2367261    0.1472371  13.74 0.0009346215    2.359    0.576
       249  -9.8021    209.3523    246.6741   1.1612169581e+02  -4.3153160952e+00    0.1102588   0.08470834  55.05            0    1.763    0.433
