#   1 NUMBER                 Running object number                                     
#   2 MAG_AUTO               Kron-like elliptical aperture magnitude                    [mag]
#   3 X_IMAGE                Object position along x                                    [pixel]
#   4 Y_IMAGE                Object position along y                                    [pixel]
#   5 X_WORLD                Barycenter position along world x axis                     [deg]
#   6 Y_WORLD                Barycenter position along world y axis                     [deg]
#   7 A_WORLD                Profile RMS along major axis (world units)                 [deg]
#   8 B_WORLD                Profile RMS along minor axis (world units)                 [deg]
#   9 THETA_WORLD            Position angle (CCW/world-x)                               [deg]
#  10 FWHM_WORLD             FWHM assuming a gaussian core                              [deg]
#  11 ELONGATION             A_IMAGE/B_IMAGE                                           
#  12 ELLIPTICITY            1 - B_IMAGE/A_IMAGE                                       
         1 -11.2240    206.2816     18.1353   3.9223032994e+01   3.1412807961e+01     1.050983    0.2857915 -35.75   0.00443146    2.979    0.664
         2 -13.7568    197.7133     78.4134   5.4684368831e+01   2.5453642938e+01     4.720757     2.111729 -20.87   0.01551481    4.138    0.758
         3 -12.1766    214.4195     23.6840   3.9797918791e+01   2.9094816081e+01     1.004723    0.7104036  13.04  0.004734073    2.437    0.590
         4 -13.4036    233.1135     23.9335   3.8400959655e+01   2.5297292797e+01     1.275223     0.715966 -45.83  0.004472548    1.468    0.319
         5 -15.2446    219.0232     78.2532   5.1678755804e+01   2.1099238715e+01     8.347934     4.665781 -73.40   0.02468948    3.112    0.679
         6 -15.2062    243.0898     48.5396   4.2672590119e+01   2.0517629458e+01     3.782173     1.094258  57.81   0.01634135    3.747    0.733
         7 -13.5227    250.0725     28.9771   3.8225895756e+01   2.1556401454e+01     1.048421    0.3130734 -34.27  0.001612167    2.773    0.639
         8 -12.9437    220.6319     36.1829   4.2030419034e+01   2.6385614296e+01     2.013328    0.6242992 -38.28  0.008794287    2.593    0.614
         9 -12.3911    228.2564     34.6730   4.1036267106e+01   2.5031731649e+01    0.5852644    0.3134689 -61.23 0.0006767632    1.826    0.452
        10 -15.1853    241.9173     76.9397   4.8684657035e+01   1.6979870796e+01     7.145332      3.85461 -20.86   0.03425523    2.489    0.598
        11 -10.7387    163.0000     33.9371   4.8075765595e+01   3.9590733573e+01    0.5303576    0.2580395 -22.57  0.001545549    2.507    0.601
        12 -13.3263    247.9285      7.4070   3.4214950998e+01   2.4235706634e+01    0.8671528    0.4245259 -17.94  0.003895665    3.405    0.706
        13 -12.2559    134.2064     19.4709   4.8129472882e+01   4.8237885858e+01    0.7746152    0.4585276 -11.94  0.002184923    2.188    0.543
        14  -9.2911     90.6226     11.6616   5.4250370892e+01   5.9585030831e+01    0.2900234     0.157252  48.73  0.001239831    1.537    0.349
        15  -9.5890    115.7867     12.4379   4.8980324960e+01   5.3453363512e+01    0.2978616    0.2074764  55.91  0.001571717    1.230    0.187
        16 -11.7531    120.2462      9.2430   4.7025325696e+01   5.2633911270e+01    0.6666985    0.4276776 -40.72  0.002050382    1.755    0.430
        17  -9.5869     79.1987      7.9133   5.5714386814e+01   6.2552823780e+01    0.2296757    0.1684064 -21.92 0.0007114483    1.536    0.349
        18 -10.6070    235.7071      3.1630   3.4050872779e+01   2.6936905380e+01    0.2894362    0.2087493  61.25  0.002038761    1.672    0.402
        19 -10.5235    137.0856      3.2523   4.2461144934e+01   4.8970306575e+01    0.3574894    0.1928451 -22.59   0.00173119    2.142    0.533
        20  -9.1414    148.0085      2.9047   4.0994750737e+01   4.6325581896e+01    0.2783239    0.1834157  -0.54  0.001478458    2.077    0.519
        21  -8.4519    171.8282      2.8081   3.8492457641e+01   4.0637356006e+01     0.173621    0.1213336 -63.75 0.0007313519    1.359    0.264
        22  -7.4466    230.4193      1.2082   3.3951930467e+01   2.8145482304e+01    0.1013985   0.07256999  61.04 0.0004398289    1.663    0.399
        23  -8.3124    159.4941      1.3709   3.9298928298e+01   4.3676767718e+01     0.125877    0.1035959  74.00 0.0007946127    1.092    0.085
        24 -10.7045    230.7930    167.7387   6.9101601447e+01   4.8742190617e+00    0.4797171     0.205771 -45.00  0.002092998    2.572    0.611
        25 -11.7917      3.7244    174.5448   1.2677560667e+02   3.6238163833e+01    0.6683158    0.3518573  77.43  0.003400255    1.844    0.458
        26 -12.3876      7.2148    169.9895   1.2555894576e+02   3.7093204462e+01    0.9001549    0.4633271  65.13  0.004430118    1.965    0.491
        27 -10.1726    101.0020    175.9973   1.0002933487e+02   2.4735078334e+01     0.204913    0.1938573  16.41  0.001142871    1.015    0.015
        28  -9.2399    200.8457    173.4912   7.5692549539e+01   8.4911746924e+00    0.2414097    0.1685127 -14.59  0.001282787    1.394    0.282
        29  -8.0835     52.1397    174.5559   1.1354731736e+02   3.1800359149e+01    0.1681939    0.1333246   3.96  0.000359867    1.473    0.321
        30  -9.1565    214.2339    168.9814   7.2252670299e+01   7.1556847793e+00    0.3391331     0.174566  40.02  0.001394447    2.135    0.532
        31 -10.7600     24.4776    167.9982   1.2065923690e+02   3.6227326817e+01    0.3242522    0.1739972 -64.48  0.001585109    1.721    0.419
        32 -10.4993    242.8462    165.3140   6.6667694770e+01   3.5367385558e+00    0.3571378    0.1905239 -42.41  0.001873848    1.847    0.459
        33  -8.5131    208.7771    165.1774   7.2491429661e+01   8.6537178066e+00    0.1978713    0.1538546 -86.62 0.0009392795    2.785    0.641
        34 -11.8728     66.7426    143.4468   1.0450515692e+02   3.7850794232e+01     1.762066     1.042618  27.53   0.00722206    1.724    0.420
        35 -12.5025     44.6185    152.1005   1.1288405135e+02   3.8310067961e+01    0.9390643    0.7228796 -77.62  0.003056592    1.280    0.219
        36  -9.1551    247.4910    249.4679   8.0641105716e+01  -8.4358978222e+00    0.1125294   0.07623402  -2.71  4.36588e-05    1.003    0.003
        37  -9.3058    239.0364    249.2626   8.2041400596e+01  -7.5527761728e+00     0.160203    0.1089005   4.06 0.0004916446    1.079    0.073
        38 -14.4724    176.2622     77.6634   5.7996178849e+01   3.0296602409e+01     4.317031     1.902415  62.29  0.001270609    2.652    0.623
        39  -8.2407    210.3659    238.4799   8.5504006354e+01  -2.9705705831e+00    0.1197063   0.08959303  -1.18 -4.823168e-05    1.041    0.039
        40  -8.3357    228.9226    221.1287   7.9240819675e+01  -2.8156099255e+00    0.1654506    0.1331421  42.32  0.001063082    2.036    0.509
        41  -8.8550    209.0698    221.0610   8.2889478348e+01  -3.4074440842e-01     0.165052    0.1565365  36.71  0.001122016    1.724    0.420
        42  -9.9524    204.9095    154.0671   7.0906775567e+01   1.1206727554e+01    0.3876134     0.262792 -50.82 0.0009836135    1.768    0.434
        43 -10.1196    192.2539    152.4405   7.3009975778e+01   1.3685119916e+01    0.3888125    0.2416323 -48.93  0.001826914    1.811    0.448
        44  -9.1938    154.8900    152.8945   8.1328291512e+01   2.0453044212e+01    0.2240144    0.2137903  -7.65 0.0005693444    1.081    0.075
        45  -9.9748    134.1356    146.9284   8.5232345085e+01   2.5663825620e+01    0.7457702    0.2502497 -51.07  0.002283782    3.353    0.702
        46  -9.4592    133.0000    140.4701   8.4062703164e+01   2.7320297658e+01    0.5325007    0.1902242 -50.39  0.001682176    3.060    0.673
        47 -12.1208     50.6797    149.5937   1.1063022637e+02   3.8281388863e+01    0.6946082    0.5462977 -84.84  0.001736808    1.323    0.244
        48  -9.5710    222.6287    145.1435   6.5883328899e+01   9.7768546184e+00     0.186202    0.1793749   9.87 0.0004171482    1.245    0.197
        49  -9.1046    192.2847    144.0878   7.1175994331e+01   1.5207797773e+01    0.2380836    0.2032862  41.50 0.0003983222    1.309    0.236
        50 -10.0570    196.0233    143.0610   7.0218786614e+01   1.4716273912e+01    0.3777394    0.2470306  59.46  0.001185729    2.252    0.556
        51 -10.2100    147.6500    143.9764   8.1095327698e+01   2.3713304519e+01    0.2939975    0.2391409 -81.03  0.001383775    1.765    0.434
        52  -9.7703    158.9850    142.9600   7.8117138446e+01   2.1725616924e+01    0.2343925    0.1962277  88.80   0.00113651    1.727    0.421
        53 -10.0856    210.7863    136.4821   6.6056284254e+01   1.3239566369e+01    0.3496943    0.1765524 -28.44  0.001398117    2.025    0.506
        54 -13.2077    227.9478     67.6937   4.8242186120e+01   2.0864031341e+01    0.6967338    0.6209195 -57.42  0.001480305    1.053    0.050
        55  -8.8222    167.0298    134.5099   7.4298016775e+01   2.1854531059e+01    0.2160669    0.1470194  39.85 0.0004456519    1.503    0.335
        56 -10.9631    160.7127    128.4199   7.4275499049e+01   2.4345002483e+01    0.5678551    0.3129532 -41.86  0.002371236    1.770    0.435
        57 -10.5087    136.1984    130.7399   8.0900800028e+01   2.8841025991e+01    0.7786445    0.2598278 -46.48  0.002026819    3.034    0.670
        58  -9.3231    139.4298    130.3080   7.9950177145e+01   2.8283650019e+01    0.3739503     0.237546 -60.24  0.001324534    2.071    0.517
        59 -12.3613    233.0507     43.4186   4.2482870242e+01   2.3045356476e+01    0.3837458     0.245352 -37.46 0.0004776228    1.400    0.285
        60  -9.5457    171.1429    126.1425   7.1393897968e+01   2.2674129943e+01    0.2378722    0.2021354  -5.07 0.0009068897    1.221    0.181
        61  -9.3254    142.7586    122.9168   7.7259120685e+01   2.9185449949e+01     0.375169    0.2635048 -87.45  0.001428942    2.721    0.633
        62  -9.9679    192.9738    121.0717   6.5789431270e+01   1.9257364027e+01    0.2980934    0.1885135 -25.77  0.001390344    1.654    0.395
        63 -10.1480    228.7375    214.4552   7.8127660144e+01  -1.8634751067e+00    0.2109183    0.1587776  -7.88 0.0004210683    1.030    0.029
        64  -8.9608    197.0099    215.0883   8.4219156459e+01   2.1668550723e+00    0.1917974    0.1549091  -1.58 0.0004271312    1.047    0.045
        65 -10.0980    168.7612    115.5528   6.9303169952e+01   2.5209826970e+01    0.3768539    0.2570353 -30.13  0.001753689    1.483    0.326
        66 -10.0455    140.4497    106.9172   7.3663192347e+01   3.3010901498e+01    0.5925997    0.2888537  29.38  0.001946033    3.046    0.672
        67 -10.8244    134.7317    109.4962   7.5838242570e+01   3.3714127122e+01     1.158341    0.2040702 -43.62  0.002637605    5.675    0.824
        68 -10.0975    135.0845     99.2347   7.2921498475e+01   3.5747572553e+01    0.3695783    0.3228058 -65.10  0.001120337    1.318    0.241
        69 -12.2079    122.7260    102.5813   7.7212901332e+01   3.7748574422e+01     1.247081    0.7121148 -63.01  0.004355985    2.888    0.654
        70 -11.3924    118.6858     91.7172   7.5226298436e+01   4.0883416885e+01    0.6084821    0.2787355 -43.03  0.002240581    2.216    0.549
        71 -12.2433     37.3680    155.7998   1.1558908624e+02   3.8109938397e+01    0.5804994    0.5455623 -55.10  0.001697197    1.092    0.084
        72  -9.7125    149.0740    103.1083   7.0513579918e+01   3.1880267724e+01    0.3288125    0.2653608  18.75 0.0006912898    1.388    0.279
        73  -8.5408     82.9409    104.0640   9.0251858939e+01   4.5228172669e+01    0.2129374     0.203031  81.39 0.0002995098    1.211    0.174
        74 -10.2335    197.0166     97.3028   5.9401364148e+01   2.2563538026e+01    0.3670252    0.1889962 -40.36   0.00104037    1.775    0.437
        75 -10.4834    159.9097     98.1505   6.6709679947e+01   3.0421748291e+01    0.5692015    0.3301716  34.32  0.002339821    2.052    0.513
        76 -10.4011    168.0523     95.7232   6.4348083846e+01   2.9055478214e+01    0.7242733    0.4793794 -52.12  0.003331162    1.645    0.392
        77 -11.0897    175.8469     90.8006   6.1526738856e+01   2.8195468820e+01    0.6793255    0.4132647  37.20  0.003025244    1.927    0.481
        78 -10.1777    142.9330     93.6276   6.9368351137e+01   3.5093149991e+01    0.3273262    0.3011981 -63.89 0.0005848534    1.190    0.159
        79  -9.7338     36.8656    214.1694   1.2131901213e+02   2.4234642611e+01    0.2059874    0.1473406  57.70  0.001152839    1.254    0.203
        80  -8.2491    247.4924    211.4319   7.4390469377e+01  -3.6691259457e+00    0.1191517   0.08653228  -8.62 5.263687e-05    1.009    0.009
        81 -11.4976    158.0793     89.2449   6.4685116521e+01   3.2463632797e+01    0.3346093    0.2726689 -27.24 0.0004044255    1.260    0.206
        82 -10.3330    100.1419     84.8564   7.8795750111e+01   4.6244994375e+01    0.2523326    0.2276705   9.46  0.001307879    1.088    0.081
        83  -8.2657     61.4921     81.4859   9.1923433985e+01   5.3995262596e+01    0.1485455     0.137253 -14.23 0.0008103534    1.024    0.024
        84 -11.2180    135.7192     60.8064   6.1242192213e+01   4.2549125421e+01    0.4401892    0.3274145 -89.40   0.00207444    1.770    0.435
        85  -9.9944    125.0747     58.4084   6.2991896914e+01   4.5479339551e+01    0.3002443     0.183405 -50.23 0.0009618647    1.927    0.481
        86  -8.2548     72.5740     58.4928   7.9642274545e+01   5.6916449820e+01     0.146156    0.1325216   3.99 0.0001026615    1.020    0.020
        87  -9.2963    198.1443    210.7124   8.3232053535e+01   2.6988890648e+00     0.196012    0.1568632 -25.07 0.0002643011    1.259    0.206
        88  -9.0740    208.4970     45.7408   4.5414589726e+01   2.7741945574e+01    0.3500013    0.2078282  43.69  0.001743031    2.209    0.547
        89  -9.9136    103.4925     43.9440   6.3630125545e+01   5.2763405149e+01    0.3757251     0.144421 -31.88  0.001382823    2.807    0.644
        90  -9.1607      4.3228     43.3462   1.0845286269e+02   6.8437659563e+01    0.1434563   0.06995098 -34.22 0.0007049856    1.738    0.425
        91  -9.4136    201.3901     30.7601   4.2618610976e+01   3.1089106128e+01    0.2433632    0.1816807 -30.49  0.001080374    1.425    0.298
        92 -12.3064    203.9777     36.6011   4.3741975581e+01   2.9840136807e+01    0.4793632    0.1983557 -35.79  0.001861262    2.188    0.543
        93 -10.2055    199.1595     37.2211   4.4402321128e+01   3.0818539477e+01    0.3960908    0.2240909 -22.15 0.0008731963    2.153    0.536
        94 -10.4979    123.1285     39.2436   5.6973321970e+01   4.8710123363e+01    0.3270597    0.2003237 -16.15  0.001485493    2.039    0.510
        95 -10.4201    110.5864     38.0519   5.9544492786e+01   5.1900296688e+01    0.3928036    0.2271725  -7.42  0.001620147    2.568    0.611
        96  -9.6031    198.9967    206.0736   8.2240974868e+01   3.3184265450e+00    0.2180038    0.1640173 -21.12 0.0003324159    1.199    0.166
        97 -10.3072    160.4327     31.5298   4.7757941447e+01   4.0492745436e+01    0.2412457     0.213971  77.97 0.0005679174    1.036    0.035
        98 -10.7225    118.8702     34.3124   5.6208561909e+01   5.0373250715e+01    0.3207172    0.1975353 -25.72  0.001536603    1.806    0.446
        99  -8.2604     78.4777     35.9447   6.8394453266e+01   5.9474627540e+01    0.2043156    0.1369065 -29.24  0.001028092    1.579    0.367
       100  -9.0669    159.3174    158.2825   8.1448418004e+01   1.8521143638e+01    0.2824929    0.1851609 -64.39  0.001164277    2.404    0.584
       101 -10.7282    166.8726    201.0926   8.8105325452e+01   8.9304231204e+00    0.4445311    0.3012092  50.71  0.001362814    2.025    0.506
       102 -10.4301    127.9249     26.4321   5.1580600648e+01   4.9064052773e+01    0.2351406    0.2018715  -1.17 0.0003928424    1.343    0.255
       103 -10.1746    179.3229     24.0041   4.3273943521e+01   3.6834493132e+01    0.4441938    0.3159104  79.29   0.00257301    1.308    0.235
       104  -9.6385    171.4396     24.9572   4.4451970627e+01   3.8585730058e+01    0.2690929    0.2076643 -37.24 0.0006979181    1.346    0.257
       105 -10.4266    193.1425    195.0945   8.1414974246e+01   5.9769464345e+00    0.8208766    0.4451561 -60.66  0.002518392    6.408    0.844
       106  -9.2208    159.1369     24.4246   4.5891461960e+01   4.1597334955e+01    0.2632626    0.1889704  47.34 0.0009654266    1.470    0.320
       107  -8.6305    201.9018     24.0482   4.0980352032e+01   3.1729223826e+01    0.1457131    0.1231815 -73.81 0.0003981283    1.022    0.021
       108 -10.1363    243.4844    155.6938   6.4688926786e+01   4.9097794081e+00    0.2535717    0.1563949  54.37  0.001336781    2.579    0.612
       109  -9.2765     92.1783     20.2989   5.7469974758e+01   5.8366489079e+01    0.2394537    0.1942254 -28.21 0.0007073407    1.385    0.278
       110  -9.2821     78.8531     20.2990   6.1444568637e+01   6.1389528193e+01    0.2201921    0.1802384 -30.66 0.0007972799    1.395    0.283
       111  -8.0228    228.6685    199.3015   7.5448123297e+01   3.3503781271e-01    0.1039447    0.1001726 -30.15 0.0007033981    1.651    0.394
       112  -7.7900    118.2530    198.7026   9.9234747111e+01   1.6999501708e+01     0.131905    0.1077932  62.35 0.0002637848    1.495    0.331
       113  -8.7719     50.7178    190.0199   1.1569057639e+02   2.8225405368e+01    0.1735053    0.1614866  82.91 0.0002107319    1.058    0.055
       114 -10.2610    210.2330    186.6908   7.6468598843e+01   4.8397740801e+00    0.4733106    0.2632958  44.94  0.002084972    2.346    0.574
       115  -8.9686    188.0688    185.9666   8.0729444103e+01   8.3320530985e+00    0.2055791    0.1724315  -3.97 0.0003146281    1.009    0.009
       116 -10.0298    220.0645    184.0670   7.4146727566e+01   3.8399087695e+00    0.1851895    0.1679013 -15.42 0.0006176811    1.292    0.226
       117 -11.0919     19.3742    154.7097   1.2087693451e+02   3.9985222657e+01    0.3897242    0.2126128 -48.78   0.00187546    1.888    0.470
       118 -10.4344    222.2185    177.8206   7.2556892996e+01   4.5222707852e+00     0.360948    0.2341295 -38.63  0.002016333    1.503    0.335
       119 -10.4207    228.1201    175.8536   7.1141313536e+01   3.9851573285e+00    0.4560389    0.4095028   9.06  0.001853485    1.274    0.215
       120 -10.7212    236.8616    175.1353   6.9526806773e+01   2.8724481364e+00    0.5358282    0.3614127  58.10  0.002746516    2.979    0.664
