#   1 NUMBER                 Running object number                                     
#   2 MAG_AUTO               Kron-like elliptical aperture magnitude                    [mag]
#   3 X_IMAGE                Object position along x                                    [pixel]
#   4 Y_IMAGE                Object position along y                                    [pixel]
#   5 X_WORLD                Barycenter position along world x axis                     [deg]
#   6 Y_WORLD                Barycenter position along world y axis                     [deg]
#   7 A_WORLD                Profile RMS along major axis (world units)                 [deg]
#   8 B_WORLD                Profile RMS along minor axis (world units)                 [deg]
#   9 THETA_WORLD            Position angle (CCW/world-x)                               [deg]
#  10 FWHM_WORLD             FWHM assuming a gaussian core                              [deg]
#  11 ELONGATION             A_IMAGE/B_IMAGE                                           
#  12 ELLIPTICITY            1 - B_IMAGE/A_IMAGE                                       
         1 -15.2221     47.2039    206.9841   1.3559260976e+02   2.5596938460e+01     15.71969     6.163222  86.58     0.039365    6.439    0.845
         2 -12.8903    198.8955     33.6536   6.2617642566e+01   3.1909938968e+01     1.025149    0.8878688  59.38  0.006078751    1.303    0.233
         3 -13.5899    214.8751     16.2756   5.7114974611e+01   3.0393300637e+01     1.075537    0.8721908  39.03   0.00694913    1.820    0.451
         4 -12.2955      2.5159     10.9301   1.0869972946e+02   7.1360495889e+01      1.09419    0.2171098 -42.79  0.004676403    4.225    0.763
         5  -9.4924    149.6514    248.3068   1.1884816569e+02   7.3626095711e-01      0.13546   0.09550581  63.43 0.0006913126    1.704    0.413
         6 -11.2461    139.4359    248.6527   1.2101225342e+02   2.3801265887e+00     0.391336    0.2759718 -76.71   0.00210125    1.896    0.473
         7 -11.5601     93.0925    249.7696   1.3066197208e+02   9.6800678314e+00    0.4655721    0.3641184  67.37  0.002882834    1.134    0.118
         8 -11.6335    101.1469    247.7492   1.2879584914e+02   8.8213832254e+00    0.8053644     0.284926 -52.43  0.003269056    3.258    0.693
         9 -11.8213    107.0675    243.2984   1.2703403631e+02   8.7632087454e+00    0.5981843     0.340739  74.32  0.002652853    2.527    0.604
        10  -8.8644     62.7510    250.5687   1.3672061300e+02   1.3982351311e+01    0.1769242   0.09276538  51.39 0.0004351515    1.596    0.373
        11 -10.9938     37.3794    241.4668   1.4077103674e+02   1.9188501500e+01    0.5679612    0.3309033  16.95  0.002622522    3.729    0.732
        12  -9.9256     28.3890    249.1567   1.4299488757e+02   1.8690331550e+01    0.4419004    0.1121028 -69.74  0.001862941    3.454    0.710
        13 -11.8174     37.0529    247.1623   1.4127443185e+02   1.8050820405e+01    0.9437181    0.4013714  33.04  0.004559603    2.767    0.639
        14 -12.4521      1.8587    239.0889   1.4703308133e+02   2.3633080901e+01       2.0711          nan -64.65  0.005719599    8.939    0.888
        15 -12.1234     18.4961    233.5079   1.4370076397e+02   2.3059540569e+01     1.354431    0.3524094  60.95  0.004279749    5.765    0.827
        16 -11.0619     17.2870    249.8739   1.4500241057e+02   1.9818580726e+01    0.6057461    0.1920345  52.23  0.002952501    2.510    0.602
        17  -9.7734      8.7502    250.4596   1.4650309443e+02   2.0629415561e+01    0.2770841     0.153093  35.61  0.001146851    2.071    0.517
        18 -10.6925      2.5190    248.7146   1.4745622742e+02   2.1624873665e+01    0.3995149     0.224035 -85.31  0.002251724    1.447    0.309
        19 -10.6835     22.1417    245.7614   1.4387998013e+02   2.0104625623e+01    0.3370524    0.1864811  41.16  0.001298025    1.778    0.438
        20 -11.0671     17.6699    242.8894   1.4448725261e+02   2.1193729902e+01    0.3861286    0.1709549  46.25 0.0009935161    1.934    0.483
        21 -12.5466     12.3490    238.1174   1.4512808668e+02   2.2755015185e+01    0.9417793    0.3361817 -83.07  0.002770553    2.614    0.618
        22 -11.7112    126.4868    246.3528   1.2338603727e+02   4.9722424991e+00    0.3879878    0.2124176  44.90  0.001917271    1.584    0.369
        23 -10.3389     94.9827    242.2757   1.2941662086e+02   1.0898082585e+01    0.1932344    0.1533653  53.15 0.0005769646    1.095    0.087
        24 -14.4411     98.9752    229.0434   1.2693365184e+02   1.3040842898e+01     4.511032    0.5650536  41.27   0.01182496    5.593    0.821
        25 -13.0317     10.1093    206.9338   1.4336298046e+02   2.9735977328e+01    0.7892001    0.6275668  31.67  0.003014575    1.631    0.387
        26 -10.5872    227.2255    203.0960   9.5232623201e+01  -4.1774705647e+00    0.4335131    0.2590032 -58.61 0.0008288983    2.619    0.618
        27 -11.4049     57.9049    192.9024   1.3152089760e+02   2.7547788710e+01    0.3904479    0.2558979 -46.32  0.001345625    1.825    0.452
        28 -11.5569     64.1534    185.4511   1.2903331219e+02   2.8507397863e+01    0.3109595    0.2969563 -86.66 0.0005054284    1.156    0.135
        29  -8.3442    181.5081    192.4430   1.0239233286e+02   5.9679245451e+00    0.1460733    0.1385618   4.21 7.668066e-05    1.033    0.032
        30 -13.6542     36.0779    217.1846   1.3896005143e+02   2.4623454158e+01    0.8682611    0.6912858  72.46  0.002511051    1.070    0.066
        31 -10.9207     11.2032    175.0072   1.4036208792e+02   3.7022287047e+01    0.1961432    0.1731555  71.38 0.0004501616    1.206    0.171
        32 -10.7098     74.7003    173.5420   1.2460880176e+02   2.9931406340e+01    0.2593375    0.2305406 -62.11 0.0003221217    1.126    0.112
        33 -13.0435     61.3816    170.9051   1.2760568439e+02   3.2486453888e+01    0.5735776    0.2894869 -45.56  0.001832538    2.282    0.562
        34 -11.6759     82.8124    164.9162   1.2103626587e+02   3.0839112383e+01    0.6748695    0.6103441  68.79  0.003759344    1.101    0.092
        35 -10.7775    184.1792    249.5747   1.1198598333e+02  -5.1611333795e+00    0.3353084    0.1128276  35.74   0.00131179    2.717    0.632
        36  -9.6934     96.2112    149.6613   1.1449246677e+02   3.2421568848e+01    0.2892599    0.2670706 -65.79 0.0007203018    1.027    0.026
        37 -11.8389     84.4268    148.5509   1.1751417003e+02   3.4670936206e+01    0.3264934    0.2558296 -45.85 0.0005588934    1.281    0.219
        38 -12.2481     67.5569    143.9083   1.2134189405e+02   3.8375643612e+01     0.765443    0.5421377  71.06  0.002884299    1.734    0.423
        39  -8.7445     99.1618    145.8593   1.1288387583e+02   3.2841918515e+01     0.206907    0.1773262 -28.30 0.0003538931    1.319    0.242
        40 -12.5313     29.6313    225.0401   1.4093516724e+02   2.3633382351e+01    0.3264473      0.28721 -75.22 0.0007584993    1.335    0.251
        41  -9.3906    108.2918    135.7408   1.0811391694e+02   3.3631051107e+01    0.4009923    0.2633134 -13.51  0.001493045    2.734    0.634
        42 -10.2467     95.4909    132.5064   1.1096186875e+02   3.6748384856e+01    0.2822697    0.2397082 -23.16 0.0008863992    1.333    0.250
        43 -10.8175     57.4803    132.5120   1.2205888682e+02   4.2538911195e+01    0.2819339    0.2265202  80.86  0.001528276    1.425    0.298
        44  -8.8893    105.9855    122.7315   1.0565176869e+02   3.7147751344e+01    0.1977151    0.1905777  33.69 0.0002470605    1.075    0.070
        45 -10.7194     47.1083    235.3545   1.3838575600e+02   1.9255090498e+01    0.4947725    0.2027258  70.48  0.001925812    3.422    0.708
        46  -9.6743    167.6098    112.5532   8.7475523787e+01   2.6120466913e+01    0.3180672    0.2536028 -79.01  0.001023713    1.446    0.308
        47 -10.6443     53.2984    117.0289   1.2015999858e+02   4.6776026581e+01    0.3810604    0.1647673 -65.72  0.001453691    2.637    0.621
        48  -9.2332    204.1707    111.0612   7.9873080475e+01   1.8107650137e+01    0.3006363    0.1847391  29.68  0.001189011    2.656    0.624
        49 -10.3927    240.9988    102.0098   7.2025214487e+01   1.1992988811e+01    0.1716115    0.1479128 -61.60 0.0009867438    1.015    0.015
        50  -8.7895    159.4830     78.4759   8.0346661922e+01   3.4554213170e+01    0.1474753     0.139223  79.46 1.121052e-05    1.003    0.003
        51 -12.0784      2.9528     64.4948   1.2578040522e+02   6.2511447036e+01    0.5350795    0.2597037 -64.46  0.002884461    2.094    0.523
        52 -11.2755     12.9238     61.3238   1.2102897360e+02   6.2492274387e+01    0.3645872    0.1421762 -52.68  0.001831141    2.069    0.517
        53 -10.9607    162.4515    249.4608   1.1638214134e+02  -1.5991098089e+00    0.3729135    0.1456641  39.75  0.001573814    2.218    0.549
        54  -9.7553    171.4951    247.0123   1.1415540987e+02  -2.6687601700e+00    0.3043791    0.1076441 -36.36  0.001040322    4.348    0.770
        55 -11.2626     17.7777     25.8797   1.0739765715e+02   6.8016839775e+01    0.3608204    0.1960564  41.02  0.002028944    2.864    0.651
