#   1 NUMBER                 Running object number                                     
#   2 MAG_AUTO               Kron-like elliptical aperture magnitude                    [mag]
#   3 X_IMAGE                Object position along x                                    [pixel]
#   4 Y_IMAGE                Object position along y                                    [pixel]
#   5 X_WORLD                Barycenter position along world x axis                     [deg]
#   6 Y_WORLD                Barycenter position along world y axis                     [deg]
#   7 A_WORLD                Profile RMS along major axis (world units)                 [deg]
#   8 B_WORLD                Profile RMS along minor axis (world units)                 [deg]
#   9 THETA_WORLD            Position angle (CCW/world-x)                               [deg]
#  10 FWHM_WORLD             FWHM assuming a gaussian core                              [deg]
#  11 ELONGATION             A_IMAGE/B_IMAGE                                           
#  12 ELLIPTICITY            1 - B_IMAGE/A_IMAGE                                       
         1 -14.4593    158.9046     50.0793   2.9025826592e+02   6.2340384198e+00    0.0782159   0.05738591 -34.70  0.005842296    1.412    0.292
         2 -14.4515    170.9894     34.3209   2.9002670254e+02   6.3458238322e+00   0.04908271   0.04177571 -39.42  0.003677363    1.158    0.136
         3 -12.6884    190.1130     14.5558   2.8969044956e+02   6.4643664737e+00   0.02462424   0.01877734  66.51  0.002426849    1.595    0.373
         4 -13.8277    186.4628      3.9398   2.8967040305e+02   6.6033738698e+00   0.05159309   0.03095525  15.06  0.004279313    1.805    0.446
         5  -9.8189    221.0000    230.9311   2.9059758681e+02   3.8635663531e+00   0.01077011  0.003658332 -62.44 0.0008029581    2.946    0.661
         6  -9.6796    182.6766    250.3218   2.9115123514e+02   3.8520613073e+00  0.006766648  0.004877763  60.13 0.0007046451    1.679    0.404
         7 -19.1703     68.0449    245.0962   2.9244083983e+02   4.5277612538e+00    0.3828515    0.3233889   1.92   0.04615471    1.214    0.177
         8 -13.9835    194.1098    194.0194   2.9069216978e+02   4.4241865031e+00   0.06209507   0.03852838  83.48  0.004141701    2.475    0.596
         9 -12.6600    204.9613    198.2180   2.9059170281e+02   4.3183349209e+00   0.02623066     0.016186 -34.51  0.002255635    1.786    0.440
        10 -10.1192    135.9500    219.2216   2.9150850852e+02   4.4540459484e+00   0.00882559  0.008272317  -2.04 0.0002954651    1.049    0.047
        11 -10.1905    170.1091    205.2635   2.9103395587e+02   4.4271159984e+00  0.008621154   0.00836054  41.93 0.0003918354    1.080    0.074
        12 -10.2555    211.1479    201.8545   2.9054167654e+02   4.2439961581e+00  0.009625087  0.008700157  58.91 0.0004086685    1.208    0.172
        13 -11.5953    137.3634    197.8605   2.9136809577e+02   4.6870079041e+00   0.03137873   0.01203122  45.78  0.002349553    3.255    0.693
        14 -10.9769    177.8177    189.5649   2.9085383304e+02   4.5622724024e+00   0.01362924   0.01117889  57.85 0.0007159243    1.373    0.272
        15 -11.0957    178.0365    197.0122   2.9089465975e+02   4.4772484750e+00   0.01578186   0.01134401  53.10  0.001253517    1.590    0.371
        16 -11.5655    180.2477    193.5417   2.9084899788e+02   4.5043878273e+00   0.02087335   0.01400618 -85.98  0.001915158    1.928    0.481
        17 -10.5925    169.6869    195.0738   2.9097953562e+02   4.5441203878e+00  0.009245114  0.008273748 -58.79  0.001133719    1.127    0.113
        18 -11.3446    158.0124    193.2700   2.9110351002e+02   4.6273974228e+00    0.0113386  0.009475674 -77.62 0.0003039891    1.311    0.237
        19 -10.8721    120.9720    217.5830   2.9167153433e+02   4.5531518902e+00   0.02253222   0.01246399  63.18  0.001884314    2.901    0.655
        20 -10.0401    182.2139    189.1955   2.9080105659e+02   4.5427047891e+00  0.008932547  0.007544502  64.81 0.0005495813    1.351    0.260
        21 -12.4137    207.5893    183.7528   2.9047719890e+02   4.4669457460e+00   0.01867855    0.0171792 -83.94  0.001111578    1.180    0.152
        22 -12.3468    210.7724    181.2565   2.9042601454e+02   4.4778433448e+00   0.02286984   0.01349873 -46.04  0.001633249    1.675    0.403
        23 -11.4087    197.7675    176.0477   2.9054538315e+02   4.6067225121e+00   0.01979083   0.01500232 -87.37  0.001411677    1.588    0.370
        24 -10.3793    157.5011    178.4567   2.9102320517e+02   4.7969504410e+00  0.006400331  0.006247932  -5.87 3.078152e-05    1.022    0.022
        25 -10.7657    145.2446    178.3591   2.9116386444e+02   4.8641448352e+00  0.009045895  0.008076321 -34.63 0.0006634808    1.101    0.092
        26 -11.2906    178.6704    173.0060   2.9074759595e+02   4.7440846455e+00   0.01731799  0.007999821 -57.80  0.001558847    2.063    0.515
        27 -12.8165    137.1659    171.0553   2.9121447372e+02   4.9899432331e+00   0.02930101   0.02407245  25.45  0.003492175    1.208    0.172
        28 -12.0948    145.6889    169.4844   2.9110709993e+02   4.9616824423e+00   0.02944738   0.01752935  75.42    0.0025527    2.786    0.641
        29 -19.2640     52.6276     92.1067   2.9173048317e+02   6.3340016810e+00    0.8958417   0.07475673 -63.04   0.03199774   13.630    0.927
        30 -10.8696    200.9009    164.9118   2.9044440890e+02   4.7151285593e+00   0.02344762   0.01415207  56.69  0.002233162    2.149    0.535
        31 -10.7141    205.0114    170.2794   2.9042836552e+02   4.6325096166e+00   0.01764145   0.01166694  -8.12  0.001780029    1.853    0.460
        32  -9.6769    207.6931    168.3136   2.9038603243e+02   4.6401418971e+00  0.006930214   0.00623605 -24.77   0.00024369    1.102    0.093
        33 -11.1691    226.3916    167.8653   2.9016818185e+02   4.5441119118e+00   0.02465114   0.01313116  73.40   0.00176522    4.108    0.757
        34 -11.5130    230.3298    166.8884   2.9011716295e+02   4.5338084550e+00   0.01491182  0.008580563 -78.22  0.001369122    2.259    0.557
        35  -9.8632     25.3477    165.4158   2.9247137735e+02   5.6547004662e+00   0.01219629  0.006422485  17.65    0.0011192    2.054    0.513
        36 -11.7331    103.0419    161.4219   2.9155187027e+02   5.2822565277e+00   0.01157963   0.01089833 -25.70 0.0003251399    1.034    0.033
        37  -9.9523    129.9816    161.3382   2.9124074830e+02   5.1380910399e+00  0.009028881  0.007995592  24.13 0.0004573476    1.124    0.111
        38 -10.1995     11.8246    168.4825   2.9264520264e+02   5.6926242762e+00  0.008472033  0.006349257  14.18 0.0003447942    1.370    0.270
        39 -11.3666    164.8249    158.0383   2.9081992493e+02   4.9873202844e+00   0.01136548  0.009444255  15.50 0.0005232937    1.206    0.171
        40 -11.3366     26.3427    157.3152   2.9241290780e+02   5.7406359092e+00   0.01708382   0.01361077 -10.07  0.001356393    1.346    0.257
        41 -10.8608     23.1805    156.4047   2.9244412032e+02   5.7678498014e+00   0.01892797   0.01213784  32.75 0.0009172958    1.538    0.350
        42 -12.8503    133.6921    145.4969   2.9110575041e+02   5.2964683658e+00   0.05041867   0.01703976 -70.21  0.003267146    4.381    0.772
        43 -10.7470    129.0056    143.9843   2.9115098308e+02   5.3387648934e+00   0.01563308   0.01055594  49.78  0.001017215    1.668    0.400
        44 -10.2439      8.8717    153.0560   2.9258984876e+02   5.8822645524e+00    0.0150798  0.008448288  -8.07  0.001286586    2.643    0.622
        45 -11.2172    174.4094    148.3026   2.9065275436e+02   5.0451701412e+00   0.01635563   0.01275154 -77.56  0.001234248    1.435    0.303
        46 -12.6864    144.8034    145.9934   2.9098053247e+02   5.2309549248e+00   0.02769008   0.01697901  77.57   0.00248783    2.584    0.613
        47 -11.1800      3.0107    141.5142   2.9259057261e+02   6.0436965253e+00   0.03196072  0.009315659 -52.68   0.00237802    3.022    0.669
        48 -10.7086      1.5782    145.6709   2.9263121756e+02   6.0045361006e+00   0.01148987   0.00833092 -37.72  0.000357176    1.406    0.289
        49 -11.1023      5.9162    144.4267   2.9257392139e+02   5.9953209785e+00   0.01764551   0.01104547  15.44 0.0008959572    1.698    0.411
        50 -10.2185     13.7841    142.1243   2.9246973281e+02   5.9791071296e+00  0.009101999  0.008637327  47.60 0.0003592016    1.112    0.101
        51 -12.8090    135.5567    122.4539   2.9095001089e+02   5.5458396192e+00   0.03315148   0.01579723 -74.26  0.002717641    2.815    0.645
        52 -11.9488    106.0747    130.7535   2.9133844838e+02   5.6113072882e+00   0.01771303    0.0154625 -67.99  0.001201298    1.193    0.162
        53 -11.4935    108.1031    126.1110   2.9128801505e+02   5.6526561611e+00   0.01416929   0.01161115 -28.93 0.0006224479    1.247    0.198
        54 -12.0513    119.3733    129.9776   2.9118051258e+02   5.5483935468e+00   0.01733845   0.01657799  17.63  0.001107223    1.049    0.046
        55  -9.7212     17.7368    141.8155   2.9242230902e+02   5.9614017001e+00   0.00847552  0.007103218  47.68  0.000485721    1.274    0.215
        56 -11.5006    160.7601    128.4075   2.9069409505e+02   5.3428080193e+00   0.01677436   0.01562867 -51.98  0.002121751    1.073    0.068
        57 -12.7112    125.0601    126.5464   2.9109492909e+02   5.5563704931e+00   0.03078687   0.01943357  72.88  0.002636217    2.368    0.578
        58 -12.2771     29.5662    208.0989   2.9267007147e+02   5.1511107685e+00    0.0151884   0.01027209  -4.51 0.0007268913    1.757    0.431
        59 -11.1215    113.4554    119.0965   2.9118540846e+02   5.7027945823e+00   0.01194122    0.0104404  11.83 0.0003591491    1.142    0.124
        60 -11.1939    168.5127    114.0840   2.9052118463e+02   5.4621394066e+00   0.02419182   0.01435565  73.30  0.002093526    2.783    0.641
        61 -11.2160      5.0218    112.0189   2.9239616711e+02   6.3651830839e+00   0.02579377   0.01127922  18.35  0.001913782    2.578    0.612
        62 -11.0318    205.3085    110.3883   2.9007556243e+02   5.3047892904e+00   0.01528596   0.01173929  -4.40   0.00102027    1.422    0.297
        63 -11.5439     86.0483    111.0513   2.9145485293e+02   5.9409759591e+00   0.01073755  0.007668211  59.77  0.001136668    1.699    0.411
        64 -10.7030    165.7072    207.3474   2.9109676778e+02   4.4273915549e+00   0.01297278   0.01234883  69.68 0.0007984358    1.137    0.121
        65 -11.2669    134.5457    104.4376   2.9085664762e+02   5.7540849494e+00   0.02339743  0.006602201 -63.78  0.001586066    3.750    0.733
        66 -10.8030    117.4627    109.4942   2.9108322268e+02   5.7892966298e+00  0.006422251  0.006229636 -17.81 1.332896e-05    1.009    0.009
        67  -9.9996     97.6246     97.2991   2.9124111761e+02   6.0334711897e+00  0.006936246  0.004747262  56.15 0.0007027065    1.753    0.429
        68  -9.8083    124.9569     94.5385   2.9090955802e+02   5.9172226996e+00  0.009588134  0.005417831  -9.03 0.0008094072    2.609    0.617
        69 -11.0813    164.6930    204.3469   2.9109099634e+02   4.4666455701e+00   0.01714476   0.01121162  80.15   0.00130277    2.210    0.548
        70 -10.0801      2.4259    245.7247   2.9320049838e+02   4.8724812863e+00  0.008414714    0.0057627 -46.98 0.0008977237    1.431    0.301
        71 -13.3791    174.7138     26.8570   2.8994007523e+02   6.4095492276e+00   0.02463357   0.01975182 -34.86  0.001412698    1.259    0.206
        72 -10.6523     13.5059     59.6175   2.9199347491e+02   6.9097044216e+00   0.01098575    0.0105756 -37.68 0.0005018387    1.029    0.029
        73 -11.1630      1.4550    228.9808   2.9311494431e+02   5.0663760031e+00   0.00923848  0.005910482 -51.89  0.000958755    1.511    0.338
        74 -11.0077    134.0473     29.9199   2.9042735545e+02   6.5950065452e+00   0.01866939  0.007481521  37.16   0.00156177    2.441    0.590
        75 -12.0063    182.2255    233.9582   2.9106132754e+02   4.0387077641e+00   0.01632204   0.01335093 -28.71  0.001923932    1.251    0.201
