#   1 NUMBER                 Running object number                                     
#   2 MAG_AUTO               Kron-like elliptical aperture magnitude                    [mag]
#   3 X_IMAGE                Object position along x                                    [pixel]
#   4 Y_IMAGE                Object position along y                                    [pixel]
#   5 X_WORLD                Barycenter position along world x axis                     [deg]
#   6 Y_WORLD                Barycenter position along world y axis                     [deg]
#   7 A_WORLD                Profile RMS along major axis (world units)                 [deg]
#   8 B_WORLD                Profile RMS along minor axis (world units)                 [deg]
#   9 THETA_WORLD            Position angle (CCW/world-x)                               [deg]
#  10 FWHM_WORLD             FWHM assuming a gaussian core                              [deg]
#  11 ELONGATION             A_IMAGE/B_IMAGE                                           
#  12 ELLIPTICITY            1 - B_IMAGE/A_IMAGE                                       
         1 -14.3481     68.4366    144.3658   1.0004654457e+02   3.7317359191e+01     5.058954     2.688566  75.32   0.00485449    3.936    0.746
         2 -14.2743    206.9910     39.1881   4.0049835900e+01   2.9067968410e+01     1.939129     1.483069  27.33  0.008403916    1.945    0.486
         3 -13.8781    222.1759     25.0295   3.5237467567e+01   2.7479522609e+01    0.8852022     0.809896  66.73  0.002700164    1.322    0.244
         4 -12.9323    245.7666      4.0303   2.9140707648e+01   2.4969685858e+01    0.6728173     0.386382  86.75  0.004219847    1.573    0.364
         5 -10.1480     49.4618      2.9821   6.1470138171e+01   6.8318950318e+01    0.2403324    0.1644095  56.15  0.000834133    1.915    0.478
         6  -9.8300     45.1773      1.3854   6.2415013700e+01   6.9186278379e+01    0.2333669    0.1040741  48.45  0.001175313    2.273    0.560
         7  -9.8062    107.5997    203.7690   9.9402694074e+01   1.6849941068e+01    0.2126727    0.1756203  42.38 0.0005864028    1.130    0.115
         8 -10.6727    139.3049    249.8650   9.8782148089e+01   2.8538567992e+00    0.2932444    0.1248481  36.55  0.001361034    1.951    0.487
         9 -10.2613    117.4471    250.3009   1.0334043003e+02   6.0347178309e+00    0.2390396    0.1547758  44.56 0.0008658427    1.313    0.239
        10 -11.2407    116.6066    246.2041   1.0303053195e+02   6.8945143551e+00    0.3530528    0.2725044 -15.52  0.001848147    1.798    0.444
        11 -15.6274      3.6795    184.2351   1.2179466622e+02   3.4276230890e+01     10.28788    0.6640282 -74.43 0.0009788884    7.684    0.870
        12 -15.7297      9.3351    207.3987   1.2207229256e+02   2.8536962154e+01     3.608721     1.090454 -67.78   0.01228999    2.804    0.643
        13 -13.2619     34.8275    201.4749   1.1614783164e+02   2.7325492104e+01    0.4977617    0.3775721 -50.65  0.001310785    1.593    0.372
        14 -15.7422     44.5446    191.5215   1.1295967495e+02   2.8559436984e+01     5.345872     2.499287  66.92   0.02227717    2.658    0.624
        15 -11.1993    193.2991    195.4897   7.8564712865e+01   3.8925751778e+00    0.8952433    0.4627722 -61.92  0.002760512    5.337    0.813
        16 -14.4400     56.8671    238.8327   1.1462887894e+02   1.6630371661e+01     1.075073    0.8949792  83.43 0.0005568719    1.147    0.128
        17 -10.1136     58.4940    195.7133   1.1008994979e+02   2.5864298379e+01    0.2293005    0.2075002 -88.12 0.0002126148    1.088    0.081
        18  -9.7230    149.5350    187.5160   8.6698465527e+01   1.3194001545e+01    0.2573541    0.2034817  73.49 0.0007854615    1.687    0.407
        19 -10.4103     81.2661    182.0954   1.0268280599e+02   2.5987336510e+01    0.3427109    0.2409386  37.81 0.0008636509    1.417    0.295
        20  -9.5961     99.3649    181.0145   9.7886405741e+01   2.3431510149e+01    0.2276576    0.2022209  23.06 0.0005548109    1.224    0.183
        21  -9.9379    189.2140    177.5314   7.5858989990e+01   8.0045016661e+00    0.4408762    0.2250246 -54.13  0.001720932    2.581    0.613
        22 -12.1466     62.6650    174.8627   1.0645335161e+02   3.0373012633e+01    0.4747348    0.2991156 -36.79  0.002191401    2.118    0.528
        23 -11.9676     67.4949    170.0435   1.0449844764e+02   3.0925754304e+01    0.3319461     0.266675 -38.93 0.0008624877    1.442    0.306
        24  -8.9120    148.6922    175.3405   8.4541284199e+01   1.5990224460e+01    0.1512613    0.1210134  81.09 0.0007043171    1.686    0.407
        25 -10.5411    123.8327    173.3287   9.0278099621e+01   2.1043064403e+01    0.3220343    0.1237772  44.13  0.001100696    2.621    0.618
        26 -12.6871     84.6189    154.1703   9.7174839479e+01   3.2424276386e+01     1.566505    0.9404019 -51.16  0.002270427    1.616    0.381
        27 -12.2234     77.1673    160.7653   1.0041411814e+02   3.1887403675e+01     0.497349    0.4482421  37.35 0.0003924202    1.175    0.149
        28 -13.5744     64.3314    156.7078   1.0332170524e+02   3.4722989060e+01    0.5374165     0.427108 -49.64  0.001396775    1.278    0.217
        29 -15.3179      3.8463    248.8624   1.2524327501e+02   2.0520356216e+01     1.626477     1.212003 -49.98   0.01149097    2.062    0.515
        30  -8.8223    151.5722    150.8285   7.8638690251e+01   2.0903810938e+01    0.2171072    0.1483852 -58.89 0.0009331027    1.660    0.398
        31 -10.7698    133.7767    144.3163   8.1638491467e+01   2.5986598887e+01     1.163907    0.2798508 -54.61  0.002353609    7.243    0.862
        32  -8.6237    112.4098    150.4620   8.8704235127e+01   2.8616077205e+01    0.1529002     0.148349 -58.94  0.000255507    1.014    0.014
        33  -9.8330    174.8063    148.9329   7.2799537731e+01   1.6600382793e+01     0.283805     0.214937 -62.08 0.0008940912    1.577    0.366
        34 -11.1511     54.5695    147.4374   1.0462632622e+02   3.8344814526e+01     0.459498    0.2475092 -71.78  0.002011575    1.833    0.455
        35 -11.4856     23.0228    146.9488   1.1357094130e+02   4.1750023807e+01    0.4134541    0.2540639  69.81   0.00159284    1.782    0.439
        36  -9.4296     35.0000    144.9348   1.0991711575e+02   4.1151938450e+01    0.2538254    0.1653605 -62.71   0.00132743    1.331    0.249
        37 -10.5339     31.7079    143.6062   1.1068474537e+02   4.1809025113e+01    0.3514463    0.2730367 -15.97  0.001978596    1.660    0.398
        38 -10.7002     99.8773    139.6602   8.9903931471e+01   3.3539681341e+01    0.6358666    0.3809659 -23.12  0.002285254    2.815    0.645
        39 -12.3874     86.6188    139.4764   9.3730732431e+01   3.5826112638e+01    0.3170117    0.2701696 -44.41 0.0004872406    1.166    0.143
        40  -8.6709    197.4196    138.4147   6.5634027613e+01   1.4173152400e+01      0.14691    0.1364148 -34.29 8.998751e-05    1.030    0.029
        41 -10.1436     26.0931    134.9133   1.1115095473e+02   4.4522751340e+01    0.2695625    0.1800667  38.90  0.001143114    1.659    0.397
        42 -16.2112     27.1726    249.6086   1.2111226423e+02   1.7988132571e+01     10.62758     3.383565  23.57   0.01881275   12.821    0.922
        43 -14.8389     16.0941    216.2004   1.2123921090e+02   2.5974926096e+01     2.604563    0.9543753  58.96  0.004114658    2.584    0.613
        44 -10.9148    107.4584    130.6508   8.5675422204e+01   3.4385452893e+01    0.6100848    0.3580221  29.85  0.002461932    1.939    0.484
        45 -10.4092    230.5513    166.7550   6.5611028714e+01   2.8112384267e+00    0.1953227    0.1172192 -45.92 0.0009530709    1.695    0.410
        46 -10.2343     97.3894    125.7132   8.7468406267e+01   3.7433124357e+01    0.2878755    0.2434347 -18.62 0.0009327965    1.328    0.247
        47 -10.2038    135.3223    128.3305   7.7424490383e+01   2.9392001429e+01    0.4497157    0.2211642 -47.38  0.001671008    2.000    0.500
        48  -9.8288    106.8259    119.0231   8.3021190324e+01   3.7311940925e+01    0.2219278    0.2119687 -31.31 0.0003656368    1.031    0.030
        49 -12.5540    248.5834    104.3356   4.9541045442e+01   1.0438126888e+01    0.5545328    0.3028694 -50.32  0.002742811    1.702    0.412
        50 -10.0523    205.3774    110.2857   5.7522267683e+01   1.7938984101e+01    0.3333719    0.2228929  37.30  0.001165906    1.779    0.438
        51 -10.7467     53.6123     91.9212   9.3606898457e+01   5.2329584866e+01    0.3595806     0.216262 -69.90  0.001587892    2.087    0.521
        52  -9.6198     30.1698    107.9088   1.0553514704e+02   5.0948923119e+01    0.2003646    0.1711038  85.19 0.0005313674    1.292    0.226
        53  -9.4237    160.4879     82.9195   5.9139012906e+01   3.3222901053e+01    0.2266161    0.1481623 -38.51 0.0004708292    1.524    0.344
        54  -8.8328    152.2844     83.7076   6.1164244530e+01   3.5014972030e+01    0.1506654    0.1191578 -76.53 0.0002268101    1.537    0.349
        55  -9.1028     71.9085     82.9717   8.4446264194e+01   5.1762409613e+01     0.209665    0.1759296  73.92 0.0005509909    1.631    0.387
        56  -9.9441     47.2701     62.0067   8.7362845424e+01   5.9664404787e+01    0.2027184    0.1775208   4.14 0.0004461441    1.138    0.121
        57 -11.0446     13.5451     59.9818   1.0144124130e+02   6.3310496702e+01     0.254735    0.2016659 -58.43 0.0004307102    1.252    0.201
        58 -13.1259    197.8841     45.4606   4.2703305037e+01   3.0315068019e+01    0.7586776    0.6175233  47.96  0.001465532    1.420    0.296
        59 -10.7813     66.3563    224.8726   1.1138340367e+02   1.8293193260e+01    0.3011592    0.1800377  70.79  0.001568147    1.782    0.439
        60 -12.4283    216.1490     30.9846   3.7146473179e+01   2.8068172196e+01    0.4269724     0.326151  51.39   0.00107984    1.582    0.368
        61  -9.0574    110.5195    202.4936   9.8519290303e+01   1.6660692894e+01    0.1413496    0.1301735  54.77 -1.322308e-05    1.021    0.021
        62 -10.5129    135.8632     42.2134   5.2167163720e+01   4.5692873971e+01    0.2516638    0.2176243 -79.76 0.0004525476    1.287    0.223
        63  -9.7060    135.4630     33.9849   4.9596494561e+01   4.6855509567e+01    0.1971096    0.1727356  61.73 0.0003515054    1.053    0.050
        64  -9.4031     12.6043     52.7029   9.9854924106e+01   6.4891810693e+01    0.1365449   0.07070125 -29.34 0.0007004614    1.802    0.445
        65  -9.4356    189.8114     15.1379   3.6128369104e+01   3.5906801768e+01    0.1972639    0.1514537 -71.02 0.0006159368    1.192    0.161
        66  -9.2011     90.0320    212.9548   1.0476543736e+02   1.7542164426e+01    0.2153011     0.145993  67.92 0.0006116729    1.611    0.379
        67  -9.2906    112.2171    205.6199   9.8586680497e+01   1.5698684622e+01    0.1891666     0.128831  27.98 0.0003195881    1.528    0.346
