#   1 NUMBER                 Running object number                                     
#   2 MAG_AUTO               Kron-like elliptical aperture magnitude                    [mag]
#   3 X_IMAGE                Object position along x                                    [pixel]
#   4 Y_IMAGE                Object position along y                                    [pixel]
#   5 X_WORLD                Barycenter position along world x axis                     [deg]
#   6 Y_WORLD                Barycenter position along world y axis                     [deg]
#   7 A_WORLD                Profile RMS along major axis (world units)                 [deg]
#   8 B_WORLD                Profile RMS along minor axis (world units)                 [deg]
#   9 THETA_WORLD            Position angle (CCW/world-x)                               [deg]
#  10 FWHM_WORLD             FWHM assuming a gaussian core                              [deg]
#  11 ELONGATION             A_IMAGE/B_IMAGE                                           
#  12 ELLIPTICITY            1 - B_IMAGE/A_IMAGE                                       
         1 -13.4099    183.8434     23.5071   7.3507401780e+01   3.6361399065e+01     1.105711    0.9169641  13.81  0.003916641    1.285    0.222
         2 -13.2002    192.7941      8.8667   6.7877465522e+01   3.5540716256e+01     1.159574    0.7750944  10.14    0.0057804    1.763    0.433
         3 -11.4149     40.5307      4.8406   1.0338662272e+02   7.1703097018e+01    0.4447843    0.1573813 -38.77  0.001824079    2.569    0.611
         4 -11.4398    148.9709    247.9099   1.2925133247e+02   9.5938220466e+00    0.2675393    0.2084546  -8.62  0.001822214    1.556    0.357
         5 -19.3798     18.9689    132.6048   1.4583591302e+02   4.5170234000e+01     17.19419     2.989449 -78.04   0.05139396    5.853    0.829
         6 -11.2873     82.7057    188.9848   1.3581377691e+02   2.6896160083e+01    0.3573025    0.2194414 -42.61  0.002053781    2.169    0.539
         7 -10.9355     86.0881    183.0174   1.3443413406e+02   2.7565552790e+01    0.2630823    0.2082234 -37.25 0.0009635185    1.600    0.375
         8 -11.0938    126.5579    173.4403   1.2423446515e+02   2.3600391701e+01    0.3187829     0.255731  11.13  0.001951638    1.370    0.270
         9 -12.2570    108.5556    172.9810   1.2816197576e+02   2.6365567695e+01     1.318456     0.149058  40.98  0.003500021    6.365    0.843
        10 -11.5036     97.3630    164.5639   1.2955044000e+02   2.9566833851e+01    0.7127683    0.4831722 -26.58  0.001329838    2.144    0.533
        11 -11.2169    133.7496    172.5954   1.2253766537e+02   2.2636291444e+01    0.3071429    0.2096829  29.89  0.001743435    1.367    0.268
        12  -9.6766    169.7798    216.0220   1.2175963683e+02   1.0764808243e+01    0.1284377    0.0920216 -35.51 0.0005325388    1.669    0.401
        13 -12.7409     81.5873    168.2521   1.3373162650e+02   3.0973757379e+01    0.5505376    0.3355956 -44.45  0.001340486    2.008    0.502
        14 -13.5613     68.1941    144.0756   1.3393891778e+02   3.7691458524e+01     1.539766    0.7827474  79.85  0.006054735    3.472    0.712
        15  -9.1252    124.6822    210.3146   1.2956110279e+02   1.7815737161e+01    0.1141295   0.07788268  57.29  0.000518975    1.649    0.394
        16 -10.7865     92.7690    172.0246   1.3161633953e+02   2.8759000301e+01    0.2340055    0.2228556  -6.30 0.0003840459    1.218    0.179
        17 -10.9999    141.3596    238.9631   1.2964221511e+02   1.1645103503e+01    0.2470493    0.1542918  69.97  0.001366504    3.370    0.703
        18 -10.2219    133.9411    144.7137   1.1760865766e+02   2.7655952347e+01    0.7655658    0.1627581 -52.13  0.001825312    7.716    0.870
        19  -9.7741    108.0227    147.5110   1.2433760710e+02   3.1372343136e+01    0.2446608    0.2005265 -66.66 0.0007887805    1.330    0.248
        20  -9.6945    109.5995    144.2092   1.2337366482e+02   3.1790983406e+01    0.3122159    0.1754329 -40.38   0.00128043    2.049    0.512
        21 -11.6478     97.1580    147.1207   1.2696904889e+02   3.3101548470e+01     0.258287    0.2371723  10.88 0.0004595011    1.196    0.164
        22 -12.3939     58.4820    145.6763   1.3667246055e+02   3.8498676935e+01    0.3927804    0.3169993  80.80  0.002494867    1.185    0.156
        23 -11.3135     73.0552    136.1549   1.3151514347e+02   3.8808414559e+01    0.3808683    0.2191553 -86.74  0.001739291    2.353    0.575
        24 -10.4167    104.1647    131.2322   1.2236215476e+02   3.5340794523e+01    0.3531187    0.2471109  26.98  0.001625811    1.543    0.352
        25  -9.8936    115.5075    134.3356   1.2005170258e+02   3.2832790827e+01    0.2630927    0.2186663 -21.42 0.0008801629    1.362    0.266
        26  -9.5708    110.9773    122.0639   1.1870567604e+02   3.6141150743e+01    0.2059923    0.2000121  36.18 0.0003371777    1.022    0.021
        27  -9.0733    168.7269    113.5560   1.0284309115e+02   2.6743521889e+01    0.2436416    0.1764057 -55.52 0.0008550896    1.788    0.441
        28 -10.3277    109.5190    236.0099   1.3506906155e+02   1.6023216161e+01    0.1312165    0.1058747 -63.91  0.001035733    1.600    0.375
        29  -8.8987    115.3052    111.6643   1.1521262249e+02   3.7559519526e+01    0.1437633     0.114957  85.58 0.0004757894    1.669    0.401
        30 -11.9090    175.0921     30.6913   7.7052506238e+01   3.7771362281e+01    0.3913732    0.3803406 -79.41  0.001153021    1.087    0.080
        31 -10.6237    192.9798    194.2087   1.1429189333e+02   1.0206874294e+01     0.298743    0.1613169 -52.06  0.001409421    3.557    0.719
        32  -9.6686    161.3152    249.6551   1.2733164242e+02   7.8513607139e+00   0.09822091   0.06889112  50.94 0.0007047855    1.715    0.417
