#   1 NUMBER                 Running object number                                     
#   2 MAG_AUTO               Kron-like elliptical aperture magnitude                    [mag]
#   3 X_IMAGE                Object position along x                                    [pixel]
#   4 Y_IMAGE                Object position along y                                    [pixel]
#   5 X_WORLD                Barycenter position along world x axis                     [deg]
#   6 Y_WORLD                Barycenter position along world y axis                     [deg]
#   7 A_WORLD                Profile RMS along major axis (world units)                 [deg]
#   8 B_WORLD                Profile RMS along minor axis (world units)                 [deg]
#   9 THETA_WORLD            Position angle (CCW/world-x)                               [deg]
#  10 FWHM_WORLD             FWHM assuming a gaussian core                              [deg]
#  11 ELONGATION             A_IMAGE/B_IMAGE                                           
#  12 ELLIPTICITY            1 - B_IMAGE/A_IMAGE                                       
         1 -13.2367    168.1156     41.7219   6.9073059073e+01   3.7788549262e+01     1.419847     1.081739   6.37  0.004352069    1.429    0.300
         2 -13.3691    184.8812      9.0930   5.5489589728e+01   3.6939397304e+01     1.650692     1.175109  61.82  0.005761072    1.330    0.248
         3  -9.7433    150.4664    246.7374   1.1500615085e+02   1.0396175950e+01    0.1812575    0.1552927  48.45 0.0009234467    1.203    0.169
         4  -9.4762    137.4554    250.4690   1.1737975891e+02   1.1826736501e+01    0.4253382   0.09922127  42.52   0.00194078    3.139    0.681
         5 -10.6169    133.5457    248.3397   1.1778311431e+02   1.2623865347e+01    0.1821124    0.1579635  57.74 0.0003759745    1.235    0.190
         6 -18.7841     62.1249    231.0410   1.2754969257e+02   2.4164656236e+01     4.008153     2.876629  54.12   0.02374273    1.145    0.127
         7 -10.3306    170.7920    184.0819   1.0349789431e+02   1.5059445396e+01    0.3989784    0.2273774  57.63  0.002048468    2.015    0.504
         8  -9.1411    162.6483    236.4680   1.1198298317e+02   9.7578061472e+00    0.1968128    0.1027717 -51.97  0.001229438    2.781    0.640
         9  -9.8536    175.9793    231.9986   1.0932210191e+02   8.2215084821e+00    0.1885367    0.1540019 -20.19 0.0009550831    1.617    0.382
        10 -11.4247     16.1390    250.1842   1.3521402976e+02   2.6241651698e+01    0.1370541   0.09298291  54.90 0.0005463262    1.228    0.186
        11  -9.0306    167.9448    246.2443   1.1224129730e+02   7.8920077124e+00    0.1488782    0.1320392  42.26 0.0006037137    1.252    0.201
        12  -9.3954    153.2941    202.6942   1.0937756147e+02   1.5459794815e+01      0.26762    0.1942096  77.97  0.001665152    1.911    0.477
        13  -9.3529    136.2155    180.1894   1.0936280907e+02   2.1615001490e+01    0.1804912    0.1486677  37.94 0.0007207108    1.171    0.146
        14 -10.4210    157.2317    200.0362   1.0831803105e+02   1.5175877845e+01    0.2731189    0.2408123 -50.45  0.001993643    1.417    0.295
        15 -11.2422    204.2715    177.0443   9.6324358527e+01   9.9447498450e+00    0.9809913      0.35226 -46.55  0.003509214    5.087    0.803
        16 -10.1528    201.9968    170.4996   9.5536644339e+01   1.1193336279e+01    0.3200315    0.2621415  36.45  0.001464307    1.083    0.076
        17 -10.1389    204.7593    167.3702   9.4466604773e+01   1.1078622787e+01    0.4758114    0.3111788 -55.02  0.002414526    2.515    0.602
        18 -11.0398    143.9231    176.0700   1.0726764125e+02   2.0957997717e+01    0.4129804    0.2393614 -59.89  0.001933238    2.277    0.561
        19 -10.5499    163.1602    203.2854   1.0772546439e+02   1.3755247426e+01    0.3163445    0.2423644 -89.33  0.001275052    1.973    0.493
        20 -10.6824    137.4021    172.1989   1.0793400546e+02   2.2697412419e+01    0.3076154    0.2407621 -61.87  0.001780424    1.487    0.327
        21 -10.5355    132.6760    169.1138   1.0838741793e+02   2.4010786813e+01    0.3798993    0.3275913  87.99  0.002503612    1.278    0.217
        22 -10.5050    126.5925    173.6347   1.1026964155e+02   2.4275639792e+01    0.4333414    0.2445243  59.27  0.001784022    1.917    0.478
        23 -11.3041    194.7542    169.0366   9.6559508946e+01   1.2740761273e+01    0.3991036      0.35133 -27.75  0.000827398    1.314    0.239
        24 -10.2863    192.4804    163.9868   9.6032922221e+01   1.3855183635e+01    0.3173179    0.2547987  16.87   0.00136805    1.223    0.182
        25  -9.3748    121.6310    199.3715   1.1461391087e+02   2.0962248239e+01    0.1932692    0.1664708  44.54 0.0005016805    1.164    0.141
        26  -9.0462    198.9348    179.1716   9.7633452259e+01   1.0650034678e+01    0.1826981    0.1579417  47.44 0.0004687521    1.248    0.198
        27  -9.9401     22.2529    167.7419   1.3019391580e+02   3.8772146677e+01    0.3475465     0.265426 -16.63  0.002467354    2.571    0.611
        28 -10.6654    187.7824    241.2053   1.0857851499e+02   5.4463609793e+00    0.2633182    0.1769042 -37.88 0.0007269676    2.050    0.512
        29  -9.3290    153.8670    193.9638   1.0806678282e+02   1.6584844619e+01     0.273379    0.1467963 -32.50  0.001403982    2.794    0.642
        30  -9.5392    122.4852    166.4682   1.1002085596e+02   2.6165270692e+01    0.2306024    0.1784587  65.62  0.001436203    1.282    0.220
        31  -9.3046    247.3571    163.7371   8.6645998231e+01   3.6572921758e+00    0.2299361    0.1676899  43.05  0.000992209    1.384    0.278
        32  -8.8500    112.7143    160.7094   1.1114776407e+02   2.8766228036e+01    0.2464304    0.1574978  72.79  0.001297099    1.987    0.497
        33  -9.1030    248.0209    158.9599   8.5594804497e+01   4.0495060161e+00    0.1896449    0.1513851  17.14 0.0002958229    1.008    0.008
        34  -9.4797    139.8043    242.3462   1.1623159026e+02   1.2445117914e+01    0.3430235    0.1596358  35.40  0.002013666    2.090    0.522
        35  -9.0085    169.5380    156.9810   9.9032926860e+01   1.9272398932e+01    0.1993337    0.1579749  42.63 0.0003260427    1.113    0.102
        36 -11.9565    242.2429    241.4190   1.0035107327e+02  -2.6775398734e+00    0.1955894    0.1490345  31.12 0.0002214596    1.225    0.184
        37 -11.0418     14.4074    156.3946   1.3094002682e+02   4.1553410013e+01    0.3687906    0.1935859  88.48  0.002348971    1.612    0.380
        38  -8.4387      6.9868    155.0000   1.3230801322e+02   4.2412545957e+01    0.1245563    0.1053819 -78.10 0.0004666974    1.320    0.242
        39 -10.4415      8.9911    151.6620   1.3169914950e+02   4.2881505890e+01    0.3173476    0.1515049 -83.81  0.002040117    1.721    0.419
        40  -8.2582    248.1801    153.8423   8.4535506967e+01   4.5757291344e+00     0.174984    0.1204263  19.84 0.0002825268    1.278    0.218
        41 -10.6378    133.8535    146.2066   1.0428315996e+02   2.7754153633e+01     1.053592    0.2860896 -54.52  0.003012475    6.039    0.834
        42 -10.3616    216.2167    152.0880   8.9456616707e+01   1.0842738729e+01    0.2308348    0.1905237  34.21 0.0002822187    1.103    0.094
        43  -9.3778    143.7593    146.2703   1.0220737671e+02   2.5921463037e+01    0.3064033    0.1809159 -63.45  0.001403366    2.428    0.588
        44  -9.9038     13.0482    144.0668   1.3033973117e+02   4.4008545859e+01    0.1596656    0.1239541  85.40  0.000554124    1.034    0.033
        45 -11.7477      5.6095    140.0582   1.3160885753e+02   4.5354353306e+01    0.5864949    0.3158992 -85.21   0.00398432    1.479    0.324
        46  -9.8400     24.1085    141.3428   1.2777007224e+02   4.3609305415e+01    0.2456523    0.1652179  26.04  0.001644865    1.944    0.486
        47 -10.8232    115.4594    137.4416   1.0669305213e+02   3.2604634283e+01    0.4248991    0.2601574 -40.82  0.001463025    1.913    0.477
        48 -11.7443     45.5491    136.2341   1.2249157196e+02   4.2548286817e+01     0.587217    0.2429569 -59.91  0.003076545    2.199    0.545
        49 -10.7133     44.4674    130.2863   1.2203315458e+02   4.3865301724e+01    0.3012078    0.2143339  55.01   0.00138582    1.377    0.274
        50 -10.9848    105.3808    137.0918   1.0890177197e+02   3.4349607311e+01    0.2486523    0.2173335  59.45 0.0003328527    1.076    0.071
        51  -8.8199    235.1229    134.0734   8.2423259374e+01   9.3591957872e+00    0.1954003    0.1673764  16.31 0.0002865754    1.029    0.029
        52 -10.6253    135.1558    123.0504   9.9378369962e+01   3.1723140916e+01    0.7574782    0.1382911 -48.40  0.001868558    6.697    0.851
        53 -10.4631    120.2119    128.8089   1.0397373834e+02   3.3416156530e+01    0.2787635    0.2481334  -8.08  0.001233157    1.367    0.269
        54  -9.7546    160.5016    128.3410   9.5024660517e+01   2.5716706024e+01    0.3306656    0.2542538 -72.15  0.001685716    1.794    0.443
        55 -10.6377     26.0866    127.3014   1.2598861365e+02   4.6237521931e+01    0.2336602    0.1908434  44.66  0.001286238    1.382    0.276
        56 -11.4199     38.7332    125.6344   1.2282414634e+02   4.5399159056e+01    0.3453618    0.2786733  25.12  0.001879366    1.601    0.375
        57 -11.9493     48.2737    123.9805   1.2032058132e+02   4.4752412722e+01    0.5740414    0.3070365  29.83  0.003188744    2.265    0.558
        58  -9.8798    108.7289    124.6931   1.0582922400e+02   3.6209823091e+01    0.2418035    0.2255299  15.13 0.0005548217    1.238    0.192
        59 -11.1805    172.6003    189.5689   1.0403582421e+02   1.3987595193e+01    0.4039978     0.300685  12.32  0.002495657    1.619    0.382
        60 -11.2548      3.7114    120.6457   1.3056922526e+02   4.9312184139e+01    0.3434044    0.2370282  85.52   0.00211809    1.157    0.135
        61 -10.5397     28.2670    119.2736   1.2459744764e+02   4.7686460206e+01    0.2247478    0.1952084  23.62 0.0009544141    1.512    0.339
        62  -9.0260    113.9512    118.4286   1.0331564933e+02   3.6533935580e+01    0.2267854     0.184344 -76.25 0.0004319065    1.364    0.267
        63 -10.1791     39.3704    117.7951   1.2168513038e+02   4.6954042967e+01    0.2128315    0.1277592 -63.69  0.001301364    1.453    0.312
        64 -10.6743      6.2163    114.1620   1.2942112176e+02   5.0451991313e+01    0.3592397    0.1604369  79.74  0.001936162    2.390    0.582
        65  -9.9446     18.7249    129.4334   1.2788914312e+02   4.6430241035e+01    0.2051179    0.1425489 -68.37 0.0008405844    1.306    0.234
        66  -9.2932     65.6220    100.3120   1.1199411570e+02   4.7672539653e+01     0.392163     0.233313  59.80  0.001767917    2.079    0.519
        67 -11.6316     62.2808    108.9266   1.1447395593e+02   4.6276626010e+01    0.5275252    0.3688782  29.38  0.002238247    1.715    0.417
        68 -10.5371     65.9952    104.9944   1.1278355049e+02   4.6637804123e+01    0.3577411    0.2813534  19.04  0.001659049    1.640    0.390
        69  -9.9192    117.1226    110.1025   1.0072996809e+02   3.7592051079e+01    0.2099788    0.1900894  -9.07 0.0007235178    1.267    0.211
        70 -11.1320     71.8661    113.0844   1.1272408401e+02   4.4175953116e+01    0.4320709    0.3014477  79.87  0.002063679    1.680    0.405
        71  -8.7440    113.4350     95.4594   9.8145226982e+01   4.1146620114e+01     0.135966    0.1327761 -39.70 0.0001834662    1.020    0.020
        72  -8.4576    175.9411     87.7785   8.1678662064e+01   2.9044906948e+01    0.2004725    0.1821981  36.22  0.000307422    1.061    0.057
        73  -8.3864     31.8852     86.1260   1.1897956400e+02   5.4342298235e+01    0.1495305    0.1146102 -52.15  0.001003756    1.245    0.197
        74  -7.9910    146.4287     81.4834   8.6254920222e+01   3.6936165859e+01    0.1468133    0.1416495   2.79 0.0001304252    1.011    0.011
        75  -9.6289    231.5956     78.8808   6.9552714318e+01   1.7076755632e+01    0.2511207    0.2096889  34.57 0.0004428817    1.168    0.144
        76  -8.5911    117.9757     70.9760   9.0132459097e+01   4.4945135828e+01    0.2076058    0.1983329 -16.13  0.001192761    1.005    0.005
        77 -12.5512    155.8382     56.8156   7.6530833661e+01   3.8755635864e+01     1.287408     1.141447  56.85  0.003884766    1.175    0.149
        78  -8.6558    160.0743    249.1931   1.1377315144e+02   8.7304033315e+00    0.1498915    0.1093361  34.96  0.001180221    1.220    0.180
        79 -11.5015    172.3143     34.0720   6.5749905419e+01   3.7657465080e+01    0.4767622     0.387051   4.12 0.0008941293    1.280    0.219
        80 -10.2584    130.4645     48.5108   7.9508908830e+01   4.6083451484e+01    0.2663914    0.2458037   2.87 0.0001862041    1.031    0.030
        81  -9.2229    225.9087     30.2063   5.6908751779e+01   2.4142121569e+01    0.3175029    0.2003781 -12.96  0.001286951    1.645    0.392
