#   1 NUMBER                 Running object number                                     
#   2 MAG_AUTO               Kron-like elliptical aperture magnitude                    [mag]
#   3 X_IMAGE                Object position along x                                    [pixel]
#   4 Y_IMAGE                Object position along y                                    [pixel]
#   5 X_WORLD                Barycenter position along world x axis                     [deg]
#   6 Y_WORLD                Barycenter position along world y axis                     [deg]
#   7 A_WORLD                Profile RMS along major axis (world units)                 [deg]
#   8 B_WORLD                Profile RMS along minor axis (world units)                 [deg]
#   9 THETA_WORLD            Position angle (CCW/world-x)                               [deg]
#  10 FWHM_WORLD             FWHM assuming a gaussian core                              [deg]
#  11 ELONGATION             A_IMAGE/B_IMAGE                                           
#  12 ELLIPTICITY            1 - B_IMAGE/A_IMAGE                                       
         1 -14.6926      8.5975    148.3881   1.4879904189e+02   4.2821907645e+01     5.665364     1.741206  85.98   0.02381154    3.458    0.711
         2 -12.3323      2.0846     81.5755   1.4589845353e+02   5.8169048776e+01      0.89895    0.1370074 -74.27  0.002999119    4.361    0.771
         3 -13.7173    192.3795     23.6261   7.2886561097e+01   3.3585031081e+01     1.834682     1.587625  17.52  0.007750267    1.266    0.210
         4 -13.3859    207.5552      5.6681   6.5912957924e+01   3.1537162583e+01     1.058287    0.8613261  59.04  0.006083069    1.277    0.217
         5 -12.5545      2.6859     21.5312   1.3556235962e+02   7.1928598148e+01    0.9152581    0.2346857 -58.30  0.004007446    2.502    0.600
         6 -12.7444      2.8164     10.3042   1.3184200798e+02   7.4327266377e+01     1.499044    0.5637734 -36.32  0.007131785    2.536    0.606
         7  -9.5214     85.4870    246.4848   1.3947282531e+02   1.7334332841e+01    0.1051151   0.07229995  49.29 -1.424668e-05    1.053    0.050
         8 -11.9863    173.3156    249.2609   1.2471849090e+02   5.6163363436e+00    0.4545851    0.1782437  34.06  0.002590218    1.923    0.480
         9 -12.7934    144.8734    243.0638   1.2886922724e+02   1.0147793355e+01    0.6845667    0.4040189  57.78  0.004355143    2.110    0.526
        10 -13.3125    133.3043    245.6926   1.3112610891e+02   1.1373304478e+01    0.9074625    0.3736414  42.00   0.00534701    1.750    0.429
        11 -11.9583    125.2282    249.3547   1.3285126676e+02   1.1976592080e+01     0.763259     0.149529  38.55  0.003189652    3.519    0.716
        12  -9.1557     89.4959    250.4703   1.3905899988e+02   1.6308884787e+01    0.1041415   0.07154221  48.03 0.0002122726    1.040    0.039
        13  -9.2813     63.9232    250.5521   1.4339790636e+02   1.9253532251e+01    0.1515957   0.07165746  38.75  0.001018462    1.566    0.361
        14 -10.2516     28.8702    249.2268   1.4914291959e+02   2.3078987183e+01    0.3592124    0.1136495  51.21  0.002261884    2.022    0.505
        15 -10.3444     30.3518    244.3616   1.4872455468e+02   2.3647357452e+01    0.1775183    0.1380761  69.22 0.0003269737    1.226    0.184
        16  -9.1837     17.6728    249.6588   1.5096172409e+02   2.4067915895e+01    0.1408524   0.09909029 -80.74 0.0008194163    1.687    0.407
        17  -9.7219     19.9914    246.7746   1.5050326175e+02   2.4274932507e+01    0.3310371    0.1015994  33.44  0.001919401    2.696    0.629
        18  -9.5586      2.3619    249.5195   1.5337556819e+02   2.5437594952e+01    0.1742196    0.1115702  59.48 0.0008062091    1.053    0.050
        19  -8.7790     66.5073    242.9707   1.4252815736e+02   2.0044435618e+01    0.1240029   0.08932421  85.00 0.0005921061    1.505    0.336
        20 -14.2608    110.9892    229.8243   1.3360330176e+02   1.6457419696e+01     7.650009          nan  40.78   0.01588017   13.173    0.924
        21 -12.8882     51.8084    218.8466   1.4373993890e+02   2.5407993224e+01    0.8623975     0.782608  83.81  0.007386361    1.340    0.254
        22 -10.5073    161.0241    249.2981   1.2676979236e+02   7.2531436370e+00    0.1593297    0.1043985  36.33  0.001179527    1.088    0.081
        23 -12.1114    183.3115    235.6632   1.2145664282e+02   5.7203822258e+00    0.5612459    0.4001596 -79.92  0.003073772    4.287    0.767
        24 -10.4164    172.9575    222.4552   1.2157670220e+02   8.7079904632e+00    0.2639747    0.1601183  45.08  0.001683167    1.501    0.334
        25  -9.2886     95.2856    241.6303   1.3741389060e+02   1.6813271367e+01    0.1072939   0.06080733  59.37 0.0007019197    1.704    0.413
        26  -9.9773      4.0077    227.6055   1.5261301274e+02   2.8617239661e+01    0.2463086     0.176536  40.20  0.002080771    1.376    0.273
        27 -12.8257     38.4839    237.7623   1.4708835445e+02   2.3828520758e+01    0.2414051    0.2167861  81.60 0.0007675334    1.413    0.292
        28 -12.6529     12.2990    207.1443   1.5054165118e+02   3.1283952816e+01     0.880353    0.3458323  42.17  0.004353411    1.840    0.456
        29 -11.5625     63.8879    202.3591   1.4029236952e+02   2.6820770247e+01    0.2060197    0.1935914  65.56 0.0004390241    1.277    0.217
        30  -9.7400    191.9985    193.0321   1.1394295686e+02   9.4785528786e+00    0.3726601    0.2230592 -62.40  0.001532885    5.045    0.802
        31 -11.1629      2.2336    201.9238   1.5224164999e+02   3.3036392178e+01    0.6014191    0.1126498 -76.25  0.002690808    4.624    0.784
        32 -11.8927     69.9403    193.6449   1.3834738115e+02   2.7633435750e+01    0.2182301    0.2048528  84.60 0.0004236956    1.258    0.205
        33 -10.7646     10.5003    196.1576   1.5048994671e+02   3.3369906343e+01    0.3842017   0.09967941  37.25  0.001790862    2.651    0.623
        34 -13.2379     66.6770    178.5490   1.3767699239e+02   3.0842926918e+01    0.4296011    0.2643459 -43.92  0.001777942    2.365    0.577
        35 -10.7574     79.7513    180.2056   1.3496500570e+02   2.8852576736e+01    0.2062463    0.1782925  65.65 0.0003264963    1.064    0.060
        36 -11.7117     86.8091    170.6791   1.3231651380e+02   2.9708119230e+01    0.5117857    0.4791918 -17.40  0.003524833    1.388    0.279
        37 -10.0779     98.7857    154.2149   1.2730944873e+02   3.1193518133e+01    0.2703719    0.2548616 -54.62 0.0007222319    1.206    0.171
        38  -9.3163    101.8523    149.8226   1.2589820556e+02   3.1598184254e+01    0.1843704    0.1755061  11.16 0.0004770099    1.218    0.179
        39 -11.9393     87.6890    153.4681   1.2988250646e+02   3.3007960645e+01    0.2531683     0.241652 -19.10 0.0006804273    1.296    0.228
        40 -13.9356     43.8102    230.6066   1.4582872739e+02   2.4382195912e+01    0.8003337     0.413558  45.27  0.003330918    1.384    0.278
        41  -8.9836    134.8039    149.7983   1.1813614385e+02   2.6029005794e+01    0.2881643    0.1674912 -73.67   0.00111922    3.445    0.710
        42 -12.3392     67.0460    143.5767   1.3371613663e+02   3.7931845693e+01    0.6604219    0.3874719  58.99  0.003344648    1.727    0.421
        43  -8.3205    192.0000    144.0242   1.0502205635e+02   1.6312677990e+01    0.1963418   0.07502756 -35.97 0.0005426882    2.740    0.635
        44  -9.8828    110.0319    138.4697   1.2197786710e+02   3.2565536979e+01    0.3982987    0.2665922 -20.02  0.001403747    2.530    0.605
        45 -10.5548     97.5427    135.7917   1.2466580082e+02   3.5182918706e+01    0.2338963    0.2189935  24.54 0.0004373554    1.186    0.157
        46  -9.2840     86.4418    136.2406   1.2761905699e+02   3.6808990612e+01    0.2091341    0.1547998  60.66 0.0005681909    1.341    0.254
        47  -8.7577    133.0000    140.9910   1.1690839146e+02   2.8009078218e+01    0.3121541   0.07949223 -48.40 0.0009731554    4.251    0.765
        48  -9.0641    116.4928    130.0198   1.1876879688e+02   3.3167908604e+01    0.1951695    0.1177625 -28.49 0.0008103357    2.551    0.608
        49  -9.1805    107.1834    124.7959   1.2012244051e+02   3.5896210272e+01     0.191259    0.1753759  63.97 0.0003320113    1.057    0.054
        50 -10.6694     23.9714    114.9550   1.4222208153e+02   4.8967370389e+01    0.1874175    0.1564527  84.03  0.000423319    1.020    0.020
        51  -9.9155    168.0814    113.1817   1.0292684873e+02   2.6127843424e+01    0.3140638    0.2681636 -79.72 0.0009321701    1.533    0.348
        52  -8.7646    203.3310    111.3238   9.5623260351e+01   1.8967534945e+01    0.1485929    0.1019401  13.82 0.0007050249    1.702    0.413
        53 -10.6772    100.1259    249.0311   1.3713494503e+02   1.5205550249e+01    0.3145293   0.09776805  43.85  0.001690458    2.211    0.548
        54  -9.7716    156.0526     75.3066   9.5331780623e+01   3.5454922812e+01    0.2172298    0.1963235  47.63 0.0005396368    1.106    0.095
        55 -10.5406     10.1899     64.0733   1.4066275333e+02   6.1840055770e+01    0.2276997    0.1265928  52.83 0.0009090813    2.083    0.520
        56  -9.9775     27.0013     60.0218   1.3289941446e+02   6.1618705834e+01    0.2767546      0.13585  49.34  0.001284107    2.568    0.611
        57 -11.6314      2.3782     51.3536   1.4203376277e+02   6.5195793995e+01    0.5617455   0.08508313 -70.32  0.001904621    4.068    0.754
        58 -11.9579      2.7354     37.4908   1.3937791475e+02   6.8363274076e+01    0.6314344    0.2449495 -82.32  0.002725608    2.852    0.649
        59  -9.6335     81.0401    249.0083   1.4040449944e+02   1.7513060327e+01    0.1694773   0.08546641  55.84  0.001135745    1.681    0.405
        60 -10.5235    237.9688    247.6407   1.1429324250e+02  -2.5882496827e+00    0.1516687    0.1318129  20.65  0.001337341    1.605    0.377
        61 -12.3220    140.6488    248.2856   1.3011447361e+02   1.0083781271e+01    0.5985523    0.3099419  48.26  0.003875321    1.679    0.404
