#   1 NUMBER                 Running object number                                     
#   2 MAG_AUTO               Kron-like elliptical aperture magnitude                    [mag]
#   3 X_IMAGE                Object position along x                                    [pixel]
#   4 Y_IMAGE                Object position along y                                    [pixel]
#   5 X_WORLD                Barycenter position along world x axis                     [deg]
#   6 Y_WORLD                Barycenter position along world y axis                     [deg]
#   7 A_WORLD                Profile RMS along major axis (world units)                 [deg]
#   8 B_WORLD                Profile RMS along minor axis (world units)                 [deg]
#   9 THETA_WORLD            Position angle (CCW/world-x)                               [deg]
#  10 FWHM_WORLD             FWHM assuming a gaussian core                              [deg]
#  11 ELONGATION             A_IMAGE/B_IMAGE                                           
#  12 ELLIPTICITY            1 - B_IMAGE/A_IMAGE                                       
         1 -11.2444    144.3349     31.2742   3.9067578941e+01   4.4950656870e+01    0.2797565    0.2172188 -48.72 0.0007495903    1.348    0.258
         2 -10.8604     60.8247     15.9631   5.4641894174e+01   6.5992737098e+01    0.4389397    0.2549447  21.16  0.002139005    1.945    0.486
         3 -10.5937     35.3837     22.7484   7.0118465571e+01   6.9426202080e+01    0.4754103     0.249681  -6.43   0.00192198    3.203    0.688
         4 -11.1727      1.9968     20.5697   9.0142572223e+01   7.3302090889e+01     0.288031    0.2064532 -50.51  0.001171061    1.365    0.267
         5 -11.6876     14.5242     16.4255   7.9544776533e+01   7.3012576779e+01    0.4301616     0.330305 -77.83   0.00232044    2.771    0.639
         6 -11.5550    125.1589     17.1783   3.7695194250e+01   5.1199083374e+01    0.2449584    0.2131391  51.02 0.0002768299    1.083    0.077
         7 -11.5039    234.8969     14.8190   2.5046795680e+01   2.6213276453e+01    0.2524322    0.1906337  67.71 0.0007724105    1.483    0.326
         8 -11.6708     83.3377     15.3230   4.6629627978e+01   6.1315047049e+01    0.4709629    0.2686429  15.02  0.001090459    2.328    0.570
         9 -10.9950     86.4127     10.4511   4.3577114324e+01   6.1097902521e+01     0.224124    0.1867571  54.68  0.000445214    1.118    0.105
        10 -11.5817     29.6294      7.8662   6.5188941394e+01   7.2409570824e+01    0.4112378    0.2802789   7.43  0.001406803    1.353    0.261
        11 -10.8055    208.0139     13.1796   2.6598045573e+01   3.1936685137e+01     0.200707     0.157166 -46.61 0.0004273288    1.191    0.160
        12  -9.6833    103.7928     10.6426   3.9458114527e+01   5.7008396916e+01    0.2747055    0.1766106 -75.51 0.0008566549    2.236    0.553
        13  -9.5345    108.8222     11.8554   3.8875271319e+01   5.5689359244e+01    0.2542601     0.172929  55.51 0.0002372128    1.271    0.213
        14 -11.2900    125.9510     10.9890   3.5373069251e+01   5.1581970093e+01    0.3419909    0.2156264 -57.46            0    1.884    0.469
        15 -11.4692    123.7922      6.8150   3.4253782143e+01   5.2470921534e+01    0.3173811    0.1953617 -27.88  0.001157483    1.793    0.442
        16 -12.3548    117.3520      9.1332   3.6196592104e+01   5.3854785491e+01     0.448386    0.2876339 -60.08  0.001475995    1.932    0.483
        17 -11.3821    191.4545     10.2104   2.7242448196e+01   3.5900965155e+01    0.2766199    0.1721631 -75.49  0.001546475    1.557    0.358
        18 -11.2603     45.2579      9.8588   5.8130030746e+01   6.9617540459e+01    0.2329504    0.1811977  11.96 0.0002577915    1.109    0.099
        19 -10.8073     56.0673      8.4791   5.2643960908e+01   6.7760066628e+01    0.2987997    0.1750629 -19.64  0.001306986    1.795    0.443
        20 -10.6379     53.5437      2.9345   5.0619724142e+01   6.8809839529e+01     0.229384    0.2027154  66.35 0.0003827233    1.475    0.322
        21 -10.0426     22.8152      9.0819   7.0048410977e+01   7.3194716907e+01    0.3445294    0.1799233  18.23  0.001773216    2.003    0.501
        22 -10.4935     15.5269      8.5134   7.4527249411e+01   7.4171037517e+01    0.2935311    0.1737501  -1.78  0.001641053    1.753    0.429
        23 -12.0838     19.1916      2.5297   6.8383932463e+01   7.4573314244e+01    0.5024884    0.2030572  31.09  0.001080707    2.317    0.568
        24  -9.4866      8.9883      9.4942   7.9718874840e+01   7.4700651301e+01    0.1358759   0.09523155  42.61 0.0008003486    2.167    0.539
        25 -10.0858    165.4672      7.5361   2.9015205565e+01   4.2221335736e+01     0.126807    0.1118824  82.12 6.921788e-06    1.050    0.047
        26  -9.2671     98.2911      7.3058   3.9303798875e+01   5.8609085866e+01    0.1373404   0.08616935  35.94 0.0002550768    1.575    0.365
        27 -11.4418     35.2301     12.3434   6.4633749981e+01   7.0966545662e+01    0.2997824    0.2440845  45.42  0.000721147    1.586    0.370
        28 -10.3044      3.0127      6.3332   8.2459623199e+01   7.5748321861e+01    0.2468867    0.1500578  17.38 0.0008182215    1.577    0.366
        29 -10.0725     39.0674      5.1406   5.8433153439e+01   7.1238474555e+01    0.2296353    0.2018276 -40.07  0.001360638    1.589    0.371
        30 -10.8161    199.3389      4.2493   2.5155193990e+01   3.4697735878e+01    0.2928967    0.1431541 -25.11  0.001023789    2.248    0.555
        31 -10.9595    104.7390      3.9006   3.6564400339e+01   5.7344795009e+01    0.2762243    0.2207454   7.34 0.0006892725    1.409    0.290
        32  -9.8642     59.6275      3.1289   4.8396291324e+01   6.7575321840e+01     0.215239    0.1599007  56.29 0.0007744714    1.388    0.280
        33 -10.6352    162.6929      2.5761   2.7898319011e+01   4.3314832215e+01    0.2492005    0.1035404  69.37  0.001137148    2.061    0.515
        34 -10.7363    237.3428      1.7156   2.2209640447e+01   2.7043162796e+01    0.2167455   0.08897761  83.89 0.0008169159    2.437    0.590
        35 -11.2345    115.0839      1.3926   3.3717458312e+01   5.5028355262e+01    0.6316688    0.1214726  69.80  0.001792278    5.018    0.801
        36  -9.3178     80.5929      1.3967   4.0987397036e+01   6.3192542211e+01    0.1282652    0.1071686  44.07 6.425907e-05    1.004    0.004
        37 -10.0458     29.5441      1.3572   6.1228723342e+01   7.3228230128e+01    0.2793848    0.1022007  42.70  0.001263706    2.583    0.613
        38  -9.3554      6.2590    144.6332   1.1170226743e+02   4.3796753896e+01    0.1348772   0.08244361  68.72 0.0006974951    1.640    0.390
        39  -9.7083    110.1563    250.6743   9.6391539838e+01   8.9401677531e+00    0.1756148   0.09563748  24.40 0.0004884661    1.708    0.415
        40 -11.1860     28.6316    250.4516   1.1315421958e+02   1.8495486477e+01    0.3290962   0.08284528  30.83  0.001439363    3.127    0.680
        41 -12.0634     18.1532    248.9071   1.1512080014e+02   1.9789379849e+01    0.3371119    0.2729588 -10.45  0.002425995    1.890    0.471
        42 -11.5301      3.0780    247.5665   1.1794010648e+02   2.1390147906e+01    0.5975405     0.218861  51.23  0.003371243    1.994    0.499
        43 -13.5514      7.7638    241.9400   1.1684256050e+02   2.2030958571e+01    0.9022291    0.5349506  48.45  0.006103682    1.301    0.232
        44  -9.8837     96.0541    133.7112   8.1962398113e+01   3.6058219202e+01     0.285681    0.2014364 -42.39 0.0007024868    1.435    0.303
        45  -9.5192     98.7867    130.4082   8.0398632951e+01   3.6381815836e+01    0.2123348    0.1748058 -21.59 0.0002263078    1.337    0.252
        46  -9.4096    212.7890    133.6171   5.4321643961e+01   1.3717424304e+01    0.1725343    0.1323452  57.54 0.0006823364    1.659    0.397
        47  -9.8922     61.7728    130.7967   9.2237682741e+01   4.2012034344e+01    0.2101856    0.1905227 -38.96 0.0004804517    1.111    0.100
        48  -9.8432     45.0224    129.8407   9.7630145517e+01   4.4274489244e+01    0.2063535    0.1774155  72.38 0.0002971362    1.229    0.186
        49 -10.4804     12.5448    129.6630   1.0834643396e+02   4.7158033183e+01    0.2778324    0.1145531 -74.13  0.001190741    2.111    0.526
        50 -11.8761     28.5030    128.0312   1.0288641798e+02   4.6356259221e+01    0.2312513    0.2180835 -75.09 7.618232e-05    1.046    0.044
        51  -9.5361     38.6537    126.6782   9.9264494656e+01   4.5755487118e+01    0.1506554   0.09682037 -35.52  0.000704966    1.736    0.424
        52  -8.9830    226.3486    124.6947   5.0167678304e+01   1.2794261456e+01    0.1289128   0.09951828 -63.92 0.0006196855    1.700    0.412
        53 -11.4349     10.6547    121.3572   1.0805315558e+02   4.9390841798e+01    0.3990849    0.2494018  25.25  0.001354995    1.777    0.437
        54  -9.7294     64.0044    118.6994   8.9071827547e+01   4.4780365643e+01    0.1960545    0.1913727  -1.15 0.0002969345    1.057    0.054
        55  -9.9560     69.1509    116.8728   8.6904427033e+01   4.4508525427e+01    0.2145393    0.2006171  81.04 0.0002717745    1.163    0.140
        56 -10.4321      1.7169    114.0052   1.1030545108e+02   5.1747842580e+01    0.1855124    0.1401716 -73.18 0.0003858793    1.117    0.105
        57 -10.6419     24.9907    111.5080   1.0167628891e+02   5.0888559090e+01    0.1858971    0.1374432  13.78 0.0006304826    1.527    0.345
        58 -12.4542     13.6564    108.7395   1.0541613241e+02   5.2410532177e+01    0.5894229    0.2204156 -57.86  0.002504126    2.122    0.529
        59 -10.9912      3.8411    109.5346   1.0906906657e+02   5.2768570964e+01    0.3019913    0.1863197  10.65  0.001240174    1.911    0.477
        60 -11.3120      1.5691    104.8944   1.0935513740e+02   5.4045251401e+01    0.3297561    0.1441554 -71.64 0.0003689789    1.878    0.468
        61 -10.5842     22.6897    102.9610   1.0114628747e+02   5.3244437391e+01    0.1979574    0.1600838 -62.09 0.0005334691    1.089    0.081
        62 -10.7438    247.0041    101.6896   4.2379737903e+01   1.2771144317e+01    0.1663333    0.1501152 -34.11 0.0005185314    1.097    0.089
        63  -9.2115    187.0198    102.2670   5.1539331651e+01   2.4173481211e+01    0.1733435    0.1266628  50.15 0.0004744787    1.459    0.315
        64  -9.5456    197.0774     97.9699   4.8716084749e+01   2.2801630950e+01    0.1580085    0.1474807 -38.36 0.0002987246    1.017    0.017
        65 -12.2249     20.3212     92.8896   1.0031227225e+02   5.5954349575e+01    0.7636075    0.3934725 -11.63  0.003314631    2.593    0.614
        66 -10.9032      7.0746     90.9513   1.0537309930e+02   5.7261032746e+01    0.2726528    0.2007904 -61.88 0.0005184813    1.137    0.121
        67  -9.7162     99.9971     95.0993   7.0911763350e+01   4.4361021174e+01     0.323301    0.2113861 -74.97  0.001136907    2.707    0.631
        68  -9.8758      3.4705     95.0519   1.0740051251e+02   5.6418469232e+01    0.2050564    0.1103941 -71.59 0.0004592618    1.577    0.366
        69 -11.1456    125.1572     93.1359   6.2911176692e+01   3.9521804504e+01    0.2476829    0.2413888  72.83  0.001330743    1.101    0.091
        70 -11.4446     57.9503     91.5281   8.4845940594e+01   5.2321175603e+01    0.3470974    0.2368076 -27.40  0.001016865    1.611    0.379
        71 -11.8276     10.7707     93.4970   1.0427727200e+02   5.6425518507e+01    0.4333067    0.2026857 -52.98 0.0004405356    1.757    0.431
        72 -12.2625      6.4956     84.9204   1.0465991361e+02   5.8780105146e+01    0.4820738    0.3842909 -12.29  0.001471959    1.364    0.267
        73  -9.1150    104.4483     87.4377   6.7227959486e+01   4.5108304152e+01    0.1513789    0.1469107   3.17 7.114532e-05    1.020    0.020
        74  -9.9884     89.3068     80.6928   7.0061923712e+01   4.9548680146e+01    0.2405593    0.2077859 -60.12 0.0004108537    1.319    0.242
        75  -9.6984     86.3147     78.6985   7.0458680462e+01   5.0540327072e+01    0.2721491    0.1434773  43.46  0.000544589    1.939    0.484
        76  -9.7666    250.4739     80.5035   3.7535223850e+01   1.5196379771e+01     0.122706     0.100327 -41.69 0.0003965869    1.014    0.013
        77  -9.6751     80.4670     79.8749   7.2914218559e+01   5.1375107664e+01    0.2153342    0.1437008 -44.35 0.0003126098    1.474    0.322
        78  -9.5904    135.1242     78.8004   5.6049527126e+01   4.0038027874e+01    0.2064682    0.1726914  23.85 0.0004297536    1.303    0.232
        79  -9.4994    124.4815     79.1549   5.8880836803e+01   4.2406613199e+01    0.2156466    0.1492085 -39.93 0.0004769893    1.458    0.314
        80 -11.2077     48.8925     78.6804   8.4979295305e+01   5.6552973252e+01    0.5319578    0.2831179   8.75 0.0009483259    2.666    0.625
        81 -10.9452     55.1368     75.0498   8.1276452487e+01   5.6538639056e+01    0.3720945    0.2580827  25.41 0.0003914677    1.485    0.327
        82 -11.2365     15.9641     77.8049   9.9218008979e+01   5.9963603859e+01    0.3608647    0.2350233 -88.13  0.001551248    1.888    0.470
        83 -11.0652     21.3842     75.8248   9.6341676990e+01   6.0049923024e+01    0.5228574    0.2342713  37.82  0.002064736    2.624    0.619
        84 -10.0947     19.1711     72.1256   9.6494936400e+01   6.1096592571e+01    0.2648013    0.1681902 -51.18 0.0003957453    1.324    0.245
        85  -9.7637    177.0260     76.5086   4.6653686067e+01   3.0717090431e+01    0.2144787    0.1409919  57.91  0.001027513    1.574    0.365
        86  -9.5932    165.4231     75.4672   4.8492681736e+01   3.3555903812e+01     0.143378    0.1380677 -54.95 8.497074e-05    1.017    0.016
        87 -10.4280     69.7436     74.1368   7.5089802100e+01   5.4477580258e+01    0.3766786    0.2208812  40.22  0.001416041    1.766    0.434
        88 -10.2277     34.6998     73.5662   8.9741782588e+01   5.9383865946e+01    0.4268015     0.134191  33.17  0.001562708    3.232    0.691
        89 -10.0827    174.8796     72.3288   4.5897747737e+01   3.1876104694e+01    0.2205301    0.1815784 -48.98 0.0003402234    1.184    0.155
        90  -9.1800    217.2196     71.6708   3.9432477043e+01   2.2739798509e+01    0.1318138     0.085242 -53.69 0.0002167826    1.509    0.337
        91  -9.4352    117.9369     71.1580   5.8108527196e+01   4.5366265796e+01    0.2012399    0.1617698  28.26 0.0003690332    1.306    0.234
        92  -9.7890     93.0506     71.6223   6.5820840716e+01   5.0653725438e+01    0.3046713     0.137577  50.84  0.001099386    2.550    0.608
        93  -9.1967    158.3471     70.2896   4.8390988211e+01   3.6058941421e+01    0.1492312    0.1122244  23.91 0.0005496366    1.660    0.398
        94 -13.3377     80.7589     67.1921   6.8586616682e+01   5.3940743135e+01    0.3837097    0.3340226 -11.66 0.0006333442    1.131    0.116
        95  -9.7127     45.1032     68.9509   8.3719273111e+01   5.9243989128e+01    0.2572226    0.1522536 -57.82  0.001198164    1.764    0.433
        96 -10.6349      9.6895     67.3191   9.9879268310e+01   6.2849472322e+01    0.2407897    0.1380326  39.39   0.00121927    2.152    0.535
        97 -12.6754      3.6280     59.2941   1.0109444228e+02   6.5029598327e+01    0.9197394    0.3541916 -77.87  0.003500408    3.476    0.712
        98 -11.0625      8.3751     63.2125   9.9600521121e+01   6.3882216364e+01    0.2400427    0.1704574 -53.60 0.0006045008    1.171    0.146
        99 -10.1829     59.2034     67.4417   7.7123203513e+01   5.7599809412e+01    0.2699342    0.1999848 -19.11 0.0008393903    1.415    0.293
       100 -10.6776     51.7362     65.9354   7.9816131794e+01   5.9020125613e+01     0.301088    0.2102952 -33.28 0.0007526721    1.367    0.268
       101 -11.8864     15.1886     63.1998   9.6227332900e+01   6.3464119878e+01    0.4709289    0.2981455 -63.71  0.001978835    1.491    0.329
       102 -13.7945     20.7022     58.3655   9.2155166687e+01   6.4147858730e+01    0.4032441    0.3056161 -50.37 0.0009165664    1.182    0.154
       103 -10.2076     39.9795     65.3275   8.4912244453e+01   6.0672749814e+01    0.1874982    0.1850497  19.16 0.0003685131    1.210    0.174
       104  -9.8492     38.9564     61.7512   8.4247240364e+01   6.1577810334e+01    0.1875115    0.1652805 -10.93 0.0004154458    1.064    0.060
       105  -9.3401     39.1599     70.3694   8.6819676070e+01   5.9636189408e+01    0.1893666    0.1222959  35.26 0.0007129404    1.698    0.411
       106 -10.0722     63.7478     60.9294   7.2959298652e+01   5.8215402160e+01    0.4906835    0.3250646   0.80  0.002233235    1.965    0.491
       107 -10.1311     49.0750     59.4714   7.8790645382e+01   6.0759662395e+01    0.2379866    0.1989378 -66.70  0.001314568    1.523    0.344
       108  -9.6679    145.4771     59.4304   4.7742032354e+01   4.0847845060e+01     0.143351    0.1387028  67.95 -0.0001561109    1.010    0.010
       109 -13.0043     86.6173     54.2883   6.1813843235e+01   5.5180311853e+01    0.4194656    0.4020439  14.40 0.0005309883    1.076    0.070
       110 -10.5946     57.9361     59.0199   7.4714903288e+01   5.9537048700e+01    0.2091462    0.1880881  -6.92   0.00121034    1.012    0.012
       111  -9.1323    177.7520     58.6713   4.1692239205e+01   3.3278329427e+01    0.1317102    0.1082702  12.06 0.0002554737    1.544    0.352
       112 -13.8106    114.9508     53.0398   5.2780358044e+01   4.9119746064e+01    0.5031536    0.4164548  26.78 0.0008264339    1.251    0.201
       113 -10.2705     71.8573     56.3808   6.8020810935e+01   5.7678508723e+01    0.2211346    0.1819563 -40.08 0.0004465863    1.262    0.208
       114 -10.3742     32.7703     55.9797   8.5337848044e+01   6.3523019616e+01    0.2889492    0.1822069 -37.52 0.0009740274    1.423    0.297
       115 -10.3073    103.6829     56.0310   5.7002034273e+01   5.1213592943e+01    0.1976115    0.1873981 -13.91 0.0006253709    1.074    0.069
       116  -9.3307    156.7179     54.2715   4.3988810435e+01   3.8907958528e+01    0.1394799    0.1063366 -71.14 0.0002556911    1.497    0.332
       117  -9.2376    127.6799     54.7447   5.0179031326e+01   4.5845476867e+01    0.1468168    0.1079967  28.87 0.0001513273    1.539    0.350
       118 -11.7148      5.0088     66.5025   1.0195544475e+02   6.3287277700e+01    0.3478369    0.2057173 -54.50  0.001746628    1.357    0.263
       119 -10.3444    149.0150     52.4672   4.4883337599e+01   4.1031641396e+01    0.2600507    0.1898525 -52.63 0.0006449327    1.461    0.316
       120 -11.7193     38.4056     48.6991   7.9933473326e+01   6.4371177749e+01    0.3780481    0.2995421 -45.26  0.002199983    1.280    0.219
       121 -10.7494     76.3127     49.0289   6.3472334765e+01   5.8153277665e+01    0.4617041    0.3268459 -83.40  0.001877859    3.153    0.683
       122  -9.8729     46.3084     51.3202   7.7091190940e+01   6.2799930150e+01    0.2231078    0.1447892 -11.90  0.001016965    1.799    0.444
       123 -10.7501      4.3238     50.9890   9.8738256552e+01   6.6876816773e+01     0.268222    0.1062644 -50.85  0.001265325    1.895    0.472
       124 -11.4799     10.2227     47.3556   9.4484606072e+01   6.7337063506e+01    0.5086651    0.2868885  20.70  0.002746062    1.901    0.474
       125 -11.1062    136.7943     46.4379   4.5407606390e+01   4.4860315119e+01      0.40472    0.2327625  71.26  0.001741065    2.004    0.501
       126  -9.3545     33.1073     50.6524   8.3324890347e+01   6.4606036131e+01    0.1792071    0.1157249   6.33 0.0004810672    1.660    0.398
       127  -8.9700    189.3133     49.2749   3.7508601050e+01   3.1913356773e+01    0.1278237    0.1021415  32.26 0.0001860679    1.560    0.359
       128 -12.2347    106.0343     50.3568   5.4261785377e+01   5.1598371200e+01    0.3390345    0.3171357 -60.58 0.0002920059    1.213    0.175
       129 -10.5474     52.6190     47.1206   7.2517363976e+01   6.2671714148e+01    0.6192417    0.2397719  29.17  0.002305255    2.955    0.662
       130  -9.7421    155.4703     46.6512   4.1924598354e+01   4.0277580556e+01    0.2773393    0.2109737 -23.13  0.001457085    1.450    0.310
       131 -10.2345     79.4680     45.4648   6.0890214539e+01   5.8122372406e+01    0.2458893     0.212965  27.58 0.0005257686    1.072    0.067
       132 -10.2282     25.6646     44.4131   8.4969719233e+01   6.6680072045e+01    0.2345536    0.2242183 -49.56  0.001544604    1.304    0.233
       133  -9.4075     30.7434     43.9841   8.2080024307e+01   6.6223661952e+01    0.1714294    0.1029276 -46.28 0.0008831673    1.543    0.352
       134 -11.6715     16.6000     42.1712   8.9208712885e+01   6.7969100410e+01    0.4994825     0.252197 -48.51  0.001581335    1.670    0.401
       135 -10.2744    184.2158     41.1685   3.6038354940e+01   3.4137618572e+01    0.3185698    0.2173534 -70.92  0.001336471    1.582    0.368
       136 -11.9950     66.8521     52.4511   6.8506187628e+01   5.9309677618e+01    0.4919541    0.2557606  29.13  0.001520431    2.102    0.524
       137 -10.5989     37.0841     41.3263   7.7699726764e+01   6.5973424867e+01    0.3063374    0.2662268 -76.15   0.00180933    1.725    0.420
       138  -8.9471    141.7163     41.6984   4.2889470289e+01   4.4298741230e+01    0.1480826    0.1339917 -81.27 0.0003084067    1.140    0.123
       139  -9.4237    139.5015     39.5323   4.2611523991e+01   4.5124167089e+01    0.2183965    0.1397396 -30.22 0.0006029942    1.654    0.395
       140  -9.8646     68.9172     46.5308   6.5320316982e+01   5.9989341841e+01    0.2006326    0.1307933  36.42 0.0002818575    1.473    0.321
       141 -10.7501      5.0638     41.5361   9.5676926112e+01   6.8898218153e+01    0.1740743    0.1149882   6.97 0.0009050298    1.575    0.365
       142 -10.2422    170.9056     40.1914   3.7586908120e+01   3.7397704563e+01    0.1957366    0.1659495 -76.77 0.0002322621    1.158    0.136
       143 -10.0688     44.5301     40.0305   7.3405314781e+01   6.5190266470e+01    0.1992294    0.1626631  14.50 0.0003366685    1.145    0.126
       144 -11.9213    121.2791     37.2952   4.5647015719e+01   4.9863501233e+01    0.4143338    0.3625895  30.86  0.001503454    1.161    0.138
       145 -10.0411    118.7010     32.4002   4.4469842917e+01   5.1104608954e+01    0.2296518    0.1915304  66.68 0.0007791292    1.173    0.147
       146 -10.1002     94.5669     43.3057   5.4991672524e+01   5.5257412479e+01    0.2698428     0.152213  34.57  0.001170176    1.894    0.472
       147  -9.1250     47.7464     36.2932   7.0216101531e+01   6.5362071197e+01    0.1746565     0.139619  -8.34 0.0002030769    1.144    0.126
       148 -10.0491     49.9027     33.2344   6.7809963339e+01   6.5529549490e+01    0.1839007    0.1696134   6.51 0.0004621918    1.170    0.145
       149  -9.0956     37.9911     35.0026   7.4531126966e+01   6.7012610365e+01    0.3753328    0.1414122  35.22  0.001563125    2.645    0.622
       150 -11.0259      3.1230     34.3060   9.4548131316e+01   7.0520940138e+01     0.319421    0.2632061  44.75  0.002093744    1.661    0.398
       151  -9.4362    133.5595     34.7477   4.2178236022e+01   4.7186870783e+01    0.1524412   0.09328392  38.74 0.0003139716    1.799    0.444
       152 -10.3800     28.2566     33.3976   7.9113291635e+01   6.8533960007e+01    0.2358124    0.1507002 -23.33 0.0007356179    1.486    0.327
       153  -9.9175    187.5921     32.5866   3.3359360938e+01   3.4399259391e+01    0.2384864    0.1265541  -9.18 0.0009353517    3.341    0.701
       154 -11.0780     91.3789     32.0848   5.1461174807e+01   5.7546384030e+01     0.323456    0.2763111  -8.65 0.0009379873    1.215    0.177
       155 -10.3313      3.0060     26.5134   9.1838845520e+01   7.2094926916e+01    0.1677619    0.1084246   5.79 0.0003484625    1.533    0.348
       156  -9.3689    227.4862     31.0306   2.9074213548e+01   2.5917844466e+01    0.1668216    0.1053055 -36.46 0.0004277558    1.443    0.307
       157 -10.0051    129.2143     31.2961   4.1859740468e+01   4.8671652664e+01    0.2057628    0.1730548  44.33  0.001159507    1.160    0.138
       158  -9.6556     44.4516     30.7360   6.9289132747e+01   6.6800356015e+01    0.2453521    0.1526821 -22.78  0.000969759    1.636    0.389
       159 -10.6817     46.0695     26.2212   6.6330545551e+01   6.7258218628e+01    0.2282278    0.2079284  -1.31 0.0004240823    1.176    0.150
       160 -10.1955     38.9193     30.7088   7.2095161131e+01   6.7626057375e+01    0.2123443    0.1666935 -24.16  0.000522578    1.171    0.146
       161 -10.5705    135.8024     29.1232   3.9868127793e+01   4.7303737068e+01    0.2299336    0.2124286  26.91  0.000338758    1.165    0.142
       162  -9.2196    164.7343     28.3281   3.5058302884e+01   4.0299180411e+01    0.1374345   0.09258652 -61.97 0.0003231354    1.572    0.364
       163 -10.7103     81.3420     28.0464   5.2909466958e+01   6.0275748516e+01    0.2662507    0.1918214  57.99 0.0009925275    1.472    0.321
       164 -10.7860     69.6308     25.6015   5.5918346024e+01   6.3037618053e+01    0.4939249    0.2654606 -18.08  0.002240323    2.223    0.550
       165 -10.8821     74.7690     21.8099   5.2322139429e+01   6.2454472000e+01    0.2438094    0.2134473  80.97 0.0006207199    1.509    0.337
       166 -11.2947     76.5324     18.1756   5.0048520274e+01   6.2501706786e+01    0.3977869    0.2980244  74.06  0.001579553    1.753    0.430
       167  -9.6781    224.8325    247.1986   7.3320906374e+01  -5.1725843797e+00     0.162669    0.1026855  -1.11 0.0007851363    1.318    0.241
       168 -10.0928    216.9400     25.9537   2.8818591308e+01   2.8671541808e+01    0.2014871    0.1168612 -59.80 0.0004677706    1.613    0.380
       169 -10.8991     60.0754     24.0346   5.8939162001e+01   6.5113308350e+01    0.3353776    0.3120233 -16.85  0.002140974    1.233    0.189
       170  -9.8352    170.9602    246.7977   8.3371347578e+01   1.5020771893e+00    0.1952451    0.1350882   6.40  0.001211725    1.331    0.249
       171  -9.7891    191.3231     24.7105   3.0917037962e+01   3.4436942187e+01    0.1345943   0.08434485 -65.45 0.0001852559    1.607    0.378
       172  -9.2732    116.3823    246.4808   9.4615930492e+01   8.8294372048e+00    0.1207315    0.1008048  31.71 -0.000146118    1.036    0.035
       173  -9.6465     92.1566     22.8303   4.7372151465e+01   5.8505430540e+01    0.1863949    0.1414198  33.36  0.000287505    1.245    0.197
       174  -9.3409     86.7412    245.0416   1.0078414205e+02   1.2920938457e+01    0.1308756    0.1056665 -74.00 0.0007019282    1.475    0.322
       175 -10.1203      7.5254     18.9607   8.5571057349e+01   7.3202777723e+01    0.3736638    0.1717953 -16.42  0.001712007    2.643    0.622
       176  -9.6589    108.8616     22.1957   4.2879600565e+01   5.4653995389e+01    0.1899864    0.1371964  43.39 0.0004089286    1.286    0.222
       177 -10.1403    102.2478     21.8656   4.4321510483e+01   5.6265436568e+01    0.3172756    0.2151071 -45.37  0.001635399    1.733    0.423
       178 -11.1885     14.7987     21.0224   8.1640889826e+01   7.2193254295e+01    0.3997332    0.2157915  35.28   0.00212708    2.193    0.544
       179  -9.7525    146.5256    244.5088   8.8033159836e+01   5.1045127025e+00    0.1252455    0.1001412  18.41 0.0008098476    1.033    0.032
       180 -10.1612     85.0258     20.9584   4.8636631320e+01   6.0327530736e+01    0.2961022    0.1829137  21.03  0.000855831    1.908    0.476
       181 -10.0659     88.8714     18.8457   4.6592419423e+01   5.9695724828e+01    0.2041557    0.1588189  33.35 0.0002887666    1.189    0.159
       182  -9.4039     21.7044     21.6446   7.7540469006e+01   7.1362421562e+01    0.1337982   0.08017276 -16.34 0.0007033079    1.693    0.409
       183  -9.4824    131.7028     20.6838   3.7749409102e+01   4.9234070304e+01    0.1393801   0.09518015  36.02  0.000338724    1.609    0.378
       184 -10.0769    213.1442     18.1495   2.7342592616e+01   3.0322287650e+01    0.1714134    0.1162724 -63.73            0    1.315    0.240
       185 -12.4670     10.7165     29.7187   8.8087515985e+01   7.0934348910e+01    0.4064789    0.2442956  37.40  0.002231945    2.150    0.535
       186  -9.3851     52.1850    244.6123   1.0804353659e+02   1.7102048031e+01    0.1634915    0.1016115  20.87 0.0009506092    1.774    0.436
       187 -10.5404     68.1869     17.7229   5.2717646028e+01   6.4308436392e+01    0.2325909     0.205577  87.32  0.001207735    1.581    0.367
       188 -10.9936    238.1477     16.8521   2.5258835199e+01   2.5365014274e+01    0.1915905    0.1594408 -55.28 0.0002477569    1.092    0.084
       189  -9.7398    118.7773    239.7788   9.3323304450e+01   9.6571578418e+00    0.1724933    0.1321997  50.49   0.00106574    1.372    0.271
       190 -10.9076    203.4608     16.4844   2.7748403923e+01   3.2592171727e+01    0.2824335    0.1631193 -71.78  0.001519595    1.741    0.426
       191  -9.7003     30.9385     16.7756   6.9485557434e+01   7.0969805558e+01    0.1822035    0.1461616  54.15  0.001079206    1.978    0.494
       192  -9.0722    108.6636     16.6928   4.0790639902e+01   5.5269742123e+01    0.1454069   0.09004857  35.99 0.0007041657    1.675    0.403
       193 -11.0064     30.0642    240.9988   1.1236892267e+02   2.0119247650e+01    0.2713075    0.1073904  22.85  0.001065983    2.922    0.658
       194 -10.3145     35.7290    239.9958   1.1115133589e+02   1.9737127220e+01    0.1959197    0.1395375  42.51 0.0005010228    1.169    0.145
       195 -11.9226     23.7220    236.0848   1.1339964077e+02   2.1686990804e+01    0.3670314    0.2048602  21.17  0.001656064    2.039    0.510
       196  -9.1810    204.2711    235.3164   7.5209090979e+01  -1.1678235481e+00    0.1213368   0.07557249  -3.19  0.000267758    1.559    0.359
       197 -11.9808      4.1027    232.7718   1.1720702573e+02   2.4105304006e+01    0.2955944    0.2091361  51.05  0.002117896    1.135    0.119
       198 -10.0850    105.8112     13.8270   4.0288479654e+01   5.6232225331e+01    0.1822957    0.1717128 -76.89  0.001140643    1.192    0.161
       199  -9.4706    249.4991    233.4702   6.6992260154e+01  -6.2354487532e+00    0.1133616   0.08028004  -3.77 0.0002042525    1.007    0.006
       200 -10.9824    175.4317     13.1755   2.9531013930e+01   3.9325099280e+01    0.2509151    0.1648509  76.25  0.001404389    1.392    0.282
       201  -9.4498     32.4764    233.4963   1.1143966109e+02   2.1331024991e+01    0.1176166   0.09350719  56.52 0.0002721751    1.015    0.015
       202  -9.8329     53.0714    141.8855   9.6953915789e+01   4.0268590018e+01    0.2091234     0.178184  71.22            0    1.223    0.182
       203 -10.1996     39.5232     15.0392   6.3848693980e+01   6.9925953202e+01    0.1969918    0.1385549  -7.50 0.0003853894    1.367    0.268
       204  -8.9834     88.6769    230.2913   9.8883435068e+01   1.5417514599e+01    0.1306135    0.0829812  54.74 0.0006347583    1.611    0.379
       205 -10.3240    220.2888     11.3485   2.5279984988e+01   2.9520424974e+01    0.1062976   0.08934671  33.89 0.0003098547    1.661    0.398
       206  -9.7596     47.4599    229.9860   1.0800003278e+02   2.0448823714e+01    0.1910918    0.1501239   1.38 0.0009564921    1.704    0.413
       207  -9.2007    243.0219    230.0000   6.7496611150e+01  -5.1010463306e+00    0.1643699   0.05535718  31.55 0.0005306145    2.832    0.647
       208  -9.4238     97.4838     10.5314   4.0831411719e+01   5.8518723334e+01    0.1329883    0.1173288  51.71 8.574288e-05    1.032    0.031
       209  -9.8671    209.7715    229.5860   7.3274069670e+01  -1.0722244525e+00    0.1539685   0.09969006  32.87 0.0005050898    1.574    0.365
       210 -10.9282    140.1320    227.5319   8.7085414072e+01   8.8127374994e+00    0.2674111    0.2070772 -65.76  0.001576524    1.785    0.440
       211  -9.5471    236.2506    138.5761   5.1597527203e+01   8.9382071271e+00    0.1614463    0.1171754  24.24 0.0009071381    1.570    0.363
       212 -12.2132      2.1320    224.8866   1.1729752070e+02   2.5829767439e+01    0.5490097    0.1866836  59.96  0.002391511    2.573    0.611
       213  -9.2866    223.2876    226.6739   7.0347011781e+01  -2.3596816320e+00    0.0980261   0.09230438  -1.39 0.0002953737    1.610    0.379
       214 -10.1787     26.7739    223.8275   1.1207683044e+02   2.3837519463e+01    0.1681964    0.1092199  61.59 0.0004801055    1.333    0.250
       215  -9.4813    167.3864    221.2286   8.0303816235e+01   5.9604392405e+00    0.1568116    0.1239396 -49.41 0.0006215181    1.609    0.378
       216 -11.3694      8.1885    218.7750   1.1578217661e+02   2.6568067947e+01    0.2600994     0.157088 -68.71  0.001614767    1.727    0.421
       217  -9.2483     85.5748    215.3890   9.7957072825e+01   1.8791385027e+01    0.1285702    0.1129424  38.59 4.737028e-05    1.026    0.026
       218  -9.6204    205.4923    212.0582   7.1155732283e+01   2.0243121076e+00    0.1799255    0.1114248 -32.02  0.000726759    1.547    0.353
       219  -9.4330     20.4942    209.5320   1.1260691701e+02   2.7432130423e+01    0.1234416    0.0961991  62.46 3.070619e-05    1.076    0.071
       220 -10.0787    193.8135    202.1945   7.1691587024e+01   5.2233394765e+00    0.1871467    0.1661999   2.87 0.0008313315    1.160    0.138
       221 -10.8518      4.0429    201.3478   1.1586526375e+02   3.0606152349e+01    0.1644321    0.1329734  55.04 0.0006570431    1.111    0.100
       222  -9.2130     22.3399    200.6855   1.1162409780e+02   2.9197193086e+01    0.1350758   0.07293271  58.33 0.0007047501    1.701    0.412
       223  -9.2972     14.4550    192.5776   1.1296915215e+02   3.1710227191e+01    0.1249482    0.0987462  65.90 0.0008023375    1.086    0.079
       224  -9.3340      6.3127    191.6797   1.1484714316e+02   3.2572042137e+01    0.1306504   0.07086738  60.11 0.0007037963    1.651    0.394
       225  -9.5865      1.0000    190.8951   1.1604993733e+02   3.3149834134e+01    0.1876058   0.05917432 -80.72 0.0007887731    2.849    0.649
       226  -9.4623      1.4838    153.4757   1.1373715860e+02   4.1914326883e+01    0.1261378    0.1062415  86.49 -1.600429e-05    1.016    0.015
