#   1 NUMBER                 Running object number                                     
#   2 MAG_AUTO               Kron-like elliptical aperture magnitude                    [mag]
#   3 X_IMAGE                Object position along x                                    [pixel]
#   4 Y_IMAGE                Object position along y                                    [pixel]
#   5 X_WORLD                Barycenter position along world x axis                     [deg]
#   6 Y_WORLD                Barycenter position along world y axis                     [deg]
#   7 A_WORLD                Profile RMS along major axis (world units)                 [deg]
#   8 B_WORLD                Profile RMS along minor axis (world units)                 [deg]
#   9 THETA_WORLD            Position angle (CCW/world-x)                               [deg]
#  10 FWHM_WORLD             FWHM assuming a gaussian core                              [deg]
#  11 ELONGATION             A_IMAGE/B_IMAGE                                           
#  12 ELLIPTICITY            1 - B_IMAGE/A_IMAGE                                       
         1 -14.3543    195.6086     14.7798   6.9792461532e+01   3.3686065608e+01     2.822531     1.601392  25.14   0.01183587    2.442    0.590
         2 -10.8773    125.1617    249.6851   1.3289194961e+02   1.1944040078e+01    0.3165376    0.0743907  37.80  0.001412975    3.056    0.673
         3 -10.8871    248.7202    249.3592   1.1293150959e+02  -4.0192660314e+00    0.2717966    0.1213211  36.95  0.001815237    1.807    0.446
         4 -11.2050    140.2497    250.0777   1.3035520583e+02   9.9227630105e+00    0.3839606   0.08852337  39.65  0.001727011    2.990    0.666
         5 -10.4950     95.1748    241.1974   1.3740027510e+02   1.6887396541e+01    0.1896935    0.1618023 -88.02 0.0004373548    1.437    0.304
         6 -11.0983     98.8635    249.1483   1.3736059646e+02   1.5345909181e+01    0.3073039     0.189952  37.12  0.002044866    1.273    0.214
         7  -9.9392     97.1719    245.4123   1.3737174621e+02   1.6058338234e+01    0.1538429   0.09743697  44.20  0.000276874    1.126    0.112
         8 -10.5468     81.5496    248.7107   1.4029807551e+02   1.7494161280e+01    0.2451486    0.1240847  47.55   0.00114805    1.404    0.288
         9  -9.8530     88.8707    249.3684   1.3908972342e+02   1.6533087619e+01    0.1781641    0.1139369  66.54 0.0006724577    1.598    0.374
        10 -10.5978     84.5359    245.2279   1.3955118290e+02   1.7622937961e+01    0.3762777    0.1619628  63.89  0.002021601    3.041    0.671
        11  -9.7291     67.4983    250.5249   1.4279469345e+02   1.8858609830e+01    0.1924936     0.135037 -87.26  0.001244473    1.656    0.396
        12  -9.8320     64.1853    250.6268   1.4335792584e+02   1.9213997143e+01    0.2130376    0.1044768  31.52 0.0007495502    1.956    0.489
        13 -12.2793     46.2080    248.8379   1.4627537209e+02   2.1399476888e+01     1.022038    0.2183838  35.96  0.004712649    3.232    0.691
        14 -10.4742     29.0281    249.9664   1.4914313857e+02   2.2956851751e+01    0.2884784    0.1547249  34.61  0.001763475    1.668    0.401
        15 -11.4664     35.2430    244.8601   1.4793138957e+02   2.3092923803e+01    0.3881161    0.2734728 -47.83  0.003021285    2.470    0.595
        16 -11.3002     30.2962    243.5287   1.4870287353e+02   2.3776123341e+01    0.2823346    0.2361186  69.75   0.00140456    1.300    0.231
        17 -14.8668      7.3379     17.2172   1.3132924429e+02   7.2619078902e+01     16.28157     2.761182 -65.01   0.04958719    5.390    0.814
        18 -15.0521      8.4355    239.3588   1.5217379811e+02   2.6418480549e+01     5.052529     0.831469 -73.97   0.02301604    5.622    0.822
        19 -13.9932     11.5731    207.0245   1.5067184355e+02   3.1367848918e+01     1.244899    0.8086202  66.50  0.004344654    1.151    0.131
        20 -15.0016     25.4846    179.2314   1.4668275377e+02   3.5179905626e+01     5.190564     1.621853  70.70   0.02056618    4.281    0.766
        21 -14.0138     54.4323    223.3797   1.4352286266e+02   2.4384973411e+01    0.9245693    0.6234556  79.64  0.005783529    1.446    0.308
        22 -10.5823    234.5150    238.9572   1.1365565975e+02  -1.4325555110e+00    0.1976038    0.1611418 -48.20  0.001492635    2.569    0.611
        23 -10.8129    194.1654    236.7436   1.1978010014e+02   4.1111281258e+00    0.2223389    0.1829122 -49.78  0.001729762    1.971    0.493
        24 -10.3062    152.6840    248.1776   1.2805776062e+02   8.4941187457e+00    0.1474422    0.1173526  52.71 0.0007888344    1.396    0.283
        25 -10.9248    229.7025    230.2009   1.1318839395e+02  -3.4514163032e-02    0.3818912    0.2596914 -52.25  0.002286492    3.741    0.733
        26 -12.7579     47.9948    233.0597   1.4521323438e+02   2.3560778291e+01    0.2858221    0.2511151  84.93 0.0008604938    1.373    0.271
        27 -11.1441    173.6872    221.9435   1.2138199491e+02   8.6638616210e+00    0.3692465    0.2655493  58.53  0.002434165    1.893    0.472
        28 -11.1323     28.3057    221.9446   1.4819476832e+02   2.7326274472e+01    0.4204107   0.09305935  53.50  0.002024277    3.160    0.684
        29  -8.9397    152.5294    212.9603   1.2406235385e+02   1.2941485782e+01    0.1359525    0.1163674 -38.87 0.0003634537    1.476    0.322
        30 -10.8816     68.8476    244.2798   1.4220187615e+02   1.9590036293e+01     0.277184    0.1343841  42.56  0.001878155    1.451    0.311
        31 -10.8802     34.5162    202.4661   1.4611210346e+02   3.0016315370e+01    0.1808223    0.1418557  59.27 0.0006205881    1.076    0.070
        32 -11.6175     71.1621    198.3555   1.3849939317e+02   2.6643719182e+01    0.2933607    0.2508732 -38.63  0.001619642    1.675    0.403
        33 -10.2493    193.0349    195.0026   1.1406932216e+02   9.0650333884e+00    0.5836275    0.3512872 -65.14  0.002014336    7.534    0.867
        34 -11.7141     76.0769    190.7823   1.3680571244e+02   2.7379168839e+01    0.2320018    0.2155728 -53.76 0.0005951506    1.396    0.284
        35 -11.0203     84.5584    178.2599   1.3369633741e+02   2.8572664662e+01    0.2143187    0.1915548  58.28 0.0003910891    1.087    0.080
        36 -13.2831     72.2807    175.9886   1.3618119646e+02   3.0629663608e+01    0.4102538    0.2655714 -41.23  0.001799193    2.266    0.559
        37 -12.1784     91.0050    168.7743   1.3112606739e+02   2.9481962288e+01     1.215945    0.4919217  52.15  0.005236818    2.581    0.613
        38 -12.9472     67.1295    143.9469   1.3374241597e+02   3.7841347049e+01     1.064369    0.5724711  72.92  0.004892073    2.432    0.589
        39 -12.3411     57.3729    130.0844   1.3451101069e+02   4.2109855983e+01     1.536974    0.5483544 -80.92  0.004631667    5.436    0.816
        40 -10.0954    102.4031    152.1575   1.2612894456e+02   3.1041903824e+01    0.2522873    0.2233114  50.37 0.0007797091    1.036    0.035
        41  -9.1228    105.0710    147.8148   1.2479565474e+02   3.1488975249e+01    0.3717399    0.2403305 -17.14  0.001404912    3.154    0.683
        42 -12.1523     91.3617    151.8033   1.2875096393e+02   3.2807463445e+01    0.2535139      0.23475  15.69 0.0004953035    1.282    0.220
        43 -11.4106     46.5246    147.4880   1.3939146041e+02   3.9532690784e+01    0.4747908    0.1828427 -75.36  0.002136151    2.621    0.618
        44  -8.5690    192.2188    143.9966   1.0497486586e+02   1.6275480294e+01    0.1608013    0.1069222 -31.70 0.0003450341    1.560    0.359
        45 -10.3191     90.5287    138.9987   1.2700393799e+02   3.5601832700e+01    0.2409862    0.1755246  47.82 0.0003323966    1.281    0.219
        46 -14.6597     60.1249    213.5624   1.4183476459e+02   2.5348845311e+01     7.943397          nan  41.25   0.01875764   10.888    0.908
        47  -9.1522    242.2886    138.6867   9.5311260147e+01   7.8989892590e+00    0.1116749    0.0968907 -45.35 0.0002202514    1.585    0.369
        48  -9.8616    112.2249    137.2371   1.2120911278e+02   3.2442728268e+01    0.3035222    0.2371433  -9.04  0.001223239    1.803    0.445
        49 -10.5290    100.0329    134.6112   1.2381930609e+02   3.5029301944e+01    0.2584785    0.2208717 -10.57 0.0007273238    1.513    0.339
        50 -11.8082     33.7010    132.8860   1.4127777111e+02   4.4042560012e+01    0.2812861    0.2058039  27.72  0.001771863    1.556    0.357
        51  -8.7255    117.6803    129.6687   1.1840104064e+02   3.3026600056e+01    0.1394621     0.110971  -5.01 0.0007048515    1.693    0.409
        52  -9.2076    108.8277    124.1419   1.1956180413e+02   3.5746638528e+01    0.1940191    0.1754206  67.33 0.0002988518    1.098    0.089
        53 -10.9036    168.1838    113.3347   1.0294219052e+02   2.6079572786e+01    0.3678398     0.309113 -80.03  0.001136368    1.590    0.371
        54  -9.1894    203.4749    111.5163   9.5643785413e+01   1.8909092439e+01    0.1423238    0.1254791   7.33 4.088393e-05    1.053    0.050
        55  -8.4523     78.6443     89.2371   1.2062624688e+02   4.8518032450e+01     0.139499    0.1037641  66.73 0.0002459382    1.580    0.367
        56  -8.7068    184.6584     77.6686   9.0267761699e+01   2.8258151849e+01    0.1586147    0.1112343  18.65 0.0007051277    1.749    0.428
