#   1 NUMBER                 Running object number                                     
#   2 MAG_AUTO               Kron-like elliptical aperture magnitude                    [mag]
#   3 X_IMAGE                Object position along x                                    [pixel]
#   4 Y_IMAGE                Object position along y                                    [pixel]
#   5 X_WORLD                Barycenter position along world x axis                     [deg]
#   6 Y_WORLD                Barycenter position along world y axis                     [deg]
#   7 A_WORLD                Profile RMS along major axis (world units)                 [deg]
#   8 B_WORLD                Profile RMS along minor axis (world units)                 [deg]
#   9 THETA_WORLD            Position angle (CCW/world-x)                               [deg]
#  10 FWHM_WORLD             FWHM assuming a gaussian core                              [deg]
#  11 ELONGATION             A_IMAGE/B_IMAGE                                           
#  12 ELLIPTICITY            1 - B_IMAGE/A_IMAGE                                       
         1 -13.4727    152.8711     61.7921   8.0724571904e+01   3.8733704182e+01      1.37338     1.018619  27.09  0.004371494    1.656    0.396
         2 -13.8989    164.4942     47.0305   7.4302633068e+01   3.8136324669e+01     1.138099      1.01415 -29.06  0.004027853    1.264    0.209
         3 -14.2738    180.7293     16.0592   6.3628519000e+01   3.8026135684e+01     1.340703    0.8780711  63.42  0.005279412    1.333    0.250
         4 -11.9411    134.2534    240.0396   1.2414964177e+02   5.2753213607e+00    0.3727905    0.1862938 -49.18    0.0013722    2.324    0.570
         5 -13.7363    102.9095    243.3787   1.3085040055e+02   9.8460893934e+00     1.081516    0.4875383 -62.60  0.005102143    2.462    0.594
         6 -19.8877     65.9014    167.1504   1.2884459025e+02   3.2533266785e+01     19.55558     5.942369 -63.68   0.06774291    3.080    0.675
         7  -9.8271    113.5064    195.4915   1.2196871981e+02   1.8170479738e+01    0.3877051    0.2596025 -11.29  0.001473402    3.393    0.705
         8 -10.4202     28.1822    233.2258   1.4403323515e+02   2.2324978009e+01    0.1495403     0.107769  82.23 0.0002665762    1.065    0.061
         9 -10.1504     13.2934    240.2820   1.4708660493e+02   2.2563454038e+01    0.2434629    0.1127468  67.06 0.0008370614    1.824    0.452
        10 -11.4517    153.8438    185.1202   1.1085131798e+02   1.2857480049e+01     0.377075     0.287566 -83.11  0.001340861    1.679    0.404
        11  -9.0155    126.4384    228.3636   1.2412571828e+02   8.8708711043e+00    0.1352034    0.1152472  53.57 0.0002395653    1.032    0.031
        12  -9.3136    152.1777    236.7679   1.2003036331e+02   2.7776257871e+00    0.2213703    0.1375873  50.13  0.000556291    1.504    0.335
        13  -9.7691    125.2240    236.7805   1.2554169752e+02   7.4327120784e+00    0.1185126   0.08796602  65.32 0.0002364527    1.341    0.254
        14 -10.0337    161.0073    234.3986   1.1786464429e+02   1.6609115629e+00    0.2680579    0.2063443  -2.07  0.001458084    1.726    0.421
        15 -10.5089     30.6400    182.6723   1.3909367188e+02   3.3142934481e+01    0.2658699    0.2213165  10.95  0.001399008    1.766    0.434
        16 -10.6307     27.6258    179.6798   1.3944131321e+02   3.4154709013e+01    0.3182442    0.2259914 -35.59  0.001834053    2.058    0.514
        17 -12.1226    148.5565    179.4761   1.1096177575e+02   1.5152801596e+01    0.6911892    0.3738321  62.06  0.001893128    2.719    0.632
        18 -12.8054    143.0222    172.2076   1.1080863739e+02   1.7899229850e+01    0.8515359    0.5203761 -62.82   0.00341049    1.896    0.473
        19 -12.0036    137.9048    172.1028   1.1200127106e+02   1.8945058378e+01    0.6519033    0.3780984 -63.15  0.002643161    2.024    0.506
        20 -12.2495    189.4157    178.5421   1.0171258716e+02   7.1205236337e+00     0.503936    0.3911851  56.32  0.001293119    1.423    0.297
        21 -10.9707    188.3900    174.1752   1.0102029710e+02   8.2162611390e+00    0.3890229    0.2981392 -73.63  0.001061617    1.733    0.423
        22 -10.6622    217.9600    218.5229   1.0373295777e+02  -5.4530925275e+00    0.2121589    0.1658355 -30.00  0.001247831    1.279    0.218
        23  -8.9464     18.6233    218.7883   1.4470668346e+02   2.6392032930e+01   0.09272888   0.08789279 -55.90 0.0004866778    1.587    0.370
        24 -10.6639    225.0607    176.0499   9.4075958372e+01   7.3450316035e-01    0.2130238    0.1760176 -75.84 0.0007206527    1.670    0.401
        25 -11.1574    195.2990    172.7548   9.9272948776e+01   7.1127406988e+00    0.3544216    0.2920969 -55.81   0.00118249    1.309    0.236
        26 -11.1694     26.1776    173.2340   1.3907598062e+02   3.5804110957e+01    0.2923203    0.2186457 -88.57  0.000825891    1.109    0.098
        27 -10.2402    207.8046    171.7122   9.6509990144e+01   4.8371387698e+00    0.3540876    0.2137596 -53.70 0.0009387245    1.900    0.474
        28  -9.7134     23.8742    216.9439   1.4358915053e+02   2.6217231640e+01    0.1511717    0.1158349 -89.20            0    1.104    0.094
        29 -11.2369    125.3229    171.6587   1.1493866990e+02   2.1505839686e+01    0.3021877    0.2874339  78.30 0.0007826649    1.009    0.009
        30 -10.1571    203.3882    174.1944   9.7918567509e+01   5.2180004693e+00    0.2098347    0.1346071 -51.57 0.0009496317    1.686    0.407
        31 -10.4140    119.5017    212.3455   1.2326338773e+02   1.3391405664e+01    0.1929984    0.1563485 -89.78 0.0001853684    1.295    0.228
        32 -10.1874    113.3646    207.8957   1.2394151391e+02   1.5428708170e+01    0.1863508    0.1587505 -76.15 0.0006624061    1.183    0.155
        33 -10.5496    185.5077    169.0177   1.0054308989e+02   9.8695092653e+00    0.4088673    0.2799113 -56.56  0.001313744    1.630    0.386
        34 -10.3505     23.0020    156.0592   1.3785335529e+02   4.0146044875e+01    0.2176045    0.1847245  38.01 0.0004368926    1.423    0.297
        35  -9.7735     17.9686    158.7657   1.3936995016e+02   3.9965131380e+01    0.3030665    0.1869261  16.31   0.00154917    2.340    0.573
        36 -10.6935     18.2019    155.3333   1.3892257182e+02   4.0748225109e+01    0.3141811    0.2026071 -73.76  0.001243025    1.240    0.194
        37 -11.3371    188.9002    154.5814   9.6669815078e+01   1.2177879672e+01    0.5295424    0.4623751  53.16  0.002749925    1.187    0.158
        38 -10.7485    165.1863    153.4329   1.0162743087e+02   1.7510731264e+01    0.3760518    0.2511455  59.13 0.0009670632    1.703    0.413
        39 -11.1072    103.8183    196.1874   1.2429930045e+02   1.9699846335e+01    0.4519631    0.2980248 -88.71  0.001474632    1.840    0.457
        40  -9.8555    174.5951    149.0251   9.8512002889e+01   1.6441606503e+01    0.2880047     0.218803  65.59 0.0005825656    1.519    0.342
        41 -10.5499    107.6950    203.7208   1.2457340061e+02   1.7332541083e+01    0.2188489    0.1893627  88.89 0.0002855358    1.108    0.097
        42 -11.5929    103.6375    202.2001   1.2525471218e+02   1.8366101917e+01    0.6857446    0.3837153 -87.05  0.002707061    2.772    0.639
        43 -12.4203     11.6714    205.9045   1.4504923969e+02   2.9863353335e+01    0.3911099    0.2572552  31.17  0.002504749    1.961    0.490
        44  -9.7687    110.9148    233.5457   1.2803863857e+02   1.0472966113e+01    0.2277182    0.1156139 -61.80 0.0009613351    2.170    0.539
        45 -10.9866    160.1655    127.3988   9.6672063124e+01   2.4365982734e+01     0.445595    0.2924107 -59.07  0.001366121    1.708    0.414
        46 -10.1939    231.2851    113.6965   7.9424958429e+01   1.1224687815e+01    0.2502562    0.2358184 -40.69 0.0007151747    1.103    0.094
        47  -9.6326    167.9822    112.9788   9.1289987806e+01   2.5648228752e+01    0.2613432    0.1937217 -83.19  0.001133541    1.773    0.436
        48 -10.8134    219.9251    198.1526   9.9501042219e+01  -2.3280909777e+00    0.1954882    0.1896247 -66.12  0.000586202    1.277    0.217
        49  -9.9866    205.2209    110.2055   8.3089626129e+01   1.7588306529e+01    0.2959386    0.2022513  43.53 0.0009077395    1.623    0.384
        50  -9.4695    120.7911    197.0422   1.2055605910e+02   1.6514006500e+01    0.1802206    0.1655471  70.93 0.0003031512    1.004    0.004
        51 -10.1892    150.4890    195.5561   1.1356954781e+02   1.1261445849e+01    0.4370967    0.2414198  48.61  0.001805313    1.779    0.438
        52 -10.4498     13.4301    100.7795   1.3240722947e+02   5.3676464883e+01    0.3870193    0.1682964  19.20  0.001936843    2.867    0.651
        53  -9.8797     98.6846     80.8651   1.0022313410e+02   4.7163772465e+01     0.222204    0.1881246  23.29 0.0003813889    1.201    0.167
        54 -10.0743     31.1813    247.2905   1.4450897261e+02   1.9161712627e+01    0.1390772   0.08992708  69.75 0.0002958528    1.184    0.155
        55 -10.8477    155.9100    190.8299   1.1147700831e+02   1.1218067601e+01    0.4358247    0.2108564 -34.96  0.001557908    2.921    0.658
        56 -12.4847    169.0783     38.7917   7.1259488095e+01   3.8138958692e+01    0.4410985     0.393428  58.24  0.000917766    1.109    0.098
        57 -10.2402     13.4909     59.9590   1.2356380318e+02   6.2111341921e+01    0.1682077    0.1583628  17.03 0.0004201263    1.371    0.271
