#   1 NUMBER                 Running object number                                     
#   2 MAG_AUTO               Kron-like elliptical aperture magnitude                    [mag]
#   3 X_IMAGE                Object position along x                                    [pixel]
#   4 Y_IMAGE                Object position along y                                    [pixel]
#   5 X_WORLD                Barycenter position along world x axis                     [deg]
#   6 Y_WORLD                Barycenter position along world y axis                     [deg]
#   7 A_WORLD                Profile RMS along major axis (world units)                 [deg]
#   8 B_WORLD                Profile RMS along minor axis (world units)                 [deg]
#   9 THETA_WORLD            Position angle (CCW/world-x)                               [deg]
#  10 FWHM_WORLD             FWHM assuming a gaussian core                              [deg]
#  11 ELONGATION             A_IMAGE/B_IMAGE                                           
#  12 ELLIPTICITY            1 - B_IMAGE/A_IMAGE                                       
         1 -12.9746    206.9702     59.0271   2.3031329306e+01   2.5360599737e+01     1.092872    0.2539226 -37.54  0.003321229    3.721    0.731
         2 -17.5275    233.8515     83.7517   2.5229986565e+01   1.5174406742e+01     6.286674     2.820479 -39.18   0.02604408    2.008    0.502
         3 -16.1312    168.7928     13.7005   1.6124707127e+01   4.0796220191e+01     2.095064     1.825368  -2.49   0.01175062    1.362    0.266
         4 -17.0466    150.9216      6.6627   1.6672302629e+01   4.5979604783e+01      5.39261     2.131826  59.43   0.02256218    2.038    0.509
         5 -15.6575    176.5959      4.5918   1.2470625960e+01   3.9696821804e+01     2.283344    0.7196252  72.19  0.008251953    2.980    0.664
         6 -13.4019    159.3454      2.7262   1.4202268796e+01   4.4206693323e+01    0.4311924    0.2844307  82.59   0.00123538    1.490    0.329
         7 -13.6396      5.9802     19.7216   7.0599943986e+01   7.0302025147e+01    0.3422273    0.1754901 -53.10  0.002027192    1.852    0.460
         8 -14.0306      7.0179     11.2228   6.6619669242e+01   7.1629421626e+01    0.5502297      0.19761 -37.44  0.002042263    2.111    0.526
         9 -13.2290     13.4733     12.5139   6.3736688655e+01   7.0940244833e+01    0.2355391    0.1364717 -21.71  0.001100296    1.431    0.301
        10 -12.2712     20.5144     12.0120   5.9855653950e+01   7.0399089940e+01    0.1728624   0.09207468 -37.22   0.00103178    1.587    0.370
        11 -12.6129     25.7448      7.1307   5.4880744302e+01   7.0563712662e+01     0.225389    0.1216335   0.74  0.001238525    2.062    0.515
        12 -12.8067     13.1744      7.1470   6.1453853814e+01   7.1775316852e+01    0.1803431    0.1159829 -19.02  0.001048436    1.199    0.166
        13 -13.2070     97.5801      3.5052   2.6269827345e+01   5.8890130580e+01    0.4764148    0.3049752  39.68  0.002657231    1.317    0.241
        14 -12.2640      1.8418      5.4706   6.6964332172e+01   7.2874873949e+01    0.2219039    0.1137566 -36.26  0.001373406    1.441    0.306
        15 -11.9628     89.9310      3.1455   2.8148700659e+01   6.0548036549e+01    0.1821698    0.1745164  71.69  0.001219913    1.351    0.260
        16 -12.0935     78.6442      2.9763   3.1370268541e+01   6.2844299564e+01     0.203389    0.1819528  77.58 0.0009522667    1.601    0.375
        17 -12.1502     30.5147      2.4816   5.0172648673e+01   7.0618442321e+01    0.2138121    0.1244168  -0.74    0.0010925    1.679    0.404
        18 -11.2696     73.2980      2.3158   3.2764534189e+01   6.3931047465e+01     0.132099   0.07803059  22.14 0.0004614694    1.609    0.379
        19 -12.5521     10.6030      1.5858   6.0175564696e+01   7.2791222170e+01    0.1935943    0.1149122  18.07  0.001038148    1.655    0.396
        20 -12.1270     23.7907      1.5843   5.3083077824e+01   7.1507465274e+01    0.2035418   0.09398574  25.04  0.001138329    2.104    0.525
        21 -12.2670      5.9019    230.1967   1.0016892334e+02   2.5649495107e+01    0.2541233    0.1576585  71.57   0.00108369    1.173    0.147
        22 -10.8977    217.9762    214.4846   5.6730542383e+01  -3.4196705995e+00    0.1695665    0.1090232  56.61 0.0008096266    2.479    0.597
        23 -12.2081      3.1566    213.4958   9.9811623576e+01   2.9095576842e+01    0.2159573    0.1371555  84.31 0.0008716125    1.191    0.161
        24 -11.1552     28.7061    212.5368   9.5115124178e+01   2.6767222147e+01    0.1960515   0.08686985 -77.26  0.001062413    2.023    0.506
        25 -10.8050    242.0341    210.5163   5.1540227765e+01  -6.7215762996e+00    0.1815093     0.109986  33.77 0.0005773309    1.521    0.342
        26 -11.5709      2.0026    206.4757   9.9649692805e+01   3.0586213526e+01    0.2129922    0.1098929  81.79 0.0008617513    1.563    0.360
        27 -10.3036    243.6821    202.3050   4.9700249238e+01  -5.8470627955e+00    0.1077935     0.105855  89.16 0.0007027875    1.629    0.386
        28 -12.4299      4.5433    197.8085   9.8701449909e+01   3.2118132762e+01     0.301346      0.14836  85.99  0.001158344    1.693    0.409
        29 -10.9705     15.3103    197.4995   9.6635903208e+01   3.1204500827e+01     0.197249   0.08488063 -78.65   0.00106233    1.962    0.490
        30 -11.2438    247.8848    194.6766   4.7481328284e+01  -5.4358247862e+00    0.1785792    0.1456949  17.98 0.0006630779    1.147    0.128
        31 -11.3561      5.0378    189.0342   9.8075865184e+01   3.3896591340e+01    0.1891637   0.09840006  69.36   0.00109797    1.673    0.402
        32 -11.6643    242.1949    182.0570   4.5988061559e+01  -2.6524501936e+00     0.251624    0.2048232 -38.53  0.001066498    1.418    0.295
        33 -10.3434    248.3171    179.3325   4.4350620733e+01  -3.2655658537e+00    0.1394207   0.09094087   1.61 0.0005744538    1.689    0.408
        34 -11.7155      2.4215    178.7048   9.7930950429e+01   3.6302059070e+01    0.2296836   0.08796793 -84.35   0.00114801    2.217    0.549
        35 -13.0070    151.0037    177.5040   6.3860408698e+01   1.5433216173e+01    0.3225127    0.1837034 -30.18  0.001285682    2.451    0.592
        36 -11.2042    246.6739    169.9600   4.2709543080e+01  -1.5611648643e+00    0.1947318    0.1543142 -20.74 0.0007480099    1.126    0.112
        37 -12.2336    179.4798    170.0053   5.5958484380e+01   1.1237788994e+01    0.2222068    0.1468893 -41.96  0.001028907    1.583    0.368
        38 -12.4172    192.2197    166.5735   5.2494332615e+01   9.3088942183e+00    0.2746167    0.2447706 -84.18  0.001121993    1.478    0.324
        39 -11.9424    185.2226    166.4032   5.3951003970e+01   1.0763090965e+01    0.2105491    0.1376768  51.27  0.000789909    1.645    0.392
        40 -13.3281    176.9626    160.4698   5.4478898689e+01   1.3624318861e+01    0.3057389    0.2362593 -39.97  0.001015342    1.334    0.251
        41 -11.3034    237.9414    159.1833   4.1967344673e+01   1.7045299877e+00    0.1994451    0.1868434 -41.33  0.000788772    1.280    0.219
        42 -11.0905    246.2211    158.2217   4.0308882706e+01   3.6258679828e-01    0.1778436    0.1543917 -43.49 0.0008115461    1.339    0.253
        43 -11.3037    226.5423    157.2747   4.3632002585e+01   4.1644678683e+00    0.2683587    0.1297999 -40.30  0.001127672    2.033    0.508
        44 -12.4528    198.1038    157.8172   4.9353981765e+01   9.7458270193e+00    0.2222814    0.2126529  70.28 0.0009665015    1.238    0.192
        45 -13.1230    187.9769    156.2420   5.1141995504e+01   1.2150041033e+01    0.2756166    0.2203527 -34.89  0.001018695    1.263    0.208
        46 -12.0344      3.5257    156.0075   9.6051181101e+01   4.1186782720e+01    0.1851282   0.09054849 -77.29  0.001034902    1.600    0.375
        47 -16.4038    209.3055    134.2168   4.1668771220e+01   1.1781178033e+01     2.460607     2.388583  52.23   0.01384468    1.136    0.120
        48 -11.7559    244.4874    149.6067   3.8743841453e+01   2.0646185249e+00    0.2812966    0.2166543 -50.83  0.001524548    1.550    0.355
        49 -11.2902    235.3136    248.1707   5.9270624903e+01  -1.0458395411e+01    0.2249075    0.0696867  36.00 0.0009925015    2.663    0.625
        50 -12.5858    172.9335    137.1868   5.0062092933e+01   1.9210564997e+01    0.2868304    0.2313431 -38.37  0.001148539    1.249    0.200
        51 -12.9171      4.7896    137.0043   9.4086072805e+01   4.5392364742e+01    0.2779468    0.1295208 -81.92  0.001250962    1.819    0.450
        52 -10.6878    163.6413    134.6835   5.1606157152e+01   2.1794874460e+01    0.1657446    0.1243634   6.60 0.0007043874    1.755    0.430
        53 -11.8860     44.5318    133.0094   8.3151587665e+01   4.2927870070e+01    0.2119012    0.1141746 -66.63  0.001037048    1.609    0.378
        54 -12.6877    179.6406    131.4318   4.7164193432e+01   1.8881085240e+01    0.3069377     0.276507  -4.30 0.0009200295    1.155    0.134
        55 -14.2304     20.1799    131.5401   8.9546555038e+01   4.5535603602e+01    0.3757534    0.2567464  30.87   0.00230997    1.737    0.424
        56 -10.7711     46.5134    246.5032   9.4230384230e+01   1.8249185931e+01    0.1117326   0.08239385  66.32 -6.419263e-06    1.012    0.012
        57 -15.0164     25.8980    127.1028   8.7432540379e+01   4.6109723756e+01    0.6783534    0.3276274  47.35  0.003357778    2.367    0.578
        58 -14.6902     22.9496    120.6843   8.7373656973e+01   4.7861212148e+01    0.4762118    0.3231378  18.22  0.002842686    1.871    0.465
        59 -11.1485    172.3094    128.3255   4.8042035359e+01   2.1169946917e+01    0.1620721    0.1244793   4.07 0.0003854725    1.655    0.396
        60 -12.5678      2.9953    127.0087   9.3545816906e+01   4.7790253095e+01     0.187622    0.1437528 -82.07 0.0006554984    1.057    0.054
        61 -13.1919      8.0094    124.5113   9.1958512727e+01   4.8046869024e+01    0.1945528    0.1533811  44.51 0.0005548375    1.482    0.325
        62 -13.6112    181.6605    141.5614   4.9151713387e+01   1.6397555663e+01    0.3491987    0.3021032 -51.65  0.001148069    1.245    0.197
        63 -11.5707     53.8888    122.5449   7.8747743338e+01   4.4391928802e+01    0.2849884    0.1703767 -81.13  0.001324262    1.965    0.491
        64 -11.3896    233.3069    153.8797   4.1645939028e+01   3.4471186485e+00    0.2583845    0.2109733 -57.80  0.001119856    1.591    0.372
        65 -12.2744    157.5001    152.9937   5.7293140962e+01   1.9246142888e+01    0.2368831    0.1531193 -45.15  0.001035078    1.596    0.374
        66 -12.7919     30.9809    115.5460   8.4290728124e+01   4.8401563853e+01    0.3013201    0.1890178  74.17   0.00143284    2.010    0.502
        67 -11.8231    179.9360    122.8495   4.4966962900e+01   2.0536278897e+01    0.2505753    0.2160674   7.37 0.0009429354    1.276    0.216
        68 -11.3596    250.3105    151.9944   3.8276270015e+01   6.2587669879e-01    0.2497119    0.1641376 -21.26  0.000998575    1.459    0.314
        69 -12.8965     13.0189    115.0347   8.9424857821e+01   4.9906983884e+01    0.1932053    0.1283063  73.25 0.0007097513    1.680    0.405
        70 -12.9414      4.5001    115.1536   9.1835336353e+01   5.0414562343e+01    0.1903222    0.1478099  74.44  0.000901443    1.346    0.257
        71 -11.4305    195.0005    113.8183   3.9502837095e+01   1.8810610645e+01    0.2941572    0.1839392 -48.63  0.000974223    1.691    0.409
        72 -10.9260    201.4126    109.7372   3.7199973666e+01   1.8088221462e+01    0.2066036      0.14549 -26.72 0.0004860115    1.493    0.330
        73 -10.4802    190.2642    109.6100   3.9386705408e+01   2.0716481809e+01    0.1610133    0.1196116 -66.01 0.0004331741    1.703    0.413
        74 -10.8270    196.5795    107.7516   3.7637440370e+01   1.9583242688e+01    0.2142091    0.1412389 -47.61 0.0005699611    1.562    0.360
        75 -12.1911     15.9958    106.8357   8.7412682343e+01   5.1604809003e+01    0.1981043     0.120915  59.64  0.001086645    2.047    0.511
        76 -11.5315      2.9890    104.4970   9.0954226328e+01   5.2933020769e+01    0.1546118   0.07929374  51.89 0.0008097198    2.471    0.595
        77 -10.8205    201.0697    103.3400   3.5632893307e+01   1.9344087022e+01    0.2045667    0.1990294  80.56 0.0005500523    1.076    0.071
        78 -10.5604    195.3004    103.2759   3.6732867700e+01   2.0716578465e+01     0.151896    0.1203059  14.41 0.0002469693    1.537    0.349
        79 -11.7145    206.0101    105.5998   3.5277649151e+01   1.7781066787e+01    0.2886429    0.2004354 -51.48 0.0006550809    1.533    0.348
        80 -11.3728    203.2379     98.2972   3.3927358219e+01   1.9746155404e+01    0.2520796    0.2065583 -43.57 0.0006455444    1.191    0.161
        81 -11.4286     28.2148     99.5708   8.2432961086e+01   5.2375206972e+01    0.2152614    0.1192162  29.54  0.001140044    2.102    0.524
        82 -11.2399    195.5083     97.9637   3.5304828635e+01   2.1643440099e+01    0.2343314    0.1480025 -39.26 0.0006992946    1.544    0.352
        83 -11.7370    207.4638     94.9169   3.2288101405e+01   1.9350141113e+01    0.2987341    0.2224559 -60.01 0.0005949325    1.511    0.338
        84 -12.3405      1.7139     94.2218   8.9954472513e+01   5.5323427141e+01    0.2484959   0.09124892 -78.01  0.001076906    2.699    0.630
        85 -11.0018    196.9714     92.0000   3.3455214799e+01   2.2367652312e+01    0.1887167    0.1638307 -37.45 0.0004688554    1.131    0.116
        86 -11.0809    203.5331     90.9024   3.1957492175e+01   2.0986727962e+01    0.2267158    0.1448077 -37.63 0.0006043368    1.516    0.340
        87 -10.7486    198.0768     87.2503   3.1992595284e+01   2.2938957991e+01    0.2020237    0.1673016 -64.82  0.000579369    1.314    0.239
        88 -11.3903    200.9066     83.7842   3.0562513430e+01   2.2852829321e+01    0.2327998     0.173167 -72.81 0.0005647218    1.653    0.395
        89 -11.2117    193.3886     83.1866   3.1774274881e+01   2.4790487056e+01    0.2197385    0.1351667 -46.82 0.0008440244    1.659    0.397
        90 -12.2533      3.6773     82.3349   8.7500546200e+01   5.7880293358e+01    0.1796359    0.1273131  75.26  0.001124992    1.748    0.428
        91 -11.7514    201.3779     78.1581   2.8990605840e+01   2.3690989702e+01    0.2725792    0.1937222 -56.83 0.0006733575    1.524    0.344
        92 -13.2343    181.8318    150.0210   5.1074912568e+01   1.4672635751e+01    0.2790578     0.224819  39.53 0.0008663156    1.213    0.176
        93 -11.5165    206.5025     74.0021   2.7027935207e+01   2.3128909131e+01    0.2455594    0.1940898 -70.06 0.0005728152    1.391    0.281
        94 -10.8467    203.7042     71.3108   2.6782864029e+01   2.4247074852e+01    0.1948883    0.1393555 -28.71 0.0004759596    1.470    0.320
        95 -10.7643    195.4633     72.5641   2.8525652495e+01   2.6073618727e+01    0.1508798    0.1411156 -75.23 0.0002499081    1.067    0.063
        96 -12.5756    235.2368    147.3407   3.9856266786e+01   4.1776273861e+00    0.4689071    0.3413229 -56.98  0.002176675    1.818    0.450
        97 -11.1164      1.3284     66.3284   8.5465252792e+01   6.1469117951e+01    0.1275942   0.06159395 -42.32 0.0007050998    1.707    0.414
        98 -10.8841    197.4073     64.2140   2.5932527464e+01   2.6930459158e+01    0.1991287    0.1305727 -48.02 0.0005043953    1.543    0.352
        99 -12.3441    224.2414    140.7749   4.0363984330e+01   7.4768506923e+00    0.2566378    0.2349298 -29.93  0.001003581    1.093    0.085
       100 -12.4651    171.5012    154.0576   5.4290934834e+01   1.6063588579e+01    0.2337785    0.1517071 -42.31 0.0008330029    1.583    0.368
       101 -11.0982    242.4856    154.0309   4.0052157029e+01   1.7118506193e+00    0.2073472    0.1240243 -36.44  0.001008545    1.557    0.358
       102 -13.2120    223.7348    147.2153   4.1920390206e+01   6.4506606789e+00    0.3246132    0.2741538  79.95  0.001504659    1.666    0.400
       103 -13.0668    176.1292    146.3082   5.1487944963e+01   1.6647186992e+01    0.2735513    0.2142882 -25.94  0.000861006    1.357    0.263
       104 -11.4462    132.4261     43.1879   3.2505968250e+01   4.6395403033e+01    0.2028933    0.1339718 -43.05 0.0007475943    1.684    0.406
       105 -12.8880      1.9544     40.3404   7.9209468479e+01   6.6749553797e+01    0.3185676    0.1362099 -60.58  0.001702093    1.990    0.497
       106 -12.2352    154.7689     39.9178   2.6560771042e+01   4.1311587604e+01    0.2018549    0.1969368  55.34 0.0007268122    1.048    0.045
       107 -12.3336      4.1006    245.5289   1.0114430500e+02   2.3044470333e+01    0.2166497    0.1704132  55.78  0.001126977    1.359    0.264
       108 -11.8133     30.5524    243.1679   9.6738374582e+01   2.0708536081e+01    0.2380568     0.168336 -80.28   0.00177648    1.413    0.292
       109 -10.9423    147.2976     39.6485   2.7993684719e+01   4.3228763338e+01    0.1489189    0.1116799 -67.71 0.0007035224    1.688    0.408
       110 -11.7691     18.3721    243.5781   9.8777394209e+01   2.1953074758e+01    0.2243242    0.1320986  49.72  0.001598927    1.408    0.290
       111 -11.4306    232.5357    238.0366   5.8109049101e+01  -8.8486759307e+00    0.2249407    0.1482581  40.95  0.001274031    1.616    0.381
       112 -12.4838      9.3582     36.0473   7.4582690045e+01   6.7172142121e+01     0.272515   0.08632319 -55.21  0.001255247    2.527    0.604
       113 -13.2191    134.1164     35.5014   2.9480038757e+01   4.7029545860e+01    0.3251432    0.2577864 -49.68  0.001051418    1.463    0.316
       114 -12.3396    140.6865     40.5814   2.9724267327e+01   4.4745227200e+01    0.2426379    0.1717535 -52.56 0.0007294695    1.691    0.409
       115 -12.7215    125.8737     30.6034   2.9677855368e+01   4.9631099361e+01    0.2747228    0.1772315 -46.59  0.001131771    1.876    0.467
       116 -14.0402      8.9650     25.9233   7.1379017934e+01   6.9039102486e+01    0.3811182    0.2322535 -56.11  0.002385034    1.707    0.414
       117 -11.7719      6.7829    237.5084   1.0036598643e+02   2.4219501980e+01    0.1866572    0.1339145 -85.10 0.0008361082    1.327    0.246
       118 -11.0246    217.1931    235.3928   6.0486285504e+01  -6.1838149575e+00    0.1764023    0.1006137  42.70 0.0009529159    1.728    0.421
       119 -12.9155      1.4552     25.2177   7.4855937590e+01   6.9599218408e+01    0.4412511   0.07763702 -55.57  0.001665209    4.137    0.758
       120 -12.6491     14.5521     21.2747   6.6844696118e+01   6.9444384887e+01    0.3351392   0.09731591 -50.46  0.001444758    3.162    0.684
       121 -11.6515     15.0920    233.4996   9.8801809317e+01   2.4130293554e+01    0.2146309    0.1301306 -89.68  0.001516798    1.367    0.268
       122 -11.6769    238.6719    231.3436   5.5869622495e+01  -8.9257679705e+00    0.2691973    0.1704505  42.45  0.001441193    1.767    0.434
       123 -12.1376     26.6387    230.0813   9.6632502092e+01   2.3560613830e+01    0.3622659    0.1670194 -81.25   0.00213055    1.974    0.493
       124 -11.2306    249.7556    227.7592   5.3279047277e+01  -1.0092054514e+01    0.2103739     0.120507  29.52 0.0009401951    1.503    0.335
       125 -11.2547     12.0769    227.4914   9.8997518389e+01   2.5557585339e+01    0.1495737   0.08738725  45.41  0.001023899    1.566    0.361
       126 -11.2057     19.4552    223.3047   9.7488496813e+01   2.5614241533e+01    0.1893824   0.08670852 -74.75 0.0009029031    1.955    0.488
       127 -12.2531      2.2082    221.8230   1.0038767147e+02   2.7572778036e+01    0.2948511     0.136718  83.20  0.001433639    1.780    0.438
       128 -11.3487    240.3041    221.9075   5.3923420570e+01  -7.9696711346e+00    0.2091961    0.1496944  33.74 0.0009363948    1.370    0.270
       129 -10.9424    228.9921    222.2095   5.6040524322e+01  -6.2727249811e+00     0.172184   0.08715822  36.20 0.0008743421    1.743    0.426
       130 -11.1533    249.9149    219.5426   5.1788903112e+01  -9.0920489034e+00    0.1806049    0.1025988  31.22  0.001005295    1.567    0.362
       131 -12.0000     13.4743    217.9440   9.8235377785e+01   2.7255049737e+01    0.2633398     0.162679  83.36  0.001613853    1.272    0.214
