#   1 NUMBER                 Running object number                                     
#   2 MAG_AUTO               Kron-like elliptical aperture magnitude                    [mag]
#   3 X_IMAGE                Object position along x                                    [pixel]
#   4 Y_IMAGE                Object position along y                                    [pixel]
#   5 X_WORLD                Barycenter position along world x axis                     [deg]
#   6 Y_WORLD                Barycenter position along world y axis                     [deg]
#   7 A_WORLD                Profile RMS along major axis (world units)                 [deg]
#   8 B_WORLD                Profile RMS along minor axis (world units)                 [deg]
#   9 THETA_WORLD            Position angle (CCW/world-x)                               [deg]
#  10 FWHM_WORLD             FWHM assuming a gaussian core                              [deg]
#  11 ELONGATION             A_IMAGE/B_IMAGE                                           
#  12 ELLIPTICITY            1 - B_IMAGE/A_IMAGE                                       
         1 -14.0810    221.6682     16.0125   4.0569167836e+01   2.7842974952e+01     1.153319     1.009261  30.39  0.002757182    1.481    0.325
         2 -13.7750    197.1881     38.8619   4.9389902449e+01   3.1029504061e+01     1.411316     0.991926  34.56  0.002693268    1.789    0.441
         3 -14.1935    205.5374     32.5545   4.6569294109e+01   2.9769583348e+01     1.923915     1.492796   1.99  0.008673145    1.738    0.425
         4 -10.1384      2.3998      2.7597   9.5831717098e+01   7.3959569896e+01    0.2397977   0.06260236 -42.82  0.001132601    2.689    0.628
         5 -10.6262     47.7607      2.5517   7.2072846345e+01   6.8937509864e+01    0.2178051     0.184678  22.41 0.0006346462    1.266    0.210
         6  -9.4319     72.3519    230.6275   1.1779979869e+02   1.7928979395e+01    0.1829926    0.1037489  62.98  0.000581007    1.580    0.367
         7  -9.7632    174.5978    249.7880   1.0065112349e+02  -7.8412647325e-01    0.2127289    0.1646583  63.12  0.001003009    1.684    0.406
         8 -12.2665     64.2407    238.2406   1.1992438486e+02   1.7602962586e+01    0.8443358    0.2891858  47.51  0.003278361    2.233    0.552
         9 -15.1545     90.1142    246.4624   1.1591927993e+02   1.2633535587e+01     8.321227     2.758375  30.96   0.02622021    6.305    0.841
        10 -15.3631      4.2209    167.0251   1.2641351455e+02   3.8681904993e+01     5.960517     0.794373 -74.78   0.01936854    5.147    0.806
        11 -10.9165     52.1490    250.3413   1.2290362654e+02   1.6983848880e+01    0.3558375    0.1178421  42.45  0.001429558    2.315    0.568
        12 -13.7696     47.3154    222.2187   1.2181022962e+02   2.2737684392e+01     1.076354    0.6279466 -87.37  0.005142577    1.591    0.372
        13 -13.2748     37.7950    208.5087   1.2259332683e+02   2.6579921712e+01    0.4551037    0.3785005  45.37  0.001839589    1.382    0.276
        14  -9.8228    162.5195    213.0392   9.7643227465e+01   6.8621105741e+00    0.1783034    0.1326503 -44.20  0.001015528    1.543    0.352
        15  -9.3271    155.6918    199.5718   9.6877327692e+01   1.0468575918e+01    0.2300543    0.1722083 -79.09 0.0009590033    1.880    0.468
        16 -11.1594    193.1065    193.0595   8.7996761792e+01   4.7976619948e+00    0.7655909    0.4583618 -55.60   0.00350819    2.404    0.584
        17 -10.0860    149.7906    189.7859   9.6483397919e+01   1.3403026679e+01    0.3366319    0.2175135 -85.65  0.001375443    2.924    0.658
        18 -12.0306     63.8023    180.4712   1.1449706535e+02   2.9427996515e+01    0.3990125    0.2872317 -36.13  0.001509903    2.062    0.515
        19 -12.0530     68.9060    174.8761   1.1264549397e+02   3.0009750445e+01    0.3185332    0.2544043 -51.24 0.0007914424    1.450    0.310
        20  -9.4668     99.6181    180.8033   1.0633267403e+02   2.4085412909e+01    0.2125299    0.1798249  38.50  0.000571495    1.247    0.198
        21 -11.1402     42.9052    177.9373   1.1890349025e+02   3.2555936323e+01    0.4489803    0.3147377  -4.04  0.002090862    2.756    0.637
        22 -13.6461     65.8713    160.8185   1.1150799545e+02   3.3676686288e+01    0.6539649    0.4383036 -43.74  0.002775356    1.826    0.452
        23 -11.5641     78.3430    164.9865   1.0904728046e+02   3.0959906885e+01    0.2640669     0.237086 -78.27  0.000384642    1.090    0.083
        24 -13.6150     84.1520    158.8575   1.0667562731e+02   3.1530675098e+01     2.884932     1.220296  56.79  0.001643749    3.269    0.694
        25 -14.2390     68.3967    144.4025   1.0840777674e+02   3.7250842425e+01     3.401662     1.572448 -86.55  0.004176541    4.614    0.783
        26  -9.1265     47.3291    172.3166   1.1732633637e+02   3.3320110103e+01     0.120362   0.09270758 -44.28 0.0007046019    1.680    0.405
        27 -14.7569      6.6012    245.3066   1.3008558826e+02   2.2883966308e+01     1.127268    0.6782507  60.82  0.004320857    1.182    0.154
        28 -13.5257     87.3758    227.6829   1.1465631084e+02   1.6380241537e+01     1.261506    0.6112438  60.55  0.002662449    2.117    0.528
        29  -9.8266    193.3566    166.0387   8.2583327205e+01   9.5174082809e+00    0.2652282    0.2085696  44.31 0.0008052259    1.281    0.219
        30  -8.9868    204.4350    164.4673   8.0016041149e+01   7.6217944805e+00    0.1395908     0.134118  -1.14 0.0001384683    1.101    0.092
        31 -11.2869     33.3387    156.4472   1.1889381296e+02   3.8501340882e+01    0.3188877    0.2160084  76.11  0.000839396    1.377    0.274
        32 -10.6437     28.0924    156.6323   1.2016424987e+02   3.8971538963e+01     0.214777    0.1419261 -89.69 0.0006144067    1.298    0.230
        33  -9.4838    174.6421    148.8416   8.2819227517e+01   1.6667465845e+01    0.2176328    0.1396621 -52.36 0.0006852244    1.735    0.424
        34 -10.6742    133.8929    144.8427   9.1482698631e+01   2.5983017126e+01    0.9761701    0.2077784 -53.83   0.00203876    7.334    0.864
        35  -9.6759    125.3416    173.3292   9.9128023212e+01   2.1296012314e+01    0.1437054    0.1152603  -6.65 0.0007051381    1.743    0.426
        36  -8.5895     36.3100    145.2910   1.1688368386e+02   4.0827823587e+01    0.1227347   0.08860237 -46.47 0.0003687639    1.583    0.368
        37 -10.5504     99.0274    143.5180   1.0014550477e+02   3.2772511508e+01    0.3424604    0.2492334 -53.21   0.00080686    1.345    0.256
        38  -9.6993    102.0186    140.2020   9.8700431364e+01   3.3045686008e+01     0.352132    0.2133533 -33.33  0.001445185    2.285    0.562
        39 -12.4320     87.3066    142.2923   1.0301729532e+02   3.4984530817e+01    0.3164759    0.2833451 -25.33 0.0006118147    1.344    0.256
        40  -9.9740     81.0434    141.0685   1.0446863805e+02   3.6243656146e+01    0.2588353    0.1768475  61.93  0.000570162    1.624    0.384
        41 -10.3584     29.2977    136.6420   1.1763736205e+02   4.3558294979e+01    0.2121673     0.161438  80.62 0.0006877482    1.231    0.188
        42 -10.6542     23.4348    136.7398   1.1917663257e+02   4.4053935712e+01    0.2146475    0.1364131  46.80 0.0005872708    1.684    0.406
        43 -10.2096    110.1644    131.6233   9.4714352957e+01   3.3613578688e+01    0.3011543    0.2589724 -11.27 0.0007242264    1.427    0.299
        44 -10.1642    106.1796    131.1727   9.5690385145e+01   3.4448485935e+01    0.3728571    0.2985426  77.18  0.001593387    1.435    0.303
        45 -11.1043     46.5422    129.7605   1.1202109703e+02   4.3481739188e+01    0.4082876    0.1492583  38.10  0.001704918    2.822    0.646
        46  -9.4807    160.4933    127.4938   8.1003823504e+01   2.4155993678e+01    0.1542776     0.153531 -62.25 0.0008105078    1.024    0.023
        47  -9.1861    125.6822    127.3445   8.9612185460e+01   3.1608802873e+01    0.1604711    0.1223268  87.42 0.0007048916    1.721    0.419
        48  -9.9682    116.3357    125.7923   9.1728325671e+01   3.3811559362e+01    0.2901537    0.2304623 -82.43 0.0007825574    1.489    0.329
        49 -11.0927    135.3419    123.1031   8.6080825745e+01   3.0577529764e+01    0.6725801     0.144516 -49.49  0.001590974    5.192    0.807
        50  -9.2041     90.7779    123.5962   9.8311449275e+01   3.8921406887e+01    0.2026185    0.1329538  51.87 0.0005197253    1.670    0.401
        51  -9.9274    107.0022    120.0553   9.2933469565e+01   3.6919615964e+01    0.2159327    0.2081712 -48.21 0.0002918298    1.042    0.041
        52 -11.7485     23.5079    117.1036   1.1668092700e+02   4.8710261319e+01    0.4106435    0.2109068 -80.01   0.00153402    1.825    0.452
        53  -9.9940    168.1958    113.1083   7.5571048373e+01   2.5402281892e+01    0.3659549    0.2508803 -58.28  0.001264045    1.709    0.415
        54 -13.8623     31.0906    247.6699   1.2626401490e+02   1.9910608351e+01     1.145465    0.9517435  59.04  0.009426803    1.329    0.247
        55 -10.9226     97.2783    128.0693   9.7456303172e+01   3.6756038204e+01    0.3097146    0.2631656 -28.56 0.0007262303    1.350    0.259
        56 -10.3603     39.8717    113.2178   1.1126726914e+02   4.8173843689e+01    0.1970539    0.1638072  85.31 0.0005461465    1.227    0.185
        57 -10.0082    205.2142    110.5366   6.7275412272e+01   1.7351403950e+01    0.3354533    0.2586079  31.80  0.001051664    1.441    0.306
        58  -9.2711    114.0000    110.9375   8.8726429853e+01   3.7699187658e+01    0.2547498   0.08538987 -48.56 0.0005252716    2.886    0.654
        59 -10.4780     32.9812    109.2492   1.1268385099e+02   4.9777652269e+01    0.2323404    0.1600701  87.20 0.0006799481    1.568    0.362
        60  -9.7379    134.5094    102.8915   8.1013052285e+01   3.5212208231e+01    0.2406491    0.1532139 -44.22 0.0008745911    1.545    0.353
        61 -10.4875     38.7384    101.9539   1.0959954748e+02   5.0979808042e+01    0.3079065    0.1511211  47.61  0.001406978    2.539    0.606
        62 -10.9226    244.2048     98.5913   5.7890657209e+01   1.0907438317e+01    0.1907672    0.1296845  41.89 0.0008194263    1.697    0.411
        63  -9.9796    239.3203     98.0103   5.8471218001e+01   1.2021920481e+01    0.2314513    0.1152546 -14.91 0.0007048619    4.283    0.767
        64  -9.0907    129.0481     95.5055   8.0384664744e+01   3.7991205687e+01    0.2404243    0.1550301  46.60 0.0007280172    1.584    0.369
        65 -10.7549    249.8686     87.8609   5.4585767644e+01   1.1446126751e+01    0.2063653    0.1824258 -17.04 0.0005770885    1.197    0.165
        66  -9.0142    113.3432     82.6940   8.0974435728e+01   4.4030963637e+01    0.1530277    0.1231489 -88.64 0.0006960709    1.689    0.408
        67  -9.2755    159.2597     81.0169   6.8639359220e+01   3.3852117511e+01     0.201395    0.1349538 -36.71 0.0003957231    1.490    0.329
        68 -14.2250     10.5313    231.7676   1.2886799580e+02   2.4931988116e+01     1.221634    0.4323328  60.15  0.006806767    2.221    0.550
        69  -8.8725    184.3602     77.2946   6.2349427147e+01   2.8321947309e+01    0.1591399    0.1191434  22.88 0.0007031321    1.703    0.413
        70 -10.1317     13.5714     59.9205   1.0970696208e+02   6.2514324175e+01    0.1788294    0.1714939 -18.22 0.0004095475    1.257    0.204
        71  -8.7269     98.3920     57.4054   7.7164382131e+01   5.1993187777e+01    0.1409857       0.1329 -13.07 0.0001664655    1.047    0.045
        72 -15.5039     44.1575    197.2852   1.2042647010e+02   2.8185466750e+01     4.833641     1.827278  65.01   0.01954737    3.368    0.703
        73 -13.9248     26.1114    219.8780   1.2553990840e+02   2.5594116495e+01     1.355548    0.6841444 -70.54  0.005998693    1.897    0.473
        74  -9.5554     76.0894    232.6648   1.1727704463e+02   1.7042029846e+01    0.1884959    0.1360037  82.25 0.0004150733    1.301    0.231
        75 -11.0245    139.8694     45.5682   6.1781409057e+01   4.4617425941e+01    0.4157545    0.2941133 -76.76  0.001089733    2.036    0.509
        76 -10.0587    145.1937     42.1241   5.9445110323e+01   4.3801058457e+01     0.265339     0.188663 -82.83  0.000601178    1.931    0.482
        77  -9.4220    170.6709     20.2914   4.7828477773e+01   4.0073154329e+01    0.1452294      0.10106 -69.90 0.0002290518    1.624    0.384
        78 -10.8460    189.7014     15.2051   4.3795739389e+01   3.5785535378e+01    0.2572333    0.2162547  73.82 0.0007905253    1.098    0.090
        79 -14.8704      9.7376    207.7139   1.2780352314e+02   2.9631792321e+01     1.448779    0.9535636 -81.89  0.009261549    1.320    0.243
        80 -12.4897    213.4730     25.0564   4.3674743455e+01   2.8752540332e+01    0.4753489      0.40489  43.95  0.001181574    1.383    0.277
