#   1 NUMBER                 Running object number                                     
#   2 MAG_AUTO               Kron-like elliptical aperture magnitude                    [mag]
#   3 X_IMAGE                Object position along x                                    [pixel]
#   4 Y_IMAGE                Object position along y                                    [pixel]
#   5 X_WORLD                Barycenter position along world x axis                     [deg]
#   6 Y_WORLD                Barycenter position along world y axis                     [deg]
#   7 A_WORLD                Profile RMS along major axis (world units)                 [deg]
#   8 B_WORLD                Profile RMS along minor axis (world units)                 [deg]
#   9 THETA_WORLD            Position angle (CCW/world-x)                               [deg]
#  10 FWHM_WORLD             FWHM assuming a gaussian core                              [deg]
#  11 ELONGATION             A_IMAGE/B_IMAGE                                           
#  12 ELLIPTICITY            1 - B_IMAGE/A_IMAGE                                       
         1  -8.9709     80.3379     12.3063   7.3671176372e+01   6.2136082032e+01    0.2466205    0.1838654 -36.49 0.0008026248    1.525    0.344
         2  -7.5232    158.3259     11.3094   5.5900867526e+01   4.4065870891e+01    0.1478679   0.09544686  37.31 0.0007038747    1.656    0.396
         3 -10.4962    238.2579    246.8086   9.8108736442e+01  -7.6765891053e+00    0.4069552    0.2317695 -14.77  0.002578007    1.887    0.470
         4  -8.4103    151.9906    249.5124   1.1339947483e+02   4.7023146884e+00    0.1882872    0.1562968  81.49 0.0007630331    1.582    0.368
         5  -7.8089    144.5253    249.2922   1.1470307432e+02   5.8563696081e+00    0.1840166    0.1156606 -61.27   0.00114302    2.184    0.542
         6  -8.8896      5.4032    248.8055   1.3813988269e+02   2.3488143315e+01    0.1231334    0.0726779 -76.81 0.0009506457    1.723    0.420
         7 -11.0569    178.7411    241.2698   1.0756309244e+02   1.7237197895e+00    0.8188512    0.5434476  24.09  0.004532352    1.426    0.299
         8  -9.8953    175.1936    231.4279   1.0683739525e+02   3.6188820202e+00    0.5110353    0.4068804  85.83  0.003181693    2.029    0.507
         9  -8.6897    224.8076    246.6053   1.0031193745e+02  -5.7813172105e+00    0.1608892   0.08767109  42.40 0.0009560231    1.765    0.433
        10  -8.6449    150.8778    240.4985   1.1250844845e+02   6.1456990710e+00    0.2202159    0.1343819  40.96 0.0007878901    1.303    0.232
        11  -9.6933    145.9056    238.2286   1.1313885245e+02   7.2473572125e+00    0.3322537    0.2451887  66.79  0.001910221    1.608    0.378
        12  -9.1648     89.8480    238.1357   1.2338962461e+02   1.5523674771e+01    0.3003354    0.1520327 -58.08  0.001750915    2.337    0.572
        13  -7.9843    221.2374    238.6950   9.9726707726e+01  -4.3868310367e+00    0.1603986   0.08465067 -19.04 0.0006803221    2.313    0.568
        14  -9.0018    159.0635    233.8859   1.1015449258e+02   5.8280344415e+00    0.5595303    0.3286256  13.98  0.002664411    2.902    0.655
        15  -8.3528    231.8498    234.1672   9.7219305905e+01  -5.4166971908e+00    0.1649355    0.1053392  17.70 0.0004021557    1.342    0.255
        16  -9.1740     50.9757    233.1003   1.2990341314e+02   2.1355886554e+01    0.2443598    0.1416176 -67.95  0.001619137    1.853    0.460
        17  -9.2694    188.8772    234.0400   1.0471984447e+02   1.1014653569e+00    0.2888236    0.2144869  40.75  0.001173363    1.221    0.181
        18  -7.6132     59.6681    233.6999   1.2841864834e+02   2.0207296734e+01   0.09078906   0.08709501  -3.93 0.0007032554    1.649    0.394
        19 -11.2295    151.4706    225.9788   1.1051831102e+02   8.2292879812e+00     1.056752    0.8171738  -5.54  0.006544051    1.748    0.428
        20  -9.2087    139.7547    228.3754   1.1305514014e+02   9.7205287640e+00    0.4921997    0.2292498  39.29  0.002506019    1.798    0.444
        21  -8.0750    115.3171    230.6020   1.1793649177e+02   1.3123010034e+01    0.2344809   0.08966767  44.23  0.000881487    2.102    0.524
        22  -8.7892     81.7404    229.9153   1.2412464358e+02   1.8030185358e+01    0.2435857    0.1593668  61.75  0.001584303    1.311    0.237
        23  -9.0780    187.8577    239.8084   1.0572975701e+02   5.0792152908e-01    0.3475996    0.1936835  47.39  0.001600974    1.759    0.431
        24  -8.9401    105.7860    224.8340   1.1910609180e+02   1.5518078476e+01    0.4290898    0.1381654  40.04  0.001863989    2.605    0.616
        25 -11.5870    246.1728    242.7472   9.6192344476e+01  -8.3369490637e+00    0.8868234    0.5811158 -36.58  0.005974803    2.060    0.514
        26  -7.1683     71.3060    224.6394   1.2558783354e+02   2.0348239357e+01    0.1234672   0.06915398  66.99 0.0007039495    1.732    0.423
        27  -8.4307    218.2240    221.6107   9.7545137429e+01  -1.8823157652e+00    0.2000318    0.1681772  30.65 0.0003792707    1.235    0.190
        28  -7.3339     73.6526    221.3075   1.2485593845e+02   2.0646037951e+01    0.1251939   0.06977846  63.87 0.0007043425    1.702    0.413
        29  -8.0652     85.7581    220.0003   1.2243302192e+02   1.9247776922e+01    0.1403689    0.0946857 -71.92 0.0008774266    1.584    0.369
        30  -8.8943    126.5204    217.9144   1.1427344766e+02   1.3539842534e+01    0.2603542    0.2292408 -46.07  0.001763817    1.377    0.274
        31  -9.1323     30.6695    218.9300   1.3256364902e+02   2.6187005820e+01    0.2441005   0.09225177  50.75 0.0009850695    2.075    0.518
        32  -7.9993    177.8952    217.7473   1.0430705292e+02   5.1542395311e+00     0.239975    0.1576673  50.71  0.001353213    1.587    0.370
        33 -11.3352    128.1626    205.4744   1.1228873662e+02   1.5466268747e+01     1.418758    0.9757935 -10.03  0.006852161    2.778    0.640
        34  -9.4121    164.7603    248.6881   1.1102869022e+02   2.8815591957e+00    0.4746888     0.263207  34.38  0.002821089    1.490    0.329
        35  -9.7661     62.8050    214.6734   1.2632651825e+02   2.3274108706e+01    0.2738933    0.2129336 -60.97  0.001900208    1.543    0.352
        36 -10.5379     64.4816    207.6108   1.2537378474e+02   2.4412552539e+01    0.3007687    0.2228025  87.79   0.00201871    1.238    0.192
        37 -10.7484     69.2757    203.6780   1.2404954615e+02   2.4561431605e+01    0.4692972    0.2243171  35.17  0.002417538    2.145    0.534
        38  -9.9226     52.4681    209.8762   1.2789759458e+02   2.5454317964e+01    0.2244918    0.1659278  24.70  0.001465621    1.852    0.460
        39  -9.3903    110.9732    211.0759   1.1649645768e+02   1.7181385441e+01    0.2477989    0.1980932  36.49 0.0007934893    1.259    0.206
        40 -10.9625    110.8169    206.5222   1.1595937907e+02   1.8043909558e+01    0.6303287    0.3519969  53.33  0.002654812    1.679    0.405
        41  -8.1800    137.0064    210.7259   1.1123781410e+02   1.3086917238e+01    0.2899038     0.138979  29.49  0.001068058    2.574    0.611
        42  -9.1913    104.3841    210.4606   1.1774166778e+02   1.8299569718e+01    0.2419557    0.2194313 -20.37  0.001624064    1.506    0.336
        43  -8.4092     27.6713    210.6754   1.3259209874e+02   2.8051830425e+01   0.09561531    0.0800352 -54.07 -0.0001026835    1.698    0.411
        44  -9.9155    117.1806    201.1844   1.1395351849e+02   1.8036570117e+01    0.3414659     0.241043  49.16 0.0004342325    1.247    0.198
        45  -8.0953    152.1438    205.5817   1.0745483318e+02   1.1432419196e+01    0.3303174    0.2094573 -38.22  0.001772705    1.892    0.471
        46  -8.0552    151.1649    200.6754   1.0689322182e+02   1.2443239312e+01    0.2637801    0.1927854 -45.22   0.00151293    1.555    0.357
        47  -7.7235     52.2851    205.3293   1.2755687461e+02   2.6358935210e+01    0.1014341   0.08683456 -49.92 0.0002827792    1.612    0.379
        48  -9.6913    136.7056    203.4946   1.1026528220e+02   1.4407205869e+01    0.3164854    0.2074723  64.91   0.00158997    1.862    0.463
        49  -9.8101    123.9997    206.0006   1.1320839935e+02   1.6048097417e+01    0.1823684    0.1578739  51.84  0.001173799    1.002    0.002
        50  -9.0672     98.0701    202.8969   1.1811515200e+02   2.0674074738e+01    0.2159122    0.1821121  62.02 0.0008241711    1.015    0.015
        51  -9.6535     38.2348    202.8709   1.3007942727e+02   2.8445365915e+01    0.1833107    0.1527917 -15.27   0.00125108    2.097    0.523
        52  -7.9591    250.2075    200.4050   8.8359622402e+01  -4.1556045383e+00    0.1526107    0.1062128  39.95 0.0006689773    1.564    0.361
        53  -8.1571    165.8566    200.3900   1.0388654106e+02   9.9375280477e+00    0.1901091    0.1107985  31.71 0.0006993858    1.676    0.403
        54  -8.7737     91.3080    199.9749   1.1915938816e+02   2.2240045891e+01    0.1952072   0.09382588 -88.27 0.0007041211    4.211    0.763
        55  -8.9182     57.0817    198.5438   1.2600984534e+02   2.7125029202e+01    0.2497461    0.1766169 -54.27  0.001417374    1.724    0.420
        56  -8.8560     47.2725    200.0044   1.2809359219e+02   2.7998915824e+01    0.1674192    0.1303571  84.16  0.001168954    1.093    0.085
        57 -10.3167    109.0259    197.5703   1.1516553521e+02   2.0020729855e+01    0.4708087    0.2766074  28.07  0.002325379    2.085    0.520
        58 -10.3717    110.2690    192.9981   1.1428178207e+02   2.0714022997e+01    0.4124885    0.3009629  60.10  0.002193757    1.315    0.240
        59  -9.8333     80.3031    196.7098   1.2106544771e+02   2.4456142181e+01    0.5882055    0.3611108   3.76   0.00207696    5.920    0.831
        60 -10.0232     68.9619    197.7177   1.2351531014e+02   2.5785735207e+01    0.3580719    0.2185777  41.14  0.002093463    1.551    0.355
        61  -9.8741     99.7019    196.4921   1.1698170456e+02   2.1673212928e+01    0.3711105    0.2443349  68.90  0.002034183    1.641    0.391
        62  -7.3761     34.3509    197.6742   1.3044369884e+02   2.9895095734e+01    0.1255098   0.06473913  65.55  0.000704831    1.759    0.431
        63  -6.1594     76.6453    191.9631   1.2129668974e+02   2.5921029738e+01    0.2043534   0.09259071  89.02 0.0007046109    4.460    0.776
        64  -8.2267     84.6726    190.5786   1.1943024562e+02   2.5078873594e+01    0.1728178    0.1532936 -15.71 0.0009446566    1.610    0.379
        65  -7.8071     39.5070    191.5201   1.2894005113e+02   3.0585884003e+01     0.117218   0.09210026  76.41 0.0002713362    1.006    0.006
        66 -10.6628    136.4713    186.9848   1.0777501182e+02   1.7492459765e+01    0.6306943    0.3970297  10.40  0.002612991    3.056    0.673
        67 -10.3439    112.5420    180.1295   1.1191351488e+02   2.2923431075e+01    0.3450695    0.2679369  32.08  0.001953173    1.374    0.272
        68 -10.1871    114.8298    188.4970   1.1266379153e+02   2.0864670773e+01    0.3583282    0.2430689 -66.33  0.001932307    1.626    0.385
        69  -8.5338    112.7589    184.3470   1.1250214566e+02   2.2032056790e+01    0.2177519    0.1772728 -81.94 0.0006672968    1.307    0.235
        70  -9.9799    104.6044    188.3153   1.1484827675e+02   2.2541662953e+01    0.3001299    0.1878729 -63.98  0.001595163    1.702    0.412
        71 -10.5511    144.4233    186.5313   1.0600560687e+02   1.6176182172e+01    0.5108123    0.3758211   1.43   0.00259445    1.974    0.493
        72  -8.2176     98.6465    188.6722   1.1618515299e+02   2.3394946956e+01    0.1237027    0.1029392 -11.99 0.0007046756    1.771    0.435
        73  -8.9653    152.1986    186.9848   1.0444022276e+02   1.4702221465e+01    0.3554786    0.1497659  49.44  0.001415287    2.461    0.594
        74  -9.2187     48.0039    185.6244   1.2667455024e+02   3.0852891973e+01    0.2137412    0.1133219 -73.86  0.001182722    1.737    0.424
        75  -9.4177    247.8171    182.5811   8.5389554447e+01  -1.5078072464e+00    0.2635049    0.2428358  25.65  0.001395015    1.359    0.264
        76 -10.4486    130.4323    181.8675   1.0824721265e+02   1.9536005214e+01    0.5239214    0.3221071 -56.68  0.002623507    1.788    0.441
        77  -9.0336    138.3306    179.2718   1.0608949151e+02   1.8647773522e+01    0.2262878    0.1795897 -65.54 0.0005880169    1.426    0.299
        78  -9.0131    104.6223    178.8494   1.1348590290e+02   2.4474099372e+01     0.184587    0.1654987  42.86 0.0007822193    1.151    0.131
        79  -8.6543     92.4743    178.9483   1.1621808113e+02   2.6343411664e+01    0.1892268    0.1070454  89.01 0.0008095513    2.627    0.619
        80  -7.7228     82.5005    179.0154   1.1845466431e+02   2.7796947785e+01     0.171037   0.09998264 -41.73 0.0008084129    2.401    0.584
        81  -9.7651     55.0383    178.5107   1.2446230936e+02   3.1528972570e+01    0.2524625    0.1513272  89.68  0.001392299    1.667    0.400
        82 -10.6179    123.1217    176.5544   1.0898938095e+02   2.1865332942e+01    0.3650888    0.3602035 -43.75  0.002302329    1.132    0.116
        83 -10.5488     42.5461    175.3720   1.2686574952e+02   3.3642407680e+01    0.3745182     0.343102  67.87  0.002713481    1.218    0.179
        84 -10.3459     47.0521    172.1240   1.2555241221e+02   3.3841357138e+01    0.3389513    0.2242213  86.93  0.002026411    1.390    0.281
        85  -8.6461    235.6360    177.4124   8.6443223011e+01   1.2125395437e+00    0.2145219    0.1762437 -13.37 0.0002782226    1.121    0.108
        86  -8.3404    236.4851    172.5046   8.5313312781e+01   1.7649642523e+00    0.1331666    0.1111049   2.57 5.871192e-05    1.018    0.018
        87  -9.1455     78.2551    169.8015   1.1819555489e+02   3.0384461239e+01    0.2789967     0.201356  74.63  0.001316313    1.401    0.286
        88  -7.6055    101.9123    176.0000   1.1367112422e+02   2.5501397125e+01    0.2206258   0.07156838  38.60 0.0002467575    2.952    0.661
        89 -10.0542     69.7224    166.1705   1.1969080896e+02   3.2353194382e+01    0.4882706    0.2476185 -82.98  0.001861315    2.471    0.595
        90  -7.8221    157.8443    168.3216   9.9843028516e+01   1.7144716700e+01    0.1911136    0.1677077  28.04  0.000305317    1.109    0.099
        91  -8.4684     99.1517    168.2176   1.1311763326e+02   2.7596886544e+01    0.1974328    0.1494925  70.66  0.001079218    1.374    0.272
        92  -9.7781     56.2562    167.6921   1.2299137826e+02   3.3731908520e+01    0.2879269    0.1770253  37.48  0.001288445    1.697    0.411
        93  -8.3947    247.0002    166.8379   8.2380897636e+01   7.7337248909e-01    0.2195845     0.131151  16.08  0.001040973    1.939    0.484
        94  -9.2872    204.7094    165.2226   8.9609014881e+01   8.6578725080e+00    0.2529626    0.2307104  -6.61  0.000262881    1.069    0.064
        95  -9.4165    111.1419    165.7018   1.0991653441e+02   2.6173160530e+01    0.2294113    0.1612997  58.77  0.001086529    1.465    0.317
        96  -9.4201     79.0623    163.8292   1.1717672036e+02   3.1584535401e+01    0.2467183    0.1946214 -55.32  0.001447936    1.337    0.252
        97  -9.3985     48.2741    163.1146   1.2430429811e+02   3.5683400737e+01    0.2068752    0.1880794  72.03 0.0003202718    1.153    0.133
        98  -9.9551     89.6950    164.0953   1.1470082765e+02   2.9963196817e+01    0.3746776    0.1671258 -56.00  0.001637803    2.198    0.545
        99  -9.1074     79.0094    157.3365   1.1623890232e+02   3.3042084540e+01    0.3131597    0.1785939 -73.26 0.0009858365    1.848    0.459
       100  -7.8151     90.4870    154.4334   1.1297946913e+02   3.1989694084e+01    0.2345462    0.1306636 -64.41   9.9829e-05    1.810    0.448
       101  -8.1671    224.4229    148.1659   8.2294128401e+01   7.6402289054e+00    0.2328334    0.1875543  36.73 0.0005566137    1.259    0.206
       102  -7.4847    210.4582    146.5182   8.4483605269e+01   1.0645396251e+01    0.1416662     0.130924  -2.77 0.0002389265    1.036    0.034
       103  -7.5312     68.3172    144.6705   1.1696821928e+02   3.7408073643e+01    0.1401047   0.09405404  74.35 0.0002751063    1.683    0.406
       104  -9.1188    222.9718     93.3000   6.9490570679e+01   1.6821301960e+01    0.2533517     0.247865  47.83 0.0003645516    1.105    0.095
       105  -7.6372      2.2926     89.6688   1.2758131803e+02   5.6380460702e+01    0.1157877   0.07714109  77.24 0.0006953131    1.631    0.387
       106  -7.4822    184.3890     77.8179   7.2023796387e+01   2.8416660907e+01    0.2089948    0.1448011 -20.60 0.0003646104    1.595    0.373
       107  -7.3899    249.2917     76.3005   6.1550237984e+01   1.3688977703e+01    0.1307004    0.1028074   9.00 0.0003464806    1.566    0.361
       108  -8.7663      4.8167     70.1666   1.2367220318e+02   6.0617134818e+01    0.1679884    0.1076814 -48.70 0.0007088424    1.306    0.234
       109  -8.9537    124.0143     58.4862   7.9425557809e+01   4.6226027264e+01    0.2643571    0.2120528 -33.38  0.001342309    1.231    0.187
       110  -8.2536     94.7771     52.3327   8.5659259617e+01   5.3457307721e+01    0.2345113     0.177392 -40.22 0.0004805911    1.312    0.238
       111  -7.3827     37.9878     50.2151   1.0570109786e+02   6.2379708837e+01    0.1525249    0.1016159  23.03 0.0008725914    1.703    0.413
       112  -8.3454    219.5183     44.2211   5.7234263206e+01   2.4851417894e+01    0.3114748     0.206061 -45.78 0.0009795378    1.429    0.300
       113  -8.1731     77.3605     29.2308   8.2264007365e+01   6.0475695508e+01    0.1856724    0.1155179 -38.97 0.0004986218    1.652    0.395
       114  -7.1477    165.7168     26.4010   5.9670013130e+01   4.0568738904e+01     0.153928    0.1014756 -58.32 0.0006991444    1.778    0.438
       115  -8.7873     84.9695     21.5077   7.6363208298e+01   6.0108001050e+01    0.2463358    0.1847306 -21.76 0.0004329312    1.281    0.219
       116  -7.2443     30.0543     22.2438   9.8694271448e+01   6.8417197416e+01    0.1353099    0.0949393  15.86 0.0003038686    1.491    0.329
       117  -7.4341     50.4494     21.4306   8.9105528635e+01   6.6012484986e+01    0.1264052    0.1034476 -10.30   0.00015318    1.005    0.005
       118  -9.3219     75.1415     17.9526   7.8011981105e+01   6.2440251302e+01    0.2709348    0.2218363 -22.24 0.0004795158    1.209    0.173
       119  -7.8339    161.3313     15.3371   5.6769897471e+01   4.2899385305e+01    0.1515961   0.09715877  34.98 -0.000106053    1.737    0.424
       120  -8.5440    133.5710    248.0241   1.1651582598e+02   7.6760354988e+00    0.2564841    0.2481935 -61.77  0.002041523    1.320    0.243
