#   1 NUMBER                 Running object number                                     
#   2 MAG_AUTO               Kron-like elliptical aperture magnitude                    [mag]
#   3 X_IMAGE                Object position along x                                    [pixel]
#   4 Y_IMAGE                Object position along y                                    [pixel]
#   5 X_WORLD                Barycenter position along world x axis                     [deg]
#   6 Y_WORLD                Barycenter position along world y axis                     [deg]
#   7 A_WORLD                Profile RMS along major axis (world units)                 [deg]
#   8 B_WORLD                Profile RMS along minor axis (world units)                 [deg]
#   9 THETA_WORLD            Position angle (CCW/world-x)                               [deg]
#  10 FWHM_WORLD             FWHM assuming a gaussian core                              [deg]
#  11 ELONGATION             A_IMAGE/B_IMAGE                                           
#  12 ELLIPTICITY            1 - B_IMAGE/A_IMAGE                                       
         1 -11.3201    220.8122     15.0578   4.8578870729e+01   2.7513003588e+01    0.7388821    0.4841751 -17.05  0.003639679    1.640    0.390
         2  -9.8312    223.2299      6.2482   4.5897744256e+01   2.7796446456e+01    0.5440962    0.4219649  71.26  0.002414192    1.276    0.216
         3 -11.8490    224.1390     24.2927   5.0811236607e+01   2.5662476621e+01     1.348376    0.8586158  23.46  0.005874087    2.146    0.534
         4 -11.6720    248.0247     31.4561   5.0267552461e+01   1.9052911712e+01     1.004049    0.5290693 -47.71  0.004662055    1.834    0.455
         5  -9.7603    231.7805      2.4892   4.4153306121e+01   2.6025027774e+01    0.4344449    0.2162666 -84.61   0.00142548    2.332    0.571
         6 -10.9416    250.1292     18.7304   4.6834657197e+01   1.9972333897e+01    0.7486804    0.2527885 -20.98  0.002604365    3.215    0.689
         7 -11.0942    246.0123     13.1543   4.5765683223e+01   2.1523123969e+01    0.7287794    0.3070915  65.65   0.00318064    2.356    0.576
         8 -11.7106    235.5013      9.0332   4.5577306559e+01   2.4468580552e+01     1.193296    0.6461303  30.75  0.005017707    2.798    0.643
         9 -11.0236    248.9489      5.1402   4.3513740537e+01   2.1643435852e+01    0.6988926    0.3663566 -24.18  0.003398484    1.850    0.460
        10 -10.9091    244.1598     21.8400   4.8157678712e+01   2.1036830060e+01    0.4665008    0.3418016  -5.09  0.001274315    1.592    0.372
        11 -11.5879    239.3066     17.6332   4.7505341782e+01   2.2651700594e+01    0.6421281    0.5510927  89.95  0.003819688    1.173    0.148
        12 -10.7329    202.9645     26.2232   5.3869144442e+01   3.0902513992e+01    0.8432961    0.5224263  28.87  0.003104798    2.084    0.520
        13 -11.2882    228.0788     33.6776   5.2967906743e+01   2.3589500500e+01    0.9174225    0.4483265 -43.32  0.003911398    1.958    0.489
        14  -9.7883    147.6289     18.3804   5.9867249163e+01   4.6586120443e+01     0.460362    0.1292491 -26.69  0.001446449    3.418    0.707
        15  -9.7405    198.3980      9.5830   4.9372188146e+01   3.3919569393e+01    0.5804597    0.3013644  -4.02  0.002284547    2.651    0.623
        16  -9.7430    199.8048     14.9393   5.0842936351e+01   3.2994159467e+01     0.349776      0.30045  45.42 0.0009627371    1.216    0.177
        17  -9.6325    201.5265     11.5307   4.9610413441e+01   3.2892599309e+01    0.2806091    0.1687309  52.56 0.0008433972    1.666    0.400
        18  -9.3901    207.7941     13.3038   4.9443236047e+01   3.1059571976e+01    0.2477835    0.1696114  22.46 0.0006106622    1.851    0.460
        19  -8.6339    172.8408     14.3927   5.4225240894e+01   4.0293798183e+01    0.2161574     0.122356  54.88 0.0007476869    1.654    0.396
        20  -9.8602    186.3348      8.7490   5.0537915677e+01   3.7231331509e+01     0.593923    0.2405027 -51.54  0.002065823    3.040    0.671
        21 -10.4142    155.2173      8.9330   5.5017506973e+01   4.5597047460e+01     0.510468    0.1842934 -27.44  0.001856062    2.672    0.626
        22 -10.6704     67.8169     11.4531   7.8681816733e+01   6.5416349240e+01    0.3650601    0.2381057 -16.38  0.001737507    1.521    0.343
        23  -8.8338     84.5083     10.0564   7.2049264250e+01   6.2479862044e+01    0.2077239    0.1240956 -25.94  0.001034524    1.595    0.373
        24  -9.7039    206.4959      6.8395   4.7674969827e+01   3.2052243425e+01    0.3172487     0.207056 -41.40  0.001497748    1.485    0.327
        25  -8.5772    148.2935      8.3200   5.5946763749e+01   4.7498137221e+01    0.1537728    0.1020516  32.43 0.0003251806    1.609    0.379
        26  -9.2204    102.5996      6.7637   6.5117555716e+01   5.8999524712e+01    0.1969069    0.1209319 -32.96 0.0009557765    1.665    0.399
        27  -9.5264    116.4703      6.4829   6.1547353713e+01   5.5778921580e+01    0.1404406    0.1302046  26.30 0.0001109203    1.018    0.018
        28  -9.3839    111.1507      5.4364   6.2338158071e+01   5.7160724697e+01    0.2279721    0.1594401 -25.70 0.0003506907    1.444    0.308
        29  -9.4651    171.4573      5.0829   5.1243930171e+01   4.1602131001e+01    0.2132711    0.1432774 -21.00 0.0007699312    1.567    0.362
        30 -10.8201    213.0340      8.5502   4.7511248464e+01   3.0178841908e+01     0.520079    0.3867493 -24.34  0.002758172    1.374    0.272
        31 -10.0474     64.0310      2.2345   7.5324987094e+01   6.7318507575e+01     0.240806    0.2002228  -5.88 0.0009612469    1.030    0.030
        32  -9.0580    190.2154      1.8608   4.7894306930e+01   3.6844570652e+01    0.1931446    0.1913452  -2.66 0.0008465433    1.087    0.080
        33  -9.0634    155.7423    215.9818   1.0640042054e+02   1.1208539587e+01    0.1298841    0.1046864 -48.77 0.0008964164    1.583    0.368
        34  -8.5444    209.3509    250.3134   1.0174067253e+02  -1.1196255016e+00      0.11126   0.06316885  22.43 0.0007046105    1.726    0.421
        35  -8.9428    109.4071    216.2782   1.1484527978e+02   1.8374588322e+01    0.1371116    0.1013918 -89.88 0.0008729362    1.505    0.336
        36 -10.0410    232.6732    212.9377   9.2712342112e+01  -8.9547657709e-01    0.2644542    0.2061848  -6.23  0.001267356    1.313    0.238
        37  -9.8705    186.5189    213.0195   1.0052268716e+02   6.5509570292e+00    0.2536367    0.2116989 -65.56  0.001455377    1.768    0.434
        38  -9.9255    132.4084    213.8979   1.1038283153e+02   1.5243001665e+01      0.22452    0.1588067  55.75 0.0008809018    1.217    0.179
        39  -8.8308    160.5004    218.5055   1.0587239737e+02   1.0089558424e+01    0.1191416   0.09264195  42.84 0.0008106709    1.004    0.004
        40  -9.7306    207.7271    209.3480   9.6300978658e+01   3.4998458774e+00    0.3422331    0.1808802  57.69  0.001595453    3.030    0.670
        41  -8.8360     86.4833    208.5041   1.1830776679e+02   2.2916089429e+01    0.1167076   0.08633763  61.80 0.0008096797    1.062    0.058
        42  -9.6978    235.5172    203.9564   9.0801156449e+01  -3.9606792278e-01    0.2038394    0.1465597  45.40 0.0007292762    1.505    0.335
        43  -9.1918    187.8890    203.7398   9.8906969058e+01   7.5220713373e+00    0.2025533    0.1601068 -86.78  0.001219133    2.135    0.532
        44  -9.3060    173.5314    203.7401   1.0149836633e+02   9.9660765780e+00    0.1476697    0.1193038 -65.40 0.0009500468    1.710    0.415
        45  -9.1687     65.0000    202.9527   1.2182540459e+02   2.6697893876e+01    0.1606996   0.05772371 -70.41 0.0007977664    2.910    0.656
        46  -9.1873    249.8479    200.9899   8.8012637437e+01  -2.3319089460e+00    0.2919649    0.1512978 -26.86  0.001658393    2.048    0.512
        47 -10.6003    248.0719    194.0159   8.7095790092e+01  -1.3319147866e+00    0.3682716    0.2675568  51.23  0.001803342    1.796    0.443
        48  -9.4746    218.5304    201.9765   9.3293761629e+01   2.5820392243e+00     0.158135    0.1146443 -27.11  0.001022618    1.577    0.366
        49  -8.7551    198.3208    202.6707   9.6893020662e+01   5.8882867428e+00     0.113181   0.09150752  65.76 0.0003184026    1.691    0.408
        50  -9.1101    193.3945    202.2655   9.7700114209e+01   6.7776507304e+00    0.1426444    0.1174076 -50.70 0.0006059629    1.640    0.390
        51  -8.9053    160.3842    202.2213   1.0370067412e+02   1.2417702867e+01    0.1443401    0.1172811 -68.92  0.000562126    1.613    0.380
        52  -9.7903    241.3435    200.1088   8.9216582206e+01  -9.1073548120e-01    0.2630263    0.1863467  27.18   0.00175721    1.115    0.103
        53 -10.1116    229.4456    199.2118   9.1008413295e+01   1.1022688535e+00    0.3793121    0.2139544 -17.02  0.002130284    2.066    0.516
        54  -9.6327    231.2709    194.2417   8.9862472169e+01   1.3642642519e+00    0.2286607    0.1673545  43.10 0.0009600163    1.381    0.276
        55  -9.4054    222.8331    201.1387   9.2431390301e+01   1.9684946720e+00    0.1745449     0.147263  35.74  0.001017537    1.239    0.193
        56  -9.4608    164.8303    200.8158   1.0267352414e+02   1.1867123365e+01    0.1725368    0.1327024  58.16  0.001087688    1.341    0.254
        57  -9.0399     16.4749    201.4483   1.3050760778e+02   3.2266607053e+01    0.1024956   0.07193387  69.77 7.946858e-05    1.011    0.011
        58  -9.2364    192.3775    198.1497   9.7235565672e+01   7.4922653467e+00    0.1485826    0.1176081 -50.29  0.000843236    1.685    0.406
        59  -9.2922    203.9522    197.5463   9.5084753945e+01   5.5779655189e+00    0.1928356    0.1005456  40.85  0.001023031    1.577    0.366
        60  -9.5074    184.7888    196.6727   9.8373824237e+01   9.0081309491e+00    0.2221229    0.1781399 -53.02  0.001423098    1.644    0.392
        61  -9.0977    176.4701    196.9599   9.9943495523e+01   1.0415442161e+01    0.1525187    0.1093056 -78.08 0.0008091229    2.485    0.598
        62  -9.0330    209.6902    195.6962   9.3777547509e+01   4.8274670127e+00    0.2105309    0.1513948 -59.74  0.001182889    2.430    0.588
        63 -11.1873    237.8823    190.5572   8.8133209024e+01   6.9022950946e-01    0.5361669    0.2728498 -34.89  0.002910154    2.245    0.555
        64  -8.8681    162.6717    193.3552   1.0197736223e+02   1.3350354240e+01    0.1259802   0.09181905  70.69 0.0007045594    1.778    0.437
        65  -9.3903    224.1127    191.4914   9.0588189149e+01   2.8822326958e+00     0.211351    0.1581242 -46.89 0.0009878422    1.923    0.480
        66  -8.8499    215.6871    191.9846   9.2113402070e+01   4.2593548659e+00    0.2337101    0.1462169  61.70 0.0009890125    2.624    0.619
        67  -9.6672    198.7218    191.9761   9.5096510674e+01   7.2075321243e+00    0.1769748    0.1513415  24.22  0.001177049    1.063    0.059
        68  -8.9965    194.1655    188.1470   9.5279579827e+01   8.5305180738e+00    0.1726165     0.135731  51.70  0.001061452    1.337    0.252
        69  -9.8860    249.4468    184.6338   8.5210717981e+01  -5.4427653538e-01    0.3030662    0.2218864 -37.29  0.001867843    1.775    0.437
        70 -10.0594    224.7841    184.9185   8.9320842629e+01   3.5593991581e+00    0.2437467    0.2158462 -38.49  0.001148612    1.496    0.331
        71  -9.0556    218.5617    184.3045   9.0279271481e+01   4.7174139841e+00    0.2456466    0.1878754 -88.88  0.001266257    2.886    0.653
        72  -9.3446    210.7998    183.2857   9.1455583777e+01   6.2180580239e+00    0.2134124    0.1816796  -1.79  0.001398408    1.189    0.159
        73  -9.8640    203.7982    184.5841   9.2929490312e+01   7.2948304433e+00    0.1819527    0.1078245  50.56 0.0009504536    1.720    0.419
        74  -9.6135    106.0033    184.1976   1.1190217724e+02   2.4358352645e+01    0.2170648    0.1143397  61.07 0.0008230724    2.033    0.508
        75 -10.5011    242.1461    180.6201   8.5652126949e+01   1.1099183952e+00    0.4385134    0.2497392 -35.10  0.002111325    1.996    0.499
        76  -9.6120    245.6544    178.3071   8.4657221340e+01   7.8673811959e-01    0.2216768    0.1741317  53.06  0.001310034    1.679    0.404
        77 -10.5366    157.4376    179.0670   1.0076311944e+02   1.6536391948e+01    0.3100084     0.256755 -21.96  0.001213241    1.500    0.333
        78  -9.2589    236.0928    180.9921   8.6713292339e+01   2.0899756360e+00    0.2440405    0.1624763 -17.11   0.00145769    1.537    0.349
        79 -10.5851    227.3132    179.4610   8.7904711469e+01   3.7893283205e+00    0.4738754    0.2483272  47.08  0.001846898    1.861    0.463
        80  -8.8202    250.5324    179.0698   8.4019064485e+01  -1.0826157196e-01    0.1724567    0.1088402 -21.91  0.001025178    1.573    0.364
        81 -10.1697    218.2628    177.9520   8.9185420187e+01   5.5797725675e+00    0.4668011    0.2284844  58.12  0.001868339    3.484    0.713
        82  -9.0753    152.1861    178.1697   1.0166496287e+02   1.7632778995e+01    0.1797324    0.1388972  60.84 0.0004682823    1.316    0.240
        83  -9.0481    197.6425    176.8474   9.2679361352e+01   9.4792365271e+00    0.1662876     0.120343 -47.44 0.0009387099    1.744    0.427
        84 -10.1867    233.6849    174.6370   8.5936038088e+01   3.2673646688e+00    0.3143845    0.2362471 -30.42  0.001367018    1.484    0.326
        85 -10.0778    225.4840    172.2892   8.6882701692e+01   5.0133182786e+00    0.3109423    0.2431187  -7.69  0.001933288    1.265    0.209
        86  -8.8222    222.7697    168.0208   8.6537063651e+01   6.0579906371e+00    0.1854607    0.1678881  82.35  0.001075349    1.639    0.390
        87 -10.6555    212.7030    169.4332   8.8577942362e+01   7.7241262255e+00    0.3951505    0.2632738 -25.76  0.001842928    1.617    0.382
        88  -9.8523    213.1681    163.8763   8.7425881696e+01   8.4027566899e+00    0.3002612    0.1715466  39.01  0.001381272    1.561    0.359
        89  -9.9003    237.4023    169.6740   8.4374903832e+01   3.2218608200e+00    0.2134475    0.1754372 -15.16 0.0007506753    1.232    0.189
        90  -9.5807    170.1103    169.2295   9.6576935455e+01   1.5797739334e+01    0.2393904    0.1757908 -77.40  0.001229213    2.111    0.526
        91 -10.1917    147.4032    167.7894   1.0093502813e+02   2.0285910940e+01    0.2486756    0.2065452  48.51 0.0005080659    1.061    0.058
        92  -9.5857    249.2358    167.1976   8.1973981685e+01   1.4640984081e+00    0.1522768    0.1469381  14.02 0.0007782991    1.393    0.282
        93 -10.3633    193.2287    165.9697   9.1497710128e+01   1.1897484470e+01    0.2976111    0.2523865 -25.84  0.001035685    1.288    0.223
        94  -9.6228    234.2167    164.4471   8.3891152323e+01   4.4385053595e+00    0.2664669    0.2075279 -53.35  0.001204315    1.935    0.483
        95  -9.5934    240.5033    163.0485   8.2573920018e+01   3.4871480185e+00    0.3172914    0.1650157 -26.38  0.001608135    1.949    0.487
        96  -9.3113    246.4717    162.5182   8.1500121195e+01   2.4980264488e+00    0.1741444    0.1111472 -35.14 0.0009439481    1.736    0.424
        97  -8.9105    250.6611    158.3146   7.9995390249e+01   2.2693772636e+00    0.2025764   0.09900616 -41.55 0.0007240854    2.629    0.620
        98 -10.3236    246.4839    157.9877   8.0595235414e+01   3.0453373537e+00    0.5528427    0.2115018  39.88  0.002125415    2.424    0.587
        99  -9.1629    221.9724    162.4710   8.5594893527e+01   6.9422777594e+00    0.1725555    0.1154874  67.25 0.0008097776    2.546    0.607
       100  -8.8795    236.9500    158.9622   8.2347305675e+01   4.6383525543e+00    0.1578042    0.1324033   9.98 0.0009886172    1.025    0.024
       101  -9.8854    226.4793    156.7041   8.3661858067e+01   6.8716525778e+00    0.3092134    0.2157364   3.49  0.001156836    1.544    0.352
       102 -10.6585    230.4531    141.2218   7.9747257098e+01   8.2122667124e+00    0.3870383    0.2728451 -26.51  0.001347498    1.405    0.288
       103 -10.0071    229.6213    147.6399   8.1254165613e+01   7.4970625796e+00    0.3054343    0.2177601 -33.82 0.0007627981    1.484    0.326
       104  -9.7080    234.8288    147.7969   8.0410016017e+01   6.4822046406e+00    0.2572651    0.1860695 -32.58 0.0008531937    1.453    0.312
       105  -9.3536    233.2673    152.3705   8.1622223532e+01   6.1720703828e+00    0.3258506    0.2119341 -15.83  0.001724929    1.588    0.370
       106  -9.3910    229.1978    152.1780   8.2271231712e+01   6.9653357179e+00    0.2654597    0.2269452  31.07 0.0009716197    1.125    0.111
       107  -9.2157     41.3848    157.7361   1.2276138690e+02   3.8164930534e+01    0.1518895   0.09230716 -68.38 0.0003865426    1.555    0.357
       108 -11.7691    241.7606    133.2579   7.6147851983e+01   7.0852466749e+00    0.7340103    0.5465542  -9.95    0.0033649    1.286    0.222
       109 -10.1559    249.9129    140.1916   7.6360374306e+01   4.6390672456e+00    0.4395217    0.2426156  31.79   0.00132822    1.830    0.454
       110 -10.5768    249.9036    151.0058   7.8630111072e+01   3.2909592757e+00    0.5054015    0.3013597 -33.02  0.002010108    1.719    0.418
       111 -10.2708    242.9698    152.9929   8.0148267587e+01   4.2973134495e+00    0.2898905    0.2653586 -21.03  0.001311381    1.280    0.219
       112 -11.3688    244.1416    148.5709   7.9044934738e+01   4.6421568756e+00      0.52263     0.353435 -29.21  0.001924577    1.479    0.324
       113 -10.6323    249.1530    134.7022   7.5295507108e+01   5.4815527474e+00    0.3684835    0.2326914 -34.46  0.001210212    1.606    0.377
       114 -10.1877    248.7866    130.5836   7.4450318496e+01   6.0834451075e+00     0.301342    0.2349328  65.61  0.001309541    1.767    0.434
       115  -9.8056    221.7434    153.0004   8.3728062706e+01   8.2772876561e+00    0.2871857    0.2334387 -45.00  0.001160438    1.523    0.344
       116  -8.5435    206.3229    153.2866   8.6555725030e+01   1.1242792420e+01    0.1397305   0.09665117  17.46  0.000700588    1.601    0.375
       117 -10.3203    197.1995    149.4012   8.7464081461e+01   1.3651600918e+01    0.5436155    0.2290031 -48.56  0.002015543    3.355    0.702
       118  -8.6192     35.4488    150.4844   1.2342927109e+02   4.0289203849e+01    0.1173121   0.09083934  80.26 0.0001173224    1.026    0.025
       119  -9.4684    191.7222    148.3926   8.8306154657e+01   1.4918028361e+01    0.2450787    0.1688482 -47.34  0.001245326    1.699    0.411
       120  -9.7932    218.5977    147.1583   8.3065592899e+01   9.7108999024e+00    0.3910635    0.1567822  42.34  0.001600664    2.319    0.569
       121 -11.1086    205.5032    147.4586   8.5500500137e+01   1.2276577165e+01    0.5153014    0.2741564  41.92  0.002390326    1.732    0.423
       122  -9.4878    111.8925    147.2970   1.0524823233e+02   3.0554099799e+01    0.2293857    0.1803156 -79.18  0.001192607    1.342    0.255
       123  -8.8578     16.7704    147.0101   1.2733024615e+02   4.2738167453e+01    0.1466447   0.07456947 -80.82 0.0006222734    1.612    0.380
       124  -8.3042     88.7006    143.3406   1.1007501586e+02   3.5128585432e+01    0.1374842   0.09169236  75.43 0.0004102015    1.667    0.400
       125 -10.0473      8.8836    141.1514   1.2868620319e+02   4.4588741921e+01    0.1803611    0.1155044  74.38  0.001233951    1.268    0.211
       126 -10.8719    225.2484    138.3227   8.0006726745e+01   9.6455921540e+00    0.4383073    0.2564942 -25.26  0.002133925    1.749    0.428
       127 -10.3551    224.1760    146.1891   8.1883444701e+01   8.7522253811e+00    0.3351372    0.2908765  12.46  0.001251578    1.020    0.019
       128 -10.1135    219.5152    138.8487   8.1120595179e+01   1.0722417158e+01    0.3645538    0.2681134  81.94  0.001320416    2.405    0.584
       129 -10.0520    216.2088    135.4020   8.0948364816e+01   1.1900753815e+01    0.3502136    0.1764325  40.53  0.001544959    1.907    0.476
       130 -10.6375    208.5584    137.7723   8.2856137384e+01   1.3121669629e+01    0.4117024    0.1868259  52.78  0.001665622    2.354    0.575
       131 -10.1533    233.7508    134.8656   7.7809473883e+01   8.4370033154e+00    0.3658524    0.2872303 -14.22  0.001531719    1.215    0.177
       132  -9.1676    233.7165    130.3124   7.6804026956e+01   9.0719234462e+00    0.2443195    0.1747062 -37.77 0.0009573722    1.491    0.329
       133  -8.7775    164.6166    136.1814   9.1240039296e+01   2.2595371121e+01     0.190827    0.1369168 -29.23 0.0008962692    1.600    0.375
       134  -9.1862     52.8911    135.8178   1.1775138231e+02   4.1550903561e+01    0.1749574     0.156919 -69.56 0.0006652633    1.230    0.187
       135  -9.7931    169.8421    134.2831   8.9720103865e+01   2.1842286876e+01    0.2411189    0.2060172  -7.46 0.0005924593    1.323    0.244
       136  -9.2007    140.9315    135.0000   9.6224932955e+01   2.7646685389e+01    0.2421737   0.07715662  44.69 0.0008054025    2.963    0.663
       137 -10.0433     86.5271    129.6027   1.0838056435e+02   3.8421653827e+01    0.3335485    0.2138048  82.52  0.001623631    1.951    0.487
       138  -9.5278    221.3339    129.1621   7.8645657330e+01   1.1761205437e+01    0.2618967    0.2022397  54.09 0.0007670029    1.420    0.296
       139  -8.8877     61.9986    129.5298   1.1462497970e+02   4.1837609915e+01    0.1708345     0.120922  40.28 0.0003752157    1.494    0.331
       140 -10.2005    206.4211    126.5597   8.0724785543e+01   1.5302950737e+01    0.2817473    0.2548221  37.05 0.0006165755    1.089    0.082
       141 -10.7990    212.0545    124.8019   7.9289367760e+01   1.4368544289e+01    0.5136362    0.3901938  -9.69  0.002686956    1.398    0.285
       142 -10.1263    193.2847    127.7729   8.3497562769e+01   1.7940090109e+01    0.2665046    0.2259812 -70.06 0.0009534057    1.520    0.342
       143  -9.3735     69.0018    128.0261   1.1260626555e+02   4.1266590311e+01    0.1984004    0.1728394 -88.04 0.0005428215    1.018    0.017
       144 -10.0661    228.9995    125.4530   7.6490323167e+01   1.0712872185e+01    0.3533435    0.2637857  22.85  0.001901435    1.341    0.255
       145 -10.5233    199.5887    126.2261   8.1927900822e+01   1.6828049172e+01    0.3573176    0.2803641  76.14   0.00179354    1.726    0.421
       146 -10.8232    241.3011    124.4211   7.4247132517e+01   8.3626807192e+00    0.3773462    0.3591856  83.49  0.001814409    1.376    0.273
       147  -9.9140    189.2555    123.2570   8.3239260957e+01   1.9571124281e+01      0.36467    0.2622872 -36.87  0.001815574    1.439    0.305
       148  -9.4554    161.5017    124.1654   8.9242656624e+01   2.5466426787e+01    0.2471046    0.2011952  50.58 0.0005632618    1.187    0.158
       149  -9.6067    222.0069    121.0440   7.6659469444e+01   1.2813406773e+01      0.29618    0.2028124  52.13  0.001268219    1.528    0.345
       150 -10.1657    197.6489    120.8579   8.1039222856e+01   1.8121916627e+01    0.4883521    0.1948428  34.09  0.001500431    3.829    0.739
       151 -11.1775    225.6395     72.8950   6.3959735983e+01   1.9041575512e+01     1.055994    0.6986784 -88.40  0.004600603    2.275    0.560
       152 -11.3239    225.1490     64.0903   6.1667927713e+01   2.0386372443e+01    0.9420462    0.6824833 -54.45  0.004657437    1.519    0.342
       153 -12.0796    230.5932     94.1937   6.8716538180e+01   1.4862672768e+01    0.9551473    0.6830444  69.15  0.003977482    1.735    0.424
       154 -10.9773    225.9610     86.2320   6.7411129373e+01   1.7059310050e+01     0.852212    0.4486811 -16.43  0.003397196    2.319    0.569
       155 -11.2262    249.1733     65.6644   5.8880161885e+01   1.4601260685e+01     1.246765    0.3621307 -36.92   0.00440273    2.912    0.657
       156  -9.9562    236.1548     59.8261   5.9027861490e+01   1.8340895871e+01    0.5168938    0.2630112  68.52  0.001889688    2.305    0.566
       157 -10.9571    240.1594     66.9296   6.0358342794e+01   1.6471856640e+01    0.6838397    0.5561317 -48.75  0.003771648    1.258    0.205
       158 -11.2380    241.8502    104.7557   6.9574122678e+01   1.0940223127e+01    0.8437321    0.5605813 -53.58  0.004080804    1.981    0.495
       159 -11.1639    237.2849     89.6837   6.6566079024e+01   1.4014284135e+01    0.6948545    0.5031656  83.92  0.003397099    1.974    0.493
       160 -10.2955    238.0474     84.1011   6.5048811907e+01   1.4619684527e+01    0.4602679    0.3118732 -52.98  0.001443408    1.743    0.426
       161 -10.2631    232.0682     83.1362   6.5681235290e+01   1.6102772210e+01       0.5399    0.3201673 -49.54   0.00240285    1.954    0.488
       162 -12.7581    247.4641    106.9525   6.9253689199e+01   9.4771384363e+00     2.034402    0.6966105 -30.03  0.007701771    2.683    0.627
       163 -12.2142    245.2988     81.2561   6.3310736774e+01   1.3402969325e+01     1.313608    0.6928442 -44.60  0.005814762    2.005    0.501
       164 -10.8821    235.5414     74.5216   6.2954519109e+01   1.6506307124e+01    0.8140749    0.2693382 -37.33    0.0026714    2.720    0.632
       165  -8.5992    124.9762    119.9631   9.6803589263e+01   3.3822912533e+01    0.1681636    0.1608695 -79.30 0.0003632769    1.042    0.040
       166  -8.7109    114.5639    120.5239   9.9520014503e+01   3.5673797441e+01    0.1392817    0.1334069  85.18 0.0001304855    1.025    0.025
       167 -10.8671    230.5696    115.8525   7.3999158094e+01   1.1757119090e+01    0.5516302    0.3871832  50.60  0.002866295    1.484    0.326
       168 -10.6359    235.5056    116.0005   7.3232056026e+01   1.0703303423e+01    0.4750406    0.2278176 -32.90  0.001964799    1.986    0.496
       169 -10.9169    214.7571    107.5725   7.4678651581e+01   1.6420789380e+01    0.7374481    0.5010665 -57.95  0.003371246    2.014    0.504
       170 -10.0300    217.4802    115.4821   7.6127879189e+01   1.4616329899e+01    0.4659021    0.2311691  53.44  0.001956519    2.105    0.525
       171 -11.5460    213.2932    115.1657   7.6789324042e+01   1.5579540163e+01    0.7397484    0.3864132  23.76  0.002649761    3.129    0.680
       172  -8.9352    203.6569    115.5247   7.8627434111e+01   1.7653368031e+01    0.2372047     0.134191 -33.37 0.0007517837    1.781    0.438
       173  -9.4328    182.3599    116.1826   8.2933037812e+01   2.2313618102e+01    0.2133438     0.134974 -46.14 0.0008083796    1.717    0.418
       174  -9.3971     52.2279    113.3968   1.1482613579e+02   4.6620161219e+01    0.2375811    0.1525342 -68.91 0.0009464246    1.364    0.267
       175 -10.1954    104.5203    111.5968   1.0019221100e+02   3.9408147312e+01    0.2401609    0.2252928  66.09 0.0005103375    1.057    0.054
       176  -9.9689     15.0583    111.9372   1.2478062332e+02   5.0406531181e+01    0.1768667    0.1363519  88.80 0.0004746809    1.053    0.050
       177  -9.3789    190.1646    108.8162   7.9549211539e+01   2.1805593050e+01    0.2151635    0.1738069  15.11 0.0007213796    1.364    0.267
       178 -10.0952    183.2262    108.4516   8.0841309125e+01   2.3459701836e+01    0.2923095    0.2122523 -33.85  0.001409217    1.406    0.289
       179  -8.4199    123.6838    109.3483   9.4700801265e+01   3.6291795046e+01    0.1517649    0.1139219  88.54 0.0007047741    1.726    0.421
       180 -10.4898    235.7327    107.7611   7.1241563591e+01   1.1813623080e+01    0.4264362    0.2440291  61.91  0.001711818    2.190    0.543
       181  -8.7449    197.6449    108.2785   7.7970561361e+01   2.0182882022e+01    0.1454803    0.1185905 -82.90 0.0005994617    1.654    0.395
       182  -9.0906     73.9499    108.4764   1.0791174850e+02   4.4969885362e+01    0.1899448    0.1300723  40.24 0.0009862225    1.552    0.356
       183  -8.7977    104.4899    107.5081   9.9289120592e+01   4.0303032529e+01    0.1418795    0.1326326 -87.40 0.0001760875    1.030    0.029
       184 -11.4182    221.6414    101.3965   7.1967678211e+01   1.5812247306e+01    0.5307895    0.2495626 -43.90  0.002097527    2.358    0.576
       185  -9.5302    216.9940     99.9933   7.2397971228e+01   1.7071808063e+01    0.2448148    0.1698329  19.61  0.001138206    1.712    0.416
       186  -8.9070    196.0060    103.0217   7.6948881317e+01   2.1424620367e+01    0.2263558    0.1851486 -80.31 0.0007059507    1.610    0.379
       187  -9.0689    167.3834    100.2292   8.2040639657e+01   2.8587862928e+01    0.2185397    0.1400157 -47.62 0.0008654352    1.668    0.400
       188  -8.4759     70.6854    100.2807   1.0722847400e+02   4.7277336119e+01    0.1331353   0.09704268  76.13 0.0003825411    1.573    0.364
       189  -9.3478    160.6516     99.2293   8.3259667332e+01   3.0329533892e+01    0.2141699    0.1429302 -28.95 0.0008150375    1.658    0.397
       190 -10.0156    130.3636     97.8605   9.0135630463e+01   3.7306714519e+01    0.2654906    0.2163164  40.25 0.0006461087    1.254    0.203
       191  -9.8941    195.8307     97.3443   7.5509269462e+01   2.2399404906e+01    0.2130664    0.1924272 -42.01 0.0009060589    1.152    0.132
       192  -9.7500    177.3890     94.0910   7.8279722353e+01   2.7330687961e+01    0.4396272    0.2573333 -20.76  0.001738973    2.184    0.542
       193  -9.9574     51.2942     95.3753   1.1206221786e+02   5.0821629325e+01    0.2277279    0.1880661 -84.53 0.0002919455    1.127    0.113
       194  -9.4465    216.4121     95.2334   7.1284004733e+01   1.7926129861e+01    0.2147378    0.1292613 -40.45 0.0009560814    1.681    0.405
       195  -8.7941    208.0112     95.2282   7.2732826985e+01   1.9876603415e+01    0.1962514    0.1213181  52.72 0.0007794393    1.631    0.387
       196 -10.6130    216.2862     88.2239   6.9486333584e+01   1.9012907854e+01    0.4518316    0.3212831   7.83  0.002108053    1.730    0.422
       197 -10.3098    200.1083     92.0336   7.3311250960e+01   2.2247611982e+01    0.5799559    0.2252331  59.37  0.001931389    3.038    0.671
       198  -9.7066    171.5106     91.4645   7.8791086547e+01   2.9196393424e+01    0.2285023    0.1495909 -22.21 0.0006827295    1.787    0.440
       199  -9.6892    176.0833     87.0711   7.6616746356e+01   2.8867389621e+01    0.2465239    0.1889568 -72.39  0.001123609    1.705    0.413
       200  -9.4710    139.6060     87.1833   8.4903280119e+01   3.7433339352e+01    0.2124528    0.1445797 -29.81 0.0005605333    1.629    0.386
       201  -8.8685     11.1419     86.1036   1.2301586427e+02   5.6416207099e+01    0.2859892    0.1116924  80.61  0.001088529    4.114    0.757
       202  -9.0298    205.7611     83.5382   7.0021714538e+01   2.2231401213e+01    0.1962699    0.1482232  72.26 0.0004928554    1.560    0.359
       203  -9.1488     88.1410     82.1649   9.7738769090e+01   4.8668341034e+01    0.2030112    0.1839413 -40.52 0.0004172361    1.106    0.096
       204  -8.9759     21.1702     81.2511   1.1914006073e+02   5.6825199973e+01     0.165376    0.1209964  84.75 0.0007242109    1.345    0.256
       205  -9.3468    194.6838     76.3157   6.9983504260e+01   2.6073984104e+01      0.21227    0.1463489 -20.28 0.0005515725    1.560    0.359
       206  -9.7632    119.6348     78.8400   8.7671811929e+01   4.3430259109e+01    0.2625817    0.2053533  35.52  0.001289399    1.362    0.266
       207 -10.3988    214.1658     75.6596   6.6476882008e+01   2.1390633822e+01     0.377212    0.3426659  19.90  0.002066178    1.124    0.110
       208  -9.5326    189.7858     78.0459   7.1375175016e+01   2.7013306230e+01    0.2623715    0.1790669   5.85  0.001093825    2.029    0.507
       209  -9.6705    175.7884     77.4048   7.3916808722e+01   3.0594904962e+01    0.3063477    0.2368921 -58.95  0.001413277    1.493    0.330
       210  -8.4450    126.4866     76.4798   8.5125520233e+01   4.2436242979e+01    0.1482756    0.1462453 -32.28 7.759077e-05    1.002    0.002
       211 -10.0243    201.5634     72.1128   6.7584428859e+01   2.5015634496e+01    0.5091215    0.2455339  68.64   0.00180924    2.764    0.638
       212  -9.7004    181.6674     71.9874   7.1166614454e+01   3.0023204083e+01    0.2206413    0.1963465 -34.77 0.0005777387    1.122    0.109
       213  -8.6519    153.6848     66.3107   7.5279888785e+01   3.7975031806e+01     0.156856    0.1217299 -72.83 0.0003449991    1.635    0.388
       214  -9.1513    198.2202     64.3719   6.5938296803e+01   2.7022845397e+01    0.2754336    0.1706806 -48.74 0.0008338679    1.760    0.432
       215  -9.0453    158.6579     62.1047   7.2844849236e+01   3.7453829070e+01    0.3298752      0.12603 -40.59  0.001107578    2.607    0.616
       216 -10.4801    206.9976     60.2553   6.3318897945e+01   2.5405160699e+01    0.4562425    0.1894742 -37.19   0.00169303    2.264    0.558
       217  -9.5060    134.7508     59.6112   7.7611134003e+01   4.3718130058e+01    0.4045371    0.1681397 -47.06   0.00137602    2.746    0.636
       218  -9.3191     48.0165     60.9924   1.0550787997e+02   5.8905592970e+01    0.1557882    0.1377316 -51.99  0.001004716    1.036    0.034
       219  -9.9869    213.8510     57.3218   6.1440039753e+01   2.4096736943e+01    0.4898809    0.3284107  51.60  0.002283986    1.513    0.339
       220  -9.3997    202.0877     57.5072   6.3303786110e+01   2.7043727311e+01    0.3012088     0.199981  85.75  0.001290043    1.979    0.495
       221 -10.1007    197.0741     58.0425   6.4277761871e+01   2.8248815044e+01      0.51147    0.3071268  72.31  0.002131132    1.968    0.492
       222 -10.3059    199.3178     46.6279   6.0522939768e+01   2.9276951773e+01    0.4890208    0.2338971 -25.11  0.001889349    2.158    0.537
       223 -10.7796    201.2048     53.5863   6.2295407319e+01   2.7826406576e+01    0.4606005    0.2747364  35.03  0.001909948    2.024    0.506
       224  -9.5141    198.2887     51.6328   6.2178857362e+01   2.8852500016e+01     0.309031    0.2259598 -55.44  0.001165142    1.500    0.333
       225 -10.1669    172.1995     58.4474   6.8891986363e+01   3.4600008848e+01    0.5659033    0.3501507  26.16  0.002237502    2.195    0.544
       226  -9.5346    126.4189     58.2018   7.9280614061e+01   4.5900452592e+01    0.2138321    0.1373104 -47.77 0.0008873103    1.642    0.391
       227  -9.8224    250.2913     54.6546   5.5955450107e+01   1.5749071259e+01    0.3081986    0.1825755 -27.47  0.001256026    1.542    0.352
       228  -8.9826    221.1413     53.6418   5.9367495091e+01   2.2784136267e+01    0.3871849    0.3060386  -9.58  0.001989883    1.355    0.262
       229  -8.4205     99.6830     56.7192   8.6417881495e+01   5.1848063635e+01    0.1427516    0.1115663   1.51   0.00030176    1.578    0.366
       230 -11.3390    202.2310     36.0734   5.6929146145e+01   2.9899257850e+01    0.9576136    0.5460931   6.93  0.003066629    2.847    0.649
       231 -10.2881    242.0470     33.7287   5.1459357571e+01   2.0194487266e+01     0.440289    0.2314968 -43.31  0.001664202    1.769    0.435
       232 -10.3999    235.2731     44.5428   5.5075543380e+01   2.0509104155e+01    0.7273038    0.3860508  67.88  0.003226945    2.032    0.508
       233  -9.5828    233.9440    247.5050   9.7554434127e+01  -4.3732608041e+00    0.2547861    0.1432169  52.72  0.001516045    2.571    0.611
       234  -9.5373    133.5266    248.2763   1.1380615868e+02   1.0267489481e+01    0.2633443   0.09322433  58.50 0.0009059247    6.039    0.834
       235 -10.3272    238.7488     38.3027   5.3017126954e+01   2.0438491712e+01    0.3614205    0.2901499  74.45  0.001261928    1.321    0.243
       236  -9.9807    186.5879    246.9363   1.0496225787e+02   2.5738621140e+00    0.2440311    0.1219063  46.83  0.001318086    1.638    0.390
       237 -10.5104    234.9150     31.5120   5.1623994017e+01   2.2166143496e+01    0.5964942    0.3501847  62.21  0.002856632    1.739    0.425
       238  -9.1573    191.4744    245.4349   1.0398940649e+02   2.0042470503e+00    0.1110194   0.07865985  34.63 0.0005260627    1.036    0.035
       239 -10.8712    244.4835     51.3042   5.5770744738e+01   1.7493585830e+01    0.4857757    0.3401869 -62.31  0.001585458    1.629    0.386
       240  -9.9348    224.7942    243.1337   9.8381992055e+01  -2.6793397249e+00    0.3157932    0.1992564  54.13   0.00201727    2.205    0.547
       241 -10.5354    236.0276     53.6357   5.7406313442e+01   1.9177315977e+01    0.6641389    0.3305964  65.55  0.002835294    2.189    0.543
       242 -10.9348    228.6317     51.7375   5.7840683322e+01   2.1198783774e+01    0.5731587     0.470091   0.75  0.002182159    1.345    0.257
       243 -10.5942    249.7868     46.4898   5.3932963737e+01   1.6870092614e+01    0.7105516    0.2259913 -29.18  0.002614859    2.705    0.630
       244 -11.1844    244.2836     41.9761   5.3372503290e+01   1.8687964019e+01    0.5034224    0.3583618 -23.60  0.001551044    1.352    0.260
       245  -9.0042    246.7987    240.8024   9.4668531366e+01  -5.5910037277e+00    0.1342912    0.1010014  34.39  0.000537523    1.333    0.250
       246  -9.5749    239.4319    240.3099   9.5723187438e+01  -4.5172593415e+00    0.2514559    0.1389862  50.05  0.001523434    2.276    0.561
       247  -8.9287    215.1419    240.8610   9.9600349555e+01  -1.0525488885e+00    0.1579356    0.1230797  38.61  0.001210042    1.256    0.204
       248  -8.7716    182.6204    239.7655   1.0474396361e+02   3.9618772464e+00    0.1224581    0.1067117 -62.80 0.0009490296    1.702    0.413
       249  -9.7111    230.9075    236.9640   9.6575293938e+01  -2.9929649969e+00    0.1947874    0.1495928 -28.65 0.0009366236    1.716    0.417
       250 -10.5626    205.9097    236.0018   1.0043679846e+02   8.2160060431e-01    0.3346425    0.2447199  50.84  0.002131699    1.530    0.346
       251  -9.8577    131.5550     54.3286   7.6624024672e+01   4.5394109040e+01    0.2975143     0.139658 -40.26  0.001133477    2.105    0.525
       252  -9.3500    207.7159     53.3993   6.1236690093e+01   2.6187481934e+01    0.2615201    0.1611249 -38.24 0.0004658921    1.568    0.362
       253  -9.6754    163.0655     52.5129   6.8815567434e+01   3.7878609463e+01    0.3122136    0.2039582 -46.78  0.001361236    1.634    0.388
       254  -8.3677     87.6752     49.6946   8.7795211465e+01   5.5450796824e+01    0.1424157    0.1072259  -4.58 0.0007033984    1.645    0.392
       255 -11.1771    214.8065     31.2053   5.3845989812e+01   2.7234135898e+01    0.7597174    0.6263828  86.61  0.004080785    1.258    0.205
       256  -9.9391    219.6028     42.2241   5.6379278859e+01   2.4656668935e+01    0.3078488     0.236468 -10.36 0.0009160597    1.417    0.294
       257 -10.5572    215.8758     41.4298   5.6641404180e+01   2.5699621422e+01    0.6753582      0.37913 -10.93  0.002757711    2.248    0.555
       258 -11.1533    190.4882     41.8257   6.0437498064e+01   3.2238513219e+01    0.6007954    0.4331433   5.36   0.00275397    1.720    0.419
       259 -10.8525    185.8174     37.2229   5.9736713339e+01   3.4085661069e+01    0.6527752    0.2852799 -27.35  0.002440227    2.287    0.563
       260  -9.4478    124.0221     45.5238   7.5441261152e+01   4.8645185018e+01    0.2338507    0.1471247  53.73  0.001041226    1.625    0.385
       261  -8.7665     76.6630     43.7719   8.9417026943e+01   5.8488013629e+01    0.1908327    0.1177179 -49.06 0.0005729934    1.598    0.374
       262  -9.0725    183.5215     43.0951   6.1973604894e+01   3.3904773407e+01    0.2306735    0.1497707 -26.65  0.001021715    1.561    0.359
       263  -9.0217    178.0210     42.8204   6.2829276440e+01   3.5396165468e+01    0.2623464    0.1754152 -76.25  0.001091547    2.032    0.508
       264  -8.9920    134.3307     42.6465   7.1789995879e+01   4.6654885893e+01    0.1583145    0.1170048 -67.02   0.00070461    1.780    0.438
       265 -10.1624    208.2581     39.6150   5.7143273309e+01   2.7882529812e+01    0.4706647    0.3148211  57.75  0.001805043    1.488    0.328
       266  -9.8664    173.8909     39.9161   6.2611803353e+01   3.6890735119e+01     0.250125    0.1769981 -61.49 0.0008618449    1.676    0.403
       267  -9.2992    165.5171     39.6082   6.4040097614e+01   3.9145932561e+01    0.3070041    0.1511916 -27.47   0.00118365    2.074    0.518
       268  -9.2620    161.6767     38.1860   6.4288185502e+01   4.0354580938e+01    0.3631203    0.1935248  -2.52  0.001200787    3.279    0.695
       269  -8.4278     66.3188     39.6863   9.1689543925e+01   6.0905273397e+01    0.1260259    0.1055128 -81.17 0.0007037658    1.650    0.394
       270  -8.8583     61.3565     38.1963   9.3039877700e+01   6.1919890415e+01    0.1893862    0.1128984 -52.33 0.0009462484    1.681    0.405
       271  -8.2570     96.6781     34.3135   7.8967675210e+01   5.6463960566e+01    0.1379214    0.1127159 -70.54 0.0007039774    1.656    0.396
       272  -8.1455     67.6612     34.3255   8.9082058685e+01   6.1698512136e+01    0.1274891    0.1062173 -79.33 0.0007051415    1.726    0.421
       273  -9.0235    199.5650     20.6502   5.2612783975e+01   3.2436946329e+01    0.2564126    0.1460481 -17.26 0.0008254739    1.933    0.483
       274 -10.0635    219.2915    235.5378   9.8214775447e+01  -1.1454719291e+00    0.3311958    0.1533871  38.98   0.00196534    1.610    0.379
       275  -9.1538    193.6626     30.3040   5.6378712669e+01   3.2876026281e+01    0.1579113    0.1083831 -63.39 0.0005527639    1.670    0.401
       276  -8.9156    162.3150     45.6546   6.6694791320e+01   3.9113620154e+01    0.1619162    0.1166651 -64.15 0.0005987848    1.716    0.417
       277  -8.8881    170.4603     29.0880   5.9595253883e+01   3.9229185847e+01    0.2261347    0.1488721 -24.58 0.0008013461    1.563    0.360
       278 -10.2026    174.6925     27.5226   5.8367331358e+01   3.8289899944e+01    0.3013254    0.1892398  -4.09  0.001219405    2.010    0.502
       279  -9.7472    118.5313     25.4508   6.9096297611e+01   5.2985427314e+01    0.2950809    0.1413472 -27.49 0.0008499487    2.102    0.524
       280 -10.3185    143.5839     25.2953   6.3267828505e+01   4.6796715175e+01    0.4275242     0.188805  64.26  0.001582433    2.368    0.578
       281  -8.7343    128.3515     24.6693   6.6375186090e+01   5.0721939794e+01    0.1529452    0.1130936 -65.56 0.0005988374    1.774    0.436
       282  -9.1978    110.1824     23.9861   7.0698463004e+01   5.5121634220e+01    0.2514943    0.1604718   8.67   0.00109373    2.072    0.517
       283  -9.7486    238.5078    231.5370   9.4609610196e+01  -3.5949253232e+00    0.3369511    0.1702214  50.27    0.0018729    2.496    0.599
       284  -8.6035    164.2852     32.6625   6.1902086896e+01   4.0414668256e+01    0.1569757    0.1128023 -59.89 0.0003729924    1.629    0.386
       285  -9.6228    175.9733     20.4959   5.5816629006e+01   3.8776577865e+01     0.227143    0.1428112  67.22 0.0005785689    1.548    0.354
       286  -9.4304    113.6724    231.3251   1.1555680787e+02   1.5462001883e+01    0.1155825   0.06682472  62.82 0.0007049749    1.697    0.411
       287 -10.0564    229.6753    228.2569   9.5521677536e+01  -1.9816747924e+00    0.3868575     0.203038 -39.43  0.002326406    2.666    0.625
       288  -9.4412    229.5299    222.4887   9.4690143125e+01  -1.3880611813e+00    0.2309486     0.154095  35.21  0.001006461    1.190    0.159
       289  -9.4976    227.3182    219.3464   9.4572261919e+01  -7.2908744221e-01    0.2152658    0.1418148   3.67  0.001229061    1.618    0.382
       290  -8.9354    187.2323     16.4241   5.2884835909e+01   3.6195448182e+01    0.1956414    0.1375107  87.56 0.0004372969    1.526    0.345
       291 -10.0691    162.4802     14.9713   5.6021794459e+01   4.3022194812e+01    0.2804103     0.206104 -84.53  0.001303564    1.566    0.361
       292  -9.5703    248.0418    227.2724   9.2499065896e+01  -4.5830446966e+00    0.1820674    0.1482017  17.82 0.0007270402    1.220    0.180
       293  -9.4877    211.3045    228.0237   9.8458199998e+01   8.3622349413e-01    0.1573419    0.1224548  25.42  0.000742535    1.072    0.067
       294  -9.1542    243.7289    236.3764   9.4504086859e+01  -4.7791849229e+00    0.1476416    0.1244674 -20.02 0.0008804922    1.597    0.374
       295  -9.2750    164.4616    228.4771   1.0642812474e+02   8.1393015122e+00    0.2472986   0.08770893  43.05  0.001016623    2.134    0.531
       296 -10.6945    207.9079    224.1806   9.8473046751e+01   1.7801303072e+00    0.3369113    0.2028555  14.32  0.001988959    1.977    0.494
       297  -9.4367     99.1798    225.9274   1.1758887616e+02   1.8331653569e+01    0.1729641    0.1151188  62.01 0.0007808377    1.263    0.208
       298  -9.8531    193.5971    219.2762   1.0018942004e+02   4.6228398606e+00    0.2466461    0.1848073  46.95  0.001683323    1.279    0.218
       299  -9.2050     48.6103    219.7373   1.2592026972e+02   2.5771880944e+01    0.1355269   0.07920931  83.60 0.0009035748    1.553    0.356
       300 -10.6215    247.8072    216.7978   9.0918408087e+01  -3.5780574151e+00    0.3594916    0.3047208 -20.53  0.002468797    1.530    0.347
       301  -9.9089    246.4171    209.8788   9.0027663290e+01  -2.6982088083e+00    0.4788636    0.2249089  14.30   0.00221167    3.118    0.679
       302 -10.8929    238.9615    220.3376   9.2859481858e+01  -2.6001841999e+00    0.3327263    0.3031075  56.73  0.002160695    1.764    0.433
       303  -9.7956     63.2569    216.4160   1.2315573740e+02   2.4595201441e+01    0.1953914    0.1043227  75.30  0.001214735    1.838    0.456
       304 -10.1220    219.1853    215.1626   9.5266873500e+01   9.8791875501e-01    0.2655998    0.1967104  44.81  0.001806916    1.384    0.277
       305 -11.2245    214.4660    214.7233   9.5985194368e+01   1.7887207250e+00    0.3595631    0.2956232 -37.21  0.002099061    1.626    0.385
