#   1 NUMBER                 Running object number                                     
#   2 MAG_AUTO               Kron-like elliptical aperture magnitude                    [mag]
#   3 X_IMAGE                Object position along x                                    [pixel]
#   4 Y_IMAGE                Object position along y                                    [pixel]
#   5 X_WORLD                Barycenter position along world x axis                     [deg]
#   6 Y_WORLD                Barycenter position along world y axis                     [deg]
#   7 A_WORLD                Profile RMS along major axis (world units)                 [deg]
#   8 B_WORLD                Profile RMS along minor axis (world units)                 [deg]
#   9 THETA_WORLD            Position angle (CCW/world-x)                               [deg]
#  10 FWHM_WORLD             FWHM assuming a gaussian core                              [deg]
#  11 ELONGATION             A_IMAGE/B_IMAGE                                           
#  12 ELLIPTICITY            1 - B_IMAGE/A_IMAGE                                       
         1 -10.0242      5.2683     55.7795   1.1003028436e+02   6.3996374169e+01     1.075609    0.5551289 -71.77  0.005387857    1.991    0.498
         2 -12.4990    117.8893     68.8252   7.2360631697e+01   4.5902393995e+01     1.282317     1.140833  32.94  0.003397772    1.114    0.103
         3 -11.1604     76.5859     46.2230   7.7431139569e+01   5.8062208629e+01     1.324397     0.418355 -42.92  0.004638695    3.260    0.693
         4 -11.8760     35.3907     69.1919   1.0117282504e+02   5.8965594298e+01     1.953912    0.9072633 -19.41  0.007375744    3.740    0.733
         5 -12.7761    102.3373     76.0879   7.9385262125e+01   4.7718941147e+01     3.460402    0.9867877 -49.58  0.009165923    4.740    0.789
         6 -11.2844     99.9829      5.6959   5.3236124547e+01   5.8573920098e+01    0.6447418    0.3222798 -27.37 0.0004074989    2.126    0.530
         7 -10.6786     65.6131     20.3553   7.0536176471e+01   6.3847511338e+01    0.5499538    0.4343504 -68.71  0.002945849    2.513    0.602
         8 -11.5961    100.2595     41.2038   6.7608588044e+01   5.4324533804e+01     1.542032     1.113261 -32.71  0.008046888    1.403    0.287
         9 -11.9683    106.3574     33.2747   6.2752176496e+01   5.4137812716e+01    0.6652552    0.4408683  -7.43 0.0005439178    1.718    0.418
        10 -12.6569     90.7625     22.3613   6.2851784468e+01   5.8836817861e+01     3.406903     1.080352 -19.04  0.009668274    5.664    0.823
        11 -11.4217     50.8665     25.2682   7.8778874599e+01   6.5483824437e+01    0.5013595    0.3622541   4.62  0.001176659    1.274    0.215
        12 -12.1753     53.5642     15.7451   7.3160859405e+01   6.6415817413e+01     1.934375    0.8668702 -22.56  0.008956485    2.343    0.573
        13 -13.3292     69.0157     30.7548   7.3889498856e+01   6.1821721135e+01     2.630711    0.7903675  45.03  0.009527696    3.557    0.719
        14 -10.9133    110.4226     17.5354   5.5489686680e+01   5.5097231267e+01    0.2517074    0.2383094  10.67   0.00157078    1.113    0.102
        15 -12.3986    116.6920     13.9060   5.2608177122e+01   5.4014680214e+01     1.337144    0.7748429  38.46  0.006565832    1.636    0.389
        16 -12.2640    129.1864     21.1145   5.2590105385e+01   5.0305483460e+01     1.339264     0.726064  42.60  0.005960441    1.757    0.431
        17 -10.0966     31.7180     11.9115   8.1283297008e+01   6.9942676509e+01     0.275416     0.167332 -22.16  0.000756708    1.393    0.282
        18 -10.5078     41.9802     17.4192   7.9070331943e+01   6.7862562420e+01    0.7547431    0.3825018  -5.19  0.003241186    3.067    0.674
        19 -11.5557      4.2756     26.7112   1.0207700574e+02   6.9882164672e+01    0.5413722    0.2584374 -26.45  0.003036582    1.914    0.478
        20 -11.4467     12.1116     25.2576   9.7449878119e+01   6.9650762193e+01    0.5209203    0.2117257 -35.27  0.001274773    2.013    0.503
        21 -11.0142     23.2586     28.7979   9.3189401681e+01   6.8125187767e+01    0.7941192    0.2551043 -43.65   0.00357764    2.423    0.587
        22 -11.7441     16.6053     38.0393   9.9854163920e+01   6.6948931298e+01    0.9374114    0.6897278  -8.74  0.006259781    1.333    0.250
        23 -12.0540     30.4182     24.1092   8.7682807095e+01   6.8223691257e+01     1.066965    0.3913599 -39.81  0.004983217    2.284    0.562
        24 -10.6250     27.8289     17.5280   8.5979561783e+01   6.9550615551e+01    0.3942502     0.203137 -16.78 0.0006265217    2.131    0.531
        25 -12.0714     18.3328     15.1838   8.9844862416e+01   7.0857845117e+01     1.157924     0.404777 -41.25  0.005640038    2.303    0.566
        26 -11.6334      7.9555     19.7722   9.7480646803e+01   7.0907698089e+01     0.625701    0.2980286  23.46  0.003608308    2.341    0.573
        27 -11.6330     24.9734      7.9893   8.2746930482e+01   7.1269463907e+01    0.7652307     0.286938 -38.64  0.002860285    2.398    0.583
        28 -13.2673      5.1640      9.7584   9.4719633275e+01   7.2783281362e+01    0.5263942    0.3631077 -29.60  0.001137632    1.070    0.066
        29 -12.1445      2.2963      2.1721   9.2776984955e+01   7.4176933509e+01    0.2662335    0.2219008 -23.44  0.001471001    1.329    0.247
        30  -9.5042    221.4954     13.4232   3.7407837026e+01   2.8451368306e+01    0.2931183    0.2863452  38.31  0.001390706    1.277    0.217
        31  -9.6682    225.5931      8.4338   3.5884275020e+01   2.8047113673e+01     0.324664    0.2738884  46.50  0.001615865    1.467    0.318
        32 -10.8697    213.4060     12.3100   3.7886316801e+01   3.0453196344e+01    0.6057106    0.3325654  75.33  0.001421218    1.714    0.417
        33 -10.6935    215.3384     22.4907   4.0204421030e+01   2.8869087651e+01    0.4703473    0.4373493  -9.82  0.001932109    1.309    0.236
        34 -10.1503    207.0470      3.0586   3.6196943547e+01   3.2889984051e+01    0.3297493    0.2378014 -57.68 0.0009316937    1.299    0.230
        35 -11.5559    192.4865     32.3649   4.5496651904e+01   3.3216847222e+01    0.4250013     0.376707 -14.36 0.0004576147    1.290    0.225
        36 -10.6912    164.3590      5.7327   4.1566131915e+01   4.3085912225e+01    0.6427315     0.492958  39.02  0.003002313    1.393    0.282
        37 -10.3456    157.4165      5.4817   4.2429528085e+01   4.4839591444e+01    0.8170965    0.2992809 -15.15  0.003024288    3.690    0.729
        38 -10.7819    180.5782     29.2624   4.6279473974e+01   3.6562689338e+01    0.6799834    0.5515594 -13.88  0.003756413    1.423    0.297
        39 -11.2029    180.4400     15.7751   4.2426416804e+01   3.8102671544e+01     1.220221    0.5714719  46.05  0.004850219    2.358    0.576
        40 -10.7973    154.9964     16.9408   4.6416899967e+01   4.4363640790e+01    0.6581733    0.3188871  47.29  0.002075764    1.995    0.499
        41 -10.5095    149.4584     16.2597   4.7102857333e+01   4.5818071770e+01    0.5092657    0.4016663   4.44  0.002023021    1.470    0.320
        42 -10.5758    151.9484      9.0945   4.4372562980e+01   4.5881627111e+01    0.4060712    0.3109927  18.83  0.001312553    1.513    0.339
        43 -11.7472    167.7309     14.0952   4.3628363210e+01   4.1453799106e+01      1.19161    0.3532284  49.74  0.004142706    3.282    0.695
        44 -10.2825    173.2332     10.5425   4.1840141071e+01   4.0424930960e+01    0.2446065    0.2292807  10.14 0.0008998255    1.231    0.188
        45  -9.7348    210.5392      5.4453   3.6470337375e+01   3.1832804287e+01    0.3807921    0.2444126  34.72  0.001976141    2.210    0.548
        46  -9.6608    204.6350     22.2957   4.1307523368e+01   3.1442626157e+01    0.4604231    0.2566846 -51.23  0.002237739    1.776    0.437
        47 -12.0402    109.4938      7.7276   5.1811437585e+01   5.6253769848e+01     0.817279    0.6867399  41.82  0.003394855    1.030    0.029
        48 -10.5055     79.6068     19.5891   6.5198745083e+01   6.1392249091e+01    0.8614597    0.3431904  54.70  0.003413429    3.031    0.670
        49  -9.3403    232.6772     17.3237   3.7329317186e+01   2.5481439484e+01    0.3795291    0.1239266 -49.37  0.001265201    2.847    0.649
        50  -9.5960    204.9204     15.6069   3.9555644356e+01   3.2116703251e+01    0.3299029    0.2721553 -60.65  0.002006382    1.137    0.120
        51 -10.0060    242.6558     13.4522   3.5644726955e+01   2.3725043217e+01    0.3898762    0.1896166  57.07  0.001964477    2.290    0.563
        52 -10.3030     38.6797     10.6670   7.7260077965e+01   6.9231937017e+01    0.4701078     0.250751 -19.70   0.00192635    1.782    0.439
        53 -10.7245     42.4119      3.4061   7.1710501268e+01   6.9604506700e+01    0.2991591    0.2188073 -13.04 0.0005750791    1.191    0.161
        54  -8.8134     36.6793      6.0755   7.5819742594e+01   7.0090683964e+01    0.1791085     0.130803  15.73 0.0006313751    1.200    0.167
        55  -8.9135     86.1872     10.9784   5.9275764214e+01   6.1030305763e+01    0.3156977    0.1252447  43.82 0.0009248707    2.173    0.540
        56  -9.6365     77.3260      8.7972   6.1026601466e+01   6.3024059218e+01    0.2546581    0.2296682 -26.07   0.00166783    1.353    0.261
        57  -8.8463     77.6404      4.6878   5.9004018979e+01   6.3357894487e+01    0.2149204     0.121346  23.80  0.001095601    1.768    0.434
        58 -10.8676    200.1366      6.0675   3.7599484154e+01   3.4246397751e+01    0.5149385     0.312457 -48.93  0.002760407    1.601    0.376
        59  -8.3436    143.4040      8.7718   4.5619710493e+01   4.8033523276e+01    0.1795118    0.1269256   5.60 0.0009408863    1.699    0.411
        60  -9.4941    250.1521      7.3179   3.3783921284e+01   2.2803127993e+01    0.2565102    0.1593512 -56.79    0.0015456    1.355    0.262
        61 -10.0254    243.7841      5.4339   3.3828375312e+01   2.4352304548e+01    0.3737103    0.1908507 -24.68   0.00151326    2.287    0.563
        62 -10.0791    133.1517      4.7809   4.5982410622e+01   5.0894317014e+01    0.4560963    0.3881534 -46.21  0.002765121    1.344    0.256
        63 -10.5670    138.7383      3.4651   4.4585424329e+01   4.9636530035e+01    0.5601745    0.3158595  -7.06  0.002467348    2.197    0.545
        64  -8.8720    233.8698      7.1319   3.4928200598e+01   2.6329877116e+01     0.194264    0.1395963 -68.68 0.0004662136    1.215    0.177
        65  -8.7880    190.5075      7.5210   3.8967023041e+01   3.6441665647e+01    0.2293073   0.09779871  59.49 0.0007590457    2.106    0.525
        66 -10.0377    182.7022      5.0345   3.9144313768e+01   3.8594102665e+01    0.5237289    0.3277836  86.66  0.002728772    1.562    0.360
        67  -9.2868     67.5255      5.9688   6.2974020354e+01   6.5165723233e+01    0.2569224    0.1650796 -16.91 0.0007672335    1.510    0.338
        68  -9.9709     71.4639      3.5335   6.0440939273e+01   6.4663986888e+01    0.3448581    0.2612953 -33.64  0.002121577    1.604    0.377
        69  -9.5793    217.5986      5.1670   3.5788793332e+01   3.0214317978e+01     0.292997    0.2349636  17.42  0.001775398    1.760    0.432
        70 -12.7192     13.3669      6.5783   8.8418328122e+01   7.2629882641e+01    0.6619139    0.5191368 -23.64  0.003607988    1.212    0.175
        71  -9.4283     84.4825      3.1403   5.6241392292e+01   6.2112794413e+01    0.3352196    0.2169242  20.99  0.000908122    1.476    0.323
        72  -9.4995    248.3496      1.9351   3.2780585674e+01   2.3750827376e+01    0.2239346    0.1619214 -57.99   0.00114589    1.142    0.124
        73  -8.8405    188.8842      3.3160   3.8012842061e+01   3.7235508683e+01    0.1822486    0.1484315 -55.75 0.0004865944    1.218    0.179
        74 -10.3635     54.7691    133.1419   1.0826857527e+02   4.1731067241e+01    0.3252882    0.1927077  23.37  0.001568239    2.076    0.518
        75  -9.0530    211.0164    250.4978   9.1785221074e+01  -6.4146752577e+00     0.185223   0.09439942  33.76 0.0006426314    1.593    0.372
        76  -9.1799    162.0003    250.4895   1.0093990492e+02   9.0715275834e-01    0.1968996   0.09804782  37.14   0.00104041    1.615    0.381
        77 -10.7381     34.4773    110.1126   1.1040551517e+02   4.9487580942e+01     0.691002    0.4726978 -39.56  0.003859432    1.503    0.335
        78 -10.8110     34.6059    131.6103   1.1373212863e+02   4.4232081554e+01    0.7287633    0.2422628 -72.03 0.0005228972    2.881    0.653
        79 -10.8832     49.1684    127.3751   1.0891592825e+02   4.3789582843e+01    0.7870404    0.2779513 -43.43  0.002710124    3.596    0.722
        80 -11.4229     40.3578    122.9990   1.1077691822e+02   4.5786486762e+01    0.8126306    0.4399437 -71.37  0.003939116    1.677    0.404
        81 -11.6211     43.3599    115.4729   1.0859302795e+02   4.7328813547e+01    0.9378311    0.5977754 -17.88  0.003539093    2.248    0.555
        82 -10.6557     28.4184    119.8257   1.1380664953e+02   4.7653318910e+01    0.4089964    0.2728701  58.44 0.0009835557    1.733    0.423
        83 -10.3425     33.9728    119.4738   1.1210699820e+02   4.7253948035e+01    0.2958724    0.2804294  87.63 0.0009766393    1.156    0.135
        84 -10.4286     28.5900    130.2498   1.1522642043e+02   4.5104776732e+01    0.4653925    0.1540119 -56.97  0.001947791    2.401    0.584
        85 -10.7581     13.9285    132.3336   1.1948653856e+02   4.5760403432e+01    0.4360173    0.3225225   0.67  0.001740696    1.881    0.468
        86 -12.3860     11.9010    125.9277   1.1931516085e+02   4.7430707708e+01    0.4891435    0.2460666 -73.15 0.0003881044    1.575    0.365
        87 -11.1538     19.1167    119.7425   1.1651283941e+02   4.8405707248e+01    0.7721837    0.2586673 -59.71  0.001787436    2.217    0.549
        88  -9.5170     73.8299    130.0568   1.0222965374e+02   4.0027780077e+01    0.3571122    0.2310604  71.96  0.001373757    2.141    0.533
        89 -10.5902     64.1641    101.7404   9.9116965769e+01   4.8242975199e+01     1.008051    0.4755852  35.05  0.004311067    2.314    0.568
        90 -10.4331     87.8620     97.3635   9.0325783627e+01   4.5729175834e+01    0.5963421    0.4082318 -50.60  0.002607793    1.376    0.273
        91 -11.0289     62.4163    110.5032   1.0166049714e+02   4.6356942904e+01    0.6230407    0.4782476 -18.17  0.003292985    1.571    0.364
        92 -10.9809     89.8012     88.0563   8.7071461081e+01   4.7499006876e+01    0.6406258    0.5007266 -14.63  0.001950836    1.429    0.300
        93  -9.8403     83.5168     89.8380   8.9633363579e+01   4.8160611139e+01    0.3973345    0.2531516  41.46  0.001230999    1.715    0.417
        94  -9.6459     82.8776     85.8573   8.8693945322e+01   4.9154083761e+01    0.4038346     0.249891 -17.12  0.001647486    2.361    0.576
        95 -11.8804     67.3122    120.2255   1.0219133205e+02   4.3340821133e+01     2.051505     0.513037 -47.31  0.006049241    4.043    0.753
        96 -10.0880     61.1663    120.3283   1.0407004605e+02   4.4112135794e+01    0.3514061    0.2367307 -61.86  0.001029573    1.326    0.246
        97 -10.8657     73.3523     89.4947   9.2921901240e+01   4.9823507821e+01    0.9003971    0.3266129  37.15  0.003186997    2.952    0.661
        98 -10.0867     75.9976    102.0663   9.5354146585e+01   4.6506575656e+01    0.4034963    0.3704308  40.36   0.00120141    1.202    0.168
        99 -11.6386     77.3345     96.5299   9.3496504993e+01   4.7604503283e+01    0.8814249    0.6306702  59.55  0.004226927    1.849    0.459
       100 -10.5760     55.9708    126.4822   1.0677159503e+02   4.3230941795e+01    0.3863446      0.20435 -61.64  0.001150098    1.647    0.393
       101  -9.4773     22.6816    127.9836   1.1657757107e+02   4.6144198206e+01    0.2851505    0.1899497  11.69  0.001080432    2.013    0.503
       102  -8.9672    131.2118    125.3689   8.5071538751e+01   3.1088630583e+01    0.4315481    0.1725749 -36.02  0.001295587    3.328    0.700
       103  -8.8048     74.5334    125.0136   1.0101437400e+02   4.1167302574e+01    0.1978053    0.1931097  42.53  0.000315973    1.123    0.109
       104  -9.0207    200.1854    123.8560   6.8734617228e+01   1.6376657345e+01    0.2095629    0.1745112   2.59 0.0003991298    1.316    0.240
       105  -8.2624     81.6279    124.6871   9.8855460047e+01   4.0202337132e+01    0.1529838     0.110513 -23.10  0.000703368    1.781    0.439
       106 -10.1019     93.3952    121.6384   9.4724569080e+01   3.9063811221e+01      0.45225    0.3763167 -44.77  0.002354647    1.154    0.134
       107 -11.0209     75.4288    120.0683   9.9710316915e+01   4.2250096328e+01    0.2513259    0.2441562  50.37 0.0002874596    1.120    0.107
       108 -11.0394     46.5203    123.6798   1.0906933207e+02   4.4985961359e+01    0.4114102     0.318596 -33.85   0.00172334    1.458    0.314
       109 -11.7715      9.8123    109.1915   1.1785615674e+02   5.1554778962e+01     1.104872     0.532531 -53.48  0.004486751    1.721    0.419
       110 -11.5177     15.0493    102.8445   1.1534282775e+02   5.2736700065e+01    0.6886816    0.2747172 -55.99  0.003090232    1.904    0.475
       111 -10.0620    116.3947    116.4040   8.6840085950e+01   3.6118255474e+01     0.310203    0.2761374  14.52 0.0006821391    1.216    0.178
       112  -9.4022    108.4124    115.6455   8.8913125894e+01   3.7823463752e+01    0.4321637    0.2054606 -39.33  0.001575132    2.288    0.563
       113  -9.0729     28.2852    115.7333   1.1322832102e+02   4.8658419752e+01    0.1885267     0.136139 -62.33 0.0001988646    1.139    0.122
       114  -9.5663    104.5203    115.9375   9.0110340550e+01   3.8474991003e+01     0.220051    0.2165564   7.07 0.0008679787    1.057    0.054
       115  -9.8275     97.4782    115.2579   9.2004625679e+01   3.9893305659e+01    0.3127358    0.2715884 -13.66  0.001176896    1.282    0.220
       116 -10.4967     96.6293    109.2998   9.0764661575e+01   4.1449585698e+01    0.5053185    0.3635307 -51.87  0.001615174    1.324    0.245
       117  -9.2180     82.6795    114.9399   9.6369691522e+01   4.2410009730e+01    0.2663019    0.2196608  44.97 0.0008065096    1.315    0.240
       118  -8.8183    193.2623    111.5895   6.7009614246e+01   2.0235541193e+01    0.2002461     0.145603  37.59 0.0003375788    1.471    0.320
       119  -9.1571     22.9463    108.7897   1.1378402454e+02   5.0760181200e+01    0.2779317     0.164746  26.58  0.001523145    2.015    0.504
       120  -9.7101    113.1798    107.5208   8.5421489674e+01   3.8785907882e+01    0.3519541    0.2598582 -51.16 0.0006817044    1.339    0.253
       121 -10.7389    106.0775    101.9207   8.5972649933e+01   4.1428956664e+01    0.7222139    0.5313897 -89.68  0.003106365    2.114    0.527
       122 -11.7018    141.5201    102.3251   7.6249808590e+01   3.3951247076e+01     1.007964    0.5484592  22.09  0.003034157    3.593    0.722
       123 -10.6903    133.4927    102.5242   7.8404891726e+01   3.5680926276e+01    0.9480362    0.3693267 -50.71  0.002975171    2.991    0.666
       124 -10.8392     39.8321     80.2504   1.0235333234e+02   5.6064181057e+01    0.5934651    0.4364212 -67.94  0.001261616    1.402    0.287
       125  -9.7904     57.2535     85.6006   9.7434281806e+01   5.2907421176e+01    0.5088227    0.2844952  -3.54  0.001980647    3.214    0.689
       126 -10.7422     51.6941     92.6966   1.0115643803e+02   5.1920767312e+01    0.9287307    0.3849298 -39.15  0.003586304    2.673    0.626
       127  -9.6759     44.5229     93.1169   1.0372446072e+02   5.2601953435e+01    0.5986709    0.2025542 -63.85  0.001371997    3.016    0.668
       128 -10.3437     48.0276    103.2162   1.0473885667e+02   4.9819617963e+01     0.877326    0.3485059 -39.20  0.003237397    3.076    0.675
       129 -10.5496     53.8434    100.9392   1.0233126409e+02   4.9714515335e+01     0.709404    0.2217178 -46.96  0.002514533    2.890    0.654
       130  -9.5991     39.2073     96.8495   1.0634538688e+02   5.2244535841e+01    0.3695636    0.2477877 -10.00  0.001620507    1.941    0.485
       131 -10.0639     51.7561     86.0146   9.9489297850e+01   5.3470567043e+01    0.3685895    0.2557592   5.85  0.001592259    1.765    0.433
       132  -9.8392     39.5120     92.0498   1.0521864592e+02   5.3354047064e+01     0.308136    0.2423471 -47.76  0.001112647    1.091    0.083
       133 -11.0712     34.5868     91.5307   1.0681395666e+02   5.3932649778e+01    0.6024621    0.3289687   1.54  0.001852172    2.690    0.628
       134  -9.8077    235.9872    249.5048   8.7172278323e+01  -9.7570567235e+00    0.2426315   0.09324053  39.95   0.00118877    2.538    0.606
       135 -11.0600     23.6085     95.4731   1.1133214195e+02   5.3894695248e+01     1.441882    0.6770975  47.09  0.006607772    2.860    0.650
       136  -9.5041     15.0336     89.2175   1.1312358427e+02   5.5953185194e+01    0.3198993    0.2442983  12.83  0.002052596    1.620    0.383
       137 -10.4035     26.1648     84.6595   1.0833795827e+02   5.6240639091e+01    0.6422939    0.3160427  21.03  0.003200603    2.428    0.588
       138 -10.5860     19.4869     82.0231   1.1019940454e+02   5.7334362699e+01    0.9271687    0.3227547 -36.49   0.00361103    3.387    0.705
       139 -10.7304     19.2225     73.0503   1.0839579784e+02   5.9397631029e+01    0.6101738    0.4005146 -34.53  0.003270749    1.429    0.300
       140 -10.1613     25.1559     66.4243   1.0449062137e+02   6.0443226462e+01    0.5012841    0.1619089 -60.68  0.001885162    2.704    0.630
       141 -11.3009     19.1053     60.8104   1.0549985942e+02   6.2106026151e+01    0.9742285    0.5352156 -35.13  0.005348377    1.641    0.391
       142 -12.1990     32.5339     58.7567   9.9358688044e+01   6.1473040578e+01    0.5948082    0.4711809  27.90  0.002627336    1.503    0.335
       143  -9.9503      3.7326     97.9725   1.1821969708e+02   5.4540577713e+01    0.4256624    0.2162025  80.04   0.00143205    2.567    0.610
       144  -8.7672      3.7183     92.6542   1.1747145792e+02   5.5782884283e+01    0.2248343      0.12237 -59.21  0.000996416    1.381    0.276
       145  -9.6286      3.0424     89.2251   1.1718709495e+02   5.6611951229e+01    0.2076177    0.1935129 -61.03 0.0007949617    1.207    0.172
       146 -10.1448      6.6988     84.8993   1.1525873726e+02   5.7430322871e+01    0.4165459    0.3765724 -22.09  0.001210918    1.298    0.230
       147  -9.0152     10.6086     99.6386   1.1627251468e+02   5.3771489459e+01    0.1832963    0.1547504  23.32 0.0007065882    1.487    0.328
       148 -10.9028    122.8218     80.3773   7.4716740906e+01   4.2605957125e+01    0.4527345    0.3867804 -12.40  0.001595301    1.220    0.181
       149 -11.3072    117.0487     95.2249   8.0861448375e+01   4.0743574010e+01    0.6746501    0.5253208  65.00  0.002316446    1.600    0.375
       150  -9.8946    124.4266     92.4585   7.7962416771e+01   3.9785110006e+01    0.4920362    0.3171127  70.36  0.001858777    2.571    0.611
       151 -11.0267    119.1212     87.1414   7.7858295306e+01   4.2027001881e+01    0.4447767    0.4348022 -51.02  0.001332894    1.095    0.086
       152  -8.7897     93.8632     97.8360   8.8565920935e+01   4.4592020275e+01    0.2301336    0.1911197 -27.56 0.0005221832    1.214    0.177
       153  -9.8318    156.2800     96.2920   7.0892545543e+01   3.1807243167e+01    0.3942677    0.2699152 -35.03  0.000932804    1.455    0.313
       154  -9.4570    189.5692     93.9052   6.3062916795e+01   2.4385233478e+01    0.2991159     0.239106   0.29 0.0009012017    1.514    0.339
       155  -9.7754    104.0997     92.2331   8.3815026048e+01   4.3967978993e+01    0.4229908    0.2421942  20.26  0.001557732    2.675    0.626
       156  -8.6091    214.2484     89.9878   5.7601565814e+01   1.9352516858e+01    0.2039822      0.11833 -35.87 0.0008901639    1.600    0.375
       157  -8.9212    193.9487     89.4883   6.1035336540e+01   2.4145529083e+01    0.2287081    0.1964663 -35.15 0.0003508536    1.118    0.106
       158  -8.9228    187.5439     89.6404   6.2295658049e+01   2.5638558741e+01    0.2249179    0.1816074 -89.80 0.0007986434    1.523    0.343
       159 -10.4110    112.5992     87.5291   7.9866494679e+01   4.3300148338e+01    0.4315005    0.2179677 -33.11  0.001607929    2.223    0.550
       160  -9.7784     52.2427     81.9612   9.8260719814e+01   5.4341952142e+01    0.3188587    0.2572035  -2.86 0.0008864448    1.369    0.270
       161  -9.1277    145.4692     87.4952   7.0941997326e+01   3.6073863775e+01    0.3116806     0.154893  48.23 0.0006405612    2.030    0.507
       162  -9.9679    146.5614     83.1641   6.9370009444e+01   3.6657629173e+01    0.5519831    0.3542382 -29.90  0.001662416    1.641    0.391
       163 -10.6221    133.6918     53.6660   6.3042243609e+01   4.4892877395e+01    0.7117164    0.4053137  -8.52  0.001649855    2.840    0.648
       164 -10.4561    147.9385     34.5514   5.3437040138e+01   4.4124267264e+01     1.316408    0.3265956  53.68  0.004176285    3.305    0.697
       165 -11.9962    138.0471     69.1240   6.7086667901e+01   4.1261958204e+01    0.6981335    0.4523546  60.17 0.0009419522    1.731    0.422
       166 -10.0784    140.1674     52.4616   6.1094182126e+01   4.3525447318e+01     0.387812    0.2672907  48.39 0.0009194817    1.395    0.283
       167 -11.3510    135.2425     82.2757   7.1956789961e+01   3.9456270554e+01    0.8573614    0.6756654  -0.22  0.004010846    1.518    0.341
       168 -11.8328    146.2836     75.2801   6.7017354653e+01   3.8198168986e+01    0.6405637    0.4130278  35.24  0.002740546    1.716    0.417
       169 -10.2968    136.1525     41.8929   5.8421655487e+01   4.6050441073e+01    0.5312088    0.3404323 -57.53  0.001808447    2.108    0.526
       170 -11.4034    148.9711     65.9871   6.3467028362e+01   3.9190880442e+01    0.8821726    0.5499687 -33.38  0.003614181    1.620    0.383
       171 -10.6849    145.6968     48.4973   5.8532061032e+01   4.2771576117e+01    0.3861711    0.2935174  42.16 0.0004067711    1.291    0.225
       172 -10.4479    143.7880     58.1218   6.2128882773e+01   4.1754209385e+01    0.3032381    0.2578722  52.70 0.0004853957    1.162    0.139
       173 -12.5642    147.2881     53.8347   5.9936727508e+01   4.1575649292e+01    0.5325774    0.3643898  45.61 0.0003181391    1.428    0.300
       174  -8.7914    155.4573     86.0036   6.8095832110e+01   3.4007830726e+01    0.3420227    0.1906029  21.15  0.001042083    3.694    0.729
       175  -8.5396     72.6964     84.6482   9.1783526022e+01   5.1016213706e+01    0.1844353    0.1388833  42.14 0.0008135783    1.507    0.336
       176  -8.8074     75.5576     83.5359   9.0481318224e+01   5.0831454943e+01    0.2284446    0.1894473  35.11   0.00093786    1.319    0.242
       177  -9.0203    182.1492    249.6361   9.7007738254e+01  -2.0412344800e+00    0.1878552   0.09184472  29.49 0.0009568965    1.830    0.454
       178  -8.5262     30.2911    248.3625   1.2497744005e+02   1.9344026886e+01   0.09067804   0.07812642 -59.61 0.0007027341    1.700    0.412
       179 -10.6272    113.5377     32.0995   6.0363154072e+01   5.2687318652e+01    0.4711322    0.2601926 -16.34  0.001321044    2.122    0.529
       180  -9.8766    148.3156    247.0578   1.0311344344e+02   3.5260941917e+00    0.1589225    0.1442441  37.21 0.0004516389    1.123    0.110
       181  -9.3974      3.9599    246.0768   1.2917393603e+02   2.2415596061e+01    0.1960359    0.1049158 -60.27  0.001286768    2.471    0.595
       182 -11.9370     73.1649     70.0530   8.7168077128e+01   5.4098168525e+01     1.652501    0.9072631  50.91  0.006938354    2.594    0.615
       183 -10.2463    141.9720    244.1395   1.0397005194e+02   4.9644358564e+00     0.299486    0.2343865  15.60  0.001458181    1.437    0.304
       184 -11.4658     78.2348     61.2046   8.2375791825e+01   5.5054456506e+01    0.8768931     0.468486  23.08  0.003036904    2.410    0.585
       185  -9.8579    107.2614    248.1399   1.1110331643e+02   9.5328176735e+00    0.3865594    0.1703694  62.68  0.001565853    3.699    0.730
       186  -9.7475    241.7842    239.2222   8.4488568257e+01  -9.3353936300e+00    0.2320348    0.1515906   6.99  0.001334142    1.307    0.235
       187  -8.9417    211.0000    240.0229   9.0160912096e+01  -5.0744035739e+00    0.1714792   0.06646405 -37.53 0.0007938942    2.884    0.653
       188  -8.9909     75.6445    239.3358   1.1624390126e+02   1.5500678824e+01    0.1295864   0.07027088  63.35 0.0007042712    1.800    0.444
       189 -12.0566     32.6107     42.3707   9.3941347266e+01   6.4754754755e+01     1.083601    0.8053652 -11.67  0.005246529    1.261    0.207
       190 -10.2709     14.5483    237.9076   1.2708530777e+02   2.2870652290e+01    0.2803892    0.1338179  80.62  0.001732676    1.815    0.449
       191  -8.9239     55.6487    238.1656   1.1986856826e+02   1.8275043594e+01    0.1501962   0.09342069 -65.01 0.0009502985    1.776    0.437
       192  -8.4922    220.5027    237.5325   8.8012469510e+01  -6.1431863722e+00    0.1229964   0.09485079  13.61 5.694288e-06    1.005    0.005
       193  -8.3207    172.3319    237.3413   9.7114406413e+01   1.2530468388e+00    0.1290004   0.08837109   7.64 0.0007051323    1.749    0.428
       194 -11.1198     52.2696     71.2502   9.5247885879e+01   5.6719798995e+01    0.4020022    0.2856818   8.59 0.0007452118    1.606    0.377
       195 -12.2942     49.5401     39.0918   8.5242514223e+01   6.3412669850e+01    0.5381377    0.3919044   8.98  0.001305701    1.358    0.264
       196 -12.0443     56.5115     37.4720   8.1667066902e+01   6.2729953568e+01    0.5216973    0.3432204  -9.70  0.001287835    1.600    0.375
       197 -12.3458     88.4692     57.1248   7.7380611240e+01   5.4013172104e+01    0.4223073    0.3738556  32.67  0.001714496    1.188    0.158
       198  -9.8513    161.6766     82.0203   6.5501370222e+01   3.3261055024e+01    0.2853186    0.2177018  44.35  0.000414224    1.327    0.247
       199  -9.7980    157.9509     80.8061   6.5977109869e+01   3.4384078237e+01    0.3529414    0.2191774  46.53   0.00146362    1.619    0.382
       200  -9.5136    168.9758     78.2075   6.2802278535e+01   3.2176182662e+01     0.425049    0.3143051  66.82  0.001966927    1.507    0.336
       201  -9.5852    166.6620     73.1739   6.1799694332e+01   3.3625237337e+01    0.4052474     0.245971 -39.13  0.001738438    1.624    0.384
       202  -9.0784    164.7290     68.7693   6.0882524132e+01   3.4853977872e+01    0.3041614    0.2581744 -65.86  0.001242573    1.310    0.237
       203  -9.6006     89.9366     77.7473   8.3884862773e+01   4.9697294973e+01    0.5660672    0.3041439  17.73  0.001993792    3.208    0.688
       204  -9.8426    190.1296     77.1623   5.8367878893e+01   2.7199929489e+01    0.5081173    0.2689582  35.83  0.001892461    2.572    0.611
       205 -11.9883     57.1056     66.6099   9.1991107792e+01   5.7106856427e+01     1.077505    0.5710863 -63.64  0.004393086    2.779    0.640
       206 -10.3405    246.9580     75.9659   4.9438020856e+01   1.4491059610e+01    0.4227539    0.2757189  85.70  0.002095604    2.054    0.513
       207  -9.3733     70.2463     76.3351   9.0182413802e+01   5.3209040082e+01    0.3045347    0.2446876 -16.54  0.001659832    1.264    0.209
       208  -9.2842      5.3636     77.0352   1.1437324737e+02   5.9297315229e+01    0.2105492    0.1788544  65.78  0.001453702    1.471    0.320
       209  -9.3129      3.7739     72.6267   1.1415410418e+02   6.0368420744e+01     0.286261    0.1075238 -57.26 0.0009245183    1.836    0.455
       210  -8.4092    215.6485     76.3103   5.3872066104e+01   2.1296591150e+01    0.1530981    0.1066583 -67.39 0.0007044551    1.720    0.418
       211  -9.2197    203.9604     75.7271   5.5579794897e+01   2.4123003121e+01    0.3399618    0.1825752  39.85  0.001355334    2.323    0.570
       212  -9.0796    190.3548    235.6927   9.3373201712e+01  -1.3391181277e+00    0.1184663   0.09305029  56.41 0.0007042213    1.720    0.419
       213 -11.8600    106.4996     63.0821   7.3742841604e+01   4.9383137811e+01     2.368669    0.5132811 -42.04  0.006334272    4.655    0.785
       214 -11.6362    141.7012     44.9045   5.8207998594e+01   4.4273384765e+01    0.5021328    0.3213089  32.84 0.0004639048    1.755    0.430
       215 -11.0337     43.5484     51.5167   9.2417145190e+01   6.1826518230e+01    0.7010857    0.4540429   6.44   0.00380494    1.743    0.426
       216  -9.2849    177.0592     68.6250   5.8379761672e+01   3.1829744967e+01    0.3164178    0.2456854 -38.21  0.001089869    1.269    0.212
       217  -9.1913     84.6810     67.8449   8.2414026440e+01   5.2649409096e+01    0.2811432    0.2388091 -47.17  0.001087256    1.245    0.197
       218 -11.5629     87.0611     51.8037   7.5896748005e+01   5.5221450654e+01    0.3799372    0.3378311   9.20  0.000493078    1.056    0.053
       219 -10.0139    167.7004     62.8716   5.8497556442e+01   3.5090197775e+01    0.4157186    0.3656716   5.40  0.001060733    1.265    0.210
       220 -11.2745    155.4032     44.1576   5.5105197532e+01   4.0981903642e+01    0.7534462    0.7104419 -53.20  0.004269013    1.110    0.099
       221  -8.6533    169.7620     58.9854   5.6923038189e+01   3.5192519751e+01    0.1893812    0.1256858 -32.32 0.0008553208    1.526    0.345
       222 -10.1872    166.2793     54.0756   5.6100307830e+01   3.6816835215e+01    0.5908448    0.3087828 -47.62  0.001915774    2.115    0.527
       223 -10.6848    160.8874     52.6195   5.6701248147e+01   3.8385365511e+01    0.4967366    0.3734203  -1.63  0.002358529    1.649    0.393
       224 -10.0423    129.9118     61.8826   6.6771536097e+01   4.4430485211e+01    0.7231836    0.4382196  63.71  0.001973606    2.065    0.516
       225 -10.1388    137.3590     59.5838   6.4135641194e+01   4.3063352697e+01    0.4641486    0.2955621  17.74  0.001477136    2.271    0.560
       226  -9.2154    206.9223     60.6711   5.1110142549e+01   2.5788504111e+01     0.281845    0.1923648 -43.73 0.0007410277    1.386    0.279
       227 -10.0828    173.5461     47.3660   5.2737361054e+01   3.5971848355e+01    0.5719802    0.3762389  82.01  0.002579056    1.830    0.454
       228  -9.8133    180.4005     43.6782   5.0496924892e+01   3.4762112126e+01    0.3576297    0.2687798  -2.47  0.001217681    1.693    0.409
       229  -9.8839    174.2021     57.0466   5.5508531779e+01   3.4382364084e+01     0.689866    0.3726754  -8.54  0.002299996    3.555    0.719
       230 -10.1186    179.3871     49.1460   5.2262257642e+01   3.4252351965e+01    0.3807812     0.292801 -27.59  0.001945045    1.362    0.266
       231 -11.3873    184.9135     55.9600   5.3302273418e+01   3.1874875239e+01    0.6064755    0.4229181 -18.58 0.0003488359    1.666    0.400
       232 -10.2560    182.4885     51.5535   5.2441572888e+01   3.3129503856e+01    0.3278084     0.297215  49.45 0.0007624027    1.129    0.114
       233  -8.9474    234.0709     59.7396   4.7197883093e+01   1.9667643714e+01    0.1792171    0.1685955 -70.08 0.0001759802    1.078    0.072
       234 -10.1227    233.9203     55.8066   4.6269135443e+01   2.0267362579e+01    0.3622383    0.2698559  70.37  0.002019983    1.422    0.297
       235  -9.0214    212.5231     59.2240   4.9916537508e+01   2.4674570826e+01    0.3185445      0.14462 -22.19 0.0009838098    3.031    0.670
       236  -8.3676    220.3189     59.6477   4.8946902816e+01   2.2790837790e+01    0.1527675   0.09772711 -62.48 0.0007047284    1.744    0.427
       237  -8.9400    201.0933     59.5372   5.1688620927e+01   2.7362051176e+01    0.2177542    0.1408624  61.84 0.0009454023    1.571    0.364
       238 -10.8032    193.6898     54.9298   5.1578928890e+01   2.9857004346e+01    0.5446924    0.4043241  33.60  0.002691953    1.616    0.381
       239  -9.4006    121.6066     36.0896   5.9805753250e+01   5.0305583079e+01    0.5923613    0.2094181  54.38  0.002138916    2.639    0.621
       240 -10.5166    121.0697     54.7997   6.6675640293e+01   4.7646949076e+01    0.5339901    0.4527514  -2.02  0.002817451    1.215    0.177
       241 -10.3593    117.1109     49.6452   6.5918564075e+01   4.9367976192e+01    0.5030436    0.3622563  -3.79   0.00240728    1.624    0.384
       242  -9.8235    118.0915     42.5189   6.3066327989e+01   5.0222219115e+01    0.5098393    0.3053026 -35.50  0.002350468    1.716    0.417
       243  -8.7799     20.9988    232.3773   1.2569864210e+02   2.3254545923e+01    0.1497225    0.1088016  61.76 0.0006004755    1.111    0.100
       244 -10.0954     70.9435     53.0943   8.2107966256e+01   5.7779788189e+01    0.5448843    0.2701926 -42.55  0.002436899    1.907    0.476
       245  -8.7848    224.1287     56.1629   4.7570916864e+01   2.2423359820e+01    0.1922051    0.1863028  14.56 0.0003224298    1.203    0.169
       246  -9.1167     12.3264     56.5758   1.0724469773e+02   6.3447283161e+01    0.2402519    0.1062638  23.85  0.001228675    2.643    0.622
       247  -9.3538    244.2222     55.0548   4.4901403115e+01   1.8130187162e+01    0.1930785    0.1753245 -16.33 0.0005425758    1.285    0.222
       248  -9.2833     51.1601     53.2819   8.9889245227e+01   6.0570917674e+01    0.2599919     0.183325  -3.39 0.0008630825    1.524    0.344
       249 -11.4915     57.6930     48.3434   8.5456786990e+01   6.0643387302e+01    0.6256084    0.6128303 -50.63  0.002705584    1.369    0.270
       250 -10.9598     65.9998     44.3807   8.0664411264e+01   6.0122688257e+01    0.6005184    0.3607426 -23.97   0.00201575    1.683    0.406
       251  -8.4612      9.9069     52.1638   1.0714325410e+02   6.4520441680e+01    0.1598046    0.1062659 -33.94 0.0003896072    1.290    0.225
       252  -8.9150    211.8871     50.5750   4.7757880420e+01   2.6078977213e+01    0.3427329    0.1641571 -41.96  0.001471803    1.932    0.482
       253  -9.8682    228.0441     49.6712   4.5484161328e+01   2.2450069246e+01     0.319897    0.2059791  68.79  0.001647495    1.619    0.382
       254  -9.9498    192.4811     49.6025   5.0284440923e+01   3.0926507969e+01    0.4100646    0.1373903  62.78   0.00139934    3.001    0.667
       255  -9.8962    206.6365     46.2321   4.7328927809e+01   2.7941125565e+01    0.5498382    0.1772382  55.69  0.001977276    2.960    0.662
       256  -8.3209    126.3184     47.3029   6.2667266300e+01   4.7613300225e+01    0.1492049    0.1441503  27.03  0.000323854    1.054    0.052
       257  -8.5796    128.4957     44.9975   6.1312523688e+01   4.7442366893e+01    0.2765578    0.2128981  75.68  0.001360239    1.602    0.376
       258  -9.4213    219.8071     42.8239   4.4775173342e+01   2.5280200594e+01    0.2729087    0.1765298 -36.11 0.0008486677    1.471    0.320
       259  -9.2213     12.7023    231.9378   1.2710777359e+02   2.4162592689e+01    0.2142876     0.115783  53.62  0.001439817    1.454    0.312
       260  -8.5998    227.0088    231.5397   8.5832743189e+01  -6.3134205330e+00    0.1791385    0.1007627  31.52 0.0004108273    1.529    0.346
       261  -9.5520    135.8199    230.0135   1.0335647364e+02   8.2838135430e+00    0.1974106    0.1447926 -15.66  0.001089057    1.998    0.500
       262  -9.1013    202.2028    228.9176   9.0017967931e+01  -2.2159162866e+00    0.1760198    0.1514252  25.74 0.0003728824    1.179    0.151
       263  -9.2068     40.9061    221.8187   1.2141202066e+02   2.3158695020e+01     0.160602    0.1431788  87.46 0.0005273431    1.262    0.207
       264  -8.4709    167.7208    220.6577   9.5490715869e+01   4.6527023608e+00    0.1300029   0.09566732   1.56 0.0004038506    1.627    0.385
       265 -11.6601     15.8468     30.8329   9.7665240041e+01   6.8365173704e+01    0.2417115     0.201373 -12.69 0.0003764527    1.190    0.160
       266  -8.9880    219.2373    230.7399   8.7121078257e+01  -5.0660601468e+00    0.1862474    0.1401869  38.11 0.0005573852    1.439    0.305
       267  -8.8962      3.0000    214.0029   1.2792623206e+02   2.8527935687e+01    0.1714859   0.04943889 -79.49 0.0007089642    2.921    0.658
       268  -9.3768     13.3480    212.2133   1.2595307420e+02   2.7945021180e+01     0.242414   0.08697081 -82.27  0.001207779    2.485    0.598
       269  -8.9929    143.2315    209.7848   9.8897551353e+01   1.0712814584e+01    0.2206122    0.1386696  71.50 0.0009471126    2.721    0.633
       270  -9.1485    124.0123    206.0142   1.0248136083e+02   1.4670474347e+01    0.1922515    0.1734794  47.12  0.001176636    1.018    0.017
       271  -8.7594    239.6693    204.6868   7.8749653449e+01  -4.5574250750e+00    0.1341999   0.08385167   3.35 0.0007044326    1.676    0.403
       272  -8.5205    233.9706    199.5186   7.8797311976e+01  -2.9397209191e+00    0.1822105   0.09624474  16.18  0.000807638    2.373    0.579
       273 -10.5787    249.1584     43.8404   4.1820950877e+01   1.8614631701e+01    0.3566127    0.2086039 -33.23 0.0005068065    1.606    0.377
       274  -9.3205    235.2011     40.1742   4.2401123637e+01   2.2123885760e+01    0.3979587    0.2372263   0.10  0.001573925    3.680    0.728
       275  -9.0011    207.8765     41.8207   4.6004981737e+01   2.8240669419e+01    0.1979204     0.180413  41.15 0.0003847651    1.251    0.201
       276  -8.6557    190.6895     41.8184   4.8378733265e+01   3.2444871352e+01      0.29981    0.1775553  -7.17  0.001217476    2.642    0.622
       277  -8.7282    225.0251     41.5281   4.3843348544e+01   2.4245329745e+01    0.1942998    0.1277648  68.01 0.0009588575    1.544    0.352
       278  -8.3449    197.2155     41.6118   4.7384820485e+01   3.0860798328e+01    0.1827508    0.1242477  54.69 0.0002663881    1.484    0.326
       279  -9.4980    173.5424     39.4182   5.0357897189e+01   3.7058170577e+01    0.3722067    0.2486916  44.16   0.00179051    1.569    0.362
       280  -8.3327    112.5327     41.4967   6.4183019784e+01   5.1625519025e+01    0.1442866    0.1324416  17.56 0.0008097632    1.007    0.007
       281  -9.5321    238.5252     52.0084   4.4828260603e+01   1.9788714382e+01    0.1940544    0.1704765  84.81 0.0006142778    1.175    0.149
       282  -9.4731     27.5997    193.5206   1.2192426989e+02   3.0472214276e+01    0.2121169     0.195499 -72.90 0.0009681017    1.338    0.252
       283  -9.3253     32.8868    192.1128   1.2070969373e+02   3.0237608519e+01    0.1754052    0.1298648 -51.36 0.0007194197    1.678    0.404
       284  -9.4226     11.0591    192.3893   1.2520119726e+02   3.2272349097e+01    0.2352214    0.1135296  42.98  0.001370235    1.932    0.482
       285  -8.1787    215.6763    189.6440   8.0304056982e+01   1.5817485983e+00    0.1460828   0.09586205   1.10 0.0007045763    1.767    0.434
       286 -11.3182    218.0771     35.4652   4.3136641303e+01   2.6646893613e+01    0.9262236    0.4045346  64.20  0.003188517    2.230    0.551
       287 -10.6916    213.9774     29.9373   4.2212902377e+01   2.8303819874e+01    0.5361546     0.346714  50.95  0.001855406    1.705    0.413
       288 -10.2413     10.5443    185.0815   1.2482817505e+02   3.3893407497e+01    0.3020592    0.2091481   4.60   0.00186593    2.429    0.588
       289  -9.0329    181.8521     38.0916   4.8645133881e+01   3.5142037466e+01     0.311076    0.2193483  42.48  0.001548544    1.543    0.352
       290  -9.2192    202.2294     37.9025   4.5705052269e+01   3.0122656835e+01    0.2349061    0.1866663  77.42 0.0004411017    1.230    0.187
       291  -9.0938    197.9849     37.3255   4.6113255475e+01   3.1234658279e+01    0.2116265    0.2013374 -84.14 0.0005731172    1.041    0.040
       292  -9.6719    199.6990     32.9225   4.4701010021e+01   3.1373191846e+01    0.4765404    0.2309283 -54.44  0.001982978    2.326    0.570
       293  -9.8635     31.8892    184.6443   1.2028887979e+02   3.1990186341e+01    0.2219523    0.1431466 -69.14  0.001336309    1.418    0.295
       294 -10.5502    245.0506     33.5786   3.9906643231e+01   2.0818556292e+01     0.585043    0.2932817  78.30  0.002832946    2.198    0.545
       295 -10.3650    235.6353     32.6274   4.0589875792e+01   2.2995449347e+01    0.4300295    0.3402419   8.66  0.001949419    1.837    0.456
       296 -10.5596    238.2835     26.6038   3.8951077201e+01   2.3151659053e+01    0.5597598    0.3215836  50.11  0.002732781    2.129    0.530
       297  -9.8797    135.7377     33.4683   5.5585902073e+01   4.7270047268e+01    0.4980847    0.2772726  20.82  0.001574001    2.737    0.635
       298  -8.6962      3.4731     34.2547   1.0499465892e+02   6.8489600537e+01    0.3302396    0.1015239 -30.62  0.001355685    3.502    0.714
       299 -10.4703      2.4294    178.3877   1.2606450614e+02   3.6016462775e+01    0.3541583    0.2195457 -72.56  0.002301226    1.390    0.281
       300  -9.0118     53.5073    182.5066   1.1527201224e+02   3.0072210917e+01    0.1291759    0.1085853  81.87 0.0008105935    1.011    0.010
       301  -9.7400    183.3636     33.5980   4.7123906427e+01   3.5335279225e+01    0.3832748    0.2186447  60.60   0.00110634    1.647    0.393
       302  -8.9044     79.8538    176.9568   1.0841024888e+02   2.7874594828e+01    0.2260108    0.1442537 -40.02  0.001083524    2.043    0.510
       303  -8.2449     65.4981    173.4583   1.1138603243e+02   3.0655179778e+01    0.1330949    0.1174575  86.03 0.0002065642    1.011    0.011
       304  -9.1222     31.1580    170.6753   1.1917361472e+02   3.5235299885e+01    0.1929993     0.136667  56.40  0.001183877    1.359    0.264
       305  -9.2423     26.2669    179.5920   1.2107878146e+02   3.3680268514e+01    0.2083975    0.1226123 -58.37  0.001188745    1.742    0.426
       306 -10.6652     32.5121    166.1338   1.1840862675e+02   3.6155505699e+01    0.2393715    0.2303315 -72.79 0.0003667771    1.269    0.212
       307  -9.4402     19.0045    165.5135   1.2149153510e+02   3.7551207485e+01    0.1627791    0.1165578  36.04   0.00103224    1.589    0.371
       308  -8.5994     13.2990    165.3616   1.2277761798e+02   3.8066479904e+01    0.1202053   0.07614688 -53.71 0.0007034666    1.717    0.417
       309 -11.1015     36.4226     27.1856   8.6147783377e+01   6.7051479937e+01    0.2513387    0.1909851 -10.43 0.0003222084    1.100    0.091
       310  -9.5876      2.3448    161.2743   1.2492574363e+02   3.9836069580e+01    0.2056456    0.1489759 -69.24  0.001297581    1.266    0.210
       311  -9.9818    172.7555     30.8926   4.7931119372e+01   3.8334154623e+01    0.4676423    0.2637348  36.13    0.0020034    2.233    0.552
       312  -9.2151    228.0107     30.9909   4.0968820854e+01   2.4914146654e+01    0.2556342    0.1652989 -75.93 0.0008129169    1.622    0.383
       313 -10.2645    227.4944     27.2764   4.0134984086e+01   2.5486428891e+01    0.4865775    0.2480073  57.45  0.002359474    2.047    0.512
       314  -9.6347     28.6019    158.2300   1.1853090573e+02   3.8385840693e+01    0.1929613    0.1638257  50.59 0.0002549358    1.284    0.221
       315 -10.2825    167.6714     29.2049   4.8223228677e+01   3.9818900825e+01    0.2641538      0.21726  65.13 0.0003732575    1.139    0.122
       316  -9.1119    167.2359     25.2372   4.7079972918e+01   4.0389952026e+01    0.2790608    0.1964799 -42.62  0.001441301    1.481    0.325
       317  -9.2305    160.4111     24.8151   4.8038698981e+01   4.2157946852e+01    0.3323658    0.2278054  80.21  0.001651208    1.550    0.355
       318  -9.2950    153.8029     24.6441   4.9098604209e+01   4.3838943571e+01     0.384941    0.3110168  85.08   0.00168597    1.305    0.234
       319  -9.8342    147.2171     29.1986   5.1793849149e+01   4.4960654675e+01    0.6104591    0.2666242  61.51  0.002448726    2.144    0.533
       320  -9.6463    147.3668     23.9389   5.0011401232e+01   4.5528097611e+01    0.2645226    0.2073069  50.16 0.0006570491    1.180    0.153
       321  -9.5282    203.3354     29.0888   4.3231283826e+01   3.0958164760e+01    0.3750971    0.2233548  -5.60   0.00120299    2.684    0.627
       322 -10.6877     18.0687    158.6553   1.2109525564e+02   3.9218709845e+01     0.299404    0.2168123  41.53  0.001925064    1.516    0.340
       323  -9.6295    185.8567     24.9792   4.4326031285e+01   3.5745198827e+01    0.4743771    0.1633265 -42.84 0.0008628867    2.885    0.653
       324 -10.1880    188.6877     19.4981   4.2435270826e+01   3.5656546413e+01    0.3693703    0.2115325  43.02  0.000887579    2.037    0.509
       325  -8.0951    250.3584     25.6776   3.7690606178e+01   2.0663247400e+01    0.1383874   0.07596197 -62.48 0.0005858803    1.770    0.435
       326  -8.2867    140.4618     23.4666   5.1147739810e+01   4.7294299017e+01    0.1417446    0.1263701  43.71 0.0008080048    1.049    0.046
       327 -10.0416     67.3468     12.9725   6.6424286295e+01   6.4446275723e+01    0.4455954    0.1772536  50.89  0.001905354    2.777    0.640
       328  -9.3921     17.6555    147.8465   1.2015897010e+02   4.1789353116e+01    0.2443234    0.1398507 -88.15 0.0007510767    1.562    0.360
       329  -9.5620     71.3963     16.6851   6.6708799692e+01   6.3280316967e+01    0.4299681    0.1828953  35.97  0.001901169    2.280    0.561
       330  -9.5162    230.2963     19.7501   3.8099600203e+01   2.5738756929e+01    0.3790416    0.2614402 -72.30  0.002183168    1.371    0.270
       331 -11.0127     14.1617    151.7046   1.2138858152e+02   4.1158168407e+01    0.3946151    0.3316514  84.19 0.0005013124    1.099    0.090
       332  -8.9631    101.1124     18.8469   5.8411634383e+01   5.7039257382e+01     0.182837    0.1673818  28.35  0.001123683    1.085    0.078
       333 -10.3176     20.1041    151.9989   1.1996913051e+02   4.0608173780e+01    0.2705973    0.2133481 -75.21  0.001125842    1.092    0.084
       334  -9.5085    198.3827     16.3973   4.0464461529e+01   3.3612115866e+01    0.2403508    0.1978432  55.78 0.0009160898    1.270    0.213
       335 -10.3177     45.4207    150.7983   1.1343381461e+02   3.8467074372e+01    0.2972829     0.198102 -62.10 0.0005882833    1.341    0.254
       336  -9.1075    193.8712     14.7482   4.0531677428e+01   3.4888751799e+01     0.247509    0.1607301 -79.89  0.001133509    1.621    0.383
       337  -8.7586    235.9689     13.7489   3.6242184015e+01   2.5151059168e+01    0.1778957    0.1068242 -86.31 0.0005684607    1.651    0.394
       338  -9.0826    233.6691     11.3030   3.5878815817e+01   2.5928209783e+01    0.1348376   0.07738752 -63.75 0.0007035304    1.653    0.395
       339  -9.9316     30.6559    151.5935   1.1730411001e+02   3.9768941981e+01     0.269026    0.1797008 -62.57 0.0005814469    1.340    0.254
       340  -9.4214     34.4744    150.4687   1.1620700671e+02   3.9673592780e+01    0.2111806    0.1593149  26.58 0.0005896919    1.609    0.378
       341  -9.1082      7.9428    151.5926   1.2287136788e+02   4.1653215201e+01    0.1964211    0.1313965 -70.07 0.0004664373    1.250    0.200
       342 -10.4934    247.0542     18.7550   3.6454692619e+01   2.2180564862e+01    0.4884767     0.221517  79.00  0.001983023    2.311    0.567
       343  -9.7457     68.0093    147.5271   1.0697691009e+02   3.6534215837e+01    0.3315841    0.2463113  24.66  0.001763321    1.597    0.374
       344 -10.5070     40.2700    146.5431   1.1421982444e+02   4.0041628859e+01    0.3334865    0.2125959 -44.15  0.001444012    1.777    0.437
       345 -11.0400     38.1182    143.1789   1.1434816728e+02   4.1075239789e+01    0.3518235    0.3043888 -25.54  0.001327827    1.458    0.314
       346  -9.0815      1.4309    147.4859   1.2408162066e+02   4.3054444571e+01    0.1790996    0.0827381 -68.72 0.0005958294    1.685    0.407
       347  -8.8098     10.7477    144.4062   1.2154221848e+02   4.3128420761e+01    0.1702744    0.1206137  -5.78 0.0003199381    2.114    0.527
       348 -10.0191      5.3738    147.3241   1.2312212171e+02   4.2826569801e+01    0.2116587     0.173645  70.97 0.0005526873    1.204    0.169
       349 -10.2841      6.3155    142.5218   1.2246849418e+02   4.3882322151e+01    0.2629519    0.1854462 -85.39  0.000504815    1.129    0.114
       350  -8.5405     96.3343    147.2868   9.9311967239e+01   3.2373036745e+01     0.145065    0.1152927 -18.60 0.0003088855    1.626    0.385
       351 -10.3396     22.3375    146.6786   1.1886255377e+02   4.1681600084e+01    0.3988186     0.207223 -87.51  0.001883733    1.845    0.458
       352  -9.7917     15.3063    143.1943   1.2027907152e+02   4.3074570686e+01    0.2599809    0.1826229 -88.87  0.000438736    1.208    0.172
       353 -10.4316     16.5928    138.6788   1.1947660364e+02   4.4049547343e+01    0.5822216    0.3175979  64.17  0.003041983    2.036    0.509
       354 -10.6545     29.9556    142.1618   1.1637873362e+02   4.2098310153e+01    0.5254848    0.2044485 -67.65  0.002347919    2.078    0.519
       355  -9.4688     98.8332    139.7106   9.7125237545e+01   3.3783145493e+01    0.2761351    0.2082537 -63.82 0.0004300459    1.320    0.243
       356  -9.3391     47.4708    139.3947   1.1129272575e+02   4.1021594467e+01    0.2652119    0.1741824 -67.68  0.001365114    1.318    0.241
       357 -10.5178     58.4497    138.0069   1.0803720275e+02   4.0091852818e+01    0.4679169    0.1764881  36.53  0.001876649    2.728    0.633
       358 -10.2232     22.5119    136.8244   1.1771000742e+02   4.4026138180e+01     0.303767    0.1675464 -56.77  0.001318789    1.606    0.377
       359  -9.8451      3.3390    136.3494   1.2265162695e+02   4.5523384262e+01    0.3152875    0.1988082  -3.49   0.00183977    2.426    0.588
       360  -9.1134    236.9916    135.5037   6.4779432846e+01   6.7815863194e+00    0.2011641    0.1130572  23.05 0.0008106646    2.628    0.620
       361  -9.7834    211.6239     17.2054   3.9270551054e+01   3.0343590838e+01     0.410657    0.1922683  62.08  0.001918683    2.016    0.504
