#   1 NUMBER                 Running object number                                     
#   2 MAG_AUTO               Kron-like elliptical aperture magnitude                    [mag]
#   3 X_IMAGE                Object position along x                                    [pixel]
#   4 Y_IMAGE                Object position along y                                    [pixel]
#   5 X_WORLD                Barycenter position along world x axis                     [deg]
#   6 Y_WORLD                Barycenter position along world y axis                     [deg]
#   7 A_WORLD                Profile RMS along major axis (world units)                 [deg]
#   8 B_WORLD                Profile RMS along minor axis (world units)                 [deg]
#   9 THETA_WORLD            Position angle (CCW/world-x)                               [deg]
#  10 FWHM_WORLD             FWHM assuming a gaussian core                              [deg]
#  11 ELONGATION             A_IMAGE/B_IMAGE                                           
#  12 ELLIPTICITY            1 - B_IMAGE/A_IMAGE                                       
         1 -14.8994    159.7554     41.8119   2.9027715363e+02   6.3177637819e+00   0.06178728   0.04961494 -55.17  0.004719344    1.224    0.183
         2 -14.5521    171.9958      8.6344   2.8993127998e+02   6.6221349413e+00   0.05246255    0.0466002 -41.95  0.003978416    1.128    0.113
         3 -11.6849    189.8585     14.3900   2.8976258969e+02   6.4487091864e+00   0.01156054   0.00922748 -77.01 0.0008606919    1.351    0.260
         4 -10.2837    151.1015    244.1015   2.9162569892e+02   4.0601136149e+00  0.009976429  0.008399555 -35.00 0.0004684819    1.230    0.187
         5 -13.3888    190.8154    249.4415   2.9120519317e+02   3.7603918976e+00   0.03959599   0.01681965  21.59  0.003147059    2.749    0.636
         6 -13.4953    198.8404    246.8758   2.9109780347e+02   3.7414185549e+00    0.0367585   0.01825895  49.60  0.003154644    2.405    0.584
         7 -19.9800     79.4539    192.9686   2.9212985277e+02   5.0745142597e+00    0.7916812    0.3408868 -63.46   0.06628989    2.383    0.580
         8 -11.5641    124.1360    185.6401   2.9157373709e+02   4.8900460635e+00   0.01636605  0.009881054  48.66  0.001592437    1.824    0.452
         9 -13.0366    198.8593    222.7944   2.9094913725e+02   4.0162737704e+00   0.02045414   0.01285778  29.03  0.001168908    1.589    0.371
        10 -12.7564    157.2723    178.4007   2.9115029533e+02   4.7735295343e+00   0.01534459   0.01174152 -62.14 0.0007542805    1.303    0.233
        11 -12.4317    144.9099    178.9807   2.9129517834e+02   4.8412589072e+00   0.01609816   0.01342601 -15.95  0.001760568    1.322    0.244
        12 -14.3092    146.1797    170.6213   2.9122908959e+02   4.9291145866e+00   0.03646982   0.02782981  68.64  0.003463203    1.550    0.355
        13 -13.4786    123.4386    166.3450   2.9146274380e+02   5.1146870805e+00   0.04297316    0.0238694  85.16  0.002415948    3.381    0.704
        14 -13.6723    138.2670    172.2293   2.9132947479e+02   4.9583284625e+00   0.03488455   0.02389719  65.09  0.002752513    1.833    0.454
        15 -11.8736    131.1681    170.9792   2.9140293387e+02   5.0152869891e+00   0.02289367   0.01126074  46.50  0.001795738    2.264    0.558
        16 -13.1959    177.0317    177.5066   2.9091897885e+02   4.6648327731e+00   0.01786225   0.01451098  58.81  0.002046185    1.346    0.257
        17 -13.5437    177.4962    169.9788   2.9086719447e+02   4.7480054081e+00   0.02162696   0.01800042  13.46  0.002525783    1.264    0.209
        18 -12.1541    168.4063    175.8569   2.9100735365e+02   4.7355905756e+00   0.01189137  0.009396654  27.87 0.0005672487    1.272    0.214
        19 -10.8938     17.9868    173.5807   2.9271394971e+02   5.6642453807e+00   0.01233121  0.009818013 -15.99 0.0006253811    1.427    0.299
        20 -11.5976     25.8458    172.3972   2.9261671462e+02   5.6307666527e+00   0.01722152   0.01203265  31.58  0.001257656    1.423    0.297
        21 -12.0360    202.0759    165.7044   2.9055999012e+02   4.6487684290e+00    0.0167744   0.01228842  58.66  0.001300542    1.562    0.360
        22 -11.3412     20.3851    166.8509   2.9264512332e+02   5.7268293456e+00   0.01254341  0.009718386  12.29 0.0008109855    1.397    0.284
        23 -11.8108     22.4766    221.0130   2.9295385971e+02   5.0951530747e+00   0.01357552  0.008744223 -40.77  0.001372621    1.648    0.393
        24 -11.4144    223.6939    163.7042   2.9030076815e+02   4.5413049435e+00   0.01220495   0.01086477  78.20 0.0004304485    1.218    0.179
        25 -10.7889     14.4697    161.2190   2.9267821953e+02   5.8265819146e+00   0.01957593  0.007280052 -57.22  0.001566808    2.499    0.600
        26 -11.9504     17.4242    154.1881   2.9260115067e+02   5.8892771593e+00   0.02484798   0.01027092 -61.11  0.002061326    2.375    0.579
        27 -13.4407    164.2891    157.7825   2.9094281702e+02   4.9667962818e+00   0.02541692   0.01297875  34.55  0.002359207    1.905    0.475
        28 -10.4416     11.3295    157.3152   2.9269017231e+02   5.8899782493e+00    0.0146145  0.009367248 -11.63   0.00136472    2.184    0.542
        29 -10.6220     23.0494    156.1923   2.9254906821e+02   5.8327222864e+00   0.01003469  0.008739141 -21.04 0.0004898296    1.222    0.182
        30 -14.1276    134.2065    145.7266   2.9121235191e+02   5.2854891029e+00   0.05632854   0.01941955 -68.90  0.003700223    4.036    0.752
        31 -10.0716    183.4847    150.4550   2.9067815774e+02   4.9348845068e+00  0.006538865  0.006355544  64.06 7.908286e-05    1.055    0.052
        32 -14.7363    144.6430    145.4682   2.9109139206e+02   5.2256651917e+00   0.04788963   0.03042454  87.41  0.004458171    2.245    0.555
        33 -12.7967    174.1689    148.3988   2.9077192130e+02   5.0144716614e+00    0.0180715   0.01521049 -87.02   0.00179855    1.306    0.234
        34 -12.3063     27.4546    145.5224   2.9243296687e+02   5.9283140672e+00   0.01827898   0.01411773 -44.18  0.001253812    1.304    0.233
        35 -11.6206    139.7883    148.9391   2.9116834550e+02   5.2152249259e+00   0.01097085  0.009542495  24.04 0.0003297015    1.162    0.140
        36 -11.2464     23.7261    215.3268   2.9290467711e+02   5.1526862206e+00   0.01082846  0.008784058 -41.91 0.0004637912    1.249    0.199
        37 -13.5591    153.8054    146.0530   2.9099022851e+02   5.1638531727e+00    0.0244442   0.01609363  46.22  0.002401212    1.602    0.376
        38 -12.2893     22.0208    242.8690   2.9309310847e+02   4.8480170531e+00   0.01458284  0.009410311 -64.25  0.001494011    1.569    0.363
        39 -10.6901      7.4103    149.6237   2.9268775360e+02   6.0013213979e+00   0.01553925  0.008967373 -26.73   0.00136092    2.418    0.586
        40 -10.9933      7.9714    239.7017   2.9323430693e+02   4.9681985905e+00  0.008381142  0.007230471 -59.60 0.0005855372    1.148    0.129
        41 -13.5702    136.0000    128.5237   2.9108559353e+02   5.4711832025e+00   0.06528804   0.01530055 -67.02  0.002930025    8.514    0.883
        42 -13.0210     11.4134    206.1081   2.9298894187e+02   5.3316939432e+00   0.02924546   0.01714524  17.55  0.002314994    1.935    0.483
        43 -10.2812     13.7113    238.7851   2.9316306927e+02   4.9443779426e+00  0.007748528  0.005875461 -65.37 0.0003359389    1.334    0.250
        44 -12.8828    160.7566    127.9847   2.9079909792e+02   5.3283388554e+00   0.01928279   0.01592312 -84.08  0.002025402    1.331    0.249
        45 -10.3250     25.9377    228.9888   2.9296321255e+02   4.9832728971e+00  0.007579674  0.006551977 -60.31            0    1.147    0.128
        46 -11.9447    140.7175    199.6657   2.9147063795e+02   4.6301550934e+00    0.0132846     0.011904 -14.69 0.0002734184    1.178    0.151
        47 -13.9803    167.1079    191.1115   2.9111632348e+02   4.5691706770e+00   0.03448683   0.02462884  68.54  0.003590702    1.741    0.425
        48 -13.7778    174.6218    193.4457   2.9104487989e+02   4.4972996363e+00   0.03049172   0.02113997 -83.22  0.002110464    1.743    0.426
        49 -13.0434    180.1146    192.5443   2.9097657269e+02   4.4745370648e+00   0.02181307   0.01645863  81.13  0.001347993    1.616    0.381
        50 -13.8976    176.7075    188.2196   2.9098880640e+02   4.5444347901e+00   0.04451498   0.02269433 -84.95  0.003245943    3.650    0.726
        51 -12.2002    136.3028    197.1340   2.9150549123e+02   4.6856126874e+00   0.02443583   0.01467669  69.86  0.002142044    2.535    0.605
        52 -13.7499    195.4804    237.8745   2.9108067749e+02   3.8644113049e+00   0.02922424   0.01512013 -42.96    0.0026395    2.082    0.520
        53 -10.7641    205.5263    110.1910   2.9017724484e+02   5.2616259178e+00   0.01215991  0.009296658  25.61 0.0006626258    1.325    0.245
        54 -14.3949    207.1542    179.4229   2.9058674644e+02   4.4615460504e+00   0.03942773   0.03790097 -52.97   0.00413038    1.030    0.029
        55 -11.6655     26.4735     97.6842   2.9214948626e+02   6.4807820652e+00   0.02102584   0.01449966   2.07  0.002078663    1.788    0.441
        56 -13.6714    196.7681    172.4594   2.9066234806e+02   4.6036204792e+00   0.03636406   0.02030941 -70.89  0.002756398    2.037    0.509
        57 -12.8099    148.2033    188.6295   2.9131704447e+02   4.7112310094e+00   0.01959743   0.01335325  -6.82  0.001950425    1.913    0.477
        58 -13.1521     30.7376    182.5050   2.9262286523e+02   5.4859555925e+00    0.0366166   0.02252718  64.27 0.0002890122    2.229    0.551
        59 -11.9270     27.5469    179.9795   2.9264385680e+02   5.5339154160e+00   0.02079408   0.01386774 -22.58  0.002060266    1.901    0.474
        60 -14.2601    148.9863     56.5562   2.9049178220e+02   6.2144965886e+00   0.04274265   0.03481275 -35.37 0.0009610344    1.281    0.220
        61 -10.4336    159.8990    247.2029   2.9154433216e+02   3.9718239865e+00   0.01341017   0.00730436 -39.35  0.001211944    2.087    0.521
        62 -12.9976    163.4414     33.2224   2.9018171486e+02   6.3934830765e+00   0.02007007   0.01718052 -53.37 0.0008437973    1.151    0.131
        63 -11.0678     13.3843     59.8509   2.9206614821e+02   6.9911447806e+00   0.01089857  0.008812024  43.31 0.0005093018    1.262    0.208
        64 -11.7800    168.1627    243.9031   2.9142966246e+02   3.9598441073e+00  0.009882994  0.008840335  67.80 0.0002996121    1.198    0.166
