#   1 NUMBER                 Running object number                                     
#   2 MAG_AUTO               Kron-like elliptical aperture magnitude                    [mag]
#   3 X_IMAGE                Object position along x                                    [pixel]
#   4 Y_IMAGE                Object position along y                                    [pixel]
#   5 X_WORLD                Barycenter position along world x axis                     [deg]
#   6 Y_WORLD                Barycenter position along world y axis                     [deg]
#   7 A_WORLD                Profile RMS along major axis (world units)                 [deg]
#   8 B_WORLD                Profile RMS along minor axis (world units)                 [deg]
#   9 THETA_WORLD            Position angle (CCW/world-x)                               [deg]
#  10 FWHM_WORLD             FWHM assuming a gaussian core                              [deg]
#  11 ELONGATION             A_IMAGE/B_IMAGE                                           
#  12 ELLIPTICITY            1 - B_IMAGE/A_IMAGE                                       
         1  -9.0582     74.0196     19.4930   7.4050352715e+01   6.3721490672e+01    0.3279964    0.1782208 -46.13 0.0007014598    2.055    0.513
         2  -8.7071     90.8676      9.2689   6.3226502135e+01   6.1360357205e+01    0.2501093    0.1830535 -37.34 0.0007628321    1.413    0.292
         3  -8.6044     55.6972     10.1100   7.6362155275e+01   6.8736331904e+01    0.1998111    0.1899419  60.58 0.0006097819    1.299    0.230
         4  -7.7896     47.5447     10.0525   8.0204153713e+01   7.0184781148e+01    0.1796827    0.1070915 -55.58 0.0008080439    2.468    0.595
         5  -7.8479     12.7137      9.2916   1.0109181033e+02   7.4829776200e+01    0.1071296   0.09305374  88.78 0.0002147524    1.539    0.350
         6  -7.8239    101.3829      8.1994   5.9923733606e+01   5.8927842002e+01    0.1991072    0.1245297 -34.87  0.000398292    1.617    0.382
         7  -7.4577    171.4671      6.4611   4.7627654169e+01   4.0550848717e+01    0.1415785    0.1349219 -68.35 0.0002361239    1.013    0.012
         8  -8.8907    137.9624      5.2503   5.1509821874e+01   4.9678268152e+01    0.2579191    0.2000165 -36.45  0.000321674    1.308    0.235
         9  -8.6742     33.4928      5.0320   8.4778016529e+01   7.3206829809e+01     0.315332    0.1893259 -58.38  0.001489213    2.598    0.615
        10  -8.5127     79.1401      3.8209   6.3765307384e+01   6.4712884032e+01    0.3087118    0.1643375 -38.58  0.001091629    1.974    0.493
        11  -7.8962     44.4506      3.2308   7.7490586604e+01   7.1759748831e+01    0.1788274    0.1123684 -41.85 0.0006453375    1.641    0.391
        12  -7.4816    115.3077      2.2881   5.4083666219e+01   5.5969263462e+01    0.1510457   0.09937698  35.09 0.0002791613    1.573    0.364
        13  -8.5429     62.3203      1.6008   6.8349006232e+01   6.8611071486e+01    0.2105627    0.1613648  65.87 0.0005589685    1.614    0.380
        14  -7.2397     52.6717      1.2970   7.2230338616e+01   7.0550453001e+01    0.1230774    0.1032672 -61.48 0.0003845305    1.634    0.388
        15  -7.5935     39.4770      1.4787   7.8972167340e+01   7.2848820680e+01    0.1270477    0.1117967 -17.59 6.808754e-06    1.081    0.075
        16  -9.1756    120.3588    245.5572   1.1121698855e+02   1.3228826711e+01    0.2837411      0.15402  61.54  0.001582007    2.433    0.589
        17  -9.2349    211.1518    247.2000   9.6393258763e+01   1.2117471123e+00    0.2336469    0.1733357 -49.87  0.001513584    2.623    0.619
        18  -8.4439    200.8438    249.9025   9.8323136599e+01   2.2666663258e+00    0.2400534    0.1024505  26.22 0.0009795418    2.110    0.526
        19  -8.1415    191.5807    249.7627   9.9765866014e+01   3.4612040349e+00    0.1045075   0.09802511 -21.89 0.0005839543    1.601    0.375
        20  -8.9191     93.8509    249.3944   1.1611085204e+02   1.6042376981e+01    0.2001607    0.1191313  78.14  0.001060273    2.280    0.561
        21  -7.8918     72.3151    250.3597   1.1987141398e+02   1.8443501447e+01   0.08671922   0.07312701  10.33            0    1.753    0.430
        22  -9.9145     10.0151    245.5609   1.3014534870e+02   2.5486261275e+01    0.2722397    0.1152743  79.16  0.001884996    2.195    0.544
        23  -8.3607    191.3084    245.9495   9.9359321863e+01   3.8681903854e+00    0.1408292     0.103548  21.41 0.0004086425    1.094    0.086
        24  -9.5374     78.4773    243.7330   1.1838763063e+02   1.8658129807e+01    0.3549763    0.1314301  59.30  0.001775339    3.261    0.693
        25  -8.4264     67.5332    244.9657   1.2037358755e+02   1.9746219905e+01    0.1257871   0.09251681 -87.51  0.001026402    1.577    0.366
        26  -8.2424     49.8440    243.8313   1.2337391947e+02   2.1854417334e+01    0.2381908   0.08538152  77.31  0.001097486    4.682    0.786
        27  -8.9848    202.0058    243.5181   9.7362917279e+01   2.7178322156e+00    0.1498831    0.1419625 -21.36 0.0008306829    1.656    0.396
        28  -9.0362    169.0596    243.0298   1.0265553949e+02   7.1035304735e+00    0.1815048     0.154127 -31.37 0.0008613304    1.571    0.363
        29  -8.4196    139.4081    244.2815   1.0781015375e+02   1.0902295254e+01    0.1156425   0.09964436  87.06 0.0009450488    1.636    0.389
        30  -8.0675     86.3692    250.2902   1.1745998371e+02   1.6818564125e+01     0.119605   0.08440156  78.12 0.0009394578    1.620    0.383
        31  -7.4873     58.3563    244.6661   1.2194704709e+02   2.0812825671e+01    0.1113874    0.0500202  56.05 0.0007043008    1.796    0.443
        32  -8.7270     34.4079    244.1915   1.2603101995e+02   2.3391331377e+01     0.131259   0.06938202  73.33 0.0009481569    1.754    0.430
        33  -8.4515    214.1538    241.8154   9.5249760769e+01   1.3187226765e+00     0.143554   0.09042988  17.34 0.0007295458    1.288    0.224
        34  -9.2066    183.0294    239.6916   9.9952812461e+01   5.5961738900e+00    0.2787168    0.2602685  84.73  0.002074638    1.778    0.438
        35  -9.3586    160.2329    240.3774   1.0384249057e+02   8.5835526034e+00    0.2425677    0.1897558 -82.97  0.001416981    2.316    0.568
        36  -7.9848    153.3778    242.1852   1.0520486717e+02   9.2945203692e+00    0.1148492     0.101392 -80.13 0.0005520302    1.707    0.414
        37  -8.2607     88.2911    242.0844   1.1654820619e+02   1.7717511137e+01    0.1367528    0.1067248  60.34 0.0005041471    1.201    0.167
        38  -8.7457      3.5008    240.9990   1.3110854834e+02   2.6738442147e+01    0.2200935   0.01505633  52.27  0.001043855    3.612    0.723
        39  -8.0636    240.4917    240.4875   9.1111427486e+01  -1.8331551710e+00    0.1350121   0.07803207  -6.28 0.0009813653    1.706    0.414
        40  -8.8897    241.7833    237.2058   9.0476870887e+01  -1.7210999956e+00    0.2541924    0.1067251  17.61  0.001371966    2.761    0.638
        41  -8.9876    194.0682    239.7832   9.8166248421e+01   4.1195915016e+00    0.1476519    0.1296293  20.31 0.0005257083    1.325    0.245
        42  -8.9755    194.6494    233.0468   9.7220966422e+01   4.7278746418e+00    0.3214133    0.1933742 -14.72  0.002072337    2.078    0.519
        43  -8.5177    146.2451    239.6600   1.0616008836e+02   1.0551294021e+01    0.1500863    0.1286274  89.50 0.0006163148    1.708    0.414
        44  -8.5022     41.1661    239.5850   1.2467578861e+02   2.3395383421e+01    0.1534912    0.0663888 -83.82 0.0006297025    2.641    0.621
        45  -9.1420    135.9063    239.0928   1.0789795595e+02   1.2007664070e+01    0.2069059    0.1130667  49.51  0.001322668    1.671    0.401
        46  -8.5338    129.0560    238.4582   1.0903626101e+02   1.3001593915e+01    0.1767409    0.1473603 -75.51   0.00109367    1.654    0.395
        47  -9.3471    230.9213    236.8395   9.2037081313e+01  -3.5401427579e-01    0.2305588    0.1687338 -27.11  0.001393478    1.777    0.437
        48  -7.9142    209.2597    238.6521   9.5604972467e+01   2.2403745198e+00   0.08655262   0.07419387  40.39 0.0003315232    1.602    0.376
        49  -8.9592     25.8457    237.6955   1.2724816987e+02   2.5209325940e+01    0.2048409    0.0770717  63.27  0.001250876    2.228    0.551
        50  -8.2010     58.2936    237.1422   1.2154235998e+02   2.1930371627e+01    0.2960003   0.02067292  37.51  0.001094335    4.795    0.791
        51  -9.7919    214.8796    233.3847   9.4031075501e+01   2.0063078827e+00    0.3574275    0.2916224  85.42  0.002246835    3.688    0.729
        52  -8.8388    203.2278    234.9559   9.6081918942e+01   3.3877045254e+00    0.2195497    0.1591553 -46.00  0.001522703    2.244    0.554
        53  -7.8857    204.2300    230.6205   9.5351007202e+01   3.6851889305e+00    0.1516051   0.07478957  30.23 0.0004712568    1.574    0.365
        54  -9.7493    175.7712    233.4524   1.0040532893e+02   7.2550111938e+00    0.3233882    0.1943834 -53.41  0.002062535    2.775    0.640
        55  -8.3884    170.2777    235.7787   1.0161273956e+02   7.7452337189e+00    0.1586114   0.09597569 -51.64 0.0007059876    2.542    0.607
        56  -9.5823    108.9825    234.4574   1.1223906660e+02   1.6180644762e+01    0.3671848    0.1605666  48.69   0.00110049    1.902    0.474
        57  -8.7623     99.6663    234.3184   1.1390899601e+02   1.7399481486e+01    0.2149593    0.1370526  71.91  0.001373253    1.903    0.474
        58  -8.9249     78.6956    234.3506   1.1770611917e+02   1.9990710975e+01    0.2154518     0.124374  72.31  0.001147733    1.972    0.493
        59  -8.4314    122.9669    234.1883   1.0970148784e+02   1.4373882699e+01    0.1691068    0.1136646  52.13 0.0008677768    1.355    0.262
        60  -9.3394     68.2185    232.3362   1.1946780425e+02   2.1529787032e+01    0.3769902    0.1516761  60.98  0.001997366    2.702    0.630
        61  -8.2748    132.6961    233.1204   1.0785663765e+02   1.3205889466e+01    0.1601253    0.1192832  62.10  0.001164448    1.550    0.355
        62  -8.9845    236.1295    230.8583   9.0433998600e+01  -4.8796964230e-01    0.1760533    0.1497828 -11.11 0.0008335485    1.549    0.355
        63  -9.2584    186.4441    230.7535   9.8279665237e+01   6.0872610466e+00    0.2414141    0.2020363 -88.82  0.001268002    2.389    0.581
        64  -8.6359     92.6063    231.6294   1.1497083348e+02   1.8681283928e+01     0.220305    0.1116777  59.45 0.0009991606    2.063    0.515
        65  -8.9800      1.7820    230.9102   1.3117249903e+02   2.8442031777e+01    0.1799684   0.08401372  64.28 0.0008487251    1.566    0.361
        66  -9.9979    149.7354    226.2775   1.0406789466e+02   1.1736466043e+01    0.4690921    0.3075012 -89.33  0.002463684    3.864    0.741
        67  -8.6618    140.1716    230.1611   1.0621039093e+02   1.2568624715e+01    0.2002408    0.1231618  45.77  0.000770935    1.359    0.264
        68  -8.0241    229.8277    229.0508   9.1130597120e+01   4.7101969561e-01    0.1267404    0.1223304 -40.21  0.001062804    1.981    0.495
        69  -9.6212      8.6952    228.7185   1.2992877143e+02   2.8192935212e+01    0.1994743    0.0680453  66.74  0.001173312    2.417    0.586
        70  -8.8900    128.0289    227.3988   1.0810493160e+02   1.4607238128e+01    0.2524577    0.1542557  58.44  0.001261857    1.856    0.461
        71  -8.1014    120.0190    227.9612   1.0962338081e+02   1.5620893743e+01    0.1769917    0.1072189  58.13  0.001121476    1.773    0.436
        72  -8.3415    110.0442    228.1504   1.1147045866e+02   1.6930239758e+01    0.2767892    0.1141977  27.64  0.001269556    3.140    0.681
        73  -8.0188    223.4658    227.0614   9.1827830626e+01   1.4776480880e+00     0.134987   0.09319839 -17.88 0.0005310893    1.550    0.355
        74  -8.6272    206.1135    225.6694   9.4378667319e+01   3.9307427434e+00    0.2073761    0.1517376 -32.20 0.0008023839    1.745    0.427
        75  -8.4796     49.3681    226.8972   1.2258046632e+02   2.4492956441e+01     0.214086   0.09972402  65.71  0.001104937    2.058    0.514
        76  -9.1602    216.2748    224.3006   9.2565230860e+01   2.6945605844e+00    0.2750746    0.1766155 -20.61  0.001976874    1.696    0.410
        77  -8.2263    199.9861    226.2839   9.5457682670e+01   4.7040668667e+00     0.149913    0.1107246  25.35 0.0005282679    1.033    0.032
        78  -9.0248     94.2874    224.5898   1.1407318821e+02   1.9512779585e+01     0.388179    0.1612057  57.84  0.001907163    2.898    0.655
        79  -8.3415     78.4938    225.9716   1.1713311789e+02   2.1281089296e+01    0.1451103   0.07410555  72.18 0.0008099285    2.531    0.605
        80  -8.7722    180.6012    224.3311   9.8436451346e+01   7.6144221704e+00    0.1961008    0.1499537  53.06 0.0007205931    1.660    0.397
        81  -8.8352    104.9979    224.0518   1.1202314802e+02   1.8194557647e+01    0.2305783    0.1540348  74.65  0.001528976    1.867    0.464
        82  -8.5447     38.3249    224.8242   1.2449523023e+02   2.5992029124e+01    0.1759841   0.07812474  86.07  0.001047509    2.498    0.600
        83  -8.8340    173.0613    223.4815   9.9622749778e+01   8.7799435328e+00    0.1662641    0.1553081 -89.59 0.0007050753    1.627    0.385
        84  -8.3310    113.8887    224.1127   1.1037278223e+02   1.6995647898e+01    0.1678793    0.1212853  55.15 0.0006427889    1.282    0.220
        85  -8.0437     59.9470    224.1499   1.2046363197e+02   2.3754974582e+01    0.1893485   0.07558213  53.20  0.001068154    2.027    0.507
        86  -9.2695    160.5058    221.4632   1.0157131166e+02   1.0817687103e+01    0.4731187    0.2058503  53.63  0.002067382    3.698    0.730
        87  -8.6143    140.1732    222.7485   1.0538591230e+02   1.3546285989e+01    0.1670155    0.1453151  72.32 0.0008221234    1.447    0.309
        88  -9.3972    249.0714    219.2054   8.6837318550e+01  -1.1054471272e+00    0.2921546    0.2336487 -32.66  0.002303072    1.973    0.493
        89  -9.3626    239.1030    221.1596   8.8599540053e+01  -1.1084836418e-02     0.275352    0.1479945 -11.43  0.001568408    1.939    0.484
        90  -9.1936    225.4928    221.7073   9.0752986309e+01   1.7149835893e+00    0.1884925    0.1441195  23.98 0.0005519562    1.183    0.155
        91  -9.2445    192.3200    221.3058   9.6051358003e+01   6.3029992332e+00      0.21163    0.1951547  69.27  0.001029848    1.741    0.426
        92  -8.8551    162.5073    228.0210   1.0202155028e+02   9.7260867791e+00    0.2963418    0.1488762  46.79  0.001295573    1.861    0.463
        93  -9.1246    120.5257    219.3588   1.0864879867e+02   1.6774489909e+01    0.3575215    0.1817979  60.07  0.001841538    2.684    0.627
        94  -9.0564     82.4507    220.2855   1.1594651764e+02   2.1678063371e+01     0.250712    0.1325236  67.08   0.00113231    2.202    0.546
        95  -8.3693     73.1684    220.9740   1.1776131293e+02   2.2709968811e+01     0.180577   0.09425736  66.96 0.0009621972    2.085    0.520
        96  -7.9572     27.4975    221.5073   1.2632749834e+02   2.7618201387e+01     0.102766   0.07361771  56.94 -6.032027e-05    1.019    0.019
        97  -8.4514    210.2841    219.5855   9.2855183906e+01   3.9816335898e+00    0.1682997    0.1417645  24.08 0.0007117779    1.274    0.215
        98  -8.2170    202.7145    220.1476   9.4166826605e+01   4.9720184395e+00    0.1403021    0.1331778  13.47 0.0006472623    1.479    0.324
        99  -8.7893    180.0169    218.4434   9.7758163114e+01   8.3810910683e+00    0.3051279    0.2228444 -85.26  0.001660125    3.721    0.731
       100  -9.2836    133.0782    216.1582   1.0594237422e+02   1.5464475869e+01     0.418307    0.2274502  64.29  0.002031141    3.235    0.691
       101  -8.6489    111.8456    217.5558   1.1010147950e+02   1.8237765534e+01    0.2107119    0.1189784  64.23  0.001082715    2.293    0.564
       102  -8.6925     62.4506    217.5759   1.1955943316e+02   2.4528814377e+01     0.305075    0.1096734  54.17  0.001562598    2.454    0.593
       103  -8.9176     51.7199    217.6057   1.2160674244e+02   2.5741300159e+01    0.1957188    0.1185081  77.55 0.0008864696    1.630    0.386
       104  -8.8274    169.3442    216.3672   9.9349476985e+01   1.0177738496e+01    0.2079991    0.1864826  81.46 0.0009313183    1.668    0.400
       105  -8.8188    142.9529    216.4235   1.0413692415e+02   1.4007796441e+01    0.2271663    0.1711779  78.92  0.001026795    2.000    0.500
       106  -8.9324    231.8885    215.1686   8.8805599680e+01   1.4850240676e+00    0.2728333    0.1595068  18.17  0.001830255    1.440    0.305
       107  -7.8117     18.5204    215.9602   1.2776097620e+02   2.9394691036e+01    0.1423471   0.08486659  89.97  0.001039318    1.613    0.380
       108  -8.4953    185.7414    214.4434   9.6223137375e+01   8.0238739049e+00    0.1862364    0.1559315  49.24 0.0008154559    1.488    0.328
       109  -8.1082    154.4011    215.1759   1.0188175926e+02   1.2512114879e+01    0.1293815    0.1105534 -71.61 0.0006073568    1.685    0.406
       110  -9.1387     93.1510    213.9630   1.1334553008e+02   2.1305795465e+01    0.3522711    0.1523747  56.14  0.001356503    2.479    0.597
       111  -7.8464     41.2444    215.2243   1.2346252888e+02   2.7269658704e+01    0.1559048   0.07026316  82.67 0.0008816167    2.478    0.596
       112  -9.5064    214.1407    212.4052   9.1188175771e+01   4.1884881508e+00    0.3027273    0.2087308  49.49  0.001622999    1.931    0.482
       113  -7.8007    197.1796    214.6024   9.4301249774e+01   6.3562298534e+00    0.1697695   0.08109962  29.96 0.0009496882    1.781    0.438
       114  -9.3862     73.1188    211.9906   1.1708462355e+02   2.4175179356e+01     0.532727    0.1581076  54.55  0.002153996    3.856    0.741
       115  -8.2327    224.9095    212.9259   8.9552232082e+01   2.6447380038e+00    0.1421796    0.1291276  42.36  0.001112538    1.706    0.414
       116  -8.6364    161.5621    212.3637   1.0021642728e+02   1.1829685872e+01    0.1766534    0.1489992  58.19 0.0006480711    1.454    0.312
       117  -8.1935    106.6603    213.1028   1.1064373856e+02   1.9626655319e+01    0.1676668    0.1227466  68.23 0.0007816794    1.479    0.324
       118  -9.0519    204.3331    210.9460   9.2577343236e+01   5.7352410975e+00    0.1989843    0.1924873 -76.06 0.0008010684    1.735    0.424
       119  -9.4530    175.7021    210.3866   9.7412174499e+01   9.9873672270e+00    0.3487188     0.233293  63.97  0.001540068    2.647    0.622
       120  -9.0391      5.8278    208.0413   1.2985863229e+02   3.1875369976e+01    0.2240909   0.09252789  73.74  0.001165462    2.068    0.516
       121  -9.3579    237.1616    209.1459   8.7083943378e+01   1.3518693191e+00    0.2938411    0.2562816 -66.74  0.002052762    2.702    0.630
       122  -8.4734    192.4129    210.7383   9.4553517429e+01   7.4840735438e+00     0.170098    0.1078634 -39.68  0.000739928    2.002    0.500
       123  -8.8827    147.8634    210.4648   1.0248986007e+02   1.4111682618e+01    0.2514874    0.1653131  60.10  0.001193488    1.948    0.487
       124  -9.1043    116.3741    210.6648   1.0850657855e+02   1.8650585725e+01    0.2684853     0.152521  57.34  0.001047314    1.894    0.472
       125  -8.3593     33.0700    211.1186   1.2481228075e+02   2.8809955690e+01    0.2674668   0.03290145  48.87  0.001060539    4.064    0.754
       126  -8.6971     85.5016    209.3259   1.1442323832e+02   2.3054316474e+01    0.2668928    0.1458924  71.76  0.001337671    2.341    0.573
       127  -8.0691     46.8102    210.1905   1.2210452734e+02   2.7528638085e+01    0.2025929   0.06854099  59.19 0.0009592136    2.925    0.658
       128  -7.9886    126.5508    208.7437   1.0632276962e+02   1.7485458423e+01    0.1335515    0.1094132  89.48  0.000832822    1.569    0.363
       129  -9.3526    246.4272    207.2866   8.5404374919e+01   2.9524066894e-01    0.2059923    0.1562844 -11.95   0.00064982    1.344    0.256
       130  -8.2828    156.4264    208.1952   1.0060490542e+02   1.3148605992e+01    0.1329637    0.1136351 -69.25 0.0005743464    1.662    0.398
       131  -8.4488    139.1616    208.0959   1.0382992257e+02   1.5734058654e+01    0.2099873    0.1252914  56.06 0.0007181687    1.911    0.477
       132  -9.2362     99.3482    206.1293   1.1137051740e+02   2.1734931154e+01    0.3091718    0.1873359  73.97  0.001286238    2.179    0.541
       133  -8.7115     56.6772    205.5959   1.1985928660e+02   2.7217765999e+01    0.2956037    0.1073053  56.79  0.001437528    2.645    0.622
       134  -9.1660    194.8616    203.7136   9.3098406976e+01   7.9440397056e+00    0.3008823    0.2182282  57.62   0.00188421    2.053    0.513
       135  -9.3824    192.5198    197.5422   9.2560721789e+01   9.0400762649e+00      0.41515     0.299872  66.05  0.002308801    2.558    0.609
       136  -9.0740    183.7326    203.9288   9.5067667585e+01   9.5880843646e+00    0.2547343    0.1981096  63.39 0.0008679228    1.960    0.490
       137  -8.8440    131.4188    204.2836   1.0484497798e+02   1.7442670511e+01    0.2495878    0.1578717  63.96  0.001029842    2.085    0.520
       138  -8.2667    108.9625    205.1726   1.0935983149e+02   2.0554797580e+01    0.1817155    0.1291469  58.40 0.0006991688    1.352    0.261
       139  -9.7668    163.9721    203.0347   9.8505410206e+01   1.2706444779e+01    0.3767867    0.2305546  52.85  0.001345894    1.870    0.465
       140  -9.3580    250.0919    202.0520   8.4034522404e+01   2.9446127031e-01    0.2739726    0.1385367 -23.03  0.001350341    1.928    0.481
       141  -8.4217    210.9577    202.2353   9.0162078113e+01   5.7354333048e+00    0.1672969    0.1591611 -47.86 0.0006749904    1.687    0.407
       142  -8.5807     11.1145    202.7059   1.2868212426e+02   3.2352044172e+01    0.1755904   0.08682558  50.61 0.0008515298    1.457    0.314
       143  -9.2086    242.9974    201.0092   8.4919940098e+01   1.3417478051e+00    0.2081316    0.1419986 -26.63 0.0007831862    1.643    0.392
       144  -8.9229    140.4759    201.1046   1.0268485827e+02   1.6561054130e+01    0.2444222    0.1769103  66.81  0.001041783    1.798    0.444
       145  -8.7065     80.0204    201.2677   1.1479637025e+02   2.5120301544e+01    0.2739229      0.14484  68.70   0.00147068    2.284    0.562
       146  -7.8030     73.2846    202.6177   1.1628476775e+02   2.5742027558e+01     0.120612   0.06837875  63.42 0.0007011236    1.733    0.423
       147  -8.1037     48.6531    202.3494   1.2124798798e+02   2.8692677084e+01    0.1818056   0.09188099  60.28  0.001085433    1.719    0.418
       148  -7.8846    221.8604    201.5862   8.8289162465e+01   4.2293717344e+00    0.1436603   0.09191044  42.00 0.0004385536    1.608    0.378
       149  -9.2951    237.0639    198.5169   8.5417465609e+01   2.3991148199e+00     0.278804    0.1409226 -33.78  0.001433923    2.271    0.560
       150  -8.0742    237.2185    193.3969   8.4555249150e+01   2.8917452122e+00    0.1568479    0.1313741 -31.62 0.0003579221    1.676    0.403
       151  -9.4229    149.6481    198.7862   1.0060726019e+02   1.5499757021e+01    0.3259754    0.2306994  72.96  0.001172872    2.254    0.556
       152  -8.9790    123.9089    199.2825   1.0570512360e+02   1.9327638316e+01    0.2569548     0.189129  79.26  0.001507582    1.806    0.446
       153  -9.5542    112.8226    198.5464   1.0784050306e+02   2.1073099870e+01    0.3827402    0.2163499  64.72  0.001691447    2.378    0.580
       154  -9.2506     88.8181    198.6234   1.1274423620e+02   2.4417911270e+01    0.3672674    0.2102579  68.32  0.001657525    2.071    0.517
       155  -8.7812    177.0186    198.9113   9.5523725158e+01   1.1250103465e+01     0.180781    0.1641328  -9.01 0.0005806888    1.252    0.201
       156  -8.2421    202.5794    197.8915   9.0884275737e+01   7.4716686261e+00    0.1850872    0.1442735 -45.15  0.001248401    1.841    0.457
       157  -9.1768     61.7432    197.2991   1.1821269753e+02   2.8088781218e+01    0.3598021    0.1471994  58.49  0.001179752    2.469    0.595
       158  -9.0333     12.7277    197.7726   1.2818817783e+02   3.3092188892e+01    0.2248767   0.07975097  68.61  0.001181853    2.543    0.607
       159  -8.0953     29.4082    197.2531   1.2483272944e+02   3.1625551617e+01    0.1510832   0.08063454  77.94 0.0009440137    1.731    0.422
       160  -8.7439    215.9031    195.5198   8.8284063490e+01   5.7523764432e+00    0.1826775    0.1543314 -38.27 0.0007043873    1.677    0.404
       161  -8.1918    133.1994    196.1976   1.0346616901e+02   1.8412646234e+01    0.1586743    0.1261715  61.47 0.0004957428    1.368    0.269
       162  -7.8854     53.3053    196.6326   1.1990606207e+02   2.9193474246e+01    0.1229752   0.06399667  61.87 9.614218e-05    1.748    0.428
       163  -8.1328     35.6517    196.3068   1.2351273084e+02   3.1168240634e+01    0.1842293   0.08816046  60.84  0.001084486    1.772    0.436
       164  -8.7588    224.5981    194.1359   8.6652635116e+01   4.6262704411e+00    0.2069404    0.1714534 -38.15  0.001015932    1.742    0.426
       165  -7.7581    209.2814    195.6283   8.9396491053e+01   6.7265773526e+00   0.09727835   0.09274225  71.21  0.000701344    1.699    0.411
       166  -8.8619    185.1788    194.9084   9.3447736160e+01   1.0502344626e+01    0.1894072    0.1722742  34.11 0.0005792821    1.267    0.211
       167  -9.0400    160.8628    194.5539   9.7868736826e+01   1.4361352988e+01    0.2658499    0.1915448  53.55 0.0009261629    1.536    0.349
       168  -8.9557     43.8344    193.5043   1.2165318948e+02   3.0818243117e+01    0.3687236    0.1507155  62.00  0.001888034    2.392    0.582
       169  -9.1698    245.5771    193.4838   8.3304780486e+01   1.7169190723e+00    0.1941917    0.1714359  -3.14 0.0006999078    1.431    0.301
       170  -8.8487     77.0600    193.7905   1.1471781548e+02   2.6815002679e+01    0.2298911    0.1549976  68.78 0.0008080906    1.456    0.313
       171  -7.8967    241.4981    192.4693   8.3749119029e+01   2.3833645035e+00    0.1113614     0.085693  12.01 6.896422e-05    1.063    0.059
       172  -7.9290    198.8524    191.8238   9.0555811405e+01   8.7649661545e+00    0.1474576    0.1284876  36.40 0.0005280342    1.308    0.236
       173  -8.2297    179.1646    191.4640   9.3996560069e+01   1.1895950571e+01    0.1649743    0.1419618 -34.91 0.0005208459    1.411    0.291
       174  -8.5552    172.4550    191.8082   9.5283911976e+01   1.2912721089e+01    0.2142933     0.170755  56.17 0.0008298313    1.530    0.346
       175  -9.3933    139.5126    190.6000   1.0145118350e+02   1.8308085887e+01    0.3153763    0.2284849  79.90  0.001058238    2.113    0.527
       176  -8.0158     23.1953    192.1907   1.2584284438e+02   3.3156046879e+01    0.1747173    0.0469211  40.13 0.0008622337    2.515    0.602
       177 -10.4652     91.9933    188.7802   1.1105141449e+02   2.5707398893e+01    0.8337149    0.2212393  47.75  0.003149312    3.505    0.715
       178  -8.0488      6.6624    191.3367   1.2916255959e+02   3.4789418078e+01    0.1186092   0.05081512  58.39 0.0007051491    1.752    0.429
       179  -8.2597    148.4489    189.4078   9.9511079819e+01   1.7080470904e+01    0.1985537    0.1545565  70.26 0.0006976941    1.707    0.414
       180  -9.0095    129.3313    188.8300   1.0325997451e+02   2.0178067280e+01    0.2643301    0.1877623  64.82   0.00107942    1.672    0.402
       181  -9.9490    120.9678    187.0687   1.0474450016e+02   2.1758328222e+01    0.4473577    0.2636186 -76.51  0.002223836    2.802    0.643
       182  -8.1253    237.2628    188.6521   8.3754419469e+01   3.3712085069e+00     0.178946    0.1205971 -29.83 0.0006190988    1.669    0.401
       183  -8.3569    225.1760    188.7803   8.5671147001e+01   5.1211402238e+00    0.1615555    0.1334002  17.43 0.0004869364    1.152    0.132
       184  -8.9504    216.8519    187.5945   8.6821587065e+01   6.5025008603e+00    0.2770302    0.1528793 -28.64  0.001221785    1.906    0.475
       185  -8.9151    191.4315    187.6506   9.1178092307e+01   1.0449593321e+01    0.2465113    0.2023276  81.56   0.00110522    2.223    0.550
       186  -9.3396    156.0128    187.6035   9.7764393748e+01   1.6142037877e+01    0.2927344    0.2190385 -69.96  0.001042117    2.041    0.510
       187  -8.6973     34.2993    188.6070   1.2334079605e+02   3.2733472507e+01    0.2488066    0.1238784  61.74  0.001220707    1.718    0.418
       188  -8.1356    230.7183    194.1745   8.5691227732e+01   3.7372113498e+00    0.1540542    0.1290638 -18.07 0.0005148177    1.411    0.291
       189  -9.4281    109.6558    186.0218   1.0697938031e+02   2.3647100931e+01    0.4096009     0.271106  84.89  0.001419998    2.128    0.530
       190  -9.0897     54.7232    186.9776   1.1887518974e+02   3.0812123052e+01    0.3602655    0.1686983  67.74  0.001452525    2.359    0.576
       191  -7.9532    230.5087    187.5086   8.4610733365e+01   4.4719572089e+00    0.1143318   0.09062801  13.49 8.689702e-05    1.066    0.062
       192  -8.8159    164.6653    186.6738   9.5955005618e+01   1.4882414975e+01    0.2062702     0.187294 -82.32 0.0007344748    1.521    0.343
       193  -8.5070    249.2038    185.6704   8.1448177845e+01   1.9813071300e+00    0.1730862    0.1309634 -19.14 0.0006395916    1.384    0.278
       194  -8.9187    182.9731    184.8689   9.2246352365e+01   1.2169887642e+01    0.2222116    0.1718869 -39.95  0.000726187    1.563    0.360
       195  -8.8627    210.1835    184.4180   8.7394250100e+01   7.8983231710e+00    0.1970541    0.1571082 -24.10 0.0005440566    1.380    0.275
       196  -8.5786    202.8897    184.6972   8.8683669152e+01   9.0076064496e+00    0.1933019    0.1668062 -24.89 0.0005713039    1.363    0.266
       197  -9.0842     66.7796    184.6532   1.1606582369e+02   2.9797719980e+01    0.3498075    0.1578682  55.09  0.001251063    2.072    0.517
       198  -8.6032    224.1983    183.5694   8.4941572330e+01   5.8438829615e+00    0.1963285    0.1448888 -16.66 0.0006011569    1.329    0.248
       199  -8.1544    197.0371    183.9469   8.9575004111e+01   1.0029856863e+01    0.1674179    0.1492659  72.78 0.0007087507    1.745    0.427
       200  -8.9372    174.3050    183.6544   9.3651937243e+01   1.3745306945e+01    0.2231785    0.1886546  69.77 0.0008366132    1.666    0.400
       201  -8.1987      2.2085    183.9355   1.2981868000e+02   3.6535476738e+01     0.201745   0.08774757  45.42  0.001251544    1.722    0.419
       202  -9.3393    241.3001    181.6644   8.1938068515e+01   3.5131636634e+00    0.3145474    0.2224358 -50.17   0.00186556    2.720    0.632
       203  -9.0120     44.3896    182.3990   1.2076520380e+02   3.2849447163e+01    0.3105296    0.1508532  66.07  0.001036285    2.011    0.503
       204  -8.3203     19.3976    182.5838   1.2616663183e+02   3.5321531643e+01    0.2157278   0.07297456  80.78 0.0009584865    3.348    0.701
       205  -9.2596    147.6624    180.6287   9.8352233700e+01   1.8567020023e+01    0.3235675    0.2467282  87.81   0.00123082    2.029    0.507
       206  -7.8498     83.2996    182.6317   1.1225634351e+02   2.8022487674e+01      0.12837    0.0779721  65.33 0.0007032143    1.735    0.424
       207  -9.5532     25.5621    178.9400   1.2464786917e+02   3.5450008948e+01    0.5976737    0.1942451  72.98  0.002402549    4.025    0.752
       208  -8.1452    235.3608    181.2909   8.2783579784e+01   4.4229088748e+00      0.14583   0.09729322 -29.03 0.0007371983    1.614    0.380
       209  -8.7275    137.5609    179.3616   1.0021859480e+02   2.0419482053e+01    0.2534177    0.1798174  71.51 0.0009124332    1.963    0.491
       210  -9.3778    191.4683    178.2503   8.9596267651e+01   1.1670940718e+01    0.2385619    0.2312586 -20.50 0.0004404089    1.340    0.254
       211  -8.1975    169.4659    178.5673   9.3736174069e+01   1.5271823656e+01    0.1850012    0.1205775 -53.71 0.0006304723    2.112    0.526
       212  -8.9319     36.0308    176.8143   1.2221197800e+02   3.4825872548e+01    0.5039579    0.1664298  70.77  0.001803547    4.878    0.795
       213  -9.5364    248.4381    176.6131   7.9979794924e+01   3.0020139823e+00    0.3490151    0.2153814 -37.31  0.002152285    2.069    0.517
       214  -8.5517    250.5126    172.8857   7.9007366997e+01   3.0847504636e+00    0.1816633     0.135386  -7.83 0.0004828278    1.157    0.135
       215  -8.6826    231.1576    177.2221   8.2724024558e+01   5.4962929680e+00    0.2292373    0.1452393 -28.50 0.0008695769    1.632    0.387
       216  -8.6021    217.4936    177.1611   8.4916772967e+01   7.6157363593e+00    0.2325054    0.1799384 -47.55 0.0009966277    1.934    0.483
       217  -8.6315    205.1399    177.6637   8.7088762445e+01   9.5218766250e+00     0.193683    0.1540142 -31.03 0.0006793272    1.442    0.307
       218  -9.3341    183.1614    176.3391   9.0782109722e+01   1.3305350124e+01    0.2425846    0.1983713 -40.40 0.0005793794    1.474    0.322
       219  -8.8119    129.2827    177.6363   1.0168855178e+02   2.2046400913e+01    0.2614838    0.1868034  69.37  0.001032642    1.776    0.437
       220  -8.9149     89.1169    176.9668   1.1033253075e+02   2.8275311902e+01    0.2561363      0.17533  75.66  0.000844946    1.628    0.386
       221  -8.2247     97.7458    177.3928   1.0847112331e+02   2.6954359679e+01    0.2144033    0.1436972  32.14 0.0008199268    1.484    0.326
       222  -9.1929     59.0319    176.0319   1.1699276774e+02   3.2404485659e+01    0.4564827    0.1586698  56.46  0.001478418    3.213    0.689
       223  -9.4836     56.2019    171.5921   1.1723018223e+02   3.3621806038e+01    0.4299691    0.1968447  73.12  0.001937039    2.879    0.653
       224  -8.7723     12.8936    176.7812   1.2728750952e+02   3.7022798672e+01    0.2241506    0.0924936  65.94  0.001021742    2.089    0.521
       225  -8.5970    211.4083    176.2410   8.5769937755e+01   8.6914903497e+00    0.1505208    0.1095264 -36.04 0.0009414508    1.625    0.385
       226  -9.4202    158.6952    174.9993   9.5247721974e+01   1.7613434716e+01     0.359261    0.2460621  68.56  0.001194395    2.317    0.568
       227  -9.5427    104.1222    174.4872   1.0668752608e+02   2.6542087649e+01    0.4555263    0.2705935  69.48  0.001570812    2.286    0.563
       228 -10.7726     76.0716    170.5915   1.1255175921e+02   3.1302214441e+01     1.059872    0.4523823 -84.28  0.003901662    4.476    0.777
       229  -8.8576     78.9291    158.6422   1.1044724068e+02   3.3308759891e+01    0.4537126    0.1584844  28.41  0.001581802    4.087    0.755
       230  -9.4443     81.8543    155.1137   1.0927487717e+02   3.3619722434e+01    0.4536219    0.2605394  75.72  0.001465722    2.356    0.576
       231  -8.1560    241.3086    174.3160   8.0636321941e+01   4.2867580939e+00    0.1213015   0.07285126  10.48 0.0002163055    1.632    0.387
       232  -8.3503    224.0825    174.0907   8.3292940342e+01   6.9416611454e+00    0.1808387    0.1512289   8.99 0.0009385644    1.095    0.087
       233  -9.5571    175.8215    172.0784   9.1422034056e+01   1.5148295087e+01    0.3134887    0.2122686 -31.28  0.001174298    1.633    0.388
       234  -8.4270    142.9744    172.9465   9.8105324678e+01   2.0584916085e+01    0.1941466    0.1475713  68.22 0.0006353616    1.663    0.399
       235  -8.4237    134.8074    171.9098   9.9653023079e+01   2.2119983391e+01    0.2174073    0.1748776  86.37 0.0009306379    1.620    0.383
       236  -9.7558    121.4137    170.4438   1.0231010266e+02   2.4570887045e+01    0.3521537     0.259375 -82.05   0.00112196    1.784    0.439
       237  -9.2087     44.9341    170.5160   1.1972877889e+02   3.5129814532e+01    0.4043953    0.1885176  88.81  0.002021016    2.414    0.586
       238  -8.5030    198.6825    170.4953   8.6942247814e+01   1.1503599735e+01     0.206237    0.1871561 -70.74 0.0007563661    1.692    0.409
       239  -8.1222    236.9888    169.7090   8.0460589428e+01   5.4396078552e+00    0.1598851    0.1278581  14.27 0.0004692517    1.072    0.068
       240  -9.0376    230.1759    169.4682   8.1479345137e+01   6.5208999068e+00    0.2832218    0.1371861 -35.77  0.001492543    2.254    0.556
       241  -8.2876    205.8127    170.1869   8.5639594263e+01   1.0358260995e+01    0.1688997    0.1596449  13.18 0.0005666862    1.284    0.221
       242  -9.1724    167.1069    168.6223   9.2503423163e+01   1.7159240204e+01    0.2580048    0.2177372  78.09 0.0008822513    1.668    0.400
       243  -8.7348    149.7734    169.4842   9.6135759101e+01   2.0004446258e+01    0.2321168    0.1884676  67.97  0.000733607    1.517    0.341
       244  -8.3355    244.2997    169.0245   7.9224931387e+01   4.4063144215e+00    0.1613567    0.1246224  -7.80 0.0004343233    1.147    0.128
       245  -8.4540    218.8739    168.3044   8.3089934749e+01   8.4558368318e+00    0.1867865    0.1552875 -26.25 0.0006112715    1.362    0.266
       246  -8.4185     88.6258    168.6697   1.0943248206e+02   2.9932451009e+01    0.2552259    0.1485228  65.60 0.0008959714    2.000    0.500
       247  -8.0261    211.4572    168.0458   8.4282150432e+01   9.6983500745e+00    0.1730525    0.1133891 -29.32 0.0006640804    1.579    0.367
       248  -8.9223    111.5187    167.3716   1.0404680842e+02   2.6715437302e+01    0.2817619    0.1993753  88.87 0.0009573199    1.861    0.463
       249  -8.9177    191.9438    166.6553   8.7452870441e+01   1.3162630301e+01    0.2184584    0.1783062 -33.67  0.000615428    1.385    0.278
       250  -8.7414    184.9104    166.3468   8.8690526803e+01   1.4415723623e+01    0.2515215    0.1767956 -53.13 0.0009273714    1.997    0.499
       251 -10.0866     95.0653    163.0177   1.0719571366e+02   3.0089853305e+01    0.7534297     0.383137  72.32  0.002801111    3.968    0.748
       252  -9.0614     20.7351    166.4479   1.2501044008e+02   3.8388687421e+01    0.3484422    0.1100882  55.13   0.00119489    2.702    0.630
       253  -9.9353    136.8889    164.5037   9.8015793843e+01   2.3047035407e+01    0.5878613    0.2495754  53.57  0.002278534    3.038    0.671
       254  -8.2570    250.4754    164.8683   7.7545029356e+01   3.9257375699e+00    0.2109309   0.09681301 -30.60  0.001135494    2.106    0.525
       255  -8.5621    233.8812    164.8844   8.0048584048e+01   6.4637234739e+00    0.2002538    0.1426819 -25.00 0.0008053441    1.405    0.288
       256  -8.7275    159.4805    164.3494   9.3272596227e+01   1.9155433386e+01    0.2504929    0.2000498  61.67 0.0006853045    1.498    0.332
       257  -9.2840     33.6296    163.4985   1.2181633791e+02   3.7756621565e+01    0.5174463    0.1329673  50.91  0.002095974    3.343    0.701
       258  -9.2170    246.1381    163.3160   7.7892713891e+01   4.7438170594e+00     0.228697    0.1355105 -11.19 0.0009178607    1.593    0.372
       259  -8.1373    240.1449    163.9542   7.8911286981e+01   5.5921934431e+00    0.1682474    0.1480546  -9.28 0.0006287881    1.289    0.224
       260  -8.5536    212.9956    163.8347   8.3238506967e+01   9.9738025369e+00    0.2045652    0.1634934 -21.21 0.0006765276    1.275    0.216
       261  -8.4783     56.6809    164.0394   1.1639766959e+02   3.5093007943e+01    0.3018917    0.1637815  13.45  0.001306181    3.574    0.720
       262  -8.5723    204.8568    162.8388   8.4445854615e+01   1.1472569287e+01    0.1970093    0.1768274 -25.28 0.0005678669    1.300    0.231
       263  -9.3760      3.2900    162.3523   1.2879590254e+02   4.0681710348e+01    0.3703029    0.1194935  52.36  0.001894859    2.358    0.576
       264  -9.1584    177.4373    160.5009   8.9027579107e+01   1.6581232296e+01    0.3017174    0.2184151 -45.57 0.0008259773    1.638    0.389
       265  -8.9394    151.6888    161.0609   9.4290406091e+01   2.1063408329e+01    0.2819944    0.2118761  68.90 0.0009990839    1.776    0.437
       266  -8.9286     60.6451    160.0085   1.1503210607e+02   3.5440094932e+01    0.3414483    0.1928849  81.42  0.001485364    2.030    0.507
       267  -9.7883    250.1999    157.9081   7.6274404460e+01   4.7102638925e+00    0.2961054    0.1450421 -25.94 0.0008165894    1.870    0.465
       268  -8.7210    227.4836    159.3032   7.9999436948e+01   8.1400468375e+00    0.2228659    0.1824529 -52.09  0.000875688    1.894    0.472
       269  -9.2092    167.6692    157.4573   9.0372204923e+01   1.8798054188e+01    0.3013369    0.2473365  87.40   0.00116742    1.826    0.452
       270  -8.5110    128.1763    159.0935   9.9020361194e+01   2.5499861937e+01    0.2459704    0.1557439  62.12 0.0007720455    1.958    0.489
       271  -9.6935    105.6060    157.7598   1.0396657589e+02   2.9486859602e+01    0.4488873    0.2941485  73.59  0.001255774    1.996    0.499
       272  -8.4204    196.6608    157.9682   8.4968986211e+01   1.3547806816e+01    0.2038362    0.1781307  67.57 0.0009672249    1.605    0.377
       273  -8.2788    187.9892    157.7884   8.6519889834e+01   1.5105728676e+01    0.2055868    0.1641501 -48.35 0.0006160747    1.582    0.368
       274  -8.3565    217.9188    156.5930   8.1030469642e+01   1.0061638485e+01    0.2291892    0.1517727 -44.04  0.000823758    1.964    0.491
       275  -9.2303    157.5827    155.9281   9.2135564666e+01   2.0865360294e+01    0.3249893    0.2173185 -52.40  0.001501599    1.812    0.448
       276  -9.2647    119.5158    155.2152   1.0033180028e+02   2.7692428506e+01    0.3606743    0.2504682 -81.21   0.00143382    1.992    0.498
       277  -8.7143    144.5402    154.9720   9.4713193878e+01   2.3373642644e+01    0.2695577    0.2110014  76.45 0.0009155258    1.703    0.413
       278  -9.2262     49.5351    155.2263   1.1725859014e+02   3.7772728787e+01    0.3364572    0.1739235  65.61  0.001343807    2.012    0.503
       279  -9.3032    242.1093    154.4610   7.6803052835e+01   6.3491280926e+00    0.2744788    0.2059319  73.92  0.001497304    2.906    0.656
       280  -7.7764    204.5714    155.5244   8.3092843742e+01   1.2496056250e+01    0.1262595    0.1097879  11.98 0.0001314706    1.044    0.042
       281  -9.7281    132.8794    153.1196   9.6940576309e+01   2.5776321418e+01    0.4066104    0.2958498  76.36   0.00127894    1.899    0.473
       282  -9.3863    133.5242    148.5144   9.5963097488e+01   2.6509648412e+01    0.2834408    0.2207372 -32.08  0.001087482    1.485    0.327
       283  -9.3687     68.1361    153.9227   1.1250178698e+02   3.5753808017e+01    0.3948872    0.2098661  66.01  0.001301197    2.196    0.545
       284  -8.1135    232.9621    154.0200   7.8112771633e+01   7.8732492474e+00    0.1691921    0.1487398 -51.74 0.0005561122    1.722    0.419
       285  -9.0588    151.7417    152.4082   9.2700838667e+01   2.2517783332e+01    0.2766359    0.1628724 -47.69   0.00106251    1.911    0.477
       286 -10.2856    148.9627    145.0526   9.1885840287e+01   2.4309891587e+01    0.5051113    0.3538393  86.82  0.001617535    2.575    0.612
       287  -8.6856     19.9070    152.8133   1.2436979824e+02   4.1297397582e+01     0.168493    0.1054809  61.89 0.0005445899    1.338    0.252
       288  -8.7786     98.2610    150.8239   1.0465041772e+02   3.2031231672e+01    0.2889931    0.1940738  86.61  0.001073273    1.937    0.484
       289  -9.4671     29.3523    150.8368   1.2189184042e+02   4.0846421725e+01    0.4513954    0.1633151  64.11  0.001877884    3.180    0.686
       290  -8.7232      2.9141    151.2418   1.2840822988e+02   4.3005643164e+01    0.2792167    0.1269088  87.83  0.001557381    1.887    0.470
       291  -9.5401    248.8962    149.4779   7.4829500187e+01   5.8354801803e+00    0.3049164    0.1517844 -24.62 0.0008672784    1.823    0.451
       292  -9.6750    243.1201    149.7626   7.5731732302e+01   6.7215258835e+00    0.3027505    0.1967409 -33.75  0.001534551    1.641    0.391
       293 -10.6275    241.6633    143.5599   7.4707203241e+01   7.6732996113e+00    0.7367282    0.3029602 -17.38  0.003106798    2.967    0.663
       294  -9.0349    189.3365    150.2525   8.4797051203e+01   1.5960648976e+01    0.2828431     0.216673 -54.11 0.0008793733    1.768    0.434
       295  -8.1678    182.4024    151.2397   8.6298408801e+01   1.7081602949e+01      0.17038    0.1231347 -46.85 0.0006040304    1.660    0.398
       296  -8.4915    162.6755    150.5162   9.0059912491e+01   2.0830089983e+01    0.2666305    0.2131935 -61.66  0.001291653    1.620    0.383
       297  -8.2834    212.9139    150.0766   8.0581457895e+01   1.1761433232e+01    0.1753229     0.167451  -4.83 0.0004986386    1.271    0.213
       298  -7.5430    228.6734    149.2769   7.7846779869e+01   9.1549636270e+00    0.1057525     0.100924 -68.58  0.000214159    1.590    0.371
       299  -8.4286    198.8422    149.0946   8.2831191872e+01   1.4399970412e+01    0.1784545    0.1759744 -29.57 0.0004856933    1.303    0.233
       300 -10.1579     89.1871    146.2700   1.0618944701e+02   3.4375006647e+01    0.6275052    0.3464698  82.20   0.00250309    3.221    0.690
       301  -9.7859     39.8722    147.9911   1.1898943719e+02   4.0394894299e+01    0.4873088    0.1805898  57.33  0.001941992    2.883    0.653
       302  -9.1810    233.2927    147.3871   7.6746433437e+01   8.6091095921e+00    0.2460983    0.1473779 -32.14 0.0009568324    1.667    0.400
       303 -10.3542    106.8046    144.2068   1.0148410212e+02   3.1988329273e+01     0.758848    0.4774716  84.11  0.002333577    2.550    0.608
       304  -9.1525     78.0651    147.0137   1.0910572264e+02   3.5855698451e+01    0.2958736    0.1900086  80.37 0.0009510026    1.843    0.457
       305 -10.3771     54.6812    144.1328   1.1475918654e+02   3.9557445013e+01    0.8577213    0.3974023  75.63  0.003136563    3.210    0.689
       306  -9.0517     57.3296    135.5884   1.1300111468e+02   4.1123997641e+01    0.2862686    0.1250235  30.18  0.001116236    2.482    0.597
       307  -8.1895    223.2829    146.9798   7.8245198317e+01   1.0358264588e+01    0.1713306    0.1438975  -4.78 0.0003598102    1.077    0.072
       308  -8.1796    206.8073    146.7388   8.0951550263e+01   1.3291051750e+01    0.1562969    0.1542098  24.35 0.0005901041    1.313    0.239
       309  -9.8392    139.1694    145.1740   9.4066802021e+01   2.6100634998e+01    0.4141742    0.2927627 -77.74  0.001534728    2.155    0.536
       310  -9.2293     13.5435    146.4288   1.2554458689e+02   4.3204217372e+01    0.3413801    0.1268782  53.94  0.001287037    2.317    0.568
       311  -8.2446    175.3215    146.0509   8.6633323966e+01   1.9195709283e+01    0.1827331    0.1679559 -22.64 0.0008041764    1.156    0.135
       312  -9.8163    125.2862    142.9377   9.6824479232e+01   2.9040215107e+01    0.4900548    0.3308671  84.48  0.001512185    2.404    0.584
       313  -9.1431    247.0672    143.7045   7.3944900138e+01   6.7756427183e+00    0.2457995    0.1597678  -6.25 0.0006450123    1.427    0.299
       314  -8.3179    250.4813    140.9544   7.2900633011e+01   6.5363723930e+00    0.1736023    0.1340633  -7.38 0.0005323704    1.075    0.070
       315  -7.7686    194.3821    144.1422   8.2628197481e+01   1.5925160251e+01    0.1764575     0.118726 -44.20  0.000571363    1.742    0.426
       316  -8.8745    165.4291    144.0794   8.8220208663e+01   2.1379136012e+01    0.2464064    0.1879574  49.32 0.0007385259    1.322    0.244
       317  -9.6873     72.9976    129.4926   1.0782709920e+02   4.0401143686e+01    0.3969978    0.2468108  75.42  0.001080122    1.975    0.494
       318 -10.6212     69.2970    141.1902   1.1055745142e+02   3.8328816229e+01    0.5332369    0.3995118  87.87  0.002119485    1.332    0.249
       319  -9.6450     68.9233    134.8615   1.0975821332e+02   3.9772784410e+01    0.5682803    0.2996251  16.46  0.002237257    3.527    0.716
       320  -9.2528      2.8437    142.1225   1.2799726468e+02   4.4950515512e+01    0.3179294    0.1273742  63.41  0.001337374    2.187    0.543
       321  -8.1649    235.7646    142.5984   7.5397467361e+01   8.7693620804e+00    0.1586597     0.116415  50.12 0.0009504471    1.651    0.394
       322  -8.6297    182.0438    141.6467   8.4421853427e+01   1.8615723509e+01    0.2435074    0.1843669 -52.12 0.0007160906    1.661    0.398
       323  -8.1732     39.6400    141.7062   1.1844256267e+02   4.1796370517e+01    0.1153608   0.09210548 -37.02 0.0006491079    1.700    0.412
       324  -9.2518    140.1490    137.2077   9.2275314529e+01   2.7388484602e+01    0.4148438     0.274785   0.99  0.001763156    2.675    0.626
       325  -9.8068     23.4699    138.2445   1.2240867864e+02   4.4144380522e+01    0.5224728    0.1982599  64.40  0.002251939    2.906    0.656
       326  -7.9276    218.6172    138.7331   7.7303294040e+01   1.2240038674e+01     0.166879    0.1124284 -35.08 0.0004252215    1.546    0.353
       327  -8.8037    172.0766    138.0753   8.5630405274e+01   2.1094027191e+01    0.2928481    0.1940108 -47.15 0.0007683151    1.727    0.421
       328  -8.2300    207.6199    138.0431   7.9004214203e+01   1.4338048571e+01    0.1962092    0.1541044 -41.97 0.0006868112    1.490    0.329
       329  -8.5390    197.5428    137.6603   8.0696653326e+01   1.6276133530e+01    0.2318183    0.2092214 -44.75 0.0009358186    1.342    0.255
       330  -8.7960    150.3510    136.6895   8.9895777691e+01   2.5534631696e+01    0.4722126    0.2804027  14.41  0.001813138    3.131    0.681
       331 -10.4211     83.4156    132.7919   1.0553621247e+02   3.8138264163e+01    0.5422673    0.3261004 -78.42  0.001273974    2.003    0.501
       332  -9.3976     39.1605    136.2248   1.1801170301e+02   4.3067634140e+01    0.2843218    0.1792659  74.62 0.0008110583    1.522    0.343
       333  -8.9173    248.4173    135.3052   7.2037748165e+01   7.5151362255e+00    0.2441034    0.1781234 -19.33 0.0007498123    1.211    0.174
       334  -8.4543    246.9940    130.4618   7.1229083670e+01   8.3133598673e+00    0.2059768    0.1449974 -27.65 0.0005361651    1.341    0.254
       335  -7.6613    192.4959    136.5086   8.1369149323e+01   1.7404495999e+01    0.1334667    0.1218098  12.55 -8.922291e-05    1.046    0.044
       336  -8.2709    187.7204    135.9843   8.2144790548e+01   1.8400128688e+01    0.1886853    0.1635179 -19.79 0.0004577918    1.151    0.131
       337  -8.2313    162.6511    136.3960   8.7204602904e+01   2.3203219995e+01    0.1976349      0.16412  79.46 0.0006299179    1.608    0.378
       338  -9.2600    113.0151    133.5887   9.8017939207e+01   3.3084514446e+01     0.406083    0.2636943  73.43  0.001304346    2.233    0.552
       339  -7.8565    237.5485    133.7342   7.3290138636e+01   9.5345965632e+00    0.1657785    0.1063889 -34.62 0.0009285721    1.595    0.373
       340  -7.9406    231.5124    133.9966   7.4258240259e+01   1.0553207673e+01    0.1831753    0.1128149 -25.09 0.0004513981    1.500    0.333
       341  -9.2797    143.0474    131.6837   9.0471329482e+01   2.7860164527e+01    0.3482799    0.2537927 -69.29 0.0009121394    1.852    0.460
       342 -10.0846    132.3571    131.1720   9.2836444894e+01   3.0011166203e+01    0.5491711    0.3903724  89.39  0.001076169    2.189    0.543
       343 -10.0388    130.8735    118.6191   9.0457912868e+01   3.2755051908e+01    0.5143088    0.3598142 -83.53  0.002279077    2.244    0.554
       344 -10.4287     98.2175    130.2916   1.0117635124e+02   3.6319894493e+01    0.5936453    0.2880097 -58.29  0.001717719    2.167    0.538
       345  -8.7624    250.6713    129.8847   7.0592399612e+01   7.7643512877e+00    0.3628689    0.1018084 -26.97  0.001394506    3.273    0.694
       346  -8.5129    204.8448    130.7475   7.7910650463e+01   1.5882715310e+01    0.2350946    0.1646386 -54.04 0.0006885919    2.018    0.505
       347  -9.4227    168.6397    129.7736   8.4533365807e+01   2.3143460253e+01    0.3366413    0.2592685 -85.29  0.001282618    2.059    0.514
       348  -9.5645    152.8687    128.2580   8.7540140533e+01   2.6555148184e+01    0.5596971    0.2555655 -46.04  0.001896109    2.364    0.577
       349  -9.7930     12.9637    129.4397   1.2457388690e+02   4.6990856675e+01    0.4718452    0.1934973  66.64  0.001881429    2.447    0.591
       350  -7.7397    220.7441    129.9806   7.5087212551e+01   1.3005239750e+01    0.1624372    0.1033145 -25.44 0.0004733403    1.482    0.325
       351  -8.5918    211.6915    129.6393   7.6499158227e+01   1.4738319692e+01     0.249584    0.1419034 -48.45  0.001065686    2.411    0.585
       352  -8.2140    192.7356    130.2209   7.9956425320e+01   1.8300011912e+01    0.2003266    0.1652307 -46.45 0.0006109303    1.420    0.296
       353  -7.9603      1.5110    130.4508   1.2774494646e+02   4.7591680916e+01    0.1172166   0.08973195  75.11  0.000213422    1.037    0.036
       354 -10.7007     44.9863    123.5891   1.1490946142e+02   4.5313583475e+01     1.093547     0.465339  72.10  0.003836922    4.064    0.754
       355 -10.1698    117.9128    125.3276   9.5133093807e+01   3.3888316838e+01    0.5688932    0.4724573 -87.24  0.001676478    1.390    0.281
       356 -10.4569     59.8791    125.0227   1.1081935864e+02   4.3192032409e+01    0.6728294       0.3551  75.88   0.00246574    2.681    0.627
       357  -8.6845    179.3788    133.7727   8.3264029865e+01   2.0365586103e+01    0.2634686    0.2193991 -73.85 0.0008004528    1.707    0.414
       358  -7.6443    228.6197    125.3028   7.2828270375e+01   1.2169472820e+01    0.1213946    0.1024055 -64.75 0.0007024183    1.776    0.437
       359  -8.8987    179.2810    124.7500   8.1275914902e+01   2.1830646376e+01    0.2552814    0.2196833 -82.76 0.0007225695    1.588    0.370
       360 -10.1264     28.8357    122.8916   1.1951676248e+02   4.7130433183e+01    0.6280503    0.2584319  68.16  0.002570837    3.073    0.675
       361  -9.2966     26.6740    113.9696   1.1920362586e+02   4.9403814013e+01    0.3447404    0.1651783 -46.36  0.001605358    2.600    0.615
       362  -8.0143    188.5179    124.0055   7.9341341985e+01   2.0084502047e+01    0.2008475    0.1318366 -34.02 0.0005175995    1.527    0.345
       363  -8.9045     85.5469    122.6481   1.0317452134e+02   4.0045937502e+01    0.5200835    0.2819374  18.50   0.00194071    3.459    0.711
       364  -9.2103    158.6203    121.5754   8.4783062590e+01   2.6585603929e+01    0.3445573    0.2596029 -71.76  0.001024984    1.895    0.472
       365  -7.7672    203.3524    122.1821   7.6253415509e+01   1.7400381320e+01    0.1876971       0.1171 -39.84 0.0004162042    1.685    0.406
       366  -8.0383    194.8407    122.0500   7.7730921196e+01   1.9113223667e+01     0.212459     0.149277 -55.33 0.0005810488    1.937    0.484
       367  -8.6993    171.9696    121.5419   8.1990991494e+01   2.3848675379e+01    0.2485627    0.1931423 -52.96  0.000565448    1.513    0.339
       368  -8.6511     98.9388    120.9706   9.9181212394e+01   3.8203949331e+01    0.2231191    0.1748498 -13.77  0.001128246    1.808    0.447
       369  -9.5519     71.1326    119.8751   1.0675883249e+02   4.2840799064e+01    0.3520936    0.2175794  89.17  0.001017535    2.035    0.509
       370 -10.0444    141.4803    118.0328   8.7798078116e+01   3.0740916154e+01    0.5790231    0.2894787 -51.00  0.001345235    2.264    0.558
       371  -9.6212      2.8748    117.2796   1.2659040536e+02   5.0462076685e+01    0.4880408    0.1875396  66.64  0.002259383    2.574    0.612
       372  -9.9214    109.2563    114.2990   9.4992524445e+01   3.7793566915e+01    0.4904346    0.3271685 -77.34  0.001359859    2.078    0.519
       373  -7.6554    219.2080    116.0690   7.2222718150e+01   1.5153263865e+01    0.1799263   0.09922309 -26.99 0.0008611683    1.708    0.415
       374  -8.2131    192.9941    115.4917   7.6535044532e+01   2.0482224634e+01    0.2128891    0.1727581 -29.02 0.0004790472    1.212    0.175
       375  -8.0077    185.5675    116.0236   7.8035646387e+01   2.1934551189e+01    0.2053826     0.133246 -33.96 0.0004152056    1.532    0.347
       376  -8.8981     59.5059    115.2414   1.0939941910e+02   4.5497518429e+01    0.3181718    0.2170552   4.36  0.001546316    2.347    0.574
       377  -8.9959    249.7695    114.5981   6.7431781661e+01   9.6969981342e+00    0.2944627    0.1973903 -46.25  0.001645595    1.878    0.468
       378  -7.8920    153.2673    115.6303   8.4554534427e+01   2.8759493171e+01    0.1428939    0.1142173 -75.72 0.0006991931    1.663    0.399
       379 -10.2198     92.6782    112.3680   9.9131877782e+01   4.1162267954e+01    0.5844674    0.3381098 -72.07  0.001317319    2.244    0.554
       380  -9.0985     93.4677    105.0085   9.7286061101e+01   4.2661492827e+01    0.4941222    0.2965834  14.31  0.001829601    3.331    0.700
       381  -9.9467     78.9505    112.6614   1.0315284114e+02   4.3325107149e+01     0.537937    0.3362467  79.34  0.001749261    2.252    0.556
       382  -8.6940     78.0410    105.6394   1.0200105492e+02   4.5072384173e+01    0.3381222    0.2299768 -27.40  0.001250303    2.155    0.536
       383  -7.7635    167.4503    114.4869   8.1245726797e+01   2.5983583930e+01    0.1403163    0.1370037  14.79 0.0001416342    1.057    0.054
       384 -10.3690    133.5685    110.0506   8.7783023670e+01   3.3902093646e+01    0.6595027    0.3439353 -46.62  0.002139274    1.976    0.494
       385  -9.8905    121.9774    112.5627   9.1275158922e+01   3.5727290761e+01    0.3546471    0.2837997  88.39 0.0007466536    1.549    0.355
       386 -10.2478    119.8449    106.5577   9.0388812247e+01   3.7382391104e+01    0.5923779      0.35819  48.42  0.002681972    1.648    0.393
       387  -8.4117    174.7816    112.0713   7.9172881688e+01   2.4839223159e+01    0.2152907    0.1907201 -58.78 0.0006999442    1.319    0.242
       388  -8.6403    159.1775    111.7478   8.2324444755e+01   2.8213053823e+01    0.2404983    0.1934542 -50.91 0.0005303094    1.361    0.265
       389 -10.2151     66.3826    110.0399   1.0641323251e+02   4.5779954461e+01    0.5609133    0.3213618 -66.08  0.002209929    1.693    0.409
       390  -9.9037     14.1192    111.3090   1.2277568234e+02   5.1059794188e+01    0.4147323    0.1820057  53.68   0.00166357    2.231    0.552
       391  -9.5034    248.8038    108.6339   6.6237770172e+01   1.0572475007e+01    0.2476748    0.2348356  70.67  0.001020375    1.423    0.298
       392  -9.7950    249.4181    105.2514   6.5397216569e+01   1.0863374723e+01    0.3077952    0.1460335 -32.69  0.001506131    1.860    0.462
       393  -8.1125    189.2067    108.1988   7.5464921688e+01   2.2396926118e+01    0.1881227    0.1632571 -51.94 0.0004319412    1.327    0.246
       394  -9.1053    110.0063    107.4635   9.3220731779e+01   3.9106304854e+01       0.4492    0.2419592  22.78  0.001232921    3.505    0.715
       395  -9.5774    139.8223    104.7488   8.4956562953e+01   3.3626753369e+01    0.3728827    0.2780829 -70.49 0.0008367707    1.760    0.432
       396 -10.5607     45.6823    102.4763   1.1161825550e+02   5.0196971272e+01    0.7924358    0.3796378  67.54  0.003092619    3.148    0.682
       397 -10.5766     22.8215    102.7741   1.1913367400e+02   5.2382891033e+01     0.720536    0.3185445  70.82  0.002720687    2.835    0.647
       398  -8.6413    166.4459    104.0963   7.8872192676e+01   2.7983610823e+01    0.2935716    0.2087282 -55.35 0.0007319456    1.691    0.409
       399  -9.6147    150.5812    103.1990   8.2068065064e+01   3.1606065334e+01    0.4381138    0.2764157 -58.35  0.001223479    2.058    0.514
       400  -8.5971    215.2251    104.1105   7.0036348661e+01   1.7576403972e+01    0.2050834    0.1662797   4.80 0.0004657304    1.214    0.176
       401  -9.1900    129.9917     97.4975   8.5476001769e+01   3.7130174873e+01    0.3670832    0.2131131  25.13  0.001377492    2.681    0.627
       402  -8.6367      6.5103    102.9300   1.2442201722e+02   5.3548820530e+01    0.2425351    0.1471249  64.52 0.0009950933    1.543    0.352
       403  -8.0462    175.5070    102.1399   7.6543538518e+01   2.6327004936e+01    0.2144435    0.1397435 -35.02 0.0005532242    1.518    0.341
       404 -10.6951    109.1262     99.0286   9.1394569323e+01   4.1071351436e+01    0.8609303    0.4697385  64.64  0.001396412    2.985    0.665
       405  -8.9495    107.5361     92.5915   9.0164452507e+01   4.2753223840e+01    0.5933546    0.2738862  31.75  0.002040492    3.129    0.680
       406  -8.5574    159.8611    101.1390   7.9494812345e+01   2.9945138927e+01    0.2224231    0.1985511 -74.54 0.0005068131    1.316    0.240
       407  -9.3565     81.9374     99.7929   9.9536670111e+01   4.5788323036e+01    0.3908933    0.2657277 -83.03  0.001092475    1.845    0.458
       408  -8.8123     65.2024     87.7583   1.0216418607e+02   5.1165721932e+01    0.5713879    0.2926528  17.67    0.0020829    3.603    0.722
       409 -10.1786     63.8650     95.8789   1.0441619350e+02   4.9449487703e+01     0.609459    0.3581969 -88.64  0.001783679    2.421    0.587
       410  -9.7135    128.2990    101.8655   8.7043331326e+01   3.6615823304e+01    0.3242318    0.2559402 -78.79 0.0008811988    1.599    0.375
       411  -9.5197     94.9597     96.5100   9.4823629763e+01   4.4282311533e+01    0.4872182     0.258831 -57.38  0.001169727    1.961    0.490
       412  -8.7570    150.6937     96.2682   8.0216353854e+01   3.2851327863e+01     0.318475    0.2190199   6.14  0.001341698    2.198    0.545
       413 -10.6052    123.4666     91.8445   8.5620906857e+01   3.9644613806e+01    0.6792505    0.5352132  28.64  0.001753057    1.416    0.294
       414  -8.3425    176.3944     93.2685   7.4045496622e+01   2.7584584175e+01    0.2588201    0.1727101 -42.66 0.0006424192    1.534    0.348
       415  -9.2912     45.9607     92.5577   1.0978588223e+02   5.2536006105e+01    0.4504288    0.2758263   2.34  0.002031716    2.775    0.640
       416  -9.1191     43.1919    109.4679   1.1350514368e+02   4.8815809930e+01    0.3462243    0.1755863  18.60  0.001543381    2.759    0.638
       417  -9.5286    139.0092     92.0303   8.1774415488e+01   3.6236350950e+01    0.4157156     0.285192 -55.77  0.001304853    1.662    0.398
       418  -9.4664      5.3011     92.1050   1.2385584590e+02   5.6176517392e+01    0.3544961    0.1716274  60.98  0.001269936    2.117    0.528
       419  -8.1530    157.7852     91.7692   7.7430761306e+01   3.2063046353e+01    0.1986051    0.1748583 -72.05 0.0003588957    1.320    0.242
       420  -9.6712     34.9123     90.0571   1.1320492352e+02   5.4326830795e+01    0.4872624    0.2583211  84.88  0.001683934    2.366    0.577
       421  -7.9790    150.9737     89.2300   7.8219161845e+01   3.4065781297e+01    0.2167773    0.1579396 -56.77 0.0005014999    1.590    0.371
       422 -10.0809     86.2584     85.9810   9.4780475098e+01   4.8182736824e+01    0.5732865    0.3554263 -63.12  0.001659744    1.752    0.429
       423 -10.1210    104.8821     82.3446   8.8074817914e+01   4.5453798494e+01    0.7893074    0.3349068 -48.30  0.001191971    2.342    0.573
       424  -9.7831     48.6650     84.4830   1.0722524988e+02   5.4148938285e+01    0.5153316     0.295583  72.61    0.0018672    2.528    0.604
       425  -8.1319    164.8337     94.1626   7.6595893661e+01   3.0049128553e+01    0.2186376    0.1975196 -65.04 0.0004684639    1.250    0.200
       426  -8.5983    157.8662     84.2554   7.5303364261e+01   3.3357461892e+01    0.2506212    0.1988757 -45.30 0.0003975267    1.290    0.225
       427  -8.4922    126.4520     84.6708   8.2813573182e+01   4.0429872572e+01    0.3495066     0.224949  16.11  0.001337778    2.642    0.622
       428  -9.3216    140.9199     82.8298   7.8694474709e+01   3.7533553420e+01    0.3725573    0.2112173 -47.99 0.0009382117    1.873    0.466
       429  -9.1530     22.8456     90.3010   1.1751753002e+02   5.5366153500e+01    0.2641281    0.2295906  -4.86  0.001530318    1.465    0.317
       430  -7.8084    185.3064     82.6730   6.9511247334e+01   2.7224219093e+01    0.1483652    0.1125023 -62.93 0.0003849698    1.652    0.395
       431  -9.5874     24.6044     80.5698   1.1539666266e+02   5.7565727848e+01    0.4406014    0.2259226  82.37  0.001378764    2.419    0.587
       432  -9.4939     10.1930     81.2898   1.2093070777e+02   5.8456669174e+01    0.3719999    0.1619239  50.19  0.001532956    2.494    0.599
       433  -8.4464    150.3244     80.8302   7.5948881381e+01   3.5717830605e+01    0.2830526    0.2197227 -62.26 0.0009289895    1.522    0.343
       434  -8.9503    119.3099     80.3581   8.3427618378e+01   4.2842085502e+01    0.3364258    0.2466624 -63.34 0.0008621051    1.605    0.377
       435  -8.8462     74.5259     80.4067   9.7142084986e+01   5.1432516961e+01    0.3283533    0.2215768 -77.16  0.001038509    1.841    0.457
       436  -8.2442    166.7166     79.9073   7.2227782384e+01   3.2015783074e+01    0.2083704     0.183617 -29.89 0.0004475095    1.113    0.101
       437  -7.9812    184.3192     78.2520   6.8454784775e+01   2.8130083319e+01    0.2105632    0.1246714 -38.12 0.0005867458    1.633    0.388
       438 -10.0699     63.4878     74.0716   9.9316410129e+01   5.4606363132e+01    0.6364389    0.3127062 -70.54  0.002388657    2.856    0.650
       439  -9.3876    128.0762     75.4102   7.9613000098e+01   4.1859645465e+01    0.4236226    0.2799931 -57.38 0.0008842043    1.786    0.440
       440  -8.4845    130.0252     69.5526   7.7267452751e+01   4.2508814996e+01    0.4045758    0.2266788  24.20  0.001352313    3.286    0.696
       441  -7.9236    157.1438     76.1999   7.3098332531e+01   3.4909823911e+01    0.2071703    0.1752823 -62.30 0.0004606754    1.327    0.246
       442  -8.8270    140.3514     75.4162   7.6602024766e+01   3.9023596216e+01    0.2831454    0.1831166 -42.64 0.0005945002    1.542    0.351
       443  -8.2854    163.4470     73.6180   7.1031422293e+01   3.3829778707e+01    0.2800015    0.1363981 -39.22 0.0009725285    1.998    0.500
       444  -8.9307    115.6535     72.9091   8.2133911464e+01   4.5118197451e+01    0.4959341    0.1884745 -42.56  0.001572236    2.583    0.613
       445 -10.1792    117.9080     66.2973   7.9368746400e+01   4.5899777737e+01    0.2710492    0.2656444 -38.57 0.0002279763    1.007    0.007
       446  -8.9452    121.5884     65.8500   7.8231250931e+01   4.5146975733e+01    0.3520342    0.2324717 -54.38 0.0007495856    1.704    0.413
       447  -9.8251     82.2276     72.6330   9.2314144705e+01   5.1864225434e+01    0.4279857    0.3056356 -76.59  0.001049133    1.797    0.443
       448  -8.3149     42.6019     72.7181   1.0688496957e+02   5.7672070138e+01    0.2448068    0.1566182 -75.07  0.000838974    1.570    0.363
       449  -7.5877    175.4699     72.5691   6.8415203964e+01   3.1104062831e+01    0.1464914    0.1424835 -13.50 0.0001286374    1.012    0.012
       450  -9.0946    105.9167     71.7334   8.4542774153e+01   4.7442040647e+01    0.2844095    0.2114362 -54.13 0.0005685745    1.388    0.279
       451  -9.3645     95.1974     71.0130   8.7581449665e+01   4.9774647891e+01    0.3849675    0.2378815 -57.30 0.0008802613    1.773    0.436
       452  -9.5154     51.4342     69.8054   1.0271426230e+02   5.7280845138e+01    0.4499843     0.240986 -76.16  0.001446501    2.482    0.597
       453  -9.2012     28.3693     70.9867   1.1217931152e+02   5.9546569389e+01    0.3507243     0.170574 -38.82  0.001554542    2.532    0.605
       454  -7.6211    156.7836     69.9765   7.1283937321e+01   3.6041167883e+01    0.1978547    0.1216835 -32.67 0.0003218257    1.608    0.378
       455  -9.0123    147.0926     67.7862   7.2675926790e+01   3.8761060572e+01    0.4929166    0.2089853 -34.37  0.001479917    2.339    0.573
       456  -8.9791    138.6331     66.3107   7.4129352051e+01   4.1056803655e+01     0.340593    0.2110416 -53.06 0.0009838418    1.865    0.464
       457  -8.8524     64.6329     63.7047   9.5877186511e+01   5.6795635969e+01    0.5075107    0.3079835 -17.04  0.001950409    3.180    0.685
       458  -7.8754    250.3038     65.2997   5.5898112688e+01   1.5380466056e+01    0.1277453   0.09208833  13.60 0.0003701192    1.588    0.370
       459  -9.4461     97.4407     60.7172   8.3455700552e+01   5.1435900689e+01    0.2917524    0.2711082 -41.24 0.0008124373    1.042    0.040
       460  -8.6335     37.3654     64.4761   1.0702111501e+02   6.0211081820e+01    0.2816449    0.1856364  68.78  0.000861951    1.946    0.486
       461  -8.0105    130.5265     64.0169   7.5328820291e+01   4.3397968522e+01    0.2380433    0.1474876 -38.29  0.001027295    1.587    0.370
       462  -9.3213    110.1926     63.4615   8.0571219089e+01   4.8165475423e+01    0.3773049    0.2580973 -47.20  0.001325179    1.464    0.317
       463  -7.4815    187.6403     63.3034   6.3596184428e+01   2.9545643811e+01    0.1537406    0.1105692 -64.56 0.0007038413    1.723    0.420
       464  -7.8135    158.0620     61.9430   6.8503274355e+01   3.7032795265e+01    0.1784866    0.1714628 -29.51 0.0003434268    1.024    0.023
       465  -9.7113     73.4372     58.2889   9.0805973898e+01   5.6533813757e+01    0.8366228    0.2786548 -46.62  0.002836231    2.803    0.643
       466  -7.5750    164.2601     59.9816   6.6673535374e+01   3.5796881068e+01    0.1934292    0.1279945 -31.28 0.0005252055    1.475    0.322
       467  -8.6961     89.0590     59.6436   8.5792630378e+01   5.3348810116e+01    0.2563982    0.1913772 -54.73  0.000553606    1.373    0.272
       468  -8.8257     16.7831     70.2155   1.1675344743e+02   6.0675099257e+01    0.2807882    0.1637888  82.50 0.0009398854    1.867    0.464
       469  -9.9448     23.5307     56.6547   1.1115493755e+02   6.3394411559e+01    0.4983713    0.2678657  84.04  0.002179511    2.713    0.631
       470  -8.4776    130.8151     58.0778   7.3243409704e+01   4.4375873795e+01    0.2317141     0.199755 -57.22 0.0004888544    1.235    0.191
       471  -9.6476      7.4032     57.2122   1.1859354766e+02   6.4392714734e+01    0.3222299    0.1961246  70.71  0.001121219    1.854    0.461
       472  -9.4555    119.2798     55.4832   7.5267440058e+01   4.7580258256e+01    0.5011491    0.2566874 -45.13  0.001611362    2.004    0.501
       473  -9.4781     54.3184     55.6514   9.7409616592e+01   6.0139738807e+01    0.3813132    0.2304846 -67.81  0.001303873    1.911    0.477
       474  -8.9671     44.2317     55.5313   1.0164445909e+02   6.1506985598e+01    0.3296506    0.1969297 -69.97  0.001028086    1.822    0.451
       475  -7.9219    214.3224     56.3110   5.7765223273e+01   2.4164120372e+01    0.1436349    0.1033708  21.41 0.0007037958    1.652    0.395
       476  -8.7100    139.9012     55.9761   7.0388668842e+01   4.2508753360e+01    0.2824898    0.2014883 -40.69 0.0006448228    1.389    0.280
       477  -8.0034    151.3950     73.2545   7.3437254804e+01   3.6787092565e+01    0.2130998    0.1374712 -44.76 0.0007351911    1.583    0.368
       478  -8.3825    105.8067     53.2954   7.8240507340e+01   5.1065307495e+01    0.2565432    0.1929655 -50.70 0.0005062889    1.383    0.277
       479  -9.5745     92.4282     50.5720   8.1370136940e+01   5.4467797421e+01    0.4645507    0.2655467 -53.05  0.001234084    1.978    0.494
       480  -7.4384    158.6871     49.6853   6.4378808499e+01   3.8752679926e+01    0.1570998    0.1149571  23.26  0.000442925    1.639    0.390
       481  -8.8293    144.8339     49.1137   6.6939212726e+01   4.2367695392e+01    0.2375658    0.1976357 -54.85 0.0005016027    1.277    0.217
       482  -8.2276    129.8481     49.1339   7.0307814455e+01   4.6118754419e+01    0.2360182    0.2042581 -64.29 0.0006609291    1.273    0.214
       483  -8.7140    120.9151     47.6124   7.1957672828e+01   4.8552420437e+01    0.2716082    0.2122979 -39.11 0.0005407151    1.263    0.208
       484  -8.6241    112.0577     46.6580   7.3953078954e+01   5.0822912136e+01    0.2892547    0.1961354 -51.11 0.0007320311    1.614    0.380
       485  -9.1658     82.0828     46.2422   8.3212800982e+01   5.7399256863e+01     0.427584    0.2205486 -44.25  0.001454436    1.857    0.461
       486  -8.4320     45.0907     44.8964   9.7770712889e+01   6.3788513587e+01    0.1984743    0.1729444 -85.17 0.0005172207    1.323    0.244
       487  -9.0017     16.5931     44.4852   1.1149728755e+02   6.6803861133e+01    0.2797938    0.1699621 -81.78  0.001006944    1.741    0.425
       488  -8.8636    132.8396     43.4258   6.7513311730e+01   4.6279592021e+01    0.3191004    0.2143687 -56.44 0.0008034715    1.764    0.433
       489  -8.4219     92.7818     43.0554   7.8299182399e+01   5.5796446514e+01    0.2829451    0.2053594 -14.11  0.001331751    1.657    0.396
       490  -9.1386     58.1745     42.7712   9.1170703377e+01   6.2351601738e+01    0.3705968    0.2112444 -61.95  0.001266153    2.182    0.542
       491  -9.2452     69.5235     41.7321   8.6091459901e+01   6.0646260367e+01    0.3533488    0.2339627 -61.44   0.00103613    1.874    0.466
       492  -9.4237      5.1617     42.0753   1.1680763938e+02   6.8088504712e+01    0.3358308     0.182133  88.87  0.001575779    2.057    0.514
       493  -8.7299    106.0057     41.5312   7.3642169482e+01   5.3108708953e+01     0.288702     0.197331 -49.73 0.0006391863    1.582    0.368
       494  -8.4997     36.8104     40.9165   1.0027465477e+02   6.5692139081e+01    0.2355692    0.1730689 -75.18 0.0006842628    1.563    0.360
       495  -8.7497     95.5147     38.0524   7.5357070341e+01   5.6082144299e+01    0.2954806    0.2241975 -57.22 0.0007960606    1.527    0.345
       496  -8.3062     80.6337     36.7585   7.9799583594e+01   5.9468331497e+01    0.2566907    0.1734697 -46.45  0.001070232    1.491    0.329
       497  -9.4334     26.1707     35.5630   1.0381737695e+02   6.8019915416e+01    0.3173908    0.2202985 -78.90 0.0008279448    1.696    0.410
       498  -7.7136    143.7724     35.9685   6.2436113801e+01   4.4565414022e+01     0.199545    0.1244043 -26.78 0.0003976143    1.608    0.378
       499  -8.0745    133.4175     36.1792   6.4654093382e+01   4.7212764060e+01    0.2245707    0.1311558 -41.59 0.0009439934    1.730    0.422
       500  -8.2371    125.9153     35.8261   6.6201637006e+01   4.9173748406e+01    0.2266569    0.1968416  24.33 0.0004115573    1.212    0.175
       501  -8.3922    111.9500     34.9196   6.9301454925e+01   5.2769436969e+01    0.2339036       0.1778 -65.23 0.0005781362    1.628    0.386
       502  -7.9593     88.8255     34.7702   7.6103882670e+01   5.8107543136e+01     0.194701    0.1727063 -74.64 0.0006691997    1.343    0.255
       503  -7.7421      5.3360     35.3113   1.1516957714e+02   6.9648730519e+01    0.1311547   0.07195257 -42.90 0.0006454139    1.684    0.406
       504  -8.9729     48.4547     33.3695   9.1675494565e+01   6.5765008232e+01    0.2765402      0.21832 -60.09 0.0007763097    1.360    0.265
       505  -8.3953    119.2087     33.2134   6.6754199451e+01   5.1241884480e+01    0.2104877    0.1711487 -57.17 0.0005175784    1.366    0.268
       506  -8.9812     60.4773     32.3440   8.5778301447e+01   6.4057114506e+01    0.2806375    0.2215607 -52.55 0.0008280534    1.319    0.242
       507  -7.7970    139.3981     32.1806   6.1885260859e+01   4.6222514479e+01    0.2168798    0.1323789 -39.02  0.000939658    1.625    0.385
       508  -9.0318     72.0070     30.8584   8.0375594693e+01   6.2231384864e+01    0.3543984    0.1858614 -46.60  0.001063419    1.959    0.489
       509  -8.9037     12.8718     30.4829   1.0952141560e+02   7.0279375246e+01    0.2792551      0.16608 -75.35  0.001329855    1.732    0.423
       510  -8.6800    101.7405     29.6631   6.9868884369e+01   5.6015969376e+01    0.2770392    0.1743294 -54.46 0.0009210149    1.984    0.496
       511  -7.7766     42.2281     30.0049   9.3252128407e+01   6.7329937339e+01    0.1761683   0.09909604 -48.57 0.0004172468    1.584    0.369
       512  -8.8167     81.6255     27.4997   7.5253934391e+01   6.0860930807e+01    0.2900495    0.2245123 -58.72 0.0008137164    1.570    0.363
       513  -8.6330      3.5690     27.4179   1.1413719537e+02   7.1543792155e+01    0.2795421    0.1314201 -74.20    0.0013898    1.984    0.496
       514  -9.1424     91.7078     25.8471   7.1140398518e+01   5.8915137968e+01    0.4736463    0.2025908 -35.34  0.001702033    2.234    0.552
       515  -8.6063    104.2627     22.9777   6.6179735316e+01   5.6384573831e+01    0.1984517    0.1889312 -16.75 0.0004455294    1.041    0.040
       516  -7.7791     34.3969     23.2292   9.4300734829e+01   6.9724449251e+01    0.1793225    0.1145053 -58.97 0.0006501111    1.671    0.402
       517  -8.9555     63.5848     21.3343   7.9125535027e+01   6.5480117932e+01    0.2968572    0.2245747 -50.53 0.0009712052    1.472    0.321
       518  -8.8950     48.3990     21.9144   8.6336386845e+01   6.7996754020e+01    0.2261718    0.2140166 -57.46 0.0006436293    1.235    0.191
       519  -7.7022    120.5474     21.0418   6.1357169379e+01   5.2565018402e+01    0.2227316    0.1043025 -47.51 0.0008085523    2.545    0.607
       520  -9.9249    248.6444    242.1432   9.0155385489e+01  -2.9339483213e+00    0.3082773    0.1565689 -22.02  0.001479385    2.075    0.518
       521  -8.3129     19.7530     21.6047   1.0212855127e+02   7.1658529720e+01    0.1552087    0.1145784  37.55 0.0005489514    1.625    0.385
       522  -8.0810     12.4622     20.9785   1.0644737878e+02   7.2406322939e+01    0.1644638    0.1012677 -89.00 0.0006805937    2.455    0.593
       523  -8.3001     38.7271     18.3871   8.9521475084e+01   7.0091284115e+01    0.2297071    0.1466854 -52.08 0.0007371191    1.598    0.374
       524  -7.9791     87.8065     17.7857   6.8474189282e+01   6.0976158203e+01    0.1939673    0.1620684 -51.82 0.0004755973    1.353    0.261
       525  -7.9393    112.6497     16.8409   6.1305195556e+01   5.5099856645e+01    0.2081605    0.1256918 -36.00 0.0003063429    1.655    0.396
       526  -8.2610     30.0166     16.0230   9.3250885256e+01   7.1686700958e+01    0.1846759    0.1557716 -85.86   0.00073843    1.690    0.408
       527  -7.8379      7.3668     15.6738   1.0774401190e+02   7.3910922092e+01    0.1167881   0.08870453  69.87 0.0007036567    1.805    0.446
       528  -7.7422     17.4592     14.4794   1.0038327425e+02   7.3352119365e+01    0.1226612    0.1049456 -45.04 0.0001631656    1.076    0.071
       529  -7.3799    119.6992     11.3410   5.7316666775e+01   5.3918550810e+01    0.1531667    0.1069152 -56.96 0.0007037083    1.671    0.402
       530  -9.1042    247.6757    235.0819   8.9327065114e+01  -2.2592856203e+00    0.1853222    0.1468386   2.59 0.0007991937    1.340    0.254
       531  -9.4957    246.5242    229.6130   8.8724818997e+01  -1.6712704337e+00     0.263087    0.2032415 -32.10  0.001901902    2.009    0.502
       532  -8.9400    232.7029    247.5572   9.3187676706e+01  -1.4712217094e+00     0.174731    0.1489103  18.35 0.0008051684    1.509    0.337
       533  -8.3876    218.8435    248.5412   9.5385079067e+01   1.3524853555e-01    0.1461323    0.1300065 -32.40 0.0008630042    1.887    0.470
       534  -8.9269    175.7404    247.7440   1.0208527268e+02   5.7176767541e+00    0.2224177      0.16251  60.08  0.001075436    2.096    0.523
       535  -8.7892    132.4117    248.0610   1.0937243869e+02   1.1359004783e+01    0.2106187    0.1424383  65.97  0.000886025    1.971    0.493
       536  -8.4861    112.9995    248.5395   1.1274503265e+02   1.3785155178e+01    0.1719342    0.1262675  74.41  0.001019813    1.697    0.411
       537  -9.4378    103.6603    246.4308   1.1418860705e+02   1.5231888266e+01    0.3582713    0.1937422 -86.14  0.002115638    3.342    0.701
       538  -9.0465    243.0296    246.3718   9.1526346277e+01  -2.6044279357e+00    0.2838286    0.1206323 -18.84  0.001801485    2.683    0.627
       539  -8.5950    156.0537    248.0584   1.0537426763e+02   8.2681104878e+00     0.149803    0.1041052  53.58 0.0004605102    1.637    0.389
       540  -8.0325    141.6405    248.6778   1.0786240855e+02   1.0084734461e+01    0.1038234    0.0679514  17.12 0.0007043612    1.772    0.436
       541 -10.0139    223.9856    244.1749   9.4051532221e+01  -1.2439002873e-01    0.3171936    0.1889348 -37.58  0.002286094    2.468    0.595
       542  -8.8946    147.2610    246.2449   1.0666775366e+02   9.6329333468e+00    0.2370358    0.1462794  65.11  0.001446725    2.736    0.634
