#   1 NUMBER                 Running object number                                     
#   2 MAG_AUTO               Kron-like elliptical aperture magnitude                    [mag]
#   3 X_IMAGE                Object position along x                                    [pixel]
#   4 Y_IMAGE                Object position along y                                    [pixel]
#   5 X_WORLD                Barycenter position along world x axis                     [deg]
#   6 Y_WORLD                Barycenter position along world y axis                     [deg]
#   7 A_WORLD                Profile RMS along major axis (world units)                 [deg]
#   8 B_WORLD                Profile RMS along minor axis (world units)                 [deg]
#   9 THETA_WORLD            Position angle (CCW/world-x)                               [deg]
#  10 FWHM_WORLD             FWHM assuming a gaussian core                              [deg]
#  11 ELONGATION             A_IMAGE/B_IMAGE                                           
#  12 ELLIPTICITY            1 - B_IMAGE/A_IMAGE                                       
         1 -14.9572    211.0117     69.7219   8.1427615152e+01   2.3431116581e+01     2.026732     1.246253 -68.99  0.007600087    3.056    0.673
         2 -18.3157    235.6063     48.9891   7.1990020655e+01   2.0135906882e+01     8.245611     4.064768 -17.61   0.02915107    1.992    0.498
         3 -16.0039    134.9158     24.7093   8.0603044861e+01   4.8749097692e+01     10.18227     4.549041 -31.70   0.03956388    2.114    0.527
         4 -10.1584     79.1417     15.2250   9.1914512122e+01   6.2279510939e+01    0.4843417    0.1761411 -27.78  0.001270308    2.768    0.639
         5 -10.3443    163.1505     14.1624   7.1082086691e+01   4.2683279292e+01    0.2382046    0.2089413   8.16 0.0003358177    1.113    0.101
         6 -10.4757     92.4766      9.5249   8.4801884354e+01   6.0431217247e+01    0.2846669    0.1274338 -25.12  0.001109239    2.078    0.519
         7 -11.2720    229.0992      5.2197   6.0188858238e+01   2.6203307001e+01    0.5735373    0.1609205  50.58   0.00190997    3.616    0.723
         8 -10.9144    217.2463      1.1712   6.0059655244e+01   2.9538980896e+01    0.1747004    0.1027317  72.52 0.0008034325    1.733    0.423
         9 -11.9860    217.1123    170.3197   1.0420325899e+02   8.5579772674e+00    0.8856062    0.6900722  71.58  0.005066286    2.198    0.545
        10 -13.4225    245.9045    248.5809   1.1194420515e+02  -3.2981753232e+00     2.820385    0.6478567  43.64   0.01296597    3.543    0.718
        11 -11.8785      7.5035    248.7928   1.4735516778e+02   2.6283790003e+01    0.7776198    0.1459287  41.00  0.004722704    3.079    0.675
        12 -11.6134    191.1138    171.1394   1.0891749268e+02   1.3085402670e+01    0.7801973    0.3642752  59.45  0.002813516    4.309    0.768
        13 -10.6015    180.6145    165.4391   1.0982450980e+02   1.5771784950e+01    0.4545811    0.2697939  64.06  0.001998947    2.756    0.637
        14 -11.0029    187.8477    179.0074   1.1086911280e+02   1.2610316258e+01    0.4166195    0.1855268  45.16  0.002019863    1.948    0.487
        15 -10.4292    180.2949    174.3265   1.1144268781e+02   1.4570093880e+01    0.3071392    0.2138183  81.15  0.001478282    2.987    0.665
        16 -10.7416    230.0082    172.8806   1.0252231491e+02   6.0138403718e+00    0.5091244    0.1897424  48.29  0.001721388    2.716    0.632
        17  -8.8189     63.0158    247.2331   1.3941637569e+02   2.1042059593e+01    0.1231714   0.08326338  55.04 0.0002111525    1.057    0.054
        18 -10.6619    236.7891    249.4080   1.1336156690e+02  -2.1375961332e+00    0.4644064     0.157231  39.44   0.00269579    2.052    0.513
        19  -9.2121    198.8242    152.8396   1.0405956326e+02   1.4169630778e+01    0.2066722    0.1580392  15.46  0.000661236    1.275    0.216
        20 -10.7386    192.0951    193.4044   1.1246487216e+02   1.0053470322e+01    0.6724258    0.3689988 -60.70  0.002598361    5.760    0.826
        21 -10.1220    181.0222    152.5034   1.0732057419e+02   1.7598498742e+01    0.2910452    0.2164745  57.75  0.001614767    1.536    0.349
        22  -9.7227    129.3077    141.0741   1.1574239670e+02   2.9078647526e+01    0.1940114    0.1629272  47.94 0.0002091275    1.119    0.107
        23 -10.7559    133.6743    147.0578   1.1588460568e+02   2.7221698222e+01    0.8309042     0.265793 -56.76  0.002603851    5.116    0.805
        24 -11.0236    144.9922    147.3985   1.1355937497e+02   2.5145545770e+01    0.3773226    0.2586485 -84.25  0.001795231    2.456    0.593
        25 -10.0695    159.4920    146.4712   1.1039377620e+02   2.2625285981e+01    0.2343835     0.121628  44.92 0.0006821438    1.769    0.435
        26 -10.8858    203.8772    166.2897   1.0574962681e+02   1.1428562449e+01    0.3948284    0.3483746  34.04  0.002605097    1.169    0.145
        27  -9.9253    192.1544    143.9225   1.0347589712e+02   1.6727386078e+01    0.2464746    0.1814862  36.97 0.0004486245    1.224    0.183
        28 -10.9852    200.0872    144.0965   1.0203814860e+02   1.5151391366e+01    0.3250216    0.2651153  72.93 0.0006753297    1.769    0.435
        29 -10.0951    195.7361    141.7666   1.0235241660e+02   1.6338618150e+01    0.2518421    0.2124273  56.51 0.0006613555    1.380    0.275
        30 -10.4627    157.0321    139.5259   1.0952501719e+02   2.4261644657e+01    0.2950389     0.190345 -54.23 0.0005711179    1.868    0.465
        31 -11.3865    168.8937    135.3027   1.0620973468e+02   2.2661588787e+01    0.4858941    0.2679046  63.22  0.001930905    2.874    0.652
        32 -10.4269    176.3468    146.2926   1.0699478348e+02   1.9441886763e+01    0.3566654    0.2455592  77.17  0.001623355    2.643    0.622
        33 -11.8205    160.4923    128.8513   1.0655787995e+02   2.5419845655e+01    0.4496369    0.3884519   9.12  0.001799992    1.228    0.186
        34  -9.3814    175.6182    129.3111   1.0354506591e+02   2.2292976647e+01    0.1392813    0.1124098  86.58 0.0007023404    1.804    0.446
        35  -9.0471    126.3474    126.4482   1.1357615664e+02   3.2371890169e+01     0.209475    0.1259441 -48.50 0.0006119473    1.707    0.414
        36  -8.7878     99.4969    130.5193   1.2061196272e+02   3.6072635181e+01    0.1258669    0.1197885  86.57 0.0002405794    1.053    0.050
        37 -10.4918    151.8926    120.8783   1.0662962773e+02   2.8544944424e+01    0.4783306    0.2215763 -49.91  0.001653049    2.507    0.601
        38  -9.2444    203.3804    160.8303   1.0480330290e+02   1.2234228221e+01    0.2089513    0.1628016  44.68 0.0007038922    1.279    0.218
        39 -10.4145    195.4306    167.7845   1.0753361011e+02   1.2760025690e+01    0.3020449     0.181027  48.75   0.00115316    1.626    0.385
        40  -8.9025     90.9929    116.2533   1.2008252888e+02   4.0320888309e+01    0.2245922     0.122993 -57.32 0.0007845655    1.746    0.427
        41  -9.2964    146.2203    112.8536   1.0603025840e+02   3.1152454920e+01    0.2035482     0.187883 -76.62 0.0007001968    1.217    0.179
        42  -9.6793     96.5790    109.8635   1.1739311365e+02   4.0799464368e+01    0.5518178    0.2758321 -74.66  0.001876045    4.108    0.757
        43 -10.4548    208.9088    186.0687   1.0839265564e+02   8.1094630033e+00    0.2199327    0.2118416 -12.44 0.0007754133    1.376    0.273
        44  -9.5712    140.0111    105.7596   1.0574104933e+02   3.3736781889e+01    0.2845274     0.236012 -18.03  0.001360273    1.338    0.253
        45 -10.2575    144.2303    103.0981   1.0409408232e+02   3.3376403582e+01    0.3028761    0.2246461  33.94  0.000633219    1.405    0.288
        46 -11.3394    153.5407     99.5800   1.0106242893e+02   3.2061645138e+01    0.6393377    0.4704619 -69.68  0.002965117    1.926    0.481
        47  -9.2776     36.0132    102.5112   1.3229946506e+02   5.0005621255e+01    0.1797609    0.1337203 -74.88 0.0003301105    1.105    0.095
        48 -11.5489    149.5896     89.5278   9.9243938614e+01   3.4743360231e+01    0.3396185     0.269876 -46.54  0.001718822    1.309    0.236
        49 -11.7679    223.0240    161.5146   1.0152202763e+02   8.5605859687e+00    0.4631915    0.2754169  -8.56  0.002410641    1.931    0.482
        50 -12.2490     81.9296    143.1324   1.2665641524e+02   3.6087947441e+01    0.7439024    0.4204073 -78.95  0.002581994    2.058    0.514
        51  -9.2903     31.0266     83.7818   1.3089453665e+02   5.4598288767e+01    0.2203086    0.1360054 -71.00 0.0008396142    1.328    0.247
        52 -10.9532     80.0119     77.6638   1.1451074494e+02   5.0254706749e+01    0.6218848    0.2263857 -59.10  0.001909207    3.241    0.691
        53 -12.2064     55.9048    157.0471   1.3399735541e+02   3.6574114571e+01    0.3154402    0.2755682 -72.69  0.000864253    1.267    0.211
        54 -14.2727     66.8039    149.0557   1.3078756280e+02   3.6860838054e+01     1.329826     1.061505 -48.49  0.004182263    1.542    0.351
        55 -10.3545    154.2834    158.7254   1.1370868215e+02   2.1564069842e+01    0.3062505    0.2188957  82.66  0.001567124    2.225    0.551
        56 -11.3350    219.2022    155.6721   1.0101755873e+02   9.9744041402e+00    0.4730384     0.308744   3.69   0.00185452    1.686    0.407
        57  -9.6032    176.6999     52.3312   8.2075714056e+01   3.4387765067e+01    0.3264669    0.2216007 -38.90 0.0007584704    1.495    0.331
        58  -8.8071     58.6638     48.2678   1.1299287944e+02   5.9485789539e+01    0.1878128    0.1026182 -44.90 0.0007453977    1.555    0.357
        59  -8.6460    180.1735     51.1744   8.1058029255e+01   3.3668117271e+01    0.3157146    0.2657456  54.72  0.001126655    1.227    0.185
        60  -9.3437    144.3615    155.6722   1.1517550189e+02   2.3835751281e+01    0.1705506    0.1329115 -70.33 0.0009819318    1.594    0.373
        61 -10.4209    198.9273     40.0326   7.4358470775e+01   3.0305169145e+01    0.2128519    0.1868468 -21.92  0.000379105    1.097    0.088
        62 -10.0641    146.9720    158.8488   1.1519551689e+02   2.2841419330e+01    0.2922942    0.2537927  36.50  0.001167805    1.078    0.072
        63 -11.6175    205.9642     30.9093   7.0481485474e+01   2.9553679150e+01      0.32903    0.1994286 -26.92 0.0005004703    1.554    0.356
        64  -7.9726    201.5110     30.5028   7.0959689163e+01   3.0753046979e+01    0.1820554    0.1357491  44.40 0.0008815888    1.346    0.257
        65  -9.1967     78.6620     27.5211   9.7765880963e+01   6.0404528431e+01    0.2430646    0.1155712 -36.82 0.0009509436    1.869    0.465
        66 -10.1545     92.1583     26.0984   9.2643186043e+01   5.8128787987e+01    0.3705491    0.1668384 -33.80  0.001468954    2.021    0.505
        67  -9.4653    177.2271     25.5660   7.2921875808e+01   3.7703714339e+01    0.2460439    0.1891618 -70.91   0.00116428    1.601    0.375
        68  -9.6323    205.3425     25.6822   6.8921761990e+01   3.0286627521e+01    0.1576735    0.1066227 -56.32 0.0007049055    1.716    0.417
        69 -10.5788    202.2860     23.9058   6.8754977091e+01   3.1272109577e+01     0.248134    0.1685666  23.56  0.001135409    1.645    0.392
        70 -11.8069    200.7952     18.8767   6.7336238075e+01   3.2184375115e+01    0.2659991    0.2002743   9.56 0.0008398676    1.419    0.296
        71  -9.9648    184.0675    194.5796   1.1403672930e+02   1.1239248481e+01    0.1833721    0.1666733   0.75 0.0003558327    1.223    0.183
        72 -14.1080     23.5765    171.6821   1.4159894790e+02   3.7078320647e+01     1.772907      1.10822  48.73  0.009586832    1.431    0.301
        73 -11.2558    210.9289    179.0685   1.0684115739e+02   8.5914447196e+00     1.030193     0.453199  57.24  0.003724753    4.593    0.782
        74 -11.5758    199.7451    176.8094   1.0838114551e+02   1.0815930699e+01    0.5345457    0.3439686  -8.94  0.002967092    1.934    0.483
