#   1 NUMBER                 Running object number                                     
#   2 MAG_AUTO               Kron-like elliptical aperture magnitude                    [mag]
#   3 X_IMAGE                Object position along x                                    [pixel]
#   4 Y_IMAGE                Object position along y                                    [pixel]
#   5 X_WORLD                Barycenter position along world x axis                     [deg]
#   6 Y_WORLD                Barycenter position along world y axis                     [deg]
#   7 A_WORLD                Profile RMS along major axis (world units)                 [deg]
#   8 B_WORLD                Profile RMS along minor axis (world units)                 [deg]
#   9 THETA_WORLD            Position angle (CCW/world-x)                               [deg]
#  10 FWHM_WORLD             FWHM assuming a gaussian core                              [deg]
#  11 ELONGATION             A_IMAGE/B_IMAGE                                           
#  12 ELLIPTICITY            1 - B_IMAGE/A_IMAGE                                       
         1 -12.5641     55.1315    147.5348   1.0440697689e+02   3.8520554888e+01     4.579199    0.8752934 -57.42   0.01377501    3.860    0.741
         2 -13.7091    207.8161     33.1474   3.8732929154e+01   2.9464831914e+01     1.312918    0.8697907 -15.11  0.001411521    2.137    0.532
         3 -13.2264    198.3374     42.1893   4.2050251533e+01   3.0491394220e+01     1.015527     0.938132 -63.64  0.003242494    1.089    0.082
         4 -10.6269     32.6212     10.8201   7.2658310910e+01   6.9886227554e+01    0.2270553   0.09576285 -38.97  0.001112097    2.628    0.619
         5 -13.0226    232.7661      6.7838   3.0710932117e+01   2.7027205763e+01    0.8283928    0.6448992 -80.92  0.004410307    1.077    0.071
         6 -10.4394     60.9978      7.9608   5.9336794393e+01   6.5645214884e+01    0.1924525    0.1561423  21.15 0.0004925647    1.014    0.014
         7 -10.9717     43.6089      6.7979   6.5576154148e+01   6.8732778869e+01    0.2390113    0.1491645   5.28  0.001407007    1.580    0.367
         8 -10.4428     50.5162      3.3361   6.0987709906e+01   6.7944104748e+01    0.2021128    0.1557844  77.31  0.001159629    2.532    0.605
         9  -9.5310    142.4627    208.5114   9.2250317408e+01   1.0560435556e+01    0.1390974     0.127546  35.45  0.000163796    1.034    0.032
        10 -10.5412    139.9279    250.0009   9.8872831528e+01   3.3796269522e+00    0.3221284    0.1701763  45.59  0.001657996    1.741    0.425
        11 -11.1429    139.8331    243.4627   9.8028113742e+01   4.4991598491e+00    0.5141433    0.2330748 -59.74  0.002264377    3.162    0.684
        12 -11.5875    107.5243    203.9783   9.9569060638e+01   1.7322503894e+01    0.5831291    0.2647679  47.84  0.002400801    2.196    0.545
        13 -11.4274    110.9672    202.9931   9.8616320660e+01   1.6979212897e+01    0.4533347    0.2941935  84.41  0.001347046    2.310    0.567
        14  -9.7132     31.2154    202.7823   1.1696472003e+02   2.7929359024e+01    0.3160861    0.2055352  69.10  0.001573505    1.389    0.280
        15 -10.9993    121.7742    197.7363   9.5248902311e+01   1.6321086025e+01    0.4742002    0.2897699 -69.58  0.002114245    2.121    0.529
        16 -10.3867     60.4878    197.9487   1.0984475013e+02   2.5572826743e+01    0.2542869    0.1921848  38.45 0.0003164323    1.339    0.253
        17 -15.9334      6.1810    207.6813   1.2258731005e+02   2.9295011866e+01     4.196009    0.9266588 -69.42   0.01331867    3.508    0.715
        18  -9.1178    115.6349    193.6836   9.6049772907e+01   1.8245915888e+01    0.1464127    0.1125668  -8.51 0.0007039667    1.772    0.436
        19  -9.4437    118.4996    191.4362   9.4989976585e+01   1.8258195670e+01    0.2377669      0.14218 -69.31  0.001017132    2.142    0.533
        20 -10.8775     43.7189    178.5051   1.1167136863e+02   3.2209542678e+01    0.5317295    0.2955157 -37.48  0.001425964    2.704    0.630
        21 -12.9273     56.1008    185.4672   1.0943582084e+02   2.9055116359e+01     1.003471    0.7358311  41.26   0.00566393    1.364    0.267
        22 -10.4962    147.6878    187.6024   8.7384412166e+01   1.3925578106e+01    0.4256164    0.3152669 -72.83   0.00203596    1.824    0.452
        23  -8.3600     72.4676    188.5360   1.0581033254e+02   2.6148826074e+01    0.1389526    0.1226724  74.48 0.0001778223    1.041    0.039
        24  -9.9651    119.9834    186.3054   9.3756607677e+01   1.9147515803e+01    0.2070021    0.1807618  40.03 0.0003315774    1.100    0.091
        25 -10.4782     65.6423    179.1036   1.0624361177e+02   2.9337520461e+01    0.3256195    0.2983456  77.04 0.0006313805    1.031    0.030
        26  -9.0242     79.8084    183.1871   1.0324304212e+02   2.6361432061e+01    0.2332865     0.198344  44.44 0.0007694271    1.166    0.142
        27 -10.3497     99.3204    181.0528   9.7995694939e+01   2.3840240319e+01    0.2757842    0.2609378 -36.66 0.0006616852    1.160    0.138
        28 -17.5400     12.6607    243.0496   1.2329938371e+02   2.1429361173e+01     10.75605     5.461452 -81.44    0.0244755    1.794    0.443
        29  -8.6109     89.8223    180.7985   1.0035576340e+02   2.5413649419e+01    0.1979365    0.1585465  75.61 0.0004905401    1.320    0.242
        30 -10.3485    186.9591    175.4762   7.6241204954e+01   9.1368449329e+00       0.3769    0.3079515 -40.39  0.001300045    1.237    0.192
        31 -11.0079    192.9834    194.8396   7.8845434185e+01   4.4497970273e+00    0.9462513    0.4902185 -61.86  0.002877021    5.575    0.821
        32 -11.3596     74.6653    166.9501   1.0211155105e+02   3.1045699542e+01    0.3907728    0.3468113 -83.16  0.001213054    1.068    0.063
        33 -11.5356     70.4532    171.5591   1.0393139812e+02   3.0512036309e+01    0.4799767      0.31492 -34.47  0.002239429    2.033    0.508
        34  -8.4022     84.2438    173.6437   1.0065521576e+02   2.7988691870e+01     0.145601     0.105671  80.54 0.0002842957    1.591    0.372
        35  -8.4642    193.4016    170.1642   7.3793403506e+01   8.9674466188e+00    0.1971201    0.1328056 -49.85 0.0009320772    1.634    0.388
        36 -10.5815    240.1328    169.1342   6.4832230427e+01   1.0564100176e+00    0.2078713    0.1609547 -10.52 0.0004728242    1.217    0.179
        37  -8.9455    147.8429    174.2028   8.4755902992e+01   1.6759795882e+01    0.2019972    0.1715474 -12.07 0.0003251994    1.295    0.228
        38 -10.4495     33.6484    165.8860   1.1277700603e+02   3.6366448207e+01    0.4578878    0.2253267  48.27  0.002167415    2.083    0.520
        39 -12.1128     82.6198    158.9229   9.8619636477e+01   3.1845030782e+01     1.052783    0.6988742  75.39 0.0008616128    1.982    0.495
        40  -8.4735     35.6761    158.3284   1.1134406438e+02   3.8019619780e+01    0.1416788   0.09033947  69.25 0.0003385401    1.696    0.410
        41 -10.0768     32.0200    156.1818   1.1206035404e+02   3.8919705276e+01    0.3058422    0.1846964 -40.07  0.001518119    2.017    0.504
        42 -11.6054     90.0337    151.7641   9.5250479532e+01   3.2446005782e+01     0.759764    0.5152852 -23.37  0.003284344    2.104    0.525
        43 -10.7366    133.6053    144.6597   8.1960583063e+01   2.6174768961e+01     1.291438    0.3538078 -54.76  0.002988058    5.712    0.825
        44  -9.4393    174.5487    149.1650   7.3208496639e+01   1.6830310728e+01    0.2771074    0.2194306  39.04 0.0007164026    1.289    0.224
        45  -8.1854    110.3420    148.6941   8.9023275586e+01   2.9686226741e+01    0.1588123    0.1200735  74.66 0.0007041891    1.685    0.407
        46 -10.2098     38.7200    146.3344   1.0891284360e+02   4.0693776702e+01    0.3310341    0.2348742  51.45 0.0008966758    1.503    0.335
        47 -10.2480    103.0407    138.3638   8.8809495734e+01   3.3511279856e+01    0.5330144    0.3489271 -21.68  0.002138011    2.257    0.557
        48 -11.6274     90.7103    137.6785   9.2201604582e+01   3.5818849063e+01    0.2949325    0.2623706 -38.07 0.0004511379    1.146    0.128
        49 -10.2995    135.8112    129.3470   7.7751284351e+01   2.9221945009e+01    0.6829188    0.1208283 -49.69  0.001348729    7.275    0.863
        50 -11.3135     44.0569    129.5415   1.0470378664e+02   4.4341135283e+01    0.3593168    0.2876773 -72.83  0.001128064    1.154    0.133
        51 -10.7239     32.5381    130.7044   1.0842345856e+02   4.5224076294e+01    0.3068317    0.2201684 -48.79 0.0009052265    1.330    0.248
        52  -9.9689    112.1104    129.1805   8.4121011460e+01   3.4030720094e+01    0.3537546    0.2775261   5.27 0.0008444863    1.605    0.377
        53 -10.2775     99.3389    124.9164   8.6778544272e+01   3.7431523889e+01    0.3142902    0.2479749 -22.99 0.0006230982    1.460    0.315
        54  -8.9054     92.0147    124.7474   8.8919307601e+01   3.8765743994e+01    0.2293517    0.1957877  66.74 0.0007140598    1.331    0.249
        55 -10.6005    119.1020    122.8652   8.0610084267e+01   3.4135650155e+01    0.5852792    0.3487705 -15.86  0.001888605    3.456    0.711
        56  -9.3539    108.1417    118.2797   8.2558626642e+01   3.7359636259e+01    0.2435547     0.204039 -34.25 0.0003425454    1.206    0.171
        57  -9.9045    231.3533    113.8201   5.4406261535e+01   1.2063000173e+01     0.266875    0.2295292 -34.72 0.0007583736    1.055    0.052
        58 -12.4009     43.4311    109.2420   1.0107601827e+02   4.9443682734e+01    0.8239396     0.319212 -48.07  0.003285357    2.287    0.563
        59 -12.3004     50.1663    107.3105   9.8370878815e+01   4.9150443004e+01    0.6186381    0.5795179 -61.41   0.00215532    1.080    0.074
        60 -11.5790     18.4957    109.9973   1.0961196273e+02   5.1520910929e+01      0.46702    0.1805684 -59.21  0.002075304    1.979    0.495
        61 -10.8903    115.4523    109.2028   7.8068913564e+01   3.7986599471e+01    0.4518036    0.2501315 -36.76  0.001698331    1.940    0.485
        62  -8.3233    139.5317    106.4931   7.0846691488e+01   3.3427056234e+01    0.1551366    0.1527978 -37.87 6.821408e-05    1.016    0.015
        63 -13.0368     71.3000    153.6651   1.0084235307e+02   3.4828912678e+01     0.710994    0.5812953 -55.74  0.001100788    1.179    0.152
        64  -9.2811    205.4742    110.1877   5.7797442646e+01   1.7972601533e+01    0.2470621    0.2069531  52.15  0.000613809    1.291    0.225
        65  -9.5376    128.4329     95.5566   7.0663208909e+01   3.8164416759e+01    0.4182033    0.2777641  76.36  0.001604912    2.509    0.602
        66  -8.6806    119.3168     97.6590   7.3758027109e+01   3.9699320782e+01    0.1576664    0.1253636 -85.36 0.0007048667    1.710    0.415
        67 -10.5061    106.5466    250.0365   1.0566434677e+02   8.3429778866e+00    0.2989872    0.2085101  52.50  0.001697833    1.288    0.224
        68 -10.2049    105.8951    130.8849   8.6290220722e+01   3.4797229075e+01    0.3697448    0.3370961 -65.58  0.001267445    1.118    0.106
        69  -9.4013    155.7414     87.6972   6.1746575954e+01   3.3448939399e+01    0.3538432    0.2220199 -61.18  0.001149384    2.082    0.520
        70  -8.5206    116.5170     85.4775   7.0949648695e+01   4.2804091778e+01    0.1502631     0.148088  -3.49 0.0002580561    1.035    0.034
        71  -8.6656     74.5812     84.7292   8.3981622025e+01   5.0956508695e+01     0.188695    0.1359539 -55.89 0.0004087018    1.487    0.327
        72  -9.2357    158.2537     82.9850   5.9867203384e+01   3.3721487539e+01    0.2136165    0.1975635 -38.54 0.0004568188    1.084    0.078
        73  -8.1217     70.7265     82.2808   8.4604854299e+01   5.2099034445e+01     0.130124    0.1147548  86.79 0.0006904266    1.498    0.332
        74  -8.3666    184.7486     76.9708   5.3070879008e+01   2.8487707073e+01    0.1863831    0.1218017 -37.00 0.0004521993    1.506    0.336
        75  -8.6254     58.4839     67.4483   8.4487601351e+01   5.7023449632e+01    0.1377684    0.1223972 -18.60 6.824748e-05    1.020    0.019
        76 -12.8966    187.4061     50.6951   4.5718142704e+01   3.1907977066e+01    0.9511687    0.7945274  38.91 0.0009049691    1.404    0.288
        77 -14.8663     43.6514    196.1604   1.1356632481e+02   2.8053359570e+01     7.309066     2.390564  62.39   0.01828318    7.814    0.872
        78 -11.7911     23.3882     34.5281   8.7993071758e+01   6.7420817854e+01    0.4710944    0.2380592  25.70  0.002050499    2.037    0.509
        79 -10.4571    150.0137    220.9600   9.2590387936e+01   6.9049500732e+00    0.2143186    0.1906459  33.03  0.000947615    1.046    0.044
        80 -14.4416     68.7583    144.1840   9.9894016551e+01   3.7567070240e+01      5.06303     2.159418  60.35   0.01306756    6.146    0.837
        81  -9.4412    198.0452     23.5167   3.7480251675e+01   3.2855775502e+01    0.2162865    0.1817342  -8.65 0.0006567534    1.576    0.366
        82  -9.3138     33.3317     21.3287   7.7415328550e+01   6.8387436997e+01    0.1291464   0.07866325  -4.03   0.00070517    1.716    0.417
        83  -9.1326    189.6839     14.9833   3.6274160460e+01   3.5736951920e+01    0.1754723    0.1547955 -67.07 0.0006666991    1.104    0.095
        84 -11.0616    185.3209    211.2164   8.3455938972e+01   2.8296347817e+00    0.3308624    0.1894243  11.26  0.001406965    2.498    0.600
        85  -9.3175     89.1246    210.9926   1.0478937983e+02   1.8647042167e+01    0.1965529    0.1764859  69.87 0.0004453685    1.041    0.039
        86 -10.6191    104.5467    209.4103   1.0104042767e+02   1.6626094260e+01    0.2585139    0.2454628  10.22  0.001587034    1.190    0.160
        87 -11.8570    101.9763    242.6425   1.0577703779e+02   1.0359223078e+01     0.791704    0.3591242 -55.17  0.002178787    2.507    0.601
