#   1 NUMBER                 Running object number                                     
#   2 MAG_AUTO               Kron-like elliptical aperture magnitude                    [mag]
#   3 X_IMAGE                Object position along x                                    [pixel]
#   4 Y_IMAGE                Object position along y                                    [pixel]
#   5 X_WORLD                Barycenter position along world x axis                     [deg]
#   6 Y_WORLD                Barycenter position along world y axis                     [deg]
#   7 A_WORLD                Profile RMS along major axis (world units)                 [deg]
#   8 B_WORLD                Profile RMS along minor axis (world units)                 [deg]
#   9 THETA_WORLD            Position angle (CCW/world-x)                               [deg]
#  10 FWHM_WORLD             FWHM assuming a gaussian core                              [deg]
#  11 ELONGATION             A_IMAGE/B_IMAGE                                           
#  12 ELLIPTICITY            1 - B_IMAGE/A_IMAGE                                       
         1 -13.3258      2.3311     12.3156   2.9195012113e+02   7.6265207991e+00    0.2085217   0.02672604 -63.08  0.008546881    9.926    0.899
         2 -13.1911      2.8964      4.4022   2.9189518240e+02   7.7137092498e+00    0.1125751   0.06861316  50.52   0.01089202    1.828    0.453
         3 -14.0059    200.9498      9.8522   2.8958649683e+02   6.4399803093e+00   0.08764823   0.06163313 -14.26  0.008892095    1.781    0.438
         4 -13.4658    188.7245     28.1881   2.8984298955e+02   6.3052754365e+00   0.06086756   0.05521363  19.29  0.006149889    1.091    0.083
         5 -10.1791     76.4307    244.2968   2.9248400066e+02   4.5141452422e+00   0.01726844  0.007927923  50.06  0.001363977    2.697    0.629
         6 -10.5733    249.1258    249.0584   2.9047903634e+02   3.4039467847e+00   0.01965362   0.01409859 -19.38  0.002025858    1.687    0.407
         7 -11.3177    140.3522    250.0539   2.9176554745e+02   4.0579926978e+00   0.02405698  0.009345626  27.34  0.001896719    2.524    0.604
         8 -11.3667    123.8208    249.8253   2.9195894067e+02   4.1615823903e+00   0.02818741  0.009188769  25.73  0.001992471    3.174    0.685
         9  -9.5182    111.5071    250.5077   2.9210818432e+02   4.2289220602e+00  0.006662753  0.006440179  43.08 -9.703944e-05    1.036    0.035
        10 -10.5292     98.5324    249.3220   2.9225391221e+02   4.3216978471e+00     0.015087   0.01142295  50.58  0.001494744    1.391    0.281
        11 -10.2194    102.5341    247.9175   2.9219823464e+02   4.3134010811e+00   0.01129363  0.009042989  52.37 0.0006222263    1.315    0.239
        12 -10.7542     67.1555    250.0442   2.9262814461e+02   4.5047031044e+00   0.01744098   0.01438194 -63.11  0.001111114    1.243    0.196
        13  -9.4238     63.0659    250.5426   2.9267937195e+02   4.5238976791e+00   0.01015882  0.006443829  27.72 0.0003786635    1.539    0.350
        14 -14.0173      5.8812    187.2357   2.9297080689e+02   5.5985997582e+00    0.1334869   0.07109682 -60.50   0.00165427    1.887    0.470
        15 -14.5309     58.3503    212.9632   2.9250741136e+02   4.9839799508e+00    0.4587205   0.02061795  37.93   0.02075429    7.682    0.870
        16 -10.7082     46.4807    248.2094   2.9286079007e+02   4.6516747806e+00   0.01825204   0.01322194  85.03 0.0008451334    1.732    0.423
        17  -9.7857    152.4746    248.4815   2.9161319781e+02   4.0019579175e+00  0.006628982  0.006465416  33.92 -2.282366e-05    1.018    0.017
        18 -10.6996     83.6293    244.4831   2.9240026519e+02   4.4681221932e+00   0.02142215    0.0128993  68.32  0.001878016    2.443    0.591
        19  -9.5992     71.0000    243.9339   2.9254582929e+02   4.5514090173e+00   0.01109358  0.003821605 -62.22 0.0008054547    2.963    0.663
        20 -10.4849     66.5006    242.9861   2.9259313895e+02   4.5897054786e+00   0.01364421   0.01173541 -83.32 0.0007271097    1.266    0.210
        21 -14.8765     20.9888    174.0614   2.9271262123e+02   5.6579882957e+00    0.3531858    0.1570946 -83.33     0.019833    6.088    0.836
        22 -10.8767     95.0119    241.9585   2.9225078558e+02   4.4276760451e+00   0.01691864    0.0096447 -61.57  0.001615403    1.783    0.439
        23 -10.0690     19.0245    241.8124   2.9314586394e+02   4.8921384021e+00   0.01192869  0.006824956  51.64  0.001084529    2.021    0.505
        24 -13.5209     10.4249    206.8713   2.9303601865e+02   5.3455579013e+00   0.05941141   0.04609767 -22.87  0.002525327    1.457    0.314
        25  -9.5330    172.4649    238.4866   2.9131703652e+02   3.9943821804e+00  0.006612995  0.006477448   9.29 4.296618e-06    1.010    0.010
        26 -11.0771    233.1873    236.3503   2.9058920447e+02   3.6472085423e+00   0.02733666   0.01415888  87.48  0.001835796    4.326    0.769
        27  -9.5902     35.2016    229.9824   2.9288353379e+02   4.9295546953e+00   0.01166745  0.009384728  35.95 0.0006087983    1.214    0.176
        28 -10.6335     20.1319    227.8313   2.9304827704e+02   5.0459129682e+00   0.01424232  0.009472189  58.63  0.001407736    1.791    0.442
        29 -10.4898    162.1973    226.7029   2.9136639396e+02   4.1923371308e+00   0.01589016  0.006186025  24.66   0.00121419    2.690    0.628
        30 -12.9552     44.4406    233.4477   2.9279553534e+02   4.8335441787e+00   0.05818816   0.02464795 -38.17 0.0007848711    3.277    0.695
        31 -10.9539    173.5129    221.9240   2.9120403839e+02   4.1779355625e+00   0.02411398    0.0160528  64.35  0.002358362    1.906    0.475
        32  -9.6942     27.6162    221.6043   2.9292231801e+02   5.0718846340e+00   0.01149889   0.01048243  27.46  0.000445289    1.073    0.068
        33 -14.0120     50.6954    224.2468   2.9266606365e+02   4.9010819673e+00    0.1061523   0.06507007 -38.13   0.01028372    1.835    0.455
        34  -8.7757    152.4751    212.9734   2.9139752638e+02   4.4092857526e+00  0.009376883  0.006635688 -62.83 0.0004198679    1.450    0.311
        35 -12.2644     28.1233    204.0022   2.9280978775e+02   5.2708757458e+00   0.02813576   0.01353265  35.00 0.0008370407    1.960    0.490
        36 -10.0298    193.6490    196.4721   2.9081199915e+02   4.3465724602e+00    0.0384553   0.01799949 -89.46  0.001854932    8.385    0.881
        37 -11.4109     68.6394    198.7675   2.9229995402e+02   5.0842210378e+00   0.02040262   0.01174091 -40.24  0.001446145    1.936    0.484
        38 -11.6231     73.8388    190.9881   2.9219140534e+02   5.1418120243e+00   0.01524958   0.01179764 -37.34  0.000699177    1.369    0.269
        39  -8.4463    105.4663    181.4223   2.9176012762e+02   5.0585816157e+00  0.006680938  0.006330055  45.41  0.000100894    1.059    0.056
        40 -10.8743     82.6702    178.3385   2.9201039434e+02   5.2331241824e+00   0.01241075   0.01131585 -41.36 0.0002968936    1.115    0.103
        41 -13.2390     70.2031    176.1120   2.9214402368e+02   5.3347198497e+00   0.02752531   0.01415679 -39.45  0.001841042    2.285    0.562
        42  -8.9884    172.0779    174.0275   2.9092955398e+02   4.7360670787e+00   0.01078597  0.007703551  61.76 0.0006756918    1.653    0.395
        43 -11.9604     89.4728    168.9036   2.9187279556e+02   5.2998870497e+00   0.03690705   0.03154419  36.54   0.00433842    1.147    0.128
        44 -12.7777     66.8551    143.7392   2.9198691293e+02   5.7266524131e+00   0.05458802   0.03328692  74.02  0.004785174    2.505    0.601
        45  -9.7771    101.0640    152.4372   2.9163587697e+02   5.4180589102e+00   0.01291926   0.01115295 -49.21 0.0007610254    1.172    0.147
        46 -12.0063     90.0195    151.8879   2.9176291769e+02   5.4918050044e+00   0.01418131   0.01190033 -24.62 0.0005374526    1.284    0.221
        47  -9.1114    103.9061    148.0773   2.9157580726e+02   5.4507202103e+00   0.01118996  0.007667491 -26.53  0.001114246    1.753    0.430
        48 -12.2342     29.4669    139.8160   2.9240474426e+02   5.9994658972e+00    0.0241478   0.01502484  34.73  0.002428921    1.544    0.353
        49 -10.4108    174.4708    137.9668   2.9068164201e+02   5.1349391883e+00   0.02052445   0.01111727  56.79  0.001739522    2.472    0.595
        50  -9.6217    111.4460    137.1372   2.9142022623e+02   5.5301557307e+00   0.01729335   0.01011839 -34.55  0.001428512    2.067    0.516
        51 -10.7339     99.0212    135.1360   2.9155473869e+02   5.6290318736e+00   0.01709363   0.01103997 -51.92 0.0008024547    1.548    0.354
        52  -8.4078    192.2033    144.0174   2.9050946613e+02   4.9568895657e+00  0.008518184  0.005316716 -61.34 0.0004047236    1.630    0.387
        53  -9.4740    168.3749    132.2397   2.9071861834e+02   5.2379543076e+00   0.01228962  0.009519773  50.45 0.0005473606    1.353    0.261
        54  -9.1378    108.1623    124.1277   2.9137979170e+02   5.6994575946e+00  0.009335885  0.008586609 -20.04 0.0002944978    1.124    0.110
        55 -11.8495     53.8789    120.7695   2.9200057198e+02   6.0693257589e+00   0.03137083   0.01516908 -77.65  0.002398304    3.129    0.680
        56 -10.4247    193.3158    157.1227   2.9057624584e+02   4.7998163135e+00   0.01690156   0.01163894  66.71  0.001102576    1.831    0.454
        57  -9.3753    155.9275    121.2762   2.9079861573e+02   5.4399092110e+00   0.01870268   0.00809177  53.44  0.001316882    3.497    0.714
        58 -14.8226      3.5332    236.2281   2.9329481735e+02   5.0503930208e+00    0.6911243   0.03394295 -58.89   0.01109472    7.384    0.865
        59 -10.6573    168.0636    113.2848   2.9060669583e+02   5.4571791067e+00   0.01731891    0.0128521  63.65  0.001105242    1.577    0.366
        60  -8.8849    203.4653    111.5003   2.9017831713e+02   5.2605405980e+00  0.006725751  0.006364381 -16.68 9.413638e-05    1.077    0.072
        61  -9.0152    125.9251     99.2177   2.9101825907e+02   5.8765014933e+00   0.01057604  0.008230163  51.81  0.001161296    1.358    0.264
        62  -9.8027     29.6840     91.0951   2.9210610817e+02   6.5571285537e+00   0.01642929   0.00840056  36.66  0.000906381    1.866    0.464
        63  -9.3950    155.4510     75.4770   2.9052478796e+02   5.9678193395e+00  0.006618786  0.006449191  -4.52 0.0001336979    1.027    0.026
        64 -10.0940     21.3740     67.9453   2.9206354348e+02   6.8731873129e+00   0.01240977  0.009331408  32.13 0.0005111301    1.290    0.225
        65  -9.1223     20.1838     57.4208   2.9201355848e+02   7.0010902798e+00  0.009867195  0.005764809  39.69 0.0006291285    1.679    0.404
        66 -11.0714    195.0983    239.4514   2.9105636910e+02   3.8448497267e+00   0.02258127   0.01241331 -87.29  0.001791248    3.020    0.669
        67 -10.1519    162.0162    248.7283   2.9150230475e+02   3.9408041508e+00   0.01263673  0.009457716  74.99  0.001145468    1.635    0.388
        68 -10.3282     81.5262    248.8388   2.9245143876e+02   4.4309546826e+00   0.01444102   0.01157435  50.34 0.0008546262    1.297    0.229
