#   1 NUMBER                 Running object number                                     
#   2 MAG_AUTO               Kron-like elliptical aperture magnitude                    [mag]
#   3 X_IMAGE                Object position along x                                    [pixel]
#   4 Y_IMAGE                Object position along y                                    [pixel]
#   5 X_WORLD                Barycenter position along world x axis                     [deg]
#   6 Y_WORLD                Barycenter position along world y axis                     [deg]
#   7 A_WORLD                Profile RMS along major axis (world units)                 [deg]
#   8 B_WORLD                Profile RMS along minor axis (world units)                 [deg]
#   9 THETA_WORLD            Position angle (CCW/world-x)                               [deg]
#  10 FWHM_WORLD             FWHM assuming a gaussian core                              [deg]
#  11 ELONGATION             A_IMAGE/B_IMAGE                                           
#  12 ELLIPTICITY            1 - B_IMAGE/A_IMAGE                                       
         1 -13.8982    206.3897     31.3072   4.6448514127e+01   2.9957022101e+01    0.9340047    0.7326929 -52.44  0.003823588    1.209    0.173
         2 -12.8809    214.2084     24.3053   4.3692301807e+01   2.8916063505e+01    0.5923163    0.4287496  24.67  0.001211111    1.982    0.495
         3 -14.0277    224.7412     12.6761   3.9725215140e+01   2.7757258560e+01     0.954208    0.8119364  23.85  0.003757422    1.582    0.368
         4 -11.5689    189.3097     14.9968   4.4057483924e+01   3.6145981619e+01    0.1917793    0.1786442 -60.15  0.000826225    1.091    0.084
         5 -13.9715    245.7679    242.2394   8.7332869241e+01  -1.0263236874e+01     1.165594    0.6942908  -0.64  0.007198184    1.706    0.414
         6 -12.9711    100.2254    250.1461   1.1461537312e+02   1.0470463302e+01    0.6525302    0.1711573  37.93  0.002129772    3.487    0.713
         7 -12.3636     64.9053    249.9301   1.2079852996e+02   1.5303159588e+01    0.2884796    0.1326662  39.35  0.001650975    1.954    0.488
         8 -11.0350     52.9736    250.5596   1.2286454441e+02   1.6684039426e+01    0.1942069   0.07767975  45.28 -1.02047e-05    1.908    0.476
         9 -13.8415     47.4419    222.2762   1.2188615413e+02   2.2528153479e+01    0.7559887    0.3330657 -84.47 0.0008166726    2.351    0.575
        10 -13.6048     91.0303    231.9513   1.1456849943e+02   1.4940355892e+01    0.8726524    0.4267716 -81.12  0.004239608    2.796    0.642
        11 -14.3067      5.1181    186.4467   1.2749389818e+02   3.4207091150e+01     2.162478    0.4737498 -79.53  0.002249984    3.917    0.745
        12 -14.1814     24.0762    225.0444   1.2624892388e+02   2.4615968756e+01    0.7369772    0.5378687  66.95  0.003346096    1.074    0.069
        13 -13.9542     27.9310    215.7167   1.2500611563e+02   2.6016609193e+01    0.9472347    0.3262844  88.23  0.004039494    3.548    0.718
        14 -14.6421     31.2287    247.7205   1.2628811696e+02   1.9703876847e+01     1.286451    0.7202271  40.91  0.008780774    1.706    0.414
        15 -15.0030      9.3482    207.8975   1.2790573803e+02   2.9422668480e+01     1.282228    0.9638282  89.17  0.006765117    1.170    0.145
        16 -13.4152     36.3472    209.7411   1.2304172972e+02   2.6295272977e+01    0.4910656    0.4265749  21.75  0.001536982    1.718    0.418
        17 -16.2414     45.3062    199.4568   1.2048815360e+02   2.7397738678e+01     8.922286     3.185502  74.47   0.02599119    6.768    0.852
        18 -12.9049    225.2863    225.0076   8.8052393084e+01  -5.2527379308e+00    0.7030079    0.4229207  16.96   0.00316852    1.660    0.397
        19 -15.6840    236.2165    209.8649   8.3473162510e+01  -4.9178499430e+00     2.747633     1.945724 -11.88   0.01240265    1.327    0.246
        20 -11.5213     29.6017    201.8629   1.2376513486e+02   2.8641137547e+01    0.2151431    0.1368615  55.43 0.0006845752    1.351    0.260
        21 -14.4595    203.8725    186.2768   8.5062554233e+01   4.0476075365e+00     1.760359     1.347799   0.29  0.007961162    1.384    0.277
        22 -11.8549     67.9744    175.7198   1.1316193184e+02   2.9766963769e+01    0.3074097    0.2339777 -49.28 0.0007099474    1.558    0.358
        23 -14.6760      5.3429    246.2032   1.3031503948e+02   2.2651682264e+01     1.105418    0.6975871  69.44  0.004062582    1.072    0.067
        24 -10.9233     41.0592    178.4118   1.1947434008e+02   3.2457399985e+01    0.2026154     0.146429 -71.61 0.0007006714    1.282    0.220
        25 -14.2569     10.5087    231.6894   1.2888069393e+02   2.4746627599e+01      1.34335    0.4324785  59.45  0.006695956    2.447    0.591
        26 -11.6839     53.8711    231.3315   1.2138357224e+02   2.0023661434e+01    0.1929548    0.1271959  82.03 0.0007352507    1.328    0.247
        27 -12.1327     62.7513    181.5322   1.1502933261e+02   2.9145721051e+01    0.3729594    0.2543231 -41.52  0.001406322    2.064    0.515
        28 -11.5808     77.5742    165.7753   1.0958357908e+02   3.0722729863e+01    0.2627195    0.2203964 -68.10 0.0005115735    1.161    0.139
        29 -13.4430     64.8841    161.8288   1.1209116923e+02   3.3391195661e+01     0.489266    0.2788822 -49.99  0.001579542    1.932    0.482
        30 -12.9711     83.6799    159.1661   1.0710400186e+02   3.1374199799e+01    0.8694928    0.5651807  39.27  0.001375485    1.595    0.373
        31 -13.8674     68.2479    144.2173   1.0865272417e+02   3.7147040448e+01      1.08365    0.5934113 -88.74  0.004503062    2.490    0.598
        32 -10.6465     98.5154    144.0201   1.0070304797e+02   3.2615428014e+01    0.2132769    0.1865858 -65.65 0.0007699618    1.086    0.079
        33 -12.3507     86.7279    142.8611   1.0356938790e+02   3.4795451553e+01    0.2839764    0.2537563 -49.43 0.0004592257    1.189    0.159
        34 -12.4349    109.5139    228.9051   1.1070974009e+02   1.2751386773e+01    0.3834681    0.2222465  31.02  0.002029203    1.944    0.486
        35 -10.0708    106.1618    131.1704   9.6059263796e+01   3.4352565373e+01    0.2989207    0.1929208  66.27  0.001262182    2.054    0.513
        36 -10.8921     96.8821    128.5205   9.8006478319e+01   3.6601645878e+01      0.26958    0.2128293 -32.74  0.000978381    1.460    0.315
        37 -10.0188    109.4959    132.4623   9.5449736500e+01   3.3445026535e+01      0.28764    0.2118509  -2.71  0.001262005    2.113    0.527
        38  -9.9149    106.7768    120.2512   9.3422638766e+01   3.6829375774e+01    0.1968792    0.1715868 -24.38 0.0003542801    1.292    0.226
        39  -9.8503    168.2552    113.2531   7.6077447820e+01   2.5421546627e+01    0.2584579    0.1832935 -80.67  0.001034394    2.179    0.541
        40  -9.7802    205.5180    110.4538   6.7690711155e+01   1.7431554363e+01    0.1512749    0.1430779 -32.40 0.0002233295    1.010    0.010
        41  -9.5986     73.4662     83.9748   9.4222462026e+01   5.0828846035e+01    0.1859379    0.1228769 -77.07 0.0004270513    2.258    0.557
        42 -10.0560     13.4875     60.0078   1.0991895857e+02   6.2405971806e+01    0.1833078   0.09649954 -61.35 0.0004439311    1.517    0.341
        43 -11.2029    139.0971     45.0856   6.2183331703e+01   4.5002416754e+01    0.3433166    0.2494669 -71.50  0.001064445    1.877    0.467
        44 -13.5964    198.8058     37.5066   4.9132469276e+01   3.1030702373e+01    0.7314379    0.5242368  55.78  0.002227503    1.416    0.294
        45 -12.2541     38.5122    224.0316   1.2363435188e+02   2.3230520549e+01    0.3381646    0.1915665  40.10  0.001779567    1.725    0.420
        46 -12.9828     95.8682    245.5065   1.1496885161e+02   1.1867699910e+01    0.3722787    0.1957519  42.10  0.002157773    1.577    0.366
        47 -13.1496     64.9094    240.2159   1.2007797776e+02   1.7005055837e+01    0.3970642    0.2826115 -58.77  0.001928079    1.803    0.445
