#   1 NUMBER                 Running object number                                     
#   2 MAG_AUTO               Kron-like elliptical aperture magnitude                    [mag]
#   3 X_IMAGE                Object position along x                                    [pixel]
#   4 Y_IMAGE                Object position along y                                    [pixel]
#   5 X_WORLD                Barycenter position along world x axis                     [deg]
#   6 Y_WORLD                Barycenter position along world y axis                     [deg]
#   7 A_WORLD                Profile RMS along major axis (world units)                 [deg]
#   8 B_WORLD                Profile RMS along minor axis (world units)                 [deg]
#   9 THETA_WORLD            Position angle (CCW/world-x)                               [deg]
#  10 FWHM_WORLD             FWHM assuming a gaussian core                              [deg]
#  11 ELONGATION             A_IMAGE/B_IMAGE                                           
#  12 ELLIPTICITY            1 - B_IMAGE/A_IMAGE                                       
         1 -12.7906     32.0732     32.1279   6.3653154340e+01   7.1179414008e+01    0.4836102    0.3530225 -41.02   0.00256699    1.346    0.257
         2 -12.8914     47.3102     27.0679   5.1525021853e+01   6.9520247908e+01    0.3568829    0.3145218 -68.53 0.0007926036    1.300    0.231
         3 -12.7355     84.2973     24.3333   3.4984975820e+01   6.1550613917e+01    0.4511155    0.3024333  76.05 0.0005661006    1.606    0.377
         4 -10.3903    114.2506      6.9925   2.0646433559e+01   5.5800881549e+01    0.2676138    0.1693337 -55.95  0.001319048    1.550    0.355
         5 -12.2587    120.9987     13.1265   2.2204675790e+01   5.3408987234e+01     0.293547    0.2523879 -84.99 0.0003847617    1.053    0.050
         6 -11.8546    117.0666     10.9250   2.1883690384e+01   5.4670336547e+01    0.2374276    0.2278082  82.95 0.0003515187    1.118    0.105
         7 -11.9733     90.5156     11.5313   2.6985552543e+01   6.1555337301e+01    0.2459093    0.2322707 -79.05  0.000652267    1.045    0.043
         8 -11.8606     92.4805      8.4756   2.5042132891e+01   6.1364802127e+01    0.2648147    0.2137099  70.33 0.0009212669    1.148    0.129
         9 -12.3119     88.4770      4.3242   2.3751078629e+01   6.2806759844e+01    0.3391076    0.2560064 -73.53 0.0002031595    1.360    0.265
        10 -12.6301     83.4359      9.7951   2.7744979413e+01   6.3564383926e+01    0.4025472    0.3457333 -62.41  0.002302713    1.191    0.161
        11 -11.4233     45.4859     11.9017   4.2867256222e+01   7.2350713644e+01    0.2195826     0.180468  20.33  0.001248987    1.290    0.225
        12 -10.8235     55.0435     10.8707   3.7618874176e+01   7.0380306360e+01    0.2413684    0.2065614   9.03  0.001391519    1.274    0.215
        13 -10.3077    103.9767      8.0137   2.2684966841e+01   5.8402445513e+01    0.1713375    0.1561714 -84.57  0.001002469    1.013    0.013
        14 -10.2053      5.0251      3.2658   6.9876810603e+01   8.0487420605e+01    0.1700904    0.1477664  -9.18 0.0004346341    1.049    0.047
        15 -11.1838    101.1887      2.0277   2.0371247809e+01   5.9687244855e+01    0.2552377    0.1860534  78.81  0.000971114    1.254    0.202
        16 -11.9895     90.2478    238.2505   8.3013283059e+01   1.3660898851e+01    0.3830507    0.2496883 -42.19   0.00164651    1.930    0.482
        17 -12.8903    246.8571    249.2779   5.5977047677e+01  -3.9601546628e+00    0.3142098    0.1680552  13.06 0.0008161308    1.527    0.345
        18 -11.3206    237.4694    248.8703   5.7264907104e+01  -3.1471189701e+00    0.2494438    0.1577286 -23.21  0.002052919    1.389    0.280
        19 -10.3627     89.9164    250.1927   8.4087202158e+01   1.1715623568e+01    0.1745712     0.121063  42.04 0.0006131464    1.253    0.202
        20 -10.5665     85.4687    250.5155   8.5043579980e+01   1.2143913401e+01     0.196869   0.09312121  24.39 -4.403499e-05    1.773    0.436
        21 -11.2658     85.4055    246.8546   8.4769536790e+01   1.2750474688e+01    0.4190208    0.1745172  37.44  0.001559343    1.815    0.449
        22  -9.9585     65.7123    250.2894   8.9198073324e+01   1.4272541997e+01    0.1164303    0.0657964  48.41 0.0004768643    1.538    0.350
        23 -11.1044     70.6376    248.2531   8.8015150953e+01   1.4101204898e+01    0.2539713    0.1907673  -5.04  0.001500721    1.677    0.404
        24 -12.1786     67.9007    244.7777   8.8365094920e+01   1.4984985639e+01    0.3629827    0.2675307 -20.08   0.00230312    1.865    0.464
        25 -11.7503     56.0398    249.5314   9.1209917480e+01   1.5393648240e+01    0.2623731    0.1915688 -64.02  0.001438065    1.738    0.425
        26 -12.2900     51.7676    250.1190   9.2152575864e+01   1.5722191970e+01    0.2539051    0.1576858  41.03  0.001206974    1.209    0.173
        27 -12.3110     42.7774    250.0037   9.4058756698e+01   1.6627156401e+01     0.218359    0.1604379  24.46  0.001524522    1.265    0.209
        28 -12.6133     48.5943    214.2183   9.0709477372e+01   2.2850149132e+01     1.320869    0.6342933 -88.90  0.005766184    2.552    0.608
        29 -12.7607     27.0306    224.0200   9.6379495731e+01   2.3007626838e+01    0.5618125    0.2614973  62.50   0.00277496    2.008    0.502
        30 -13.9305     37.7098    225.6903   9.3977895218e+01   2.1645794193e+01     1.391848     1.056416   7.94  0.008911539    1.562    0.360
        31 -14.1863     17.7560    206.0004   9.7859279320e+01   2.7628039390e+01     1.715098    0.5213867  70.17  0.006350531    3.803    0.737
        32 -14.2527     26.5507    234.4128   9.6915759954e+01   2.1018274896e+01    0.5968949    0.3411486 -83.83  0.003476272    1.962    0.490
        33 -17.2195      9.2095    238.8204   1.0086385563e+02   2.1714311587e+01     2.339745     1.259444  86.45   0.01441332    1.950    0.487
        34 -14.8366     20.0521    229.6859   9.8199923003e+01   2.2524505540e+01    0.9114338    0.3027911 -79.99  0.004223332    3.297    0.697
        35 -14.4659     12.9589    225.8302   9.9685291947e+01   2.3909807674e+01    0.5235295    0.3563281   0.93  0.003171529    1.982    0.496
        36 -11.6986     50.2739    238.4632   9.1827799091e+01   1.7946254609e+01    0.4296995    0.2944166  -2.53  0.002377275    1.995    0.499
        37 -10.9858     71.7188    233.6290   8.6718507400e+01   1.6550763757e+01    0.2461917    0.1482259  39.30 0.0009685875    1.317    0.240
        38 -11.8761     72.4187    229.9609   8.6274721904e+01   1.7146262880e+01    0.9572837    0.2717059  43.28  0.003945744    2.862    0.651
        39 -10.4549     56.6722    233.1756   9.0072238349e+01   1.8261130578e+01    0.3479417    0.1947292 -70.43    0.0020152    2.118    0.528
        40 -10.8242     59.9804    235.2285   8.9463273318e+01   1.7530103190e+01    0.1741954    0.1248412  42.04 0.0002317986    1.109    0.099
        41 -12.7393     63.6810    232.9951   8.8478161142e+01   1.7545657833e+01    0.4520912    0.2899214  47.16  0.002158521    1.324    0.245
        42 -10.9204     94.6839    250.0844   8.3084366053e+01   1.1214724159e+01    0.2741455    0.1301438  39.63 0.0008852219    1.707    0.414
        43 -10.3492    147.8643    238.8924   7.1177295748e+01   6.9705257532e+00    0.1703881    0.1245608   6.97 0.0005098554    1.205    0.170
        44 -11.5711     97.4987    234.8454   8.1130167290e+01   1.3415350390e+01    0.2159752    0.2034646 -21.97 0.0007789088    1.258    0.205
        45 -11.7185    103.5230    232.8394   7.9629709285e+01   1.3057372842e+01    0.3057677    0.2009807 -20.61  0.001761487    2.041    0.510
        46 -11.7316     45.9278    234.0552   9.2549645015e+01   1.9207300760e+01    0.1902073    0.1670691  66.37 0.0005472717    1.206    0.171
        47 -13.2076    219.5341    230.5541   5.7487282260e+01   4.6055050299e-01    0.3558371    0.2066836 -12.49  0.001524539    1.512    0.339
        48 -11.2080    214.4251    233.5158   5.8701767532e+01   6.1101926016e-01    0.1861768    0.1327912 -13.63 6.165475e-05    1.149    0.130
        49 -10.8565    181.9313    231.4668   6.3888245850e+01   4.2177913778e+00    0.2203027     0.126807 -24.20  0.001151198    1.739    0.425
        50 -11.6073    130.4692    232.4771   7.3900913124e+01   9.9446279103e+00    0.2041724    0.1241304  42.62 0.0009254101    1.676    0.403
        51 -11.5796    133.2886    230.3521   7.3074556096e+01   9.9468193367e+00    0.2239517    0.1394156 -18.92 0.0009819942    2.008    0.502
        52 -12.2058    120.4963    231.4830   7.5862295799e+01   1.1282477061e+01    0.4501716   0.09038299  34.57  0.001658987    3.593    0.722
        53 -10.2425    193.1495    231.3607   6.1915558470e+01   3.0311983720e+00    0.2285951   0.08391213  31.96  0.001205103    2.457    0.593
        54 -11.2318    149.5147    229.5187   6.9710719054e+01   8.1617373254e+00     0.190204    0.0952518 -34.86  0.001030018    2.257    0.557
        55 -13.4139    113.7921    227.1819   7.6816681889e+01   1.2800777222e+01    0.4882167    0.3299167 -30.45  0.002946552    1.786    0.440
        56 -11.8432    106.0737    227.2069   7.8497672054e+01   1.3724150640e+01    0.2450561    0.1933886  28.21 0.0002635046    1.043    0.041
        57 -10.9943    100.8893    227.8350   7.9702032779e+01   1.4233539279e+01    0.2413392    0.1398287  46.80   0.00134518    1.699    0.412
        58 -10.7875    178.0321    228.4844   6.4186121092e+01   5.0475823000e+00    0.1571646    0.1248568  -3.42 0.0003196266    1.075    0.070
        59 -10.5326     84.5805    229.2936   8.3473352106e+01   1.5886003715e+01     0.235123    0.1107049  36.63  0.001220679    1.671    0.401
        60 -10.8441    232.4213    227.8043   5.5137464915e+01  -4.5023345437e-01      0.16641    0.1132164  28.07  0.001280892    1.676    0.403
        61 -10.6358    248.8490    226.2697   5.2554230177e+01  -1.7701397360e+00    0.1190096    0.1103314 -59.63 0.0008569222    2.747    0.636
        62 -10.8795     91.3196    225.2744   8.1583576221e+01   1.5828577389e+01    0.2762525    0.1548904  66.37  0.001346318    2.669    0.625
        63 -11.0434     83.1920    224.5022   8.3356902237e+01   1.6927766533e+01    0.2707211    0.1754766 -58.76   0.00125135    1.823    0.452
        64 -10.4123     60.8150    224.6626   8.8536787170e+01   1.9435573838e+01    0.1977496    0.1237521  66.47 0.0006918637    1.727    0.421
        65 -10.6226    212.5006    223.3269   5.7577001786e+01   2.0249889412e+00    0.2540775    0.1382102 -14.64  0.001447636    1.807    0.446
        66 -11.8323    173.6549    219.8596   6.3801017464e+01   6.7547923763e+00    0.3178626    0.2301563 -60.86  0.001972513    2.314    0.568
        67 -11.7223    159.3636    221.9601   6.6801555730e+01   8.1335159883e+00    0.3217529    0.1469571  30.09 0.0007512094    1.898    0.473
        68 -13.1001    125.7989    220.9581   7.3517931136e+01   1.2389817311e+01    0.4567428    0.2967147  -2.50   0.00131329    1.890    0.471
        69 -11.5611    189.4633    220.2906   6.1009606666e+01   4.8861962301e+00    0.2195592    0.1340153  -2.48 0.0007767511    1.665    0.399
        70 -13.9573     98.4571    208.4642   7.8172547778e+01   1.8112879146e+01    0.8971669    0.5865363  10.49  0.004790576    1.753    0.429
        71 -12.4741     77.3706    219.1320   8.4218219471e+01   1.8629308635e+01    0.3123834    0.2255993  52.66 0.0004140514    1.321    0.243
        72 -12.1423     48.8182    203.1045   8.9869699734e+01   2.5184882689e+01    0.4568572    0.3321079 -28.07  0.002550876    1.913    0.477
        73 -12.9801     87.6005    214.5373   8.1378421167e+01   1.8293344482e+01    0.5675305    0.3529468  40.45   0.00242369    1.374    0.272
        74 -12.8830     50.5161    182.2559   8.7715532634e+01   2.9736080656e+01    0.6561611    0.4210103  -1.63  0.003076357    2.266    0.559
        75 -13.6239     89.2150    203.9512   7.9871681643e+01   2.0188530775e+01    0.7232707    0.5144349 -56.15  0.003308582    1.590    0.371
        76 -14.7203     95.3692    195.1547   7.7336935525e+01   2.1187249621e+01     1.224847    0.6936681  43.55  0.003424197    1.631    0.387
        77 -14.8492     91.8372    184.1516   7.6828066597e+01   2.4012412540e+01     1.606574    0.6979355  29.24  0.006700344    2.171    0.539
        78 -14.0050     52.8235    188.7008   8.7660348261e+01   2.7964506421e+01     1.046945    0.5229824 -43.31  0.003162466    2.810    0.644
        79 -15.7636     69.2148    184.1548   8.2795612044e+01   2.7026342449e+01      2.23918     1.904128  -7.73   0.01128835    1.426    0.299
        80 -10.9174    194.7480    220.0196   6.0052868905e+01   4.3357146516e+00    0.1549344    0.1198504  -5.67 0.0004567995    1.049    0.046
        81 -13.7609     60.9108    204.2991   8.6909814922e+01   2.3569152394e+01     1.012081    0.5713943  23.65  0.004214128    1.700    0.412
        82 -14.1272     76.5912    203.0164   8.2871923021e+01   2.1966077301e+01    0.8108606     0.528187  10.61  0.004209658    1.822    0.451
        83 -12.0404    145.8927    216.4128   6.8736215839e+01   1.0640915925e+01    0.2810792    0.2543204 -49.36  0.001992812    1.388    0.280
        84 -12.7307    141.5641    210.9479   6.8890784823e+01   1.2088428386e+01     0.379276    0.2385185 -52.51 0.0007357705    1.879    0.468
        85 -10.4719     59.1774    214.8019   8.8187329499e+01   2.1575906868e+01    0.2237814    0.1801092 -12.06  0.001192282    1.600    0.375
        86 -11.6008     54.5414    213.8111   8.9235968540e+01   2.2291547553e+01    0.2949314    0.2339124  52.20   0.00115709    1.102    0.092
        87 -12.1990    125.0192    212.9431   7.2691090824e+01   1.3870416842e+01    0.2964765    0.1672125 -41.61 0.0009523258    1.990    0.498
        88 -13.0004    114.6867    206.0505   7.4120280439e+01   1.6465237426e+01     0.483538    0.1979861 -54.42  0.002177698    2.706    0.630
        89 -12.6126    116.5071    212.4840   7.4512789548e+01   1.5044031534e+01    0.3260848    0.2193616  62.10  0.001586757    2.056    0.514
        90 -11.8761    120.1810    210.3153   7.3423595787e+01   1.4962656850e+01    0.3754203    0.1554911  22.10  0.001548797    2.734    0.634
        91 -11.7350    248.4738    212.1824   5.0551841780e+01  -1.9239257570e-01    0.2998888    0.1476055  -7.22  0.001802774    2.272    0.560
        92 -12.2029    154.6871    211.5212   6.6284300791e+01   1.0324407801e+01    0.3632025    0.3175432 -22.08  0.002554132    1.194    0.163
        93 -11.5482    223.2571    220.2704   5.5441639112e+01   1.3073514626e+00    0.1774458    0.1381323  -4.03 0.0003254325    1.136    0.120
        94 -11.0989    210.1128    211.8571   5.6276943185e+01   3.7242497604e+00    0.1548201    0.1335188   1.63 0.0006130338    1.290    0.225
        95 -11.6916    229.1492    209.0331   5.2868733648e+01   2.0680907036e+00     0.391313    0.1783189 -19.63  0.002172008    2.318    0.569
        96 -10.9527     26.0777    208.7114   9.5916082806e+01   2.6279459881e+01    0.2358775    0.1496048 -87.57 0.0009584826    1.643    0.391
        97 -11.7100     42.7607    206.3771   9.1627018214e+01   2.5123235425e+01    0.2888436    0.2054876  72.14   0.00171733    1.383    0.277
        98  -9.9922     37.3469    209.1784   9.3151310379e+01   2.5078926449e+01    0.2722419          nan  34.73 0.0008270967    4.393    0.772
        99 -10.6048    181.7424    207.7332   6.0548262154e+01   7.5551593940e+00    0.2867913    0.1493343 -16.67  0.001420965    2.534    0.605
       100 -11.2718    160.3918    206.4832   6.4422732285e+01   1.0405947054e+01    0.2089812    0.1484611 -45.97 0.0008762341    1.591    0.372
       101 -10.4468    205.1064    206.1083   5.6225024157e+01   5.0404417829e+00    0.1636297    0.1179551  -4.54  0.001142662    1.162    0.139
       102 -13.2936    109.8695    214.1248   7.6199741169e+01   1.5591617738e+01    0.4206595     0.344983  25.88  0.002184068    1.046    0.044
       103 -11.6242    123.9295    205.5352   7.1968759287e+01   1.5339492199e+01    0.2093378    0.1836737 -40.16 0.0003279423    1.263    0.208
       104 -13.1166     26.4911    193.2868   9.5024018791e+01   2.9672541463e+01    0.5585132    0.2246415 -78.54  0.002051017    2.553    0.608
       105 -11.8001     31.9323    205.5532   9.4295696394e+01   2.6400597144e+01    0.2736576    0.2051052  58.07 0.0007826106    1.140    0.123
       106 -10.7568     30.2438    199.4229   9.4384967530e+01   2.7919408294e+01    0.3670418    0.1775164 -84.29  0.001063601    2.189    0.543
       107 -10.6526    162.1349    213.0826   6.5034355942e+01   9.1498250397e+00    0.1798611    0.1337595  -2.05 0.0003294248    1.265    0.209
       108 -11.3807    145.6813    204.6698   6.7150672546e+01   1.2613945501e+01    0.2518695    0.1638048 -23.37  0.001123299    1.741    0.426
       109 -12.3413    145.2017    201.2250   6.6751881055e+01   1.3267714635e+01    0.3697672    0.1690077  42.36  0.001493966    2.313    0.568
       110 -12.0916    141.2558    198.0137   6.7118385775e+01   1.4362716906e+01    0.2517018     0.207087 -48.32 0.0009633977    1.373    0.272
       111 -12.7875    138.1579    196.8904   6.7621711208e+01   1.4987404411e+01    0.3364854    0.2342697 -10.52  0.001048734    1.697    0.411
       112 -11.3660    212.2467    199.7734   5.4064282162e+01   5.0806246576e+00    0.2593985    0.1521262 -41.40   0.00125834    1.827    0.453
       113 -10.6892    180.8681    200.9376   5.9667903688e+01   8.6743071367e+00    0.1867689    0.1354549  -7.68 0.0006141061    1.287    0.223
       114 -12.3993    112.0739    196.8134   7.3522280379e+01   1.8588310625e+01    0.5132449     0.248467  50.88  0.001941409    2.568    0.611
       115 -12.1030    121.4855    200.0155   7.1776254591e+01   1.6690041925e+01    0.2517609    0.2080896 -49.11  0.001142939    1.348    0.258
       116 -13.1922    123.1693    195.9192   7.0824093766e+01   1.7235046780e+01     0.473831    0.2559272  33.49  0.001918638    1.651    0.394
       117 -11.5220    225.1440    198.1788   5.1786797899e+01   3.8502502429e+00     0.235442    0.1371173 -41.93  0.001485788    1.922    0.480
       118  -9.9717     41.0158    198.1943   9.1522688861e+01   2.7104092466e+01    0.1617126    0.0902006  28.34            0    1.604    0.377
       119 -10.0193     35.2937    198.7400   9.3040999142e+01   2.7571207620e+01    0.1346978   0.07655434  51.94  0.000689596    1.498    0.333
       120 -10.4499    246.0000    196.9950   4.8564470420e+01   1.8065206403e+00    0.1719672    0.0470578 -35.71 0.0008121099    3.010    0.668
       121 -11.4254    193.6631    193.6613   5.6209713116e+01   8.1593435564e+00    0.3409829    0.1931128 -16.91  0.001859779    1.974    0.493
       122 -12.6148    189.0998    193.6573   5.7016595232e+01   8.7337546917e+00     0.411514     0.253323  21.79  0.002461255    1.576    0.365
       123 -11.9240    168.0334    195.6217   6.1266292295e+01   1.1159858243e+01    0.2201761      0.18357  10.06 0.0002676049    1.059    0.056
       124 -10.6540    217.8914    193.9030   5.2223904371e+01   5.2224979664e+00    0.1474862    0.1370296 -45.02  0.001119414    1.685    0.407
       125 -10.8576    212.3232    193.0368   5.2969958345e+01   5.9859528924e+00    0.1615468    0.1250349 -20.67  0.001154599    1.124    0.111
       126 -11.3290    162.8667    192.8976   6.1853654193e+01   1.2300091049e+01     0.234091    0.1536019  32.79  0.001354344    1.458    0.314
       127 -12.3433    128.0297    187.6183   6.8496288461e+01   1.8143742391e+01    0.3368542    0.2316952 -52.86 0.0005163341    1.594    0.373
       128 -13.5036    135.2565    186.9268   6.6752532641e+01   1.7235709709e+01    0.7000569    0.2881429 -36.04  0.002696858    3.271    0.694
       129 -12.6085    131.7573    184.3371   6.7138313616e+01   1.8238467644e+01    0.3444837    0.2526529  29.71   0.00127568    1.265    0.210
       130 -10.7123     37.6289    191.3282   9.1943204739e+01   2.9018078578e+01    0.6169713    0.2559081   8.77  0.002053635    4.513    0.778
       131 -11.8748    148.9959    190.9865   6.4399641578e+01   1.4540219760e+01    0.1938044    0.1704093   6.48 0.0003754067    1.011    0.011
       132 -12.4791    111.0462    188.2997   7.2597718308e+01   2.0436123149e+01    0.3678738    0.2336214 -45.41   0.00161057    1.717    0.418
       133 -10.4888      2.3579    190.8975   1.0126703735e+02   3.2291714129e+01    0.1856822    0.1558617  -1.15 0.0006032239    1.527    0.345
       134 -10.6479    234.4902    190.4928   4.9158427367e+01   3.8119959427e+00    0.1103016   0.08141164 -12.86 0.0008105064    1.018    0.017
       135 -12.0875    196.7564    188.0178   5.4742739943e+01   8.6042930699e+00    0.2694922    0.1837448  36.03  0.001191951    1.615    0.381
       136 -13.1045    121.5048    187.0183   6.9919992294e+01   1.9199854141e+01    0.4694776    0.3377029  19.32  0.001833983    1.390    0.281
       137 -13.3173    118.5197    179.2644   6.9452067058e+01   2.1203879255e+01    0.4449721    0.3878228 -64.54  0.002645016    1.289    0.224
       138 -12.4260      8.3773    187.2451   9.9566000124e+01   3.2668748244e+01    0.6863685    0.3884871  54.32   0.00371987    1.436    0.304
       139 -11.5477     11.5305    188.5352   9.8772775209e+01   3.2108975669e+01    0.2571242    0.1994958  49.99   0.00115314    1.060    0.057
       140 -12.5709     12.4172    184.7515   9.8383076589e+01   3.2925339052e+01    0.8047379    0.3274111  52.93  0.003674192    2.016    0.504
       141 -12.0262    152.4359    195.6080   6.4398265702e+01   1.3258966897e+01    0.2427403    0.2017329  -4.88   0.00156017    1.131    0.116
       142 -10.3120     25.2792    184.3643   9.4849580352e+01   3.1874545812e+01    0.2088086    0.1465143 -68.31 0.0005417506    1.545    0.353
       143 -10.8019     31.9268    188.0714   9.3261324144e+01   3.0354622472e+01    0.2378393     0.217857 -52.38 0.0007489532    1.333    0.250
       144 -12.2409     29.3431    182.2650   9.3598932307e+01   3.1986306666e+01    0.5443254     0.294856  41.97  0.001318264    1.535    0.348
       145 -10.9852    186.1660    187.1915   5.6481192156e+01   1.0099365897e+01    0.1830917    0.1408244  -8.63 0.0004403869    1.171    0.146
       146 -10.2240     37.5125    186.5625   9.1640460705e+01   3.0140801818e+01    0.2044279    0.1844891 -44.05 0.0006964962    1.364    0.267
       147 -10.7606     36.3008    182.9542   9.1714159545e+01   3.1121696012e+01    0.3192006    0.1744322  87.76  0.001526381    1.929    0.482
       148 -11.2261    248.7124    185.8005   4.6398517150e+01   2.8782046338e+00    0.1797687    0.1394615  -8.16 0.0005169229    1.125    0.111
       149 -11.7549    166.7266    182.0531   5.9305671001e+01   1.3595197441e+01    0.2231332    0.1691753  17.48 0.0003034803    1.260    0.207
       150 -11.8455    143.5251    181.3131   6.4022678890e+01   1.7087451690e+01    0.3191654    0.1123174  34.70  0.001253622    2.692    0.629
       151 -10.7346    221.0074    180.5045   4.9512738240e+01   6.6762762148e+00     0.152259    0.1039142  26.88 0.0004591701    1.537    0.349
       152 -10.6434    198.9286    180.0005   5.3009255229e+01   9.5227925610e+00    0.1761597    0.1469706 -12.30 0.0003330542    1.037    0.035
       153 -10.1237    177.4811    179.5094   5.6785994667e+01   1.2506518179e+01    0.1240765    0.1082935  -6.85 3.679219e-05    1.028    0.027
       154  -9.9318     17.5102    179.5024   9.6741015447e+01   3.3747894154e+01    0.1317445    0.1138301  59.82 0.0008100128    1.054    0.051
       155 -11.5010    192.0978    177.8755   5.3828123700e+01   1.0756894987e+01     0.170849     0.161873  -7.10 0.0006783673    1.272    0.214
       156 -11.3496    250.6302    176.2823   4.4569374329e+01   3.8456338975e+00     0.183448   0.07895837 -32.98 0.0002338367    1.814    0.449
       157 -11.7347    162.4410    177.1888   5.9332952063e+01   1.5055662889e+01    0.2153707     0.167599  26.10 0.0003920741    1.239    0.193
       158 -12.3680    137.3285    176.2544   6.4562966041e+01   1.8978894153e+01    0.2929342    0.2368261  58.28  0.001662022    1.503    0.335
       159 -11.8454     56.4639    176.0565   8.5453017592e+01   3.0516968629e+01    0.4092956    0.2337792  61.65  0.001577668    1.842    0.457
       160 -10.2692     33.2267    176.8700   9.2137990657e+01   3.2906634517e+01    0.1671568    0.1570045 -40.71 0.0004026655    1.303    0.233
       161 -12.3699    106.9598    175.3317   7.1707543125e+01   2.3757528537e+01    0.3206841    0.2340152 -49.32  0.001249563    1.456    0.313
       162 -10.3240      3.2891    175.4362   1.0055688234e+02   3.5884503728e+01    0.4885935    0.1124698  30.30  0.001861398    3.002    0.667
       163 -12.2898    126.9623    173.9760   6.6583915314e+01   2.1012599959e+01    0.3730186    0.2130535 -50.99  0.001592163    1.831    0.454
       164 -13.1659    131.4458    169.1923   6.4717623986e+01   2.1291397382e+01    0.4418027    0.3189455  36.72  0.002368153    1.335    0.251
       165 -13.0356    125.3341    167.4376   6.5869791944e+01   2.2614896078e+01    0.5393958    0.2893957  31.13  0.002430839    1.854    0.461
       166 -12.1555      4.6828    181.2764   1.0036106579e+02   3.4371059801e+01    0.3752677    0.3283859   2.27  0.001897328    1.427    0.299
       167 -11.5385     32.3830    172.4912   9.2059763577e+01   3.4070912808e+01    0.3515466    0.1600838  44.12  0.001565625    1.853    0.460
       168  -9.9981    244.0270    172.0175   4.4731645241e+01   5.1147179986e+00    0.1302123   0.09873067 -15.26            0    1.039    0.037
       169 -11.6497    143.0585    172.5074   6.2639298542e+01   1.8830848015e+01    0.2090417    0.1256899  34.11  0.001038099    1.606    0.377
       170 -11.7411     14.7602    171.4819   9.7122475174e+01   3.5951821418e+01    0.2127214    0.1870217  82.23 0.0002436147    1.132    0.117
       171 -10.4646    236.6101    171.0688   4.5592923042e+01   6.0946386639e+00    0.1792604    0.1271631  -0.57 0.0007036041    1.343    0.255
       172 -12.4778    194.5854    171.0555   5.2184164015e+01   1.1483802890e+01    0.4309398    0.1705569  32.19  0.001929928    2.813    0.645
       173 -13.5967    152.8642    167.5535   5.9622809714e+01   1.8257191838e+01    0.6388434    0.2606996 -47.34  0.002661318    2.471    0.595
       174 -12.2932    105.4760    169.2424   7.1142292501e+01   2.5316383729e+01    0.2719997    0.2516808  33.61 0.0006478502    1.023    0.023
       175 -12.3850     47.5780    165.1464   8.6923329581e+01   3.4265306535e+01    0.6743353    0.3756744 -82.22   0.00307383    1.889    0.471
       176 -10.8984     40.6078    167.4453   8.9224572375e+01   3.4470386094e+01    0.3873013    0.1930073  83.17  0.001618363    2.299    0.565
       177 -11.1058     24.3355    169.3081   9.4196261308e+01   3.5646996878e+01    0.2687419    0.1565992  28.30  0.001332276    1.622    0.383
       178 -11.9257    172.4736    166.3433   5.5398453887e+01   1.5465522041e+01    0.3453898    0.1163989 -41.59  0.001359243    2.827    0.646
       179 -12.3759    110.9566    164.8969   6.9020536895e+01   2.5429629917e+01    0.3858773    0.2029151 -52.54  0.001472122    1.959    0.490
       180 -11.2694     10.7246    166.8428   9.8079772734e+01   3.7442615844e+01    0.3239473    0.2311738  11.34 0.0008822176    1.630    0.387
       181 -11.0344    206.0032    164.3423   4.9036230807e+01   1.0947915385e+01    0.1674753    0.1414271   3.94 0.0007568612    1.143    0.125
       182 -11.6475     64.6927    164.0343   8.1711666485e+01   3.2420351168e+01    0.3709142    0.2159336  86.34  0.001598544    2.133    0.531
       183 -10.3360     66.4920    160.4839   8.0724164712e+01   3.3065131937e+01    0.2545215    0.1348713  30.92  0.001098167    1.793    0.442
       184 -11.8252     56.4938    163.2435   8.4047975032e+01   3.3670521242e+01    0.3279578    0.2771397 -31.97  0.000801974    1.443    0.307
       185 -11.9544     59.3069    158.3342   8.2609709203e+01   3.4555535219e+01    0.4711445    0.2126138  50.14            0    2.225    0.551
       186 -11.7874     63.1824    157.1451   8.1279678597e+01   3.4349572876e+01    0.3791828    0.2168531 -83.92  0.000655308    2.024    0.506
       187 -12.2484     66.1517    153.8456   7.9928096614e+01   3.4787493439e+01    0.4451116      0.19124  33.55  0.001069325    2.133    0.531
       188 -11.6025      2.4433    153.4702   1.0002562804e+02   4.1475649290e+01     0.414057    0.3793189 -78.18  0.002016948    1.207    0.172
       189 -12.8397      3.6856    119.7405   9.7945446131e+01   5.0474482707e+01     0.521773    0.4201556  73.51  0.001296857    1.091    0.084
       190 -12.8709      9.3249    116.6485   9.5537354190e+01   5.0979023014e+01    0.5910473    0.2639329  34.83  0.002423991    2.100    0.524
       191 -13.3974     17.1304    123.8677   9.3132681121e+01   4.8392271749e+01     1.000676     0.500859   5.25  0.004051202    2.637    0.621
       192 -12.5139     21.1317    159.8239   9.4539995757e+01   3.8356821826e+01    0.5418769    0.4336963 -60.20  0.002355884    1.388    0.280
       193 -14.2588     12.7180    136.0845   9.5700912367e+01   4.5370522013e+01     1.482603    0.6984736 -80.35  0.006400059    1.947    0.486
       194 -12.7469      7.7927    129.2105   9.7002738972e+01   4.7604209385e+01    0.5712487    0.2752597  82.36  0.001701592    1.964    0.491
       195 -12.5442     16.6759    149.7435   9.5284609162e+01   4.1381710659e+01    0.6175785    0.3788443  -0.30  0.002252979    2.178    0.541
       196 -12.4873     27.8594    150.7202   9.1723746653e+01   4.0116951413e+01    0.4735308    0.3647743 -29.81   0.00178927    1.661    0.398
       197 -11.7087     14.1246    156.5477   9.6515665983e+01   3.9804691728e+01    0.2968545    0.1835903 -82.45 0.0006390051    1.526    0.345
       198 -13.0099     19.4610    154.4908   9.4706509860e+01   3.9892756739e+01     1.189958    0.4590461 -50.18  0.004396618    3.255    0.693
       199 -13.9496     79.7096    211.7863   8.2978105834e+01   1.9794061166e+01      1.14922    0.5455683  16.55  0.004964614    2.601    0.615
       200 -12.3502     27.8116    161.2477   9.2582530742e+01   3.7368180369e+01    0.4186501    0.2698939 -54.29  0.002095276    1.749    0.428
       201 -10.9246      3.3023    162.1713   1.0009324544e+02   3.9182282945e+01    0.4557295    0.1494917  61.58  0.001742491    2.744    0.636
       202 -14.4260     27.3896    246.7667   9.7200829697e+01   1.8653064585e+01     1.548664    0.6171427  13.23  0.006606647    3.676    0.728
       203 -12.7780    169.9540    159.7599   5.4659027430e+01   1.7015067498e+01    0.3896308    0.2125087 -46.26  0.001899601    1.832    0.454
       204 -12.8337    158.0029    159.3778   5.7016893068e+01   1.8982427554e+01    0.3975276    0.3169714 -79.93  0.001735625    1.863    0.463
       205 -10.7506    120.3306    160.3051   6.5849346934e+01   2.4935361021e+01    0.1441905    0.1093816 -10.28  0.000275853    1.657    0.396
       206 -12.1981     40.1993    159.6903   8.8628020274e+01   3.6492182684e+01    0.5542266    0.1781004  34.12  0.002058906    2.541    0.606
       207 -12.4947     76.0319    156.8381   7.7388147556e+01   3.2643632087e+01    0.3849384    0.2552572 -87.41  0.001182769    1.775    0.437
       208 -12.2369     81.5181    156.0623   7.5662013379e+01   3.2032075249e+01    0.4385869    0.1998052  36.63  0.001758583    2.013    0.503
       209 -12.3391     50.9425    153.1254   8.4564810890e+01   3.6949825007e+01    0.3847418    0.2589534  53.46 0.0007786118    1.402    0.287
       210 -12.6440     34.6361    154.7063   8.9900793387e+01   3.8384474472e+01    0.5446693    0.2244427  27.67  0.001671634    2.268    0.559
       211 -12.1337     44.1815    152.8365   8.6675317004e+01   3.7828307364e+01    0.3814052    0.2580909 -29.34  0.001128276    2.035    0.509
       212 -12.9422     39.6746    152.3400   8.8062625827e+01   3.8466512276e+01    0.4120136    0.3138258  61.89   0.00100466    1.208    0.172
       213 -10.8630    105.0147    158.0443   6.9415034979e+01   2.7916390138e+01    0.2228734    0.2054605  52.16 0.0004429012    1.066    0.062
       214 -11.4928    121.5294    155.9953   6.4767384012e+01   2.5675773345e+01    0.2075271    0.1401947 -53.09 -7.903758e-05    1.522    0.343
       215 -11.4154    112.6070    156.2224   6.7090164392e+01   2.7099006486e+01    0.2010142    0.1317116 -44.47 0.0006936544    1.602    0.376
       216 -11.6385    141.4273    154.7715   5.9764617708e+01   2.2606381956e+01    0.2593312    0.1347931 -52.76  0.001063107    2.054    0.513
       217 -10.9161    212.2417    153.9625   4.6103109117e+01   1.1658658940e+01    0.1636282    0.0874221 -36.62 0.0008796206    1.595    0.373
       218 -10.0235    196.2812    159.6641   4.9794387296e+01   1.3051054348e+01    0.1143917   0.09626589 -60.17 0.0007007234    1.617    0.382
       219 -11.4464     88.1809    152.8731   7.3219406853e+01   3.1800774596e+01    0.2335874     0.195312  66.80 0.0005030209    1.232    0.188
       220 -12.9249    129.9392    150.5360   6.1653084222e+01   2.5436723654e+01    0.3578214    0.3193767  69.04   0.00130611    1.270    0.212
       221 -12.9548     84.8002    147.9952   7.3392891412e+01   3.3526783836e+01    0.5837232    0.3134099 -62.49  0.001878949    1.917    0.478
       222 -12.9174    170.0092    150.1786   5.2779263459e+01   1.8735531828e+01    0.3417953    0.3008129  81.29  0.001969283    1.547    0.354
       223 -12.2459    147.6059    149.9340   5.7421887856e+01   2.2536515820e+01    0.2957788    0.2598464 -66.85 0.0004047279    1.314    0.239
       224 -10.9430     58.4855    150.8025   8.1893219823e+01   3.6599063821e+01    0.3340531    0.1956387 -23.84  0.001118387    2.990    0.666
       225 -12.7918    108.8197    148.6845   6.6710859175e+01   2.9448769373e+01    0.3890662    0.3425182 -46.01 0.0008829859    1.169    0.144
       226 -12.2450     97.5502    149.5970   6.9983737358e+01   3.1102395819e+01    0.3880983    0.2349623  43.60  0.001744493    1.602    0.376
       227 -11.4406    180.4968    149.0114   5.0541833477e+01   1.7243167403e+01    0.2057072    0.1183959 -39.83  0.001033219    1.590    0.371
       228 -13.7450     33.9955    145.8873   8.9261784133e+01   4.0790963883e+01    0.7364507    0.4990939 -42.24  0.003181976    1.791    0.442
       229 -13.0532     35.7127    131.0971   8.7037416915e+01   4.4635052959e+01    0.5437616    0.3572792  10.16 0.0003715749    1.865    0.464
       230 -12.6663     32.9784    127.9961   8.7656513242e+01   4.5781898601e+01    0.5579634    0.3405023  -9.28  0.001197692    2.454    0.593
       231 -10.6821    224.0009    148.0150   4.3207637820e+01   1.0908833116e+01     0.176666    0.1347963 -53.95 0.0006341965    1.707    0.414
       232 -10.8324    185.5374    148.4663   4.9511737434e+01   1.6534350622e+01    0.1300457    0.1139131 -21.56 7.853166e-05    1.006    0.006
       233 -10.4801    206.6477    146.7637   4.5597402297e+01   1.3575118790e+01    0.1914461    0.1337443 -21.37 0.0007861704    1.331    0.249
       234 -11.8676    133.0000    148.9804   6.0608044628e+01   2.5241862637e+01    0.2806438    0.1827902 -53.89 0.0008209306    1.597    0.374
       235 -13.9880     68.7933    207.7642   8.5253722082e+01   2.1918842000e+01    0.6847467    0.5485165 -15.44  0.002511301    1.592    0.372
       236 -13.3208     34.3135    137.9098   8.8317916679e+01   4.2915632544e+01    0.8304318    0.4892717 -26.43  0.003413123    2.573    0.611
       237 -12.8659    101.6551    142.2865   6.7471485934e+01   3.2169417074e+01    0.6127869    0.3733724  61.16  0.001954078    2.115    0.527
       238 -11.2094     69.9495    141.7498   7.6925261542e+01   3.7365169298e+01    0.2708051    0.1923063  84.64 0.0009310641    1.578    0.366
       239 -11.4177    139.9752    140.9457   5.7320387853e+01   2.5707371361e+01    0.2167474    0.2043719 -40.26 0.0004778364    1.042    0.040
       240 -11.5387     94.7703    140.1283   6.9037319339e+01   3.3856938801e+01    0.2818458    0.1986631 -39.11  0.001303596    1.616    0.381
       241 -12.9163    229.9595    139.3243   4.0704533661e+01   1.1344313358e+01     0.248924    0.2180161   1.06 0.0005443985    1.216    0.177
       242 -11.9262    118.4440    134.4380   6.1282103764e+01   3.1038067744e+01     0.296166    0.2339196 -27.09   0.00100921    1.462    0.316
       243 -12.0502    170.7153    135.6090   4.9625087635e+01   2.1290622072e+01    0.2959535    0.2300811 -14.79 0.0009835457    1.403    0.287
       244 -12.8862    102.5010    134.4247   6.5667702845e+01   3.3912958754e+01    0.4738513    0.3590013  88.75  0.002227417    1.625    0.385
       245 -11.0660     54.1574    135.8281   8.1211273885e+01   4.1133046629e+01    0.2280335    0.1864838  66.10 0.0004005141    1.174    0.148
       246 -10.9967    179.7491    134.9994   4.7789629429e+01   1.9837564605e+01    0.1867024    0.1572083 -33.45 0.0001853371    1.066    0.062
       247 -10.9972    139.8398    134.1333   5.5894163454e+01   2.7160065084e+01    0.5500888    0.3403534 -83.89   0.00183451    4.073    0.754
       248 -12.8514     62.6608    133.8097   7.8016826244e+01   4.0510718494e+01    0.6162373    0.3499725  27.38  0.002604587    1.855    0.461
       249 -10.4506     46.5331    135.0757   8.3725915180e+01   4.2301829871e+01    0.2177472    0.1401923 -72.10 0.0003737164    1.504    0.335
       250 -12.8288     26.0650    133.7961   9.0790178583e+01   4.4864313492e+01    0.4737063     0.324202  72.92  0.001297988    1.388    0.280
       251 -12.2724     20.5870    132.4839   9.2627478304e+01   4.5719089288e+01    0.4122716    0.2410313  52.42  0.001498779    1.599    0.375
       252 -10.8161     76.2692    134.2195   7.3610852070e+01   3.8364180964e+01    0.2245926    0.1708892  65.72   0.00107216    1.387    0.279
       253 -13.0193      6.9169    147.0972   9.8311767506e+01   4.2836720117e+01    0.9190351    0.3872386  53.42  0.003919616    2.089    0.521
       254 -11.9295      2.2599    132.2312   9.9155738438e+01   4.7135227557e+01    0.4254463    0.1674441 -70.92  0.001727255    2.305    0.566
       255 -12.3514    208.1006    130.4580   4.2084144553e+01   1.5923784872e+01    0.5502896     0.348653 -68.89  0.001868595    3.311    0.698
       256 -10.9628    143.7893    132.2012   5.4556805209e+01   2.6831614143e+01    0.2020836    0.1687618 -16.18 0.0007010301    1.331    0.249
       257 -11.4987    201.5499    130.7621   4.3166650047e+01   1.6922812564e+01    0.2510178    0.1547944  40.56 0.0009456933    1.859    0.462
       258 -12.8312     83.2779    128.8883   7.0353819874e+01   3.8605916381e+01    0.4414645    0.4229262 -75.23  0.002399987    1.051    0.048
       259 -12.0557    155.8527    129.7362   5.1353773995e+01   2.5090271489e+01    0.3753045     0.205378  36.62  0.001231465    2.037    0.509
       260 -11.2324    192.5036    128.0725   4.4070654727e+01   1.8866605197e+01    0.3080373    0.1157762 -34.27   0.00103273    2.608    0.617
       261 -12.1000     60.0936    126.1440   7.7603393141e+01   4.2935850886e+01     0.435742    0.2065592 -62.30  0.001250333    2.017    0.504
       262 -12.2940     23.1019    127.4413   9.1237586384e+01   4.6892016363e+01    0.4528714    0.2406557  -4.20   0.00176647    2.869    0.651
       263 -10.9487     49.6210    129.7532   8.1883169734e+01   4.3368517500e+01    0.2736896    0.1921673 -87.41  0.001288752    1.443    0.307
       264 -11.4771     59.0013    117.5109   7.6430402053e+01   4.5435246922e+01    0.3369338    0.1506955  30.59  0.001244194    2.283    0.562
       265 -11.7010     50.6946    116.2068   7.9285715650e+01   4.6951055962e+01    0.7147228    0.2673096  38.55  0.001826501    2.481    0.597
       266 -13.2083     44.1866    120.4956   8.2454676515e+01   4.6596735835e+01    0.5458812    0.4164345 -24.70   0.00182494    1.669    0.401
       267 -12.3391     36.2009    119.8699   8.5395102137e+01   4.7698394242e+01     0.478837    0.2937348  52.25  0.001128578    1.613    0.380
       268 -12.2652    104.4796    121.6192   6.2316560105e+01   3.6643925640e+01    0.4230409    0.3501559  58.26 0.0007080623    1.247    0.198
       269 -11.4759     99.1519    118.4460   6.3164057040e+01   3.8415567150e+01     0.316494    0.2498252  81.62 0.0007925216    1.476    0.322
       270 -11.9079     56.3938    122.2867   7.8247548720e+01   4.4505054571e+01    0.3647116    0.2242509 -37.55  0.001508154    2.082    0.520
       271 -10.8828    189.0310    121.2620   4.3166694086e+01   2.0626758030e+01    0.2312349    0.1701417 -36.82 0.0004761716    1.188    0.159
       272 -12.1396    126.6962    131.9163   5.8603634441e+01   3.0081100692e+01    0.3227901    0.2683068  75.02 0.0008909131    1.420    0.296
       273 -11.7611     50.6577    123.3439   8.0509498190e+01   4.4991015297e+01    0.3954924     0.190325  20.15  0.001464965    2.534    0.605
       274 -11.0005    231.0679    119.1627   3.6557962034e+01   1.4097275101e+01    0.2760958    0.1770744  15.55  0.001512402    2.351    0.575
       275 -12.3223     18.9993    113.7324   9.1406492015e+01   5.1076491764e+01    0.3443114    0.2517426  35.82 0.0006029616    1.375    0.273
       276 -12.6411     21.8114    117.6033   9.0705324817e+01   4.9751783195e+01    0.4509686    0.2442653  46.62   0.00122141    1.774    0.436
       277 -11.9145     23.7094    115.3248   8.9695998512e+01   5.0223401436e+01      0.31663    0.2403015  42.87  0.001402134    1.295    0.228
       278 -10.9653     93.9700    117.0281   6.4424974863e+01   3.9730219771e+01    0.3436175    0.2125162 -51.40 0.0008730356    1.599    0.375
       279 -11.1872     68.1266    122.1447   7.4063703698e+01   4.2815643174e+01    0.2240222    0.1770627  68.41  0.001080903    1.308    0.236
       280 -11.5794    107.7093    112.7799   5.9276688012e+01   3.8137615219e+01    0.4287074    0.3380082  -2.48  0.001070805    1.774    0.436
       281 -11.6206     63.9100    113.5332   7.3848563474e+01   4.5778227268e+01    0.3135586    0.2512384  50.88 0.0008207472    1.234    0.190
       282 -11.8726     61.5883    110.2767   7.4032825587e+01   4.7013854360e+01    0.3642089    0.2543735 -50.74  0.001240718    1.464    0.317
       283 -12.3374     54.1985    111.1548   7.7013580407e+01   4.7860035138e+01    0.6795109    0.3223689  52.88  0.002471102    2.427    0.588
       284 -11.6048    219.0350    111.5294   3.6531923427e+01   1.7104069454e+01    0.2921163    0.1525041 -33.42            0    1.597    0.374
       285 -10.6045     82.3076    112.6907   6.7197803156e+01   4.2943285954e+01    0.1618046    0.1184191  74.07 0.0002464969    1.616    0.381
       286 -10.4570    195.3046    110.3163   3.9688672315e+01   2.1359893078e+01     0.130932   0.09926396  -6.06 0.0002953263    1.624    0.384
       287 -12.3661     14.9835    107.6045   9.2409397120e+01   5.3115270352e+01    0.3869689    0.2015203 -88.72  0.001079161    1.844    0.458
       288 -10.0588     92.2089    108.0194   6.2818689380e+01   4.2305412299e+01    0.2073687    0.1232783 -54.55 0.0003370573    1.648    0.393
       289 -10.6240    153.9037    106.7502   4.6310793637e+01   3.0011222165e+01    0.2323404     0.169157  86.97  0.001065896    1.955    0.489
       290 -11.6803      2.2628    106.6675   9.7670585698e+01   5.4186475168e+01    0.2606877    0.2224714 -73.55 0.0006522547    1.124    0.110
       291  -9.9986    116.3862    103.8481   5.4543076912e+01   3.8452131017e+01    0.2175936    0.1424343 -39.46 0.0005430936    1.612    0.380
       292 -11.4284     79.0211    101.0475   6.5507144999e+01   4.6529648789e+01    0.3817117    0.2556795  63.86  0.000844105    1.776    0.437
       293 -11.8295     75.0606     97.6197   6.6051147000e+01   4.8128059083e+01    0.2803527    0.2748122 -86.34 0.0003739896    1.060    0.057
       294 -12.3822     59.1648     97.2037   7.2052851031e+01   5.0915839480e+01    0.5406821     0.321887 -46.17  0.002246705    1.788    0.441
       295 -11.1092    105.5142     99.4789   5.6465503383e+01   4.1721072556e+01    0.2882234    0.1512383 -50.18 5.422531e-05    1.859    0.462
       296  -9.9797    208.2826     99.6799   3.5373503257e+01   2.0754273654e+01    0.1303074   0.08825179 -56.42 0.0002145506    1.588    0.370
       297 -10.9712     94.1489     99.1881   5.9900863517e+01   4.4103289546e+01    0.2215122     0.184206  86.81 0.0006648473    1.319    0.242
       298 -11.5556    166.9897     97.6696   4.1441493766e+01   2.9042551236e+01    0.2558098    0.1986391 -14.27 0.0007551497    1.579    0.367
       299 -11.5261     32.3088     98.3113   8.3645110773e+01   5.4165937040e+01     0.342835    0.2211112 -40.15  0.001539964    1.767    0.434
       300 -10.7317     45.6782     97.8616   7.7773282914e+01   5.2687566854e+01    0.2371678    0.2132366  10.56 0.0005549269    1.266    0.210
       301 -11.6716     22.7811     97.1544   8.7704964758e+01   5.5424930716e+01    0.3991225    0.2089516  37.45  0.001353813    1.883    0.469
       302 -10.2893    243.6181     93.2102   2.9769372418e+01   1.5839038698e+01    0.1641798   0.09135155 -28.28  0.000343189    1.552    0.356
       303 -10.9844     70.0134    101.9516   6.9003520068e+01   4.7880867966e+01    0.2322027    0.2198058 -87.16            0    1.005    0.005
       304 -12.1752      9.5741     99.5656   9.3921841969e+01   5.5751146606e+01    0.5010822    0.1648293  52.70  0.001671918    3.319    0.699
       305 -10.2101     54.2674     92.3721   7.2899999225e+01   5.2967347259e+01    0.2165848    0.1369411  43.48 0.0008217563    1.596    0.373
       306 -12.3654     26.0133     89.9060   8.5051567430e+01   5.7159878163e+01    0.7733655    0.3964112  44.34  0.003244859    1.993    0.498
       307 -10.9058    170.7229     91.3723   3.9155587906e+01   2.9404145150e+01    0.1477386    0.1338668 -40.39 0.0008405102    1.057    0.054
       308 -10.7401    103.2258     90.2342   5.4535170408e+01   4.4349871751e+01      0.25621    0.1227563  55.63 0.0008891671    2.474    0.596
       309 -11.4203      4.1431     88.3092   9.5321894838e+01   5.9215457852e+01    0.3634834    0.2073723 -57.64  0.001709631    1.640    0.390
       310 -11.4471    231.9420     89.1631   3.0149094705e+01   1.8260293358e+01    0.2177693    0.1750928  57.46 0.0009180073    1.583    0.368
       311 -10.5354    219.8009     89.2085   3.1540260971e+01   2.0313596160e+01     0.160124    0.1347894 -17.26  0.000471718    1.280    0.219
       312 -11.0725    153.0000     88.9642   4.1825984555e+01   3.3637641021e+01    0.2565477   0.07910114 -40.07 0.0008113766    3.005    0.667
       313 -11.4079     11.4711     87.2282   9.1640435989e+01   5.9089085445e+01    0.4138996    0.2271012  73.75  0.001330636    1.946    0.486
       314 -10.8672    138.5046     88.1835   4.4682993815e+01   3.6998217322e+01    0.2413018    0.2113815  60.15  0.000273458    1.194    0.163
       315 -12.8322     54.7499     85.6826   7.0993399036e+01   5.4679650564e+01    0.7424031    0.4720421  37.35  0.003295186    1.597    0.374
       316 -10.5344     47.9992     76.2585   7.1446319979e+01   5.8191158625e+01     0.225986    0.2077176 -31.72 0.0004114014    1.173    0.148
       317 -10.4972    178.5134     86.9206   3.6702959033e+01   2.8560394108e+01     0.209142    0.1244451 -38.94 0.0003142585    1.481    0.325
       318 -10.6247    148.9661     87.7424   4.2307112284e+01   3.4757476794e+01    0.1863009    0.1296424  54.09 0.0008808722    1.533    0.348
       319 -11.0265     51.0892     79.0400   7.0802892914e+01   5.6995774278e+01    0.3668573    0.2661446  67.19    0.0011422    1.600    0.375
       320  -9.9057     45.6415     86.2933   7.5180583958e+01   5.5855647900e+01    0.1626105     0.110045  63.60 0.0004600339    1.695    0.410
       321 -11.9478    170.9961     84.2231   3.7238489390e+01   3.0602445719e+01    0.2527922    0.1867054 -41.81 0.0006429601    1.208    0.172
       322 -10.0340    126.3270     85.3005   4.6723001624e+01   4.0323042634e+01    0.1505805    0.1248998   5.92 0.0007029907    1.639    0.390
       323 -11.5156     63.2977     82.1136   6.6367935187e+01   5.4200389870e+01    0.2619369    0.2199956  17.08 0.0008452476    1.394    0.283
       324 -11.4862    182.0732     81.0443   3.4634705324e+01   2.8807203191e+01    0.2154925    0.1847454 -49.25 0.0004879282    1.021    0.021
       325 -10.6624     77.0805     81.2235   6.0639841601e+01   5.1875250828e+01    0.3002882    0.2075596  58.69  0.001204325    1.596    0.374
       326 -12.3540     29.3404     79.5547   8.1411353537e+01   5.9690594992e+01    0.4852989    0.2593857  38.00    0.0013392    1.889    0.471
       327 -11.9408     23.2760     79.1483   8.4412587510e+01   6.0405308545e+01    0.4659681    0.3009891 -65.75  0.001721549    1.408    0.290
       328 -10.4163    192.2578     79.9832   3.2888029132e+01   2.6895842611e+01    0.1791275    0.1023368 -37.79 0.0003983278    1.493    0.330
       329 -11.2947    153.3958     80.0436   3.9262973200e+01   3.5207942835e+01    0.2239112    0.2069163  44.15 0.0004141195    1.228    0.185
       330 -10.9639     88.3958     79.0655   5.5887557790e+01   5.0089077787e+01    0.3077698    0.2308192  57.88  0.001376517    1.390    0.280
       331 -13.0719    215.1270     75.5833   2.8960367294e+01   2.3143717303e+01    0.3443998    0.2429205 -42.50 0.0005781933    1.137    0.121
       332 -11.3967    183.0696     77.2030   3.3491002839e+01   2.9227578496e+01    0.2518367    0.1913001 -81.14 0.0008973593    1.522    0.343
       333 -11.1811    112.0105     75.9299   4.7574320695e+01   4.5545977136e+01    0.3312747    0.2677059 -42.58  0.001216443    1.241    0.194
       334 -10.9547    116.4898     74.5198   4.5910479949e+01   4.4800665880e+01    0.3213855    0.2611281 -73.38  0.001568538    1.303    0.233
       335 -10.9917    161.2300     76.0695   3.6699236578e+01   3.4157809094e+01    0.2578124    0.1476859 -59.22  0.001087802    1.999    0.500
       336 -11.6714     75.0788     75.2510   5.9499552872e+01   5.3712958036e+01    0.3564443    0.2243985 -50.02 0.0009165091    1.557    0.358
       337 -10.3016     66.0344     73.7510   6.2643604022e+01   5.5807674642e+01    0.2051214    0.2022115 -76.56 0.0003906865    1.049    0.047
       338 -11.2901     52.3540     72.9087   6.8414180254e+01   5.8384390264e+01    0.3444456    0.2258163  18.62  0.001482637    1.926    0.481
       339 -10.5098     86.4545     71.9645   5.4209022960e+01   5.2129401958e+01    0.2253592    0.1506696 -50.11 0.0002801971    1.468    0.319
       340 -11.4330     32.3346     74.1964   7.8642025406e+01   6.0814721375e+01    0.4465882    0.2928994  -8.82  0.001960758    2.079    0.519
       341 -11.2734    187.4264     69.9501   3.0988251428e+01   2.9465033668e+01    0.2278227    0.1991918  77.38 8.996779e-05    1.268    0.211
       342 -10.6644    114.0975     70.1392   4.5110795403e+01   4.6248668165e+01    0.2187332    0.2103601  -4.23 0.0003909162    1.207    0.171
       343 -10.3387    236.2934     69.2827   2.5379338782e+01   2.0256368242e+01    0.1880413       0.1195 -36.90 0.0004442559    1.209    0.173
       344 -11.3648    234.8634     65.8282   2.4748781554e+01   2.0960025673e+01    0.3652808     0.120163 -38.63  0.001317068    2.157    0.536
       345 -11.0612      1.9591     68.4326   9.4271776896e+01   6.4802598265e+01    0.2712357     0.189413 -80.36 0.0005680619    1.289    0.224
       346 -10.0892    132.7639     67.3445   3.9675034890e+01   4.2344719496e+01    0.1933765    0.1390192  51.45 0.0001242967    1.476    0.322
       347 -10.2870     60.3215     67.3036   6.2948375412e+01   5.8423592440e+01    0.1528671    0.1210148 -16.50 0.0002802004    1.633    0.388
       348 -10.8567     47.0211     67.0213   6.9119958377e+01   6.0718019951e+01    0.2469695    0.1802114  72.01   0.00113558    1.687    0.407
       349  -9.9351    203.2841     66.3192   2.8083376829e+01   2.6764910616e+01    0.1216621    0.1000861  -2.79 0.0002890136    1.589    0.371
       350 -11.4578    178.5169     64.1595   3.0670635277e+01   3.2280464351e+01    0.2408747    0.2152635 -57.95  0.000263613    1.046    0.044
       351 -10.3348     55.5353     64.0174   6.3991594521e+01   6.0067527012e+01    0.2372891    0.1458097 -56.08  0.001030561    1.594    0.373
       352 -10.5823    206.6172     62.7775   2.6835734812e+01   2.6612959673e+01    0.1953367   0.09515828 -42.79 0.0005324372    1.642    0.391
       353 -10.1090    193.3010     63.7023   2.8610317585e+01   2.9184423880e+01    0.1396908   0.08851726 -59.54  0.000181848    1.579    0.367
       354 -12.3930     43.5005     61.0992   6.8949659816e+01   6.2738740163e+01     0.627192    0.2824757  43.67  0.002401777    2.350    0.575
       355 -11.4355     14.5303     61.1331   8.5561892053e+01   6.6032063338e+01    0.2627764    0.1930933 -39.17 0.0003412282    1.378    0.274
       356 -10.2200    226.2259     61.5675   2.4578126167e+01   2.3058144435e+01    0.1349694     0.117992  51.90 0.0002435592    1.488    0.328
       357 -12.7610    107.8164     59.6341   4.3167868696e+01   4.9809740223e+01    0.3336383    0.2855968  73.46 0.0006002617    1.172    0.147
       358 -10.3553    159.6989     57.3165   3.1515474467e+01   3.7640036695e+01    0.1527342   0.09932383 -63.46 0.0006043122    1.617    0.382
       359 -11.1912     52.6982     56.5422   6.2603023932e+01   6.2342988695e+01    0.5564514    0.2238756  50.34  0.001840417    3.169    0.684
       360 -10.5969     50.6806     52.4286   6.1991645396e+01   6.3648800278e+01     0.267769    0.1852172  48.94 0.0007925989    1.523    0.344
       361 -11.8569     28.2358     55.3560   7.5640379381e+01   6.6224587395e+01    0.4078134    0.2589919  53.98  0.001525739    1.861    0.463
       362 -10.9729    127.1404     54.0827   3.6487486424e+01   4.6078542056e+01    0.2997219    0.1940029 -57.47   0.00133962    1.600    0.375
       363 -12.3700     37.2944     52.0748   6.9132729967e+01   6.5863205556e+01    0.4028462    0.2420156 -57.88 0.0002522606    1.608    0.378
       364 -10.4205    115.5901     53.7474   3.9019744693e+01   4.8998140423e+01    0.2123953    0.1349874 -49.61 0.0004969051    1.545    0.353
       365 -11.7777    233.4655     52.8449   2.1974158962e+01   2.2891852111e+01    0.2046108    0.1669393 -50.74 0.0002585878    1.094    0.086
       366 -11.3154    193.0309     57.0335   2.6910955442e+01   3.0216720460e+01    0.2309657    0.1363765 -59.78  0.001141332    1.710    0.415
       367 -10.7761     43.5142     52.0073   6.5607829131e+01   6.4941007439e+01    0.2125127    0.1399623 -54.47 0.0003334709    1.473    0.321
       368  -9.7804     94.5121     51.5045   4.3954287445e+01   5.4550331975e+01    0.1528685    0.1447056 -83.40 0.0008105428    1.008    0.008
       369 -12.1110     30.5384     49.7132   7.2300132406e+01   6.7350972236e+01    0.3997606    0.3263762  80.88  0.001645867    1.434    0.303
       370 -10.3815    203.9519     48.2708   2.3494100002e+01   2.9156124727e+01    0.2972067    0.1037087 -50.38  0.001182824    2.644    0.622
       371 -10.1351    172.6645     49.6946   2.7409676246e+01   3.5780320200e+01    0.1321952    0.1091387  24.18 0.0007039735    1.669    0.401
       372 -11.0148     18.6207     48.8180   7.9709243576e+01   6.8891647858e+01    0.2403495    0.2335864  37.88 0.0006283566    1.102    0.092
       373 -11.5807    155.4832     47.2190   2.9082574156e+01   4.0202031076e+01    0.2533971    0.2283688 -78.49 0.0004445064    1.069    0.065
       374 -11.2175    176.8485     47.1495   2.6152771902e+01   3.5188347456e+01    0.2151759     0.161159 -55.48 0.0004337631    1.167    0.143
       375 -10.4490    227.7360     43.2176   2.0230390869e+01   2.5147260769e+01    0.1806433    0.1358047  17.15  0.001066824    2.161    0.537
       376 -10.8082    190.0735     43.3387   2.3604295732e+01   3.2761142427e+01    0.1847207    0.1553832 -68.23 0.0007926669    1.108    0.098
       377 -11.3846      1.9906     42.5528   8.9950095941e+01   7.1647058999e+01     0.242145    0.1805379 -71.61 0.0003510018    1.230    0.187
       378 -11.1932    135.2518     39.0532   2.9656883327e+01   4.6426745913e+01    0.3299279    0.2014274  61.30   0.00059087    1.639    0.390
       379 -10.4433    102.9480     39.5132   3.6693619104e+01   5.4572321817e+01    0.2268708    0.1426125  59.88  0.001017282    1.552    0.356
       380 -11.6858     35.7537     39.8084   6.4978238576e+01   6.8946969556e+01    0.3936613     0.274559  15.02  0.001346275    1.710    0.415
       381 -11.6273    230.4642     34.6947   1.8078816563e+01   2.5672083951e+01    0.2169456    0.1661658 -48.59 0.0003879112    1.027    0.026
       382 -10.2427    114.7473    248.9902   7.8859402457e+01   9.1795900997e+00    0.1869224   0.08750314 -52.35  0.001049784    2.590    0.614
       383 -12.4387     22.1494     31.2336   7.0358132749e+01   7.2729858816e+01    0.3569096    0.2539442 -46.14 0.0005228809    1.328    0.247
       384 -12.2869    105.8926     31.3876   3.2583560118e+01   5.5063765681e+01    0.3784512    0.3128532 -76.52  0.001071058    1.211    0.174
       385 -11.6008     44.0717     33.1685   5.6697376708e+01   6.8968254038e+01     0.313743    0.2548055  -6.28  0.001294312    1.455    0.313
       386 -10.7715    115.5092    244.9739   7.8311901939e+01   9.7109961849e+00    0.1765881    0.1385151   7.86  0.001102466    1.218    0.179
       387  -9.9661     65.7053     32.3681   4.5626558414e+01   6.4713575518e+01    0.1499041    0.1123247 -74.20 0.0007028736    1.722    0.419
       388 -12.4617     78.2166     30.7265   4.0074063035e+01   6.2084175073e+01    0.3575871    0.3059178  79.90  0.000826347    1.209    0.173
       389 -10.1836      8.5298     31.6031   8.1550431790e+01   7.3979405547e+01    0.1296352    0.1198707 -37.93 9.798751e-05    1.022    0.022
       390 -10.2181    159.3640     30.7055   2.3366616770e+01   4.1553172256e+01    0.1537727   0.08995092 -63.73 0.0007030171    1.711    0.416
       391 -10.4370    146.9980     29.3573   2.4508536679e+01   4.4791314705e+01    0.1950687    0.1653464 -83.00  0.001096239    1.097    0.088
       392 -12.3612     69.2270     26.5192   4.1164266885e+01   6.4874954756e+01    0.5787597    0.3374622 -74.38  0.002043066    3.502    0.714
       393 -11.2847    138.4724    247.2013   7.3950391492e+01   6.8221697269e+00    0.3075667    0.1675306  49.35  0.001685334    2.595    0.615
       394 -11.0637    237.8409     22.8289   1.4967289304e+01   2.5671241708e+01    0.1641395    0.1313525 -42.96 0.0003676455    1.149    0.129
       395 -11.2300    250.2136     21.9469   1.4161571824e+01   2.3581113901e+01    0.1710443    0.1205307 -45.51  0.000551816    1.021    0.021
       396 -10.8484    134.8222     22.1044   2.3654285420e+01   4.8795888956e+01    0.2205044    0.1690715 -61.99 0.0003632281    1.204    0.170
       397 -11.4826    100.8806     21.3918   2.9361636161e+01   5.7710974778e+01    0.2514489    0.2078629 -26.73 0.0002954453    1.313    0.239
       398 -11.7606    189.6539     20.0550   1.7318805870e+01   3.5742930282e+01    0.2202601    0.1767071 -72.00 0.0003296152    1.130    0.115
       399 -10.7835    172.5789     20.8545   1.8961801967e+01   3.9575436260e+01    0.2176441    0.1749967  73.29   0.00102225    1.329    0.248
       400 -10.1220     30.9418     16.0215   5.4811815227e+01   7.4507973936e+01    0.1581636    0.1486218   1.87 0.0004663139    1.005    0.005
       401 -11.1262    224.1746     14.9908   1.3889544263e+01   2.9093602269e+01    0.1967777    0.1468034 -70.64 0.0005775724    1.239    0.193
       402 -10.0579    162.4053    246.8524   6.9372905102e+01   4.2772335538e+00    0.1432562   0.08696645 -24.91 0.0009330977    1.753    0.430
       403  -9.8587    205.5067    244.5028   6.1605485600e+01   1.9628369695e-01    0.1036783   0.07485957   1.69 -0.0001257261    1.007    0.007
       404 -10.5971    180.6262    244.1642   6.5766328118e+01   2.7143683586e+00    0.2290628    0.1151574  25.01 0.0007983324    1.641    0.391
       405 -10.0610     51.6877    244.3936   9.1854462468e+01   1.6732277472e+01    0.1968373   0.08749259  48.71 0.0008092219    1.875    0.467
       406 -11.2840    132.9835    242.4192   7.4509385057e+01   8.1312472364e+00    0.3644995    0.1738251   5.76  0.001533723    3.714    0.731
       407 -11.9190     58.7222    242.8479   9.0232062929e+01   1.6285764323e+01    0.2330312    0.1611547  22.38 0.0007940644    1.327    0.246
       408 -10.4193    197.2574    241.7207   6.2601841177e+01   1.3287999310e+00    0.1377202   0.09078376  -1.76 0.0004704832    1.256    0.204
       409 -10.1484    247.6688    241.6795   5.4853455881e+01  -3.2699401100e+00    0.1015348   0.05269016  -5.37 0.0007048927    1.695    0.410
       410 -12.2573    112.2676    234.1887   7.7892714584e+01   1.1807427758e+01    0.3883929    0.2238386   6.26  0.001521275    2.189    0.543
       411 -11.6361    116.5135    240.4819   7.7652469167e+01   1.0299945852e+01    0.2652102    0.1574684  32.75  0.001504979    1.356    0.263
       412 -12.6656    117.0300    236.1990   7.7099582639e+01   1.0923956047e+01    0.3340895    0.2509573   7.30  0.002231176    1.303    0.233
