#   1 NUMBER                 Running object number                                     
#   2 MAG_AUTO               Kron-like elliptical aperture magnitude                    [mag]
#   3 X_IMAGE                Object position along x                                    [pixel]
#   4 Y_IMAGE                Object position along y                                    [pixel]
#   5 X_WORLD                Barycenter position along world x axis                     [deg]
#   6 Y_WORLD                Barycenter position along world y axis                     [deg]
#   7 A_WORLD                Profile RMS along major axis (world units)                 [deg]
#   8 B_WORLD                Profile RMS along minor axis (world units)                 [deg]
#   9 THETA_WORLD            Position angle (CCW/world-x)                               [deg]
#  10 FWHM_WORLD             FWHM assuming a gaussian core                              [deg]
#  11 ELONGATION             A_IMAGE/B_IMAGE                                           
#  12 ELLIPTICITY            1 - B_IMAGE/A_IMAGE                                       
         1 -14.7819    248.1459    179.4806   7.9933042057e+01  -8.6190528509e-01     1.990626     0.540859 -32.71  0.007756618    3.509    0.715
         2 -13.4991    206.2276     28.7935   4.8825420673e+01   2.9790668401e+01    0.7694044    0.6165676 -52.67  0.004052857    1.188    0.158
         3 -13.0065    213.2190     21.7954   4.6034638395e+01   2.8840042983e+01    0.6050836    0.3695282  29.89  0.001412589    2.311    0.567
         4 -14.9833      9.4605     16.6704   1.0259039146e+02   7.2514709708e+01     1.816747    0.7649714 -40.02  0.009578342    1.883    0.469
         5 -13.5972    224.4611      9.1326   4.1502411468e+01   2.7429699584e+01    0.7173784    0.5756588 -52.56  0.002864759    1.113    0.101
         6 -10.5815     13.0445    239.9926   1.3010732783e+02   2.4516284639e+01    0.1682805   0.09607081  48.46 0.0007288803    1.387    0.279
         7 -10.7359    222.8147    249.2118   9.5628574393e+01  -4.8554938710e+00    0.2215869    0.1892026  27.19    0.0017985    1.347    0.258
         8 -12.2378    213.7232    248.1972   9.6954594130e+01  -3.4881836395e+00    0.5139884     0.275061  22.72  0.003159726    1.747    0.428
         9 -12.2687    202.2604    249.0584   9.8944104876e+01  -1.9517429749e+00    0.6919571     0.243528  34.27  0.003462082    2.353    0.575
        10 -15.3703    121.5480    240.5587   1.1179588288e+02   1.1029609645e+01     3.587319     1.283088  34.31   0.01591582    3.050    0.672
        11 -15.0474    134.5434    214.8559   1.0650356571e+02   1.3035140365e+01     1.933646       1.5739  37.14   0.01106031    1.154    0.133
        12 -14.7169     31.8793    187.4413   1.2410157403e+02   3.2271884160e+01     1.357966      1.04021   7.30  0.008864863    2.283    0.562
        13 -16.3550     15.2328    177.7753   1.2682945271e+02   3.5887637650e+01     4.749043     2.172499 -86.16   0.02708801    1.830    0.453
        14 -15.0013     63.5160    247.3967   1.2231448346e+02   1.7769123772e+01    0.8506263    0.3589962  41.66  0.004039538    1.866    0.464
        15 -14.3902     33.4953    249.9909   1.2729952558e+02   2.0801239041e+01     1.003329    0.4593273  47.88  0.004756599    1.556    0.357
        16 -13.8011     27.4035    248.1992   1.2817695437e+02   2.1732202430e+01    0.6989474    0.2269496  68.02   0.00370934    2.951    0.661
        17 -12.8523      5.8568    249.8312   1.3153263069e+02   2.3617569950e+01      0.38663    0.1308118  42.41  0.001020033    2.140    0.533
        18 -13.3736      2.4557    235.8938   1.3162648369e+02   2.6198663515e+01    0.6393412    0.1682106 -81.66  0.003070879    3.385    0.705
        19 -10.8854    205.7428    235.7838   9.6542864696e+01  -9.9754832913e-01    0.2487501    0.1638935  17.57   0.00163365    1.428    0.300
        20 -12.4032     26.7594    234.4896   1.2768069108e+02   2.4052032862e+01     0.184807    0.1194111  66.73 0.0003266213    1.087    0.080
        21 -10.7960    164.4355    232.2348   1.0322065704e+02   5.7405977778e+00    0.2743542    0.1738176  14.88  0.001544016    2.174    0.540
        22 -11.6393    144.6100    247.6559   1.0852006789e+02   6.6602191802e+00     0.435091    0.1865649  41.88  0.002265702    1.757    0.431
        23 -14.0468    246.0158    209.9077   8.5809399076e+01  -4.0759844256e+00     1.271529    0.6310833 -31.97  0.007252504    2.136    0.532
        24 -14.3712    237.7999    202.6738   8.5895168787e+01  -2.0315793437e+00    0.9201402    0.5219215 -23.22  0.005025585    1.773    0.436
        25 -11.7479    153.8492    226.9214   1.0444360021e+02   8.1336731879e+00    0.3497862     0.266415   7.40  0.002237969    1.704    0.413
        26 -12.6987    154.3191    222.1050   1.0373299912e+02   8.7614631965e+00    0.5355744     0.484372 -20.91  0.003856363    1.351    0.260
        27 -10.4714     78.8961    227.1270   1.1818918096e+02   1.9135242549e+01    0.1850504    0.1160245  60.86 0.0009248268    1.309    0.236
        28 -11.1179      1.2198    226.2281   1.3151586895e+02   2.7953359303e+01    0.2386232   0.06613034 -81.26  0.001217764    3.137    0.681
        29 -11.9703     84.5755    225.7727   1.1704294183e+02   1.8604687568e+01    0.2813908    0.1872854 -83.01  0.001227684    1.611    0.379
        30 -12.4234     36.0421    213.6892   1.2499496556e+02   2.6736137442e+01    0.2537315    0.2076885 -55.97 0.0008333018    1.788    0.441
        31 -12.2857     29.4154    211.6321   1.2607196512e+02   2.7826814027e+01    0.3899646    0.2382775 -88.28  0.002276032    1.425    0.298
        32 -11.8015      8.0640    211.6908   1.2984487465e+02   2.9919957929e+01    0.4085065    0.1352408  59.51  0.002267648    2.276    0.561
        33 -13.2042     10.8179    206.5077   1.2914290268e+02   3.0625947427e+01    0.4898754     0.308526  32.00   0.00250606    1.932    0.482
        34 -11.5585    227.1695    211.5320   8.9178831317e+01  -1.4378007651e+00    0.4045531     0.181487 -27.80  0.002086713    2.441    0.590
        35 -13.9197    196.0330    195.1942   9.1880085934e+01   5.7552027442e+00     1.283499    0.7462704 -35.50  0.006913371    1.899    0.473
        36 -13.1753    143.2241    187.0063   1.0083356241e+02   1.6348093995e+01    0.7401489    0.3252581 -42.04  0.003177305    2.800    0.643
        37 -12.3568    147.3298    177.5340   9.8426454920e+01   1.7338904140e+01    0.7623858    0.3876683 -56.25  0.003399412    2.395    0.582
        38 -12.7486    121.5360    185.7054   1.0515709688e+02   2.0300339209e+01    0.4090063    0.3648825  77.29  0.002131568    1.110    0.099
        39 -11.3588     98.6583    190.6797   1.1063577068e+02   2.2992235772e+01    0.3112892    0.2171606  47.18   0.00184468    1.267    0.211
        40 -11.5948     96.6060    187.8085   1.1071087205e+02   2.3867838514e+01    0.4011045    0.2333376  45.68  0.001968892    1.517    0.341
        41 -12.6718     32.2559    202.5575   1.2501744292e+02   2.9241739472e+01    0.5328965    0.2263382  62.00  0.002479651    2.018    0.504
        42 -12.1855     87.6564    226.7045   1.1656271466e+02   1.8027253695e+01    0.4100611    0.2341354 -70.04  0.002252494    1.970    0.492
        43 -15.3492     64.7237    221.7888   1.2033801087e+02   2.1893294243e+01     1.522698    0.7144638  70.42  0.008163776    2.313    0.568
        44 -15.0026    108.1162    207.0535   1.1067869663e+02   1.8491145173e+01     2.395249    0.9441693  50.31   0.01097826    2.292    0.564
        45 -12.3887    120.4370    173.8575   1.0360161943e+02   2.2800132524e+01    0.2868313    0.2231525  51.90  0.001641273    1.172    0.147
        46 -10.9286     77.8494    167.7116   1.1228866841e+02   3.0804520273e+01      0.19117    0.1623853 -70.64 0.0004379257    1.215    0.177
        47 -13.6405     65.5049    164.2716   1.1469546910e+02   3.3245081204e+01    0.4751201     0.373564 -51.08  0.001739776    1.537    0.349
        48 -13.3717    235.8044    160.5456   7.8168308455e+01   3.6956236222e+00    0.5424127    0.4373749  59.98  0.003163932    1.747    0.428
        49 -12.8762     86.5429    144.4693   1.0680743144e+02   3.4711630523e+01    0.4885797    0.4329898 -50.95 0.0005235714    1.266    0.210
        50 -11.5141     83.7590    161.4626   1.1008105537e+02   3.1312622376e+01    0.3589158    0.2718906 -35.11   0.00147762    1.861    0.463
        51 -13.2578     70.0314    153.4339   1.1224060688e+02   3.5062827952e+01      1.09456    0.5391342  66.68  0.004599144    2.677    0.626
        52 -13.4713     68.1218    143.6715   1.1133422283e+02   3.7563235207e+01    0.7096396     0.412176  63.74  0.002594396    1.895    0.472
        53 -12.8480     90.5066    150.7932   1.0685769425e+02   3.2660073086e+01    0.8075005    0.6608616 -21.75  0.004442817    1.756    0.430
        54 -16.1938     71.1225    204.1197   1.1765959501e+02   2.4308484185e+01     1.919321     1.584819 -35.19    0.0128035    1.928    0.481
        55 -13.2918    236.3920    222.7465   8.9488066157e+01  -4.0621891526e+00    0.7707602    0.5712721  13.58  0.005360489    1.057    0.054
        56 -16.6783     55.3243    193.8013   1.1988583040e+02   2.8328089909e+01     2.836834     1.527589 -62.23   0.01636172    1.972    0.493
        57 -10.5984     96.9820    129.4753   1.0138278454e+02   3.6488567862e+01    0.2509123    0.1891399 -41.35 0.0007883343    1.487    0.327
        58 -12.3012    243.3594    227.6534   8.9149125856e+01  -5.5590731716e+00     0.720656     0.482495  -2.71  0.005016304    1.376    0.273
        59 -11.1396     30.0368    124.5086   1.1876681136e+02   4.6443752851e+01    0.1687019    0.1226079  36.03  0.001032978    1.591    0.371
        60 -11.6075     24.5142    124.2444   1.2023211088e+02   4.7001587208e+01    0.2062943    0.1727682  48.03  0.001196967    1.350    0.259
        61  -9.9907    167.9979    112.9979   8.0042926756e+01   2.5630904510e+01    0.3087708    0.1905488 -79.63  0.000949702    4.056    0.753
        62 -15.6803     53.4826    236.4976   1.2331980429e+02   2.0739014298e+01     1.234484    0.6633643  46.49  0.006762419    1.450    0.310
        63 -12.3993     30.4157    106.6807   1.1627561450e+02   5.0673199521e+01    0.4075665    0.3008021 -85.36  0.002447736    1.186    0.157
        64 -15.6279     76.2861    246.7606   1.2014173060e+02   1.6277729530e+01     1.151374    0.5820108  50.73  0.007505398    1.450    0.311
        65 -13.5520     23.6711     45.6989   1.0579120355e+02   6.5491696846e+01    0.5763705    0.3722751  25.91  0.003422093    1.869    0.465
        66 -12.6995    198.4669     34.5957   5.1516555290e+01   3.1065639786e+01    0.3730608    0.3177074  37.28  0.001244044    1.304    0.233
        67 -11.6060     12.6690    245.2377   1.3035095586e+02   2.3697375550e+01    0.2428241    0.1452378  63.45   0.00113323    1.109    0.098
        68 -10.8999    159.5626    243.8525   1.0550871843e+02   4.9442722756e+00    0.3359662    0.1314952  40.85  0.001747148    1.952    0.488
        69 -11.4554    167.9969    240.1614   1.0359854666e+02   4.1517071956e+00      0.30213    0.2239963  59.43  0.002058572    1.587    0.370
