#   1 NUMBER                 Running object number                                     
#   2 MAG_AUTO               Kron-like elliptical aperture magnitude                    [mag]
#   3 X_IMAGE                Object position along x                                    [pixel]
#   4 Y_IMAGE                Object position along y                                    [pixel]
#   5 X_WORLD                Barycenter position along world x axis                     [deg]
#   6 Y_WORLD                Barycenter position along world y axis                     [deg]
#   7 A_WORLD                Profile RMS along major axis (world units)                 [deg]
#   8 B_WORLD                Profile RMS along minor axis (world units)                 [deg]
#   9 THETA_WORLD            Position angle (CCW/world-x)                               [deg]
#  10 FWHM_WORLD             FWHM assuming a gaussian core                              [deg]
#  11 ELONGATION             A_IMAGE/B_IMAGE                                           
#  12 ELLIPTICITY            1 - B_IMAGE/A_IMAGE                                       
         1 -13.4014     65.2830     52.5936   6.6620960228e+01   5.7878072120e+01     1.289378    0.6163769 -36.57  0.005922537    2.025    0.506
         2 -14.9465      6.4019     71.1353   9.1544708136e+01   5.9500200493e+01     1.287597    0.5833644 -63.93  0.006689476    1.601    0.376
         3 -14.3938    166.7086     28.8625   3.0765625522e+01   4.0082952907e+01     1.185347     1.040445  69.36  0.004091367    1.113    0.102
         4 -13.1111    120.6879     26.6123   3.9855623450e+01   5.1830326855e+01    0.9121698    0.7518244  20.55  0.005044821    1.176    0.150
         5 -14.5491    147.0792     29.5818   3.4845557261e+01   4.5073725964e+01     1.694632     1.001583  54.17  0.007642488    1.562    0.360
         6 -14.4969    212.5029     41.1836   2.7138799270e+01   2.6311457979e+01     2.568479     0.875859  70.71  0.007825659    3.682    0.728
         7 -13.7125    188.8276     25.6348   2.6092760145e+01   3.4585139350e+01     1.591122    0.8389923 -58.71  0.006170049    2.492    0.599
         8 -13.7905    187.7144     12.0973   2.2169937439e+01   3.6406183419e+01      1.40523    0.7536157 -48.23  0.006106653    2.043    0.510
         9 -13.2391    132.1297     32.4042   3.9206222261e+01   4.8383081195e+01    0.6537921    0.5402348 -24.96  0.001990524    1.239    0.193
        10 -13.5837      2.7717     10.2927   7.7541987422e+01   7.1440177714e+01    0.7804545    0.3857793 -53.40  0.004919116    1.680    0.405
        11 -13.4201      8.7610      2.9359   7.1527653036e+01   7.2264330991e+01    0.7454579    0.4477515  40.85  0.004279063    2.793    0.642
        12 -15.9965     14.2431     19.9612   7.5662996683e+01   6.9063360656e+01     1.864439    0.7860383 -35.81  0.008756928    1.988    0.497
        13 -14.3388     25.1349     13.6562   6.8198204280e+01   6.9256115587e+01    0.6547078    0.4385495  23.44  0.004477914    1.690    0.408
        14 -11.6676    232.5146      2.2050   1.4513284434e+01   2.5784461676e+01    0.5935543    0.2308954  59.01  0.002476454    2.427    0.588
        15 -13.2651    223.6274     20.5177   2.0099284173e+01   2.6024909740e+01    0.4976383    0.3428478  32.56  0.001851342    1.874    0.466
        16 -13.4855    216.5013     28.0444   2.2972618528e+01   2.6963243950e+01    0.7014195     0.439393 -58.11   0.00268564    1.717    0.418
        17 -14.7501    217.3959     13.2255   1.8855388710e+01   2.8456220855e+01     1.531375      1.24298 -16.12  0.006560825    1.427    0.299
        18 -12.2200     63.4320     25.0818   5.7083894147e+01   6.2922230527e+01    0.5366203    0.3306836 -14.00  0.002460024    1.774    0.436
        19 -11.6535     45.9642     20.7412   6.2114809151e+01   6.5934726708e+01    0.3160088    0.2517025 -20.25  0.002024296    1.014    0.014
        20 -15.2318     98.8521     11.3857   3.9531103529e+01   5.8433773650e+01     1.590869     0.871886  52.75   0.00763521    1.802    0.445
        21 -13.1558     85.6477     14.1336   4.4664366289e+01   6.0719310094e+01    0.5988724     0.385566 -36.78  0.002599912    1.682    0.406
        22 -12.4223     70.0929     16.1384   5.0793347945e+01   6.3188591239e+01    0.3549577    0.3192636 -37.62  0.001824082    1.407    0.289
        23 -12.0419     59.1364     15.9744   5.4786575214e+01   6.4899889613e+01    0.3618911    0.2725368  11.45  0.002305767    1.250    0.200
        24 -11.7696     46.5475     12.8791   5.8436002219e+01   6.7055607506e+01    0.2607822    0.2298197 -10.24  0.001478796    1.223    0.182
        25 -13.8452     41.7531      4.5113   5.6533928107e+01   6.8826783292e+01    0.6599602    0.4632916  -9.09  0.003564523    1.206    0.171
        26 -10.8778    123.4996     11.1087   3.3177142193e+01   5.2993066228e+01    0.1952541     0.134914 -18.01 0.0004995344    1.510    0.338
        27 -11.5344     74.8975      8.2665   4.5547682628e+01   6.3375830764e+01    0.4115428    0.1669317 -20.00  0.001133529    2.805    0.643
        28 -12.0991    153.1026      8.8386   2.6439755230e+01   4.5875807106e+01     0.335897    0.2442523  35.42  0.001094145    1.379    0.275
        29 -10.9022     59.4065      7.7967   5.0915404666e+01   6.5961700791e+01    0.2326698    0.1352573  22.12 0.0008143592    1.793    0.442
        30 -12.1395    120.1883      3.6085   3.0959275511e+01   5.4505942960e+01     0.407095     0.238342  70.50  0.001895155    1.977    0.494
        31 -10.9302     66.9234      3.9411   4.6286335842e+01   6.5238019603e+01    0.1687406    0.1514675 -50.85 0.0008707235    1.662    0.398
        32 -11.0273    169.5526      1.6705   2.1456783999e+01   4.2245058563e+01    0.4407296    0.1295606  63.24  0.001545378    2.711    0.631
        33 -11.3373     81.2519      1.5434   4.0349514317e+01   6.2962945669e+01    0.4749239    0.1085274  48.47  0.001711288    3.652    0.726
        34 -11.6654     61.2079      1.5611   4.7214785546e+01   6.6436681124e+01     0.364067    0.1300341  47.05  0.001470929    3.022    0.669
        35 -13.0098    139.4754     21.5966   3.3610396428e+01   4.7962364456e+01    0.8105252    0.2705732  53.43   0.00241433    2.552    0.608
        36 -12.8664    107.7769    246.8170   9.0201914975e+01   1.2315118274e+01     0.629071    0.3895265  76.74  0.004084073    1.718    0.418
        37 -13.3013     98.1738    238.8066   9.1073943206e+01   1.4987253899e+01    0.7188352    0.3510778  44.98  0.004226793    1.670    0.401
        38 -13.9539     92.1520    230.7750   9.1365535220e+01   1.7177793780e+01    0.5002083    0.4196619  77.88  0.003801235    1.198    0.165
        39 -11.9824     51.1743    248.7509   9.9340892521e+01   1.9736430677e+01    0.3164286    0.2176799  84.18  0.002545984    1.257    0.205
        40 -12.1868     59.7955    246.4088   9.7873803824e+01   1.9038130385e+01    0.2691083    0.1668619  27.60  0.001587091    3.139    0.681
        41 -13.1406     28.3568    246.1261   1.0259428165e+02   2.2792121701e+01    0.3868734    0.2260119  73.45  0.003033347    1.220    0.180
        42 -12.4513      2.9683    249.2104   1.0631424013e+02   2.4915627333e+01    0.3454237     0.187965  73.49  0.002342137    1.223    0.182
        43 -13.5042      9.5490    245.6711   1.0526932991e+02   2.4828760746e+01    0.6284567    0.2703411  63.51  0.003607663    1.604    0.377
        44 -13.3567     73.3409    153.4649   8.6325950102e+01   3.4882446038e+01    0.6346512    0.4517823  39.44  0.002911283    1.542    0.351
        45 -12.7505    211.1680    154.5022   5.6429595929e+01   8.2533242699e+00    0.5041513    0.3639379  38.40  0.002582606    1.290    0.225
        46 -11.4247     86.0679    152.6287   8.3293062621e+01   3.3217881924e+01    0.4312829    0.2012402 -44.14  0.001768072    3.004    0.667
        47 -11.4645    103.3090    149.9381   7.8863645437e+01   3.1036474232e+01    0.3242106    0.2376057 -39.74  0.001703222    1.707    0.414
        48 -11.7970      7.4105    144.6968   9.9918820771e+01   4.3774984039e+01    0.3335765    0.2390183 -25.35  0.002253983    2.393    0.582
        49 -12.4683     60.7222    147.2039   8.8354078503e+01   3.7916273010e+01     0.376497    0.2878917  22.92  0.002039109    1.806    0.446
        50 -12.2345     45.2972    133.7872   9.0190341050e+01   4.2673503726e+01    0.5154961    0.3029263 -78.00  0.002902268    1.519    0.341
        51 -12.5379    246.3709    134.7161   4.5670301280e+01   3.9632988864e+00    0.4287475    0.3086166 -77.92  0.001930192    2.610    0.617
        52 -12.6681    135.8338    132.4758   6.7740607827e+01   2.8697937459e+01    0.5877636    0.2611772  47.25  0.001329521    2.197    0.545
        53 -11.7574    111.8185    132.0001   7.3458075252e+01   3.3454703465e+01    0.3110785    0.1998495 -40.33  0.001450899    1.803    0.445
        54 -12.6006    222.7411    127.9790   4.8235010708e+01   1.0090631341e+01    0.3712271    0.2941047 -70.81  0.001821513    1.744    0.427
        55 -13.4732    234.0481    126.3091   4.5826190723e+01   7.8655721502e+00    0.4433843    0.3357684 -60.93  0.002185828    1.758    0.431
        56 -11.7231    134.9500    126.1280   6.6533007012e+01   3.0222861049e+01    0.3834566    0.2183637 -47.92  0.001042547    1.784    0.439
        57 -12.9768     84.3161    115.0238   7.7038743815e+01   4.1849421901e+01    0.8305939    0.5330323  16.75  0.003794322    2.494    0.599
        58 -11.9999     78.4157    110.3641   7.7671868827e+01   4.3774703123e+01    0.4352115    0.2932279  89.88   0.00165501    1.921    0.479
        59 -14.4065    106.0030    105.6330   6.9092961515e+01   4.0314039083e+01     2.184232     1.118595 -39.72  0.008920228    2.180    0.541
        60 -13.4103     95.5921    110.2806   7.2986664181e+01   4.1106553734e+01    0.9154753    0.7384022 -75.66  0.004439174    1.289    0.224
        61 -13.5035    108.5038    124.2348   7.2668251843e+01   3.5763300363e+01    0.9708937    0.6346117  31.95  0.004582657    1.815    0.449
        62 -13.2830    110.4338    117.0885   7.0605743625e+01   3.6986858428e+01      1.34357    0.4731716  38.23  0.004548326    3.240    0.691
        63 -12.0329    181.6176    120.8970   5.4628047274e+01   2.0845528541e+01    0.3164241    0.2271712  56.56  0.001108801    1.428    0.300
        64 -11.9481      4.4815    119.7816   9.8357499565e+01   4.9239669479e+01    0.3980854    0.1765093  20.70  0.002187905    3.178    0.685
        65 -11.7367     35.4677     86.6143   8.5292948508e+01   5.4105547332e+01    0.2990877    0.2500076 -48.86 0.0009986261    1.150    0.131
        66 -12.6703     42.2103     90.5664   8.4028339188e+01   5.2605418273e+01    0.2832502     0.207891 -60.70 0.0003503481    1.123    0.110
        67 -12.2606     36.6876     92.9386   8.6114612619e+01   5.2607644975e+01    0.3895057    0.2838429 -17.92  0.001353183    1.850    0.460
        68 -14.6789     16.5491    108.7054   9.4117385994e+01   5.0792732368e+01     1.600726     0.856654 -88.01  0.009043477    1.829    0.453
        69 -14.3799     22.7712     95.0200   9.0496023777e+01   5.3316418293e+01    0.9532873     0.870024  55.88   0.00721089    1.313    0.238
        70 -12.0768    121.6239    112.3411   6.6612849792e+01   3.5880687538e+01    0.2806059      0.27076 -85.88 0.0007543949    1.011    0.011
        71 -12.0946     62.9203    109.8148   8.1809386826e+01   4.5995533663e+01    0.5566626    0.3650866 -84.78  0.002909596    1.750    0.428
        72 -13.1650     29.6053     89.4707   8.7583427480e+01   5.3986612916e+01    0.8459555    0.4539606  79.39  0.003904364    3.053    0.672
        73 -11.8337    177.2633    110.0044   5.2803176343e+01   2.3943287465e+01    0.3076633    0.2002863  36.98  0.001308656    1.646    0.392
        74 -11.8763    169.7195    107.4227   5.3782317767e+01   2.6243857644e+01    0.4001258    0.2151552 -49.12  0.001543229    2.049    0.512
        75 -11.1974     42.7175    106.9819   8.6853890231e+01   4.8912578800e+01    0.1987512    0.1625301  -2.63   0.00127369    1.680    0.405
        76 -13.3670      2.3444     97.4928   9.6487729300e+01   5.4128734708e+01      0.70954    0.2391664 -74.50  0.003120229    2.335    0.572
        77 -12.5552    135.9623    103.0411   6.0617472342e+01   3.4872998142e+01    0.7833149    0.3250054  48.10  0.002201383    2.428    0.588
        78 -13.6165    119.6746    102.0089   6.4540277555e+01   3.8488714945e+01    0.6546295    0.4115894  31.80  0.002861564    1.899    0.474
        79 -12.1395     49.2047     93.6793   8.2566523717e+01   5.1198686486e+01    0.5781714     0.364961 -63.89  0.003259655    1.366    0.268
        80 -11.9525     52.2737     97.9186   8.2511268044e+01   4.9921513800e+01    0.4574201    0.2571594 -25.80  0.002009486    3.124    0.680
        81 -11.8913     46.4855     98.5118   8.4295952047e+01   5.0414010378e+01    0.4314961    0.2313819 -73.23  0.002160071    1.888    0.470
        82 -12.0217     60.8354     97.8020   8.0005716846e+01   4.8944999862e+01    0.3774331    0.2708735  72.74  0.002079504    1.737    0.424
        83 -11.5938    125.4956     92.4721   6.0454256248e+01   3.9301458408e+01    0.3110371    0.2356585 -75.29   0.00144183    1.706    0.414
        84 -13.3121    136.1720     95.2300   5.8460084506e+01   3.6436038407e+01    0.6019659    0.4957941  38.13  0.003016705    1.249    0.199
        85 -10.8044     81.1499     93.5634   7.3125957234e+01   4.7108170903e+01    0.2631836    0.1667303 -25.62  0.001185168    2.271    0.560
        86 -13.3674    188.1698     84.3223   4.3569193758e+01   2.5945573332e+01    0.8658702    0.3684013  43.34  0.002554356    2.559    0.609
        87 -12.8884    135.6019     80.0484   5.4241345551e+01   3.9587901361e+01    0.7385028    0.5083177  40.43  0.002759967    1.491    0.329
        88 -12.8420    237.6074     80.5462   3.3953374792e+01   1.4256662112e+01    0.5195304    0.3513382 -88.05  0.002294798    2.108    0.526
        89 -14.1328    164.3837     71.6779   4.4854674838e+01   3.4208424623e+01     1.493478     1.067462  57.61  0.006807776    1.406    0.289
        90 -13.9290    160.7212     80.9563   4.8445938364e+01   3.3456683217e+01     1.656111    0.8500435  25.76  0.004704421    4.290    0.767
        91 -14.5122    169.3491     77.0640   4.5383287359e+01   3.2005240383e+01     1.775569    0.5652799  52.50  0.005456575    3.003    0.667
        92 -13.7161    171.4450    242.7095   7.8938527529e+01   2.6508551308e+00    0.7846256    0.4559275  37.96  0.004713167    1.429    0.300
        93 -13.4623     54.3444     67.6955   7.4881917811e+01   5.6234329313e+01     1.523335    0.7462471  29.61  0.007461139    2.405    0.584
        94 -12.9358     54.6924     82.0334   7.8370709954e+01   5.3144353632e+01    0.5373336    0.3645827 -62.42  0.003059885    1.341    0.254
        95 -14.0731     61.1462     75.7753   7.4784190874e+01   5.3716033832e+01    0.6331559     0.437622 -34.35  0.001243379    1.479    0.324
        96 -13.2243     71.4125     74.9415   7.1285610713e+01   5.2533063133e+01    0.7882162     0.483761 -13.08  0.002629905    2.836    0.647
        97 -12.3154     77.1580     73.2840   6.9004867672e+01   5.2048463551e+01    0.5307046    0.3074099 -30.87  0.002152788    2.040    0.510
        98 -13.4326    213.6313     78.6423   3.7297871560e+01   2.0432540073e+01      1.09615    0.6661682  76.03  0.004398297    2.193    0.544
        99 -12.3900    218.6233     74.2651   3.5284803117e+01   1.9873576812e+01    0.3391176    0.3037977  79.41   0.00130968    1.172    0.146
       100 -12.3011    214.4931     71.7656   3.5286825378e+01   2.1308948545e+01     0.403002    0.3149889  48.87  0.001479708    1.295    0.228
       101 -11.9967    113.8741     80.1084   6.0067585559e+01   4.4215337900e+01    0.3993596    0.3427207 -40.43 0.0009061618    1.127    0.112
       102 -11.0799     42.5016     79.5025   8.1639814468e+01   5.4991291821e+01    0.2717644    0.1433108 -51.66 0.0009128441    1.556    0.357
       103 -11.1316     41.6082     76.2280   8.1194618043e+01   5.5783503184e+01    0.2210974    0.1521054 -56.05  0.000631326    1.192    0.161
       104 -13.9327     26.3367    226.6229   1.0189701356e+02   2.6243425695e+01    0.6774637    0.3221396 -64.02  0.004402797    2.415    0.586
       105 -13.5275      4.2649     63.6802   9.0938669156e+01   6.1165085556e+01    0.4524761    0.3458872  51.10  0.003323975    1.695    0.410
       106 -13.2398     91.6530     57.9587   5.9679778865e+01   5.2730075700e+01    0.5260205    0.4728527 -25.29  0.002509244    1.021    0.021
       107 -11.6163     26.4492     75.1560   8.5856205979e+01   5.7335248664e+01    0.4008139    0.2408817  81.98  0.002092883    2.498    0.600
       108 -13.8966    199.0863     69.9278   3.7430260230e+01   2.5557365686e+01     1.184607    0.6399338  39.31  0.003959842    2.171    0.539
       109 -12.8463    199.9960     61.8079   3.4955596989e+01   2.6602604477e+01    0.3987666    0.3919479 -74.34  0.001311127    1.015    0.015
       110 -11.5481    240.5938     70.3981   3.0932468904e+01   1.5073138645e+01    0.2819546     0.139775  78.94  0.000962021    3.414    0.707
       111 -12.6466    134.7638     66.0462   5.0114320867e+01   4.2401873078e+01    0.6444164    0.5095915  26.05  0.002176771    1.376    0.273
       112 -12.1086     31.4706     62.9731   8.1487050455e+01   5.9498991847e+01     0.533783    0.2587388 -67.60  0.002652246    2.156    0.536
       113 -11.8880     24.8932     59.1084   8.2864265453e+01   6.0820858307e+01    0.4608648    0.2273547 -54.70  0.001957197    1.542    0.352
       114 -11.3946    100.0165     65.5073   5.9585363615e+01   4.9779215159e+01    0.2446748    0.2114593 -35.54 0.0007169152    1.092    0.084
       115 -13.6239    177.8960     57.2248   3.7646342687e+01   3.3119057384e+01     0.974486    0.6758736 -44.60  0.003219602    1.504    0.335
       116 -12.7002     79.1790     60.5914   6.4528547997e+01   5.4298887894e+01    0.5677637    0.4253701 -53.46   0.00282282    1.380    0.275
       117 -13.0817     82.3729     54.4752   6.1477981994e+01   5.4957529957e+01    0.6527826    0.5147157  -1.77   0.00332322    1.394    0.283
       118 -14.5872    119.7630     54.5327   5.0256926797e+01   4.7796695789e+01     1.053658    0.6852961  37.17  0.004907247    1.589    0.371
       119 -11.1219     39.1327     60.3274   7.8139148102e+01   5.9359703915e+01    0.2283771    0.1808527  80.11  0.001424431    1.752    0.429
       120 -11.3259     17.6906     55.5241   8.4592185222e+01   6.2063197983e+01    0.3122497    0.1429271 -62.99   0.00168683    1.805    0.446
       121 -11.9688    247.8633     54.4313   2.5939022459e+01   1.5633226929e+01    0.5659105    0.2935989 -45.90  0.002489751    1.855    0.461
       122 -12.2214    249.0064     48.8182   2.4403633850e+01   1.6131948530e+01    0.3640546    0.3050476 -31.55  0.001988328    1.179    0.152
       123 -13.2723     87.4037     65.2068   6.3358549315e+01   5.2065065300e+01    0.8827372    0.5692322  -4.93  0.003831757    2.513    0.602
       124 -11.3898    231.5312     55.4993   2.8346180479e+01   1.9453596585e+01    0.3036233    0.1430433  63.46  0.001211838    2.168    0.539
       125 -13.9689    100.7372     49.2658   5.3881983103e+01   5.2617327786e+01    0.8964865     0.730228 -48.13  0.004921947    1.344    0.256
       126 -11.8689     37.4441     52.4115   7.6572626691e+01   6.1117983578e+01    0.4522491     0.231136 -28.59  0.002234914    2.360    0.576
       127 -10.7599     42.0024     53.3102   7.5163886774e+01   6.0496423796e+01     0.172625    0.1554039 -59.35  0.000588864    1.222    0.182
       128 -11.8416    135.8028     49.8190   4.4469332871e+01   4.4925031624e+01    0.4401241    0.2867184  30.46  0.001592533    1.745    0.427
       129 -10.6618     23.5244     50.0550   8.1093673189e+01   6.2756901158e+01    0.1731729    0.0910695 -54.97 0.0004409797    1.480    0.324
       130 -13.2466    157.1813     44.5377   3.7803817995e+01   4.0436157542e+01     1.310747    0.6159879  38.26  0.004684121    2.557    0.609
       131 -13.8612     20.3521    224.2246   1.0270188178e+02   2.7285510445e+01    0.7906066    0.3878965 -68.45  0.005385637    2.107    0.525
       132 -13.6534     65.1215    223.3623   9.5353110213e+01   2.2197183209e+01    0.7203353     0.512503  62.14  0.005261061    1.088    0.081
       133 -12.9268     59.3949    212.7993   9.5495387874e+01   2.4821812270e+01    0.3094237    0.2461551 -54.67  0.001329435    1.831    0.454
       134 -14.2613    122.2244     36.9971   4.3356710003e+01   5.0045006290e+01     1.354418    0.5577575  43.49  0.005136078    2.403    0.584
       135 -12.9955      3.8195     43.3670   8.6919591284e+01   6.5294071006e+01    0.4246674    0.3062138 -23.49  0.003136678    1.471    0.320
       136 -12.2648     11.7537     43.6673   8.3924968510e+01   6.4806207050e+01    0.3860207    0.2118894 -29.71  0.001774093    1.864    0.463
       137 -13.6247     64.2005    214.5385   9.4796058995e+01   2.3885343326e+01    0.4317494    0.2732475  71.93  0.002699826    1.304    0.233
       138 -12.4499     94.2483    218.3157   8.9799686582e+01   1.8990577481e+01    0.2636442    0.1654872  57.14  0.001368684    1.272    0.214
       139 -12.1339    147.3262    239.0161   8.2662249055e+01   7.1909612058e+00    0.1617727     0.134911  57.98 0.0007181549    1.122    0.109
       140 -12.3907     75.7942     37.1316   5.7454323151e+01   5.9090691809e+01    0.3743411    0.2543872  34.51  0.001071512    1.540    0.350
       141 -11.7058     70.4100     36.2289   5.8993338189e+01   6.0082960431e+01    0.2539066    0.2221683 -12.35 0.0007728342    1.037    0.035
       142 -12.8947    242.0585     35.8973   2.1980658316e+01   1.9512588237e+01    0.7251183    0.3682857  67.36  0.002263802    1.975    0.494
       143 -11.3289    245.4465     29.7514   2.0078414998e+01   1.9466058445e+01    0.3654267    0.2185353 -21.21  0.001729161    1.902    0.474
       144 -12.0396      4.0855    212.0950   1.0464562529e+02   3.0993348454e+01    0.3720614    0.1388072 -87.33  0.002230491    2.220    0.549
       145 -11.4203     13.8085    222.6776   1.0363641153e+02   2.8214878876e+01    0.3192159    0.1243563  75.55  0.001556774    2.264    0.558
       146 -10.9724    136.5348    211.4650   8.1177037072e+01   1.3306021751e+01    0.1276013    0.1034959  55.42 0.0002016305    1.001    0.001
       147 -11.6081     72.6833    207.4623   9.2653921752e+01   2.4044460201e+01    0.2206601    0.1623609  79.41  0.001518505    1.133    0.117
       148 -12.2080     41.3974    206.5899   9.8159563584e+01   2.8147836320e+01    0.2572546    0.1334483  85.63  0.001576725    1.745    0.427
       149 -12.9006     45.1848     33.5032   6.7451820889e+01   6.3887849314e+01     0.650227    0.4667308  32.12  0.004131587    1.626    0.385
       150 -12.3680     57.6459    203.4263   9.5027524778e+01   2.6779085433e+01    0.5188944    0.2227125 -86.70  0.002531718    2.748    0.636
       151 -10.8104    149.9989    207.0000   7.8000298104e+01   1.1664681261e+01    0.2251155   0.06243792  44.26 -0.0001580566    2.998    0.666
       152 -13.4922     15.1519    197.4082   1.0207517566e+02   3.2627671960e+01    0.6426113    0.3287618 -73.12  0.004316375    1.728    0.421
       153 -13.6967     38.7518    194.9133   9.7760701112e+01   3.0652877721e+01    0.6834971    0.2707141  57.18  0.003673378    2.217    0.549
       154 -12.5758     22.0353    166.3521   9.8681546911e+01   3.8055425851e+01    0.3026299    0.2116301  33.22  0.001380178    1.822    0.451
       155 -11.3850     31.1846     25.3427   7.0170627605e+01   6.6752202253e+01    0.2962907    0.1684854  10.17  0.001469565    2.137    0.532
       156 -11.3687     36.1866     23.2533   6.7232679001e+01   6.6616791084e+01    0.2980602    0.1666501 -37.83  0.001755308    1.446    0.308
       157 -12.3949    109.6904     42.0051   4.8620178505e+01   5.2017208397e+01    0.5392615    0.2542393  44.06  0.001490924    2.098    0.523
       158 -13.6029     30.2300    169.2610   9.7300684589e+01   3.6661761815e+01    0.7055338    0.4758111 -42.59  0.003288216    2.340    0.573
       159 -11.5790     50.9603     20.3845   5.9932655191e+01   6.5367305037e+01    0.3305029    0.1886232  42.26  0.001820733    2.179    0.541
       160 -10.8472    202.7372     21.4292   2.2896714230e+01   3.1374230377e+01    0.2096568    0.1238203  57.53 0.0009491668    1.587    0.370
       161 -13.6159     22.2721    181.1905   9.9760507530e+01   3.5054340237e+01    0.7702103    0.2996112 -62.22  0.004204111    2.505    0.601
       162 -15.1735      8.1307    183.4893   1.0247262391e+02   3.5916814416e+01     1.158747    0.7825153 -86.98  0.008880749    1.164    0.141
       163 -15.2418     16.0202    174.8572   1.0047658333e+02   3.6898680081e+01     1.954819    0.8466545  69.46   0.01087277    2.203    0.546
       164 -11.1555     34.9650     34.7493   7.1987791425e+01   6.4725034096e+01    0.2008945    0.1586423 -14.61 0.0006704552    1.223    0.182
       165 -12.4859    164.3794    195.8852   7.3517916543e+01   1.0848251045e+01    0.3381651    0.2186476 -86.03  0.001486853    2.965    0.663
       166 -12.2655    200.9385    191.8914   6.5794128870e+01   4.4572562624e+00    0.3299003    0.2622396  15.76  0.001462089    1.297    0.229
       167 -10.8860     79.8354    192.6693   8.9809969071e+01   2.5854183933e+01    0.3195517   0.06111299  47.36  0.001094375    4.227    0.763
       168 -11.4538     97.9643    188.0000   8.5661114424e+01   2.4039235598e+01    0.2081166   0.06438603  41.70  0.000805565    2.964    0.663
       169 -12.0985    155.9904    185.0260   7.3399030255e+01   1.4321705119e+01    0.2197448    0.1931042  48.65   0.00119865    1.028    0.027
       170 -11.8608     48.9554    181.9658   9.4752052055e+01   3.2024843141e+01    0.3179976    0.1928044 -64.93  0.001984338    1.635    0.388
       171 -12.8450    198.0973    181.0899   6.4341124859e+01   6.6679612488e+00    0.4248862    0.3374094  84.47  0.002253691    1.874    0.466
       172 -10.9042    120.6596    179.3384   7.9781148944e+01   2.1946565032e+01    0.1430253   0.09408594  73.91 0.0007050324    1.764    0.433
       173 -10.3459    100.9947    176.0093   8.3434654847e+01   2.5945487522e+01    0.1506107    0.1285129  73.45 0.0009351453    1.005    0.005
       174 -13.1899     55.4963     27.1225   6.0939821250e+01   6.3707454052e+01    0.5493068     0.384943  33.52  0.002290825    1.581    0.367
       175 -12.8063    123.8332    166.8418   7.7109276609e+01   2.3868368657e+01     0.592308    0.3438954 -86.09  0.002354809    3.012    0.668
       176 -11.9162     25.7632    158.8683   9.7298098085e+01   3.9247361294e+01    0.2908531    0.2155735 -15.00  0.001829441    2.614    0.617
       177 -12.1435     76.7044    156.8643   8.6042074221e+01   3.3674530189e+01    0.3840406     0.299125  34.06  0.001597942    1.545    0.353
       178 -10.9069     25.9546     44.4986   7.8639195624e+01   6.3666336232e+01    0.1535331    0.1136241  14.90  0.001037127    1.602    0.376
