#   1 NUMBER                 Running object number                                     
#   2 MAG_AUTO               Kron-like elliptical aperture magnitude                    [mag]
#   3 X_IMAGE                Object position along x                                    [pixel]
#   4 Y_IMAGE                Object position along y                                    [pixel]
#   5 X_WORLD                Barycenter position along world x axis                     [deg]
#   6 Y_WORLD                Barycenter position along world y axis                     [deg]
#   7 A_WORLD                Profile RMS along major axis (world units)                 [deg]
#   8 B_WORLD                Profile RMS along minor axis (world units)                 [deg]
#   9 THETA_WORLD            Position angle (CCW/world-x)                               [deg]
#  10 FWHM_WORLD             FWHM assuming a gaussian core                              [deg]
#  11 ELONGATION             A_IMAGE/B_IMAGE                                           
#  12 ELLIPTICITY            1 - B_IMAGE/A_IMAGE                                       
         1 -16.3965    197.9999     52.9565   7.1383156305e+01   2.8800709628e+01     3.707536      2.23458  42.13   0.01627295    1.682    0.406
         2 -16.6386    249.4058     43.9814   6.1859174475e+01   1.7635456485e+01     10.87177     2.555976 -18.44   0.01726631   11.852    0.916
         3 -18.1000    238.3701     10.6698   5.4393303375e+01   2.3649708069e+01     6.367612     5.150506  54.64   0.03513936    1.304    0.233
         4 -14.3703      3.7430     20.8753   1.2610272722e+02   7.0265545919e+01     1.059543    0.4229172 -68.38  0.004812027    2.208    0.547
         5 -11.7560    183.2564      4.4235   5.8347931873e+01   3.8170169597e+01    0.2862484    0.2013148 -66.69 0.0008582925    1.633    0.388
         6 -10.3519    154.0187      3.3621   6.2174030568e+01   4.6115011128e+01    0.2082143    0.1841183  56.48 0.0005615583    1.057    0.054
         7 -10.9782    133.5919      1.6690   6.5176466749e+01   5.1666705357e+01    0.2571588    0.1826528  56.62  0.001286914    1.285    0.222
         8 -12.6165    249.8325    139.0181   8.4721813030e+01   5.7000807044e+00    0.4596643    0.1242898 -30.48  0.001661265    3.405    0.706
         9 -13.6926    246.8499    245.9790   1.0436241515e+02  -5.0260865561e+00    0.6227035    0.3988504   1.12  0.004661586    1.409    0.290
        10 -14.8381     20.2407    233.3615   1.4190919532e+02   2.5830120901e+01     2.086731    0.4458295  48.31   0.01167607    2.661    0.624
        11 -13.7204     13.0051    214.0975   1.4240715383e+02   2.9536523064e+01    0.7722256    0.4118271  49.21   0.00368602    1.405    0.288
        12 -14.9830    140.3187    234.1979   1.2111770663e+02   1.1381323657e+01     1.631614    0.5060812  42.06  0.007490326    2.378    0.579
        13 -16.9015    113.4421    246.3394   1.2703945691e+02   1.3448716840e+01     3.448087    0.5975675  39.17   0.01354378    3.939    0.746
        14 -16.6387     72.5964    236.8467   1.3337150027e+02   1.9877498531e+01     2.178289     1.223222  43.52   0.01167582    1.336    0.251
        15 -11.7686     17.4433    249.4336   1.4287482077e+02   2.3693500109e+01    0.3688996    0.1229017  43.81  0.002515699    1.934    0.483
        16 -13.5511     59.5033    172.6649   1.3089248715e+02   3.2473554908e+01    0.6329872    0.5079042  56.37  0.002613445    1.088    0.081
        17 -13.6754    210.4598    134.0166   9.0570677752e+01   1.3882368430e+01    0.6616518    0.3417943  48.51   0.00229794    2.000    0.500
        18 -11.5942    184.4137    135.3161   9.6113495289e+01   1.8970179323e+01    0.2926171    0.1749303  45.05  0.001312998    1.601    0.376
        19 -13.5178    220.9745    128.6982   8.7386633004e+01   1.2547295617e+01    0.5598046    0.3317969  59.10  0.001653086    2.415    0.586
        20 -12.7820    210.7095    127.8177   8.9097926193e+01   1.4754594294e+01    0.3894447    0.2277465  25.16  0.001379961    1.856    0.461
        21 -12.9808    198.1953    119.5136   8.9571734598e+01   1.8653036055e+01    0.4934306    0.3078738  60.05  0.002137193    2.144    0.533
        22 -12.6224    185.7996    118.6205   9.1907909169e+01   2.1460433641e+01    0.3724312    0.2658713  52.99  0.001791301    1.535    0.348
        23 -11.8205    213.4767    115.9982   8.5761283489e+01   1.5943258470e+01    0.2280315    0.1859047  32.92 0.0005581794    1.168    0.144
        24 -11.6125    167.6353    113.2937   9.4586203611e+01   2.6320493736e+01    0.3076102    0.2556362 -87.16  0.001311048    1.744    0.427
        25 -13.0895    205.2214    110.2253   8.5899064762e+01   1.8590955828e+01    0.5363862    0.2595086  37.84  0.002154856    2.084    0.520
        26 -11.6631    134.7424    106.1487   1.0084234037e+02   3.4642909377e+01    0.5508768    0.1898991 -46.41  0.001817103    3.059    0.673
        27 -13.5067    186.8615    101.8693   8.7431021842e+01   2.4019645252e+01    0.5559584    0.3712036 -37.17  0.002571291    1.545    0.353
        28 -13.0665    199.2093     98.3223   8.4003462120e+01   2.1784358363e+01    0.4491916    0.2835777  37.75  0.001784086    1.553    0.356
        29 -11.0253    145.1771     98.4365   9.6138734911e+01   3.3977961883e+01    0.2896594    0.2297613  -0.78 0.0006953162    1.441    0.306
        30 -13.0012    225.2249     93.7238   7.8100949625e+01   1.6644103482e+01    0.4386736    0.3122423 -62.94  0.002019722    2.201    0.546
        31 -10.6237    132.1626     95.1475   9.8649831016e+01   3.7386396994e+01    0.2227113     0.200772   1.18 0.0004024675    1.125    0.111
        32 -12.4279    207.5194     93.7743   8.1225119873e+01   2.0593293060e+01    0.3795417     0.274778  64.89  0.001451784    1.738    0.425
        33 -14.4802    165.8767     62.6729   8.0575501267e+01   3.5498614980e+01     1.238603    0.9334517  20.12   0.00281876    1.441    0.306
        34 -12.3619    181.5656     67.2343   7.8709506956e+01   3.0870381415e+01    0.3354079    0.2807765  27.89 0.0009464317    1.173    0.148
        35 -13.0682    185.7459     63.9602   7.6900387092e+01   3.0322766915e+01    0.5558347     0.427175  12.67  0.001961082    1.417    0.294
        36 -12.6784    153.8121     91.3923   9.2044431132e+01   3.3401876765e+01    0.5390637    0.3453717  22.46  0.002010631    1.950    0.487
        37 -11.4054    138.2614     87.6432   9.4930155175e+01   3.7570790986e+01    0.3098779    0.3021112  65.87 0.0007434976    1.149    0.129
        38 -13.8202    167.0680     80.0260   8.5634161218e+01   3.2338634743e+01    0.7978871    0.5601305   9.62  0.003469063    1.762    0.432
        39 -12.3180     67.8522    144.5676   1.2586519634e+02   3.7256019585e+01    0.5796507    0.2902581  56.46   0.00242394    2.214    0.548
        40 -12.4949    151.1940     80.3919   8.9494696075e+01   3.6020931269e+01    0.3714349    0.2783065 -27.03 0.0006666529    1.356    0.263
        41 -12.6564    221.4398     78.4421   7.4723424317e+01   1.9628778297e+01    0.4454286    0.3069937 -65.73  0.001975875    2.249    0.555
        42 -14.2779    158.5215     47.3341   7.7133723288e+01   3.9709422494e+01     1.067455    0.8176056  71.94  0.002324915    1.540    0.351
        43 -13.2209    174.0070     73.9760   8.2305562659e+01   3.1668912740e+01    0.6054341    0.4158073 -18.08  0.000447416    1.556    0.357
        44 -11.5642    217.0245     63.9178   7.1466396449e+01   2.2646245391e+01    0.2832235    0.2068023  56.01 0.0008061638    1.425    0.298
        45 -15.1331    180.9079     79.7438   8.2550855883e+01   2.9054978662e+01     1.731349    0.8106763 -44.45  0.004988783    2.475    0.596
        46 -11.3237    174.9252     40.7379   7.1617854477e+01   3.6381759165e+01    0.4278062    0.2178269 -23.47  0.001110129    2.035    0.509
        47  -9.6177    166.2721     40.3205   7.3136764924e+01   3.8697624236e+01    0.1586918    0.1125764  21.84 0.0002060394    1.569    0.363
        48 -10.4107    189.8930     36.1713   6.7565558052e+01   3.3049895415e+01    0.2205674    0.2019094 -59.27 0.0005385696    1.188    0.158
        49 -12.7910      1.8840     30.4317   1.2940037145e+02   6.8290992095e+01    0.4588077    0.1650998 -67.37  0.001942457    2.125    0.529
        50 -13.4322     63.9049    167.1233   1.2937973238e+02   3.3062108976e+01     0.606221    0.3793457  52.14  0.001600672    1.434    0.303
        51 -10.5729    179.7563     28.1388   6.6624097846e+01   3.6677169247e+01     0.214492    0.1977866 -49.92 0.0004437766    1.163    0.140
        52 -10.9147    194.2246     26.0201   6.3733956693e+01   3.3104808174e+01    0.2661827    0.1882746 -41.29 0.0008811406    1.459    0.314
        53 -10.2077    119.3264     16.3081   7.4602408706e+01   5.3752045773e+01    0.1596225    0.1013641  26.04 0.0003714992    1.654    0.395
        54 -11.6223     26.3383    200.5625   1.3948426745e+02   3.0662933627e+01    0.5189561    0.4318795  66.27  0.004408815    1.155    0.134
        55 -12.6949     53.2515    178.2555   1.3272523528e+02   3.2082774631e+01    0.3453994    0.2918324 -34.80  0.001212506    1.682    0.406
