#   1 NUMBER                 Running object number                                     
#   2 MAG_AUTO               Kron-like elliptical aperture magnitude                    [mag]
#   3 X_IMAGE                Object position along x                                    [pixel]
#   4 Y_IMAGE                Object position along y                                    [pixel]
#   5 X_WORLD                Barycenter position along world x axis                     [deg]
#   6 Y_WORLD                Barycenter position along world y axis                     [deg]
#   7 A_WORLD                Profile RMS along major axis (world units)                 [deg]
#   8 B_WORLD                Profile RMS along minor axis (world units)                 [deg]
#   9 THETA_WORLD            Position angle (CCW/world-x)                               [deg]
#  10 FWHM_WORLD             FWHM assuming a gaussian core                              [deg]
#  11 ELONGATION             A_IMAGE/B_IMAGE                                           
#  12 ELLIPTICITY            1 - B_IMAGE/A_IMAGE                                       
         1 -10.3420    178.2498      5.9125   2.8972192812e+02   6.6850159000e+00   0.02983973   0.02068008  24.39  0.003176692    1.465    0.318
         2  -9.4275    236.3716      2.6688   2.8902569756e+02   6.3841719079e+00   0.01591693   0.01424569  85.52  0.001117434    1.201    0.167
         3  -9.1512    133.6453    248.4382   2.9169429069e+02   4.1276014241e+00   0.01255462   0.01125825 -42.69 0.0004095901    1.111    0.100
         4  -8.4101    124.7680    249.2560   2.9180239555e+02   4.1694195760e+00   0.02241282  0.007131442 -54.12  0.001438411    2.823    0.646
         5  -8.1475    125.0888    244.1391   2.9176815805e+02   4.2270351682e+00   0.01002754  0.008417647 -35.54 0.0003384706    1.225    0.184
         6 -17.6213     64.5786    243.5361   2.9246848371e+02   4.5834575859e+00    0.1823587    0.1667382  38.05  0.007243797    1.105    0.095
         7  -8.0691    168.4721    246.0447   2.9127512827e+02   3.9539264442e+00   0.01011357  0.006497053 -63.40 0.0006412687    1.556    0.357
         8  -7.1742    144.2797    215.6193   2.9137476386e+02   4.4474817660e+00  0.006983072  0.005008725  69.10 0.0007007025    1.717    0.418
         9  -8.4059    250.3672    240.8225   2.9029266392e+02   3.5400371995e+00   0.01014138  0.005588216 -51.20 0.0009510657    1.759    0.432
        10  -8.5936    116.3000    212.6988   2.9168285412e+02   4.6432724396e+00   0.01403061   0.01054052  88.31  0.001499652    1.580    0.367
        11 -10.1791     11.5881    207.1753   2.9286904300e+02   5.3115563002e+00   0.03224312   0.02483114  19.42  0.003079447    1.341    0.254
        12  -7.9131      9.2790    202.3483   2.9286722619e+02   5.3809759144e+00  0.007031582  0.004806394 -32.86 0.0003243658    1.640    0.390
        13  -8.0048     13.6523    233.4720   2.9300133288e+02   4.9938699928e+00   0.01367989  0.008484325 -13.31  0.001214369    2.267    0.559
        14 -13.9893     60.9353    232.1665   2.9244321411e+02   4.7366611204e+00    0.0189625    0.0151731  13.00  0.001408187    1.319    0.242
        15  -8.9140    138.5068    200.0680   2.9134903421e+02   4.6616158367e+00   0.01802944   0.01166482 -88.59  0.001352343    2.030    0.507
        16  -8.1077    247.3230    201.3111   2.9009150622e+02   4.0163688760e+00   0.00701464  0.004921115 -27.32 0.0007038404    1.653    0.395
        17  -9.7288    181.2156    197.2544   2.9083542629e+02   4.4469476782e+00   0.01109965    0.0107899 -61.70 0.0002340023    1.028    0.027
        18  -8.5587     13.5400    242.5054   2.9305630335e+02   4.8894669964e+00   0.01882125   0.01405245  82.34    0.0020058    1.621    0.383
        19  -8.9988     89.8475    174.8253   2.9176471995e+02   5.2364086348e+00     0.015035   0.01102132  51.67  0.001618254    1.480    0.324
        20  -9.0974     94.6505    174.1187   2.9170456180e+02   5.2168661747e+00   0.01937424   0.01168933  14.76  0.001857491    1.888    0.470
        21 -10.8577     95.6333    181.3462   2.9173627559e+02   5.1271750860e+00   0.03482307   0.03135486 -40.96  0.004230362    1.109    0.098
        22  -9.5012     94.5782    189.2583   2.9179579659e+02   5.0412993922e+00   0.02623505   0.01333485  40.08   0.00193641    1.980    0.495
        23  -8.0750    131.0197    192.9616   2.9139370229e+02   4.7875314793e+00  0.009783056  0.009453597 -42.45  0.000306382    1.023    0.022
        24  -9.5483    100.4852    194.3743   2.9175755980e+02   4.9476934716e+00   0.02663697   0.01327561  50.93   0.00160405    2.475    0.596
        25  -7.4381    168.0167    229.9652   2.9118440867e+02   4.1433788771e+00  0.008135712  0.007135742 -61.07 0.0003624157    1.132    0.116
        26  -9.6695     23.3055    186.9338   2.9261208659e+02   5.4794858248e+00   0.01831806   0.01505632  48.55  0.002113799    1.269    0.212
        27  -8.5980    116.8401    184.7640   2.9150977341e+02   4.9648391503e+00   0.01271894  0.008427875  75.78 0.0008966193    2.047    0.512
        28  -8.9260    119.2710    182.5781   2.9146841373e+02   4.9761829680e+00   0.02410998    0.0106807  56.68  0.001639836    3.961    0.748
        29  -7.8265    181.8530    182.7677   2.9074133990e+02   4.6115411283e+00  0.009232731  0.007616374  60.50 0.0004149348    1.327    0.246
        30  -9.3581      3.8913    180.8742   2.9280221846e+02   5.6616907018e+00   0.02300221   0.01471278  23.73  0.002344518    1.600    0.375
        31  -8.5216     51.2800    177.9079   2.9223237923e+02   5.4232157933e+00   0.01558532  0.008363148  37.35  0.000819531    1.838    0.456
        32  -8.6450     46.3451    176.1160   2.9227919040e+02   5.4725063908e+00   0.02260703   0.01202332 -75.38  0.001966388    2.324    0.570
        33 -10.1719     55.8317    169.2959   2.9212797940e+02   5.4970845477e+00   0.02905032   0.01742521  -1.88  0.002597461    2.357    0.576
        34  -9.5158     56.1001    163.3680   2.9208948129e+02   5.5644507845e+00   0.02061007   0.01250638  14.23   0.00198172    1.885    0.470
        35  -8.3598     34.8088    180.4480   2.9243942534e+02   5.4886357219e+00   0.01313436    0.0075266 -36.91 0.0009107613    2.009    0.502
        36  -9.8460     39.9910    178.5263   2.9236759310e+02   5.4811146125e+00   0.02960932   0.01790819   2.56  0.001686831    2.209    0.547
        37 -10.8877     43.4416    167.7540   2.9226315822e+02   5.5864678104e+00   0.04618743   0.01994325  32.95  0.003640138    2.210    0.548
        38  -8.4366     10.4679    175.4811   2.9269347071e+02   5.6865612061e+00   0.01334577  0.008471829 -17.08  0.001158056    2.123    0.529
        39  -8.6947     77.3417    174.4567   2.9190818313e+02   5.3129323995e+00   0.01177087   0.01034265 -45.79 0.0006471037    1.128    0.114
        40  -8.6115     36.1261    173.1003   2.9238028285e+02   5.5664783020e+00   0.01368462  0.009361805 -25.11  0.001380528    1.749    0.428
        41  -8.4260    196.1050    170.3150   2.9050104720e+02   4.6735283770e+00    0.0119174  0.008778183 -47.58  0.001296283    1.346    0.257
        42  -8.7742    100.9540    170.6819   2.9161062030e+02   5.2203772423e+00   0.01301551   0.01123985 -60.70 0.0006877557    1.148    0.129
        43  -8.3034    102.6265    166.1300   2.9156394352e+02   5.2636134666e+00   0.01652355   0.00901473 -46.31   0.00142119    1.857    0.461
        44 -10.1974     15.4750    167.6981   2.9258875520e+02   5.7482388050e+00   0.03186503   0.02008402 -86.17  0.002519526    2.074    0.518
        45  -9.3156    151.8020    217.7181   2.9129980486e+02   4.3795547241e+00   0.02601964   0.01541089  -8.32  0.002253848    2.539    0.606
        46  -9.5474    157.6066    221.4659   2.9125468518e+02   4.3024039796e+00   0.02432141  0.008334746 -58.36  0.001630348    2.677    0.627
        47  -8.1471    160.6592    219.3156   2.9120634221e+02   4.3097164444e+00  0.009498788  0.006993951 -86.98 0.0009948867    1.598    0.374
        48  -7.8389    118.4431    166.4590   2.9138171727e+02   5.1683078647e+00   0.01263188  0.005220221  38.40  0.001033718    2.370    0.578
        49  -7.6457     13.5400    239.4483   2.9303814438e+02   4.9250175533e+00  0.006638216  0.006300242 -29.18 2.541338e-05    1.058    0.055
        50  -9.7016     72.9376    161.5968   2.9188271542e+02   5.4878553464e+00   0.02089611  0.007396786  29.62  0.001618729    2.686    0.628
        51  -8.3631     35.3838    169.1223   2.9236521854e+02   5.6170061844e+00    0.0119341  0.009249437  22.66 0.0006289253    1.313    0.238
        52  -8.7057     49.6267    158.4346   2.9213548179e+02   5.6591450018e+00   0.01238509   0.01010974  33.98 0.0008768662    1.226    0.184
        53  -8.7646    106.7290    157.3038   2.9146340846e+02   5.3424693684e+00   0.01937822   0.01158591  16.69  0.001860463    1.863    0.463
        54  -9.2214     67.0214    157.1559   2.9192513527e+02   5.5736360161e+00  0.009861364  0.009438347  -3.74 0.0005103619    1.058    0.055
        55  -9.5859     35.6556    156.7238   2.9228811242e+02   5.7595867938e+00   0.01588972   0.01097798   0.11  0.001398976    1.760    0.432
        56  -9.5148     56.0886    155.9438   2.9204530650e+02   5.6508228057e+00   0.02354783  0.009461035  19.90  0.001779673    2.984    0.665
        57  -9.5823     96.4929    151.5790   2.9154842593e+02   5.4681935574e+00   0.01569568   0.01314309 -18.32 0.0006926539    1.295    0.228
        58  -8.2612      9.7159    153.0282   2.9256846906e+02   5.9519507896e+00  0.009410449  0.008408524 -58.46 0.0004288285    1.106    0.096
        59  -7.4578      1.5938    152.7508   2.9266151101e+02   6.0019102999e+00  0.009224925  0.006445777 -77.91 0.0008882182    1.609    0.379
        60  -9.2973    111.1416    150.9311   2.9137390794e+02   5.3910040181e+00   0.02255247   0.01785752  24.49  0.002564426    1.276    0.216
        61  -9.1762     40.3892    149.9604   2.9219258337e+02   5.8109258709e+00   0.01375185  0.007456391 -48.84   0.00128559    1.819    0.450
        62 -10.9412     68.2123    143.8985   2.9183207505e+02   5.7208578580e+00   0.03894581   0.02087284  62.13  0.003153113    2.884    0.653
        63  -7.7329    134.1712    147.8085   2.9108701568e+02   5.2939888062e+00  0.009571835  0.007663087 -31.99  0.001071462    1.324    0.244
        64 -10.0784     56.5556    145.8552   2.9197963022e+02   5.7654006352e+00   0.02552113   0.01503852  17.44  0.001937137    1.878    0.468
        65  -8.2161      6.6022    148.2049   2.9257602327e+02   6.0259456248e+00  0.009393695  0.005791542 -50.40 0.0003459586    1.585    0.369
        66  -8.2823     11.0854    147.0833   2.9251706346e+02   6.0131832519e+00   0.01100111  0.007746364  60.68  0.001129375    1.679    0.404
        67  -7.1474    195.7297    146.3228   2.9036167089e+02   4.9543364056e+00  0.006694424  0.005042893  67.62 0.0004554509    1.570    0.363
        68  -8.9345     90.2354    145.4414   2.9158464350e+02   5.5756964552e+00    0.0108016  0.009693027   7.23 0.0004244459    1.151    0.131
        69  -9.1474    126.6688    143.3129   2.9114748274e+02   5.3896638905e+00   0.01189027   0.01033805 -30.16 0.0001971533    1.190    0.160
        70  -8.6566    106.8347    137.2705   2.9134237184e+02   5.5746613220e+00   0.01177086   0.01062988  41.48 0.0005417144    1.124    0.110
        71  -9.3789     69.5207    134.6082   2.9176131104e+02   5.8212784049e+00   0.01236339   0.01040036  15.16 0.0008768401    1.228    0.186
        72  -7.9879    191.5276    133.9132   2.9033616664e+02   5.1228289755e+00  0.009248277  0.008784721  14.80  0.000396393    1.062    0.058
        73 -10.7433     62.9620    133.1548   2.9182908280e+02   5.8760402061e+00   0.02837482   0.01504582  42.17   0.00262631    1.945    0.486
        74  -7.1968    176.9352    130.0179   2.9048261584e+02   5.2527497781e+00  0.007515729  0.007124869  22.52            0    1.061    0.058
        75  -9.1200     75.3138    137.3580   2.9171021989e+02   5.7558621859e+00   0.01369163    0.0094674 -26.45  0.001265733    1.701    0.412
        76  -8.7059    124.0068    128.0897   2.9108736698e+02   5.5819430389e+00  0.009469411  0.009374839 -27.60 0.0003370282    1.004    0.004
        77  -9.7539    237.5479    125.8252   2.8975249118e+02   4.9493662754e+00   0.01284278   0.01135481  31.92  0.000329506    1.135    0.119
        78  -9.6160     49.6050    126.5482   2.9194534179e+02   6.0299060378e+00   0.01975892   0.01024196  38.35  0.001495774    1.913    0.477
        79  -7.2310    109.6351    124.7623   2.9123489362e+02   5.7037911504e+00  0.006729112  0.004967751 -16.74 0.0006917182    1.599    0.374
        80  -8.1485     68.3272    125.3238   2.9171972821e+02   5.9360689004e+00  0.007107495  0.004892086 -28.02 0.0007049092    1.693    0.409
        81  -7.2185    166.7072    117.6799   2.9052770887e+02   5.4553668090e+00  0.006939444  0.004888247 -30.12 0.0003976623    1.608    0.378
        82  -8.3847     74.7432    126.0724   2.9164940506e+02   5.8903113737e+00   0.01211566  0.008663244  39.67  0.001299218    1.411    0.291
        83  -7.5426    184.0465    111.4829   2.9028870671e+02   5.4266913909e+00  0.009528659  0.006512236  26.58 0.0003374759    1.470    0.320
        84  -8.8320    240.5102    106.4679   2.8960184362e+02   5.1567561487e+00   0.01248236  0.008322791  39.58 0.0008050563    1.510    0.338
        85  -7.3539     26.5483    109.6074   2.9211305788e+02   6.3597205120e+00  0.006490673  0.006322823  45.64 2.238425e-05    1.045    0.043
        86  -7.3943    188.4345    106.5142   2.9020782742e+02   5.4588947746e+00  0.006554008  0.006394456 -41.33 0.0001258057    1.013    0.013
        87  -8.1572     23.7493     94.8982   2.9205782416e+02   6.5467614132e+00   0.01016294   0.00883912  26.12 0.0004347887    1.156    0.135
        88  -7.0576    208.4739     85.4826   2.8984837497e+02   5.5865470282e+00  0.006597492  0.006393869 -31.56 0.0008097094    1.026    0.026
        89  -7.8335    154.4404     67.5027   2.9036954676e+02   6.1090548525e+00  0.006522526  0.006434851 -51.44 4.467299e-05    1.011    0.011
        90  -8.6922    191.8087     63.7453   2.8991175372e+02   5.9356186217e+00   0.01031909  0.009897932 -19.02 0.0004153333    1.050    0.048
        91  -8.9083    152.7644     57.0863   2.9032653212e+02   6.2396556013e+00   0.01604328   0.01381062 -22.10  0.001888186    1.232    0.188
        92  -8.5072    132.1527     52.3535   2.9053836349e+02   6.4141444634e+00   0.01025476  0.008713599 -48.43 0.0003528773    1.162    0.140
        93  -9.7156    246.9439     50.2542   2.8918917091e+02   5.7712199582e+00   0.01403815   0.01209644  -4.95 0.0005244717    1.245    0.197
        94  -8.5788    250.6301     46.2336   2.8912212744e+02   5.7963453613e+00   0.01328148  0.006399963 -60.62 0.0007038168    2.016    0.504
        95 -10.4591    163.9601     40.1764   2.9009448427e+02   6.3708241597e+00    0.0294393   0.02222497  -4.93  0.003190222    1.542    0.352
        96  -8.4224    249.2266     39.2101   2.8909618363e+02   5.8859201227e+00   0.01106412  0.004296073  37.01 0.0008799382    2.468    0.595
        97  -7.5989    188.1487     37.1367   2.8979443543e+02   6.2655066234e+00  0.008782096  0.007594761  69.48  0.000322893    1.266    0.210
        98  -9.2422    169.1632     33.3750   2.8999297764e+02   6.4194775875e+00   0.01476848   0.01117648 -31.75 0.0007749051    1.433    0.302
        99 -10.2076    141.9779     28.7371   2.9028196066e+02   6.6311208160e+00   0.01126876   0.01073432 -44.35 0.0002278751    1.038    0.037
       100  -8.8398    245.0000    248.0593   2.9039824598e+02   3.4871547616e+00   0.01887089  0.003739701 -62.76  0.001059438    5.008    0.800
