#   1 NUMBER                 Running object number                                     
#   2 MAG_AUTO               Kron-like elliptical aperture magnitude                    [mag]
#   3 X_IMAGE                Object position along x                                    [pixel]
#   4 Y_IMAGE                Object position along y                                    [pixel]
#   5 X_WORLD                Barycenter position along world x axis                     [deg]
#   6 Y_WORLD                Barycenter position along world y axis                     [deg]
#   7 A_WORLD                Profile RMS along major axis (world units)                 [deg]
#   8 B_WORLD                Profile RMS along minor axis (world units)                 [deg]
#   9 THETA_WORLD            Position angle (CCW/world-x)                               [deg]
#  10 FWHM_WORLD             FWHM assuming a gaussian core                              [deg]
#  11 ELONGATION             A_IMAGE/B_IMAGE                                           
#  12 ELLIPTICITY            1 - B_IMAGE/A_IMAGE                                       
         1 -11.5043     81.8450     68.6079   9.5912406251e+01   5.2620724226e+01    0.5886812    0.1462559 -45.07   0.00178897    3.888    0.743
         2 -10.9178    140.7529     81.2410   8.2904352152e+01   3.8322738962e+01    0.2485461    0.1279332 -28.49 0.0008980685    2.461    0.594
         3 -10.6928    144.9812    232.4987   1.1026017283e+02   1.0635682403e+01    0.1615439   0.07367178  56.29 0.0008086583    2.417    0.586
         4 -10.7548     84.3238    227.6599   1.2032067648e+02   2.0082536262e+01     0.116083   0.06150631  63.83 0.0007050994    1.725    0.420
         5 -11.0140    148.8419    223.0235   1.0850005999e+02   1.1328745416e+01    0.1761731     0.122448  77.17  0.001082347    2.011    0.503
         6 -11.1822    205.0000    217.9721   9.8061376668e+01   2.9387932389e+00    0.1562686   0.06630076 -36.22  0.000797808    2.910    0.656
         7 -10.8435    143.7157    216.0502   1.0857966579e+02   1.3132767072e+01    0.1591636    0.1387449  50.55  0.001159074    1.117    0.104
         8 -10.6095    112.3041    216.6710   1.1435850245e+02   1.7884984242e+01    0.1181112   0.07217269  65.22 0.0004335655    1.651    0.394
         9 -11.3368    185.9962    214.5101   1.0082772209e+02   6.4483814281e+00    0.1888939    0.1709398 -85.67 0.0009823416    1.572    0.364
        10 -11.1264     76.3906    213.1975   1.2056248579e+02   2.3473660723e+01    0.1497049    0.0900254  88.18 0.0009549379    1.747    0.428
        11 -11.3820    218.2488    211.2547   9.4819526651e+01   1.5692355625e+00    0.1559589   0.09350446 -44.84 0.0008950876    2.433    0.589
        12 -10.6196    193.3123    210.6655   9.8990053114e+01   5.7221651948e+00    0.1113017   0.08807548  64.38 0.0005679558    1.683    0.406
        13 -10.8893    177.0000    209.9800   1.0177293258e+02   8.5291155058e+00    0.1645776   0.07006565 -42.82 0.0008022771    2.941    0.660
        14 -11.8087    116.2406    209.2341   1.1284081969e+02   1.8477310504e+01    0.2602598    0.1880978 -77.42  0.001723383    1.625    0.384
        15 -11.2856     99.3918    206.1752   1.1567186754e+02   2.1489153083e+01    0.1539773    0.1003707 -87.09 0.0009515216    1.754    0.430
        16 -12.5071    186.1271    203.8328   9.9236110333e+01   7.8094262229e+00    0.2766321    0.2052991 -46.09    0.0016486    1.729    0.422
        17 -11.3733    198.8204    204.1413   9.7034997631e+01   5.6180581622e+00    0.1797289    0.1521974  46.92 0.0009489085    1.270    0.213
        18 -12.9270    164.6503    201.2127   1.0276432176e+02   1.1840001710e+01    0.4735544    0.2936727 -50.05  0.002502003    2.026    0.506
        19 -11.8568    162.3236    193.2441   1.0202669744e+02   1.3427954902e+01    0.3328668    0.2475613 -61.06  0.001733344    1.747    0.428
        20 -11.2809    148.7232    197.7189   1.0526266770e+02   1.5075786923e+01    0.2263308    0.1488693 -81.99  0.001175781    2.531    0.605
        21 -12.0756    123.9416    197.1482   1.0995347324e+02   1.9258784106e+01    0.2693874    0.1714159 -75.14  0.001529582    2.039    0.510
        22 -10.5686    203.4693    197.5079   9.5163322935e+01   5.6656412263e+00    0.1234817    0.1006751  31.77 6.759931e-05    1.042    0.040
        23 -11.4785    112.4022    197.2005   1.1220007911e+02   2.1066835936e+01    0.1586894    0.1083046 -82.81 0.0009522782    1.735    0.424
        24 -10.5656    193.4073    196.1940   9.6738734435e+01   7.5740429633e+00    0.1498341    0.1194219 -50.70 0.0009464679    1.676    0.403
        25 -11.1485    209.3985    195.1671   9.3740438889e+01   4.9434856730e+00    0.1520129    0.1159107 -43.74 0.0009506437    1.723    0.419
        26 -11.0240    186.4753    193.0296   9.7486673075e+01   9.2172342871e+00    0.1703183    0.1251508 -37.05  0.001040158    1.617    0.381
        27 -10.9358    246.3306    192.6562   8.7135714226e+01  -9.1030124254e-01    0.1009612   0.09641162  77.32 0.0007050743    1.753    0.429
        28 -10.6740     77.6606    192.3283   1.1847340458e+02   2.6969958780e+01    0.1265435   0.07037395  65.92 0.0007051705    1.735    0.424
        29 -11.6094    172.3437    190.4656   9.9702838535e+01   1.2083559409e+01    0.2166005      0.16525 -48.29  0.001088947    1.602    0.376
        30 -10.2215    179.4905    190.5026   9.8369832543e+01   1.0810385668e+01    0.1277157    0.1062151  37.71 -1.47393e-05    1.014    0.014
        31 -11.5904    138.9735    188.7317   1.0588776166e+02   1.8181080566e+01     0.322925    0.1703683 -62.47  0.001581987    2.555    0.609
        32 -10.5911    192.5852    187.7724   9.5504830808e+01   8.8640921960e+00    0.1570545    0.1220209 -50.63 0.0009496612    1.685    0.407
        33 -11.1685    129.0896    187.6626   1.0769892693e+02   2.0026112441e+01     0.209205    0.1681981 -84.74  0.001155594    1.417    0.294
        34 -10.8920    177.4615    197.9578   9.9913857065e+01   1.0102022291e+01    0.1495765    0.1088497 -79.11 0.0007670006    2.419    0.587
        35 -10.8092    217.5169    187.4911   9.1021481689e+01   4.5006198378e+00    0.1257687    0.1024203  24.85 0.0008103701    1.009    0.009
        36 -11.3217    165.0965    186.1143   1.0039543726e+02   1.4034197962e+01    0.2538311    0.1887019 -53.92  0.001248809    1.654    0.396
        37 -11.7078     88.4243    198.1391   1.1694978873e+02   2.4443747651e+01    0.2521506    0.1070993 -76.98  0.001144793    3.311    0.698
        38 -12.3375    120.1209    183.5726   1.0894817461e+02   2.2222201007e+01    0.5240792    0.1868373 -61.96  0.002055661    3.843    0.740
        39 -12.0566     94.9853    184.5680   1.1418979225e+02   2.5957594475e+01    0.4471472    0.1839809 -65.63  0.002108347    2.742    0.635
        40 -11.3737    203.9877    184.0479   9.2802037541e+01   7.3328424221e+00    0.2394216    0.1820378 -46.06  0.001446374    1.693    0.409
        41 -12.0266    174.2624    182.6068   9.8067339795e+01   1.2921225656e+01    0.3224946    0.2327284 -46.31  0.001648534    1.653    0.395
        42 -10.3951    224.6820    183.3656   8.9060437802e+01   3.7671157031e+00    0.1117036    0.1006444  86.95 0.0007039295    1.778    0.437
        43 -11.9992    244.0070    181.4972   8.5511294137e+01   6.9888876648e-01    0.1909608    0.1472776  -9.45  0.001124541    1.242    0.195
        44 -12.1427    147.3192    179.3431   1.0282655028e+02   1.8306043084e+01    0.3255062    0.1809843 -51.19  0.001659686    2.099    0.524
        45 -11.6672    137.9579    178.2967   1.0455946575e+02   2.0135590821e+01    0.2710388    0.1945653 -54.82  0.001576817    1.599    0.375
        46 -11.1037    192.2981    177.1962   9.3730757145e+01   1.0415665045e+01     0.267303    0.1582941 -41.47  0.001398319    1.966    0.491
        47 -11.4830    183.1184    175.0822   9.5085720528e+01   1.2433591905e+01    0.2829194    0.1980574 -38.01   0.00159641    1.633    0.388
        48 -11.4297    105.4822    174.4970   1.1076274563e+02   2.6244731443e+01    0.2186288     0.117313 -75.21  0.001038576    2.434    0.589
        49 -11.3391    177.0661    170.5279   9.5441548322e+01   1.4274402345e+01    0.3140284    0.1908303 -53.58  0.001557597    2.154    0.536
        50 -10.8756    134.4932    170.5113   1.0407030918e+02   2.2127073817e+01    0.2520001    0.1310025 -52.99  0.001212292    2.171    0.539
        51 -10.7939    205.9196    168.9499   8.9708496970e+01   9.0566128655e+00    0.1893068    0.1654721  89.66  0.001127584    1.685    0.407
        52 -10.8165    167.7866    168.1228   9.6842249612e+01   1.6418531138e+01    0.2748005    0.1631748 -48.02  0.001376877    1.958    0.489
        53 -10.5663    149.4741    168.9715   1.0070618513e+02   1.9697900398e+01    0.1774483    0.1158531 -79.32 0.0008099138    2.545    0.607
        54 -12.3085    121.0496    167.7215   1.0648531481e+02   2.4975734231e+01    0.3473192    0.1924489 -60.25  0.001733092    2.031    0.508
        55 -11.2310     88.4184    167.7211   1.1353700727e+02   3.0156526180e+01    0.2275394    0.1163263 -70.56   0.00113379    2.120    0.528
        56 -12.6028     77.2946    175.4831   1.1682238758e+02   3.0202816044e+01    0.3708594    0.1849574  61.99  0.001880817    2.068    0.516
        57 -10.5821    111.4810    166.9741   1.0843335668e+02   2.6717872625e+01    0.1805776    0.1067559 -88.90 0.0008102709    2.573    0.611
        58 -11.4297    192.2228    164.2503   9.1361828042e+01   1.2350358362e+01    0.4444033    0.1661371 -40.85  0.001782494    2.988    0.665
        59 -12.2491    138.9598    163.4390   1.0197400398e+02   2.2613760628e+01    0.4556986    0.2242945 -59.88  0.001974573    2.633    0.620
        60 -11.2796     98.6109    165.2153   1.1098527551e+02   2.9116037895e+01    0.1721721    0.1146349 -53.78 0.0009607325    1.681    0.405
        61 -11.8665    213.0612    163.2010   8.7313167755e+01   8.5169130001e+00    0.2204283    0.2048681 -36.49  0.001406558    1.313    0.238
        62 -11.9267    205.1065    161.7928   8.8480399247e+01   1.0233939164e+01    0.2841538    0.1887095 -25.25  0.001512888    1.647    0.393
        63 -10.8008    159.4117    162.7352   9.7572847170e+01   1.8918755191e+01    0.2466127     0.132859 -50.57  0.001145498    2.164    0.538
        64 -11.2929    177.4873    159.0223   9.3224538906e+01   1.6042512449e+01    0.3392184    0.1364682 -41.49  0.001370554    2.761    0.638
        65 -10.9019    151.4873    159.9984   9.8726495688e+01   2.0906172860e+01    0.1971388    0.1362375 -50.31   0.00103878    1.621    0.383
        66 -11.7845     92.4391    158.6050   1.1144157667e+02   3.1387664108e+01    0.3321771    0.1542157 -60.94  0.001574599    2.200    0.546
        67 -11.6305    196.4063    156.5840   8.9073727360e+01   1.2702691020e+01    0.3502677    0.2457286 -37.13  0.001436547    1.559    0.358
        68 -11.5172    105.0454    156.5728   1.0830540421e+02   2.9817591708e+01    0.3831108    0.1918063 -60.11  0.001818449    2.107    0.525
        69 -10.5595    188.4378    156.9735   9.0676972874e+01   1.4214937676e+01    0.1976975    0.1344853 -37.06  0.001030988    1.610    0.379
        70 -11.1067    167.5845    155.5459   9.4555502836e+01   1.8572053937e+01    0.3684399    0.1362113 -43.13  0.001408768    2.995    0.666
        71 -11.5336     78.9910    162.6540   1.1497288180e+02   3.2521729070e+01    0.3554244    0.1621767 -87.51      0.00135    3.849    0.740
        72 -11.6307    119.0760    154.2437   1.0477668519e+02   2.7918253408e+01    0.3776301    0.1883582 -68.56   0.00154631    2.861    0.650
        73 -11.4434    204.5257    154.0329   8.7039581933e+01   1.1486484895e+01     0.196715    0.1323607 -31.20  0.000862721    1.581    0.367
        74 -10.6851    144.4083    154.2040   9.9184066138e+01   2.3304097691e+01    0.1876767    0.1307808 -63.97 0.0009532297    1.726    0.421
        75 -11.9388     81.1491    153.0405   1.1324922985e+02   3.4196042002e+01    0.3075812    0.1753626 -67.10  0.001628833    1.733    0.423
        76 -11.2344    132.7935    151.3247   1.0120699801e+02   2.6025278077e+01    0.3946522    0.1862439 -61.85  0.001565878    2.893    0.654
        77 -11.3197     67.3360    152.8466   1.1640403294e+02   3.6119431098e+01    0.2458955    0.1067295 -76.65  0.001087749    2.606    0.616
        78 -12.4158    249.1314    149.7150   7.8485780703e+01   3.5891820390e+00    0.3935074   0.06996237 -32.62  0.001194458    5.111    0.804
        79 -11.6307    190.0459    148.8411   8.8724181341e+01   1.5186305873e+01    0.3773369     0.223556 -33.28  0.001806951    1.842    0.457
        80 -10.4333    182.0000    149.9857   9.0541891920e+01   1.6629206861e+01    0.2172382   0.08003242 -39.85  0.000804164    2.954    0.662
        81 -11.4662     98.2669    148.5901   1.0862842677e+02   3.2539776143e+01    0.3388639   0.09499064 -52.88  0.001201119    3.633    0.725
        82 -11.8440    200.1527    146.9627   8.6396587583e+01   1.3432557560e+01    0.3731694    0.2071664 -29.00  0.001717397    1.997    0.499
        83 -11.8909    148.2982    143.1395   9.6223769078e+01   2.4622362002e+01    0.4954338    0.2420509 -60.14  0.001877557    3.031    0.670
        84 -12.3769    106.3552    142.6310   1.0575040758e+02   3.2455296077e+01    0.5967454    0.2388887 -59.95  0.002380759    2.732    0.634
        85 -11.7412     54.8429    143.7247   1.1823414988e+02   3.9608755012e+01    0.4200363    0.1538625 -73.65  0.001794826    2.786    0.641
        86 -11.8439    124.3372    141.4177   1.0131233273e+02   2.9539208558e+01    0.4720636    0.2359999 -66.96  0.001818977    2.989    0.665
        87 -11.5925     87.5840    141.5169   1.1006135466e+02   3.5685669002e+01    0.4507754    0.1108053 -57.68  0.001541555    3.820    0.738
        88 -10.0462    215.3373    147.6742   8.3754613715e+01   1.0281172393e+01    0.1284952    0.1105955 -83.75 0.0006572241    1.723    0.420
        89 -10.5888    181.7014    140.5153   8.8626393854e+01   1.8272123104e+01     0.245741    0.1290221 -39.00  0.001071052    2.036    0.509
        90 -11.9731    234.2513    146.6620   8.0267896369e+01   6.7427916958e+00    0.2440883    0.1499154 -36.92  0.001257844    1.748    0.428
        91 -11.2724     68.3176    137.4753   1.1416538388e+02   3.9280737715e+01    0.4114893    0.1195246 -72.99  0.001093191    6.711    0.851
        92 -10.4114    219.7498    136.9934   8.0672686741e+01   1.0944040774e+01    0.1817838    0.1141409 -29.53 0.0008949801    1.608    0.378
        93 -11.1419    197.5611    135.2130   8.4352686213e+01   1.5817423755e+01    0.4822712     0.140796 -35.34  0.001562025    3.681    0.728
        94 -10.4052    172.0000    136.9777   8.9853704950e+01   2.0910385014e+01    0.2298134   0.08248779 -40.98 0.0008072617    2.976    0.664
        95 -12.0508    249.0000    135.4847   7.5489415272e+01   5.4098161069e+00    0.2871139   0.06946921 -30.19 0.0009377658    3.959    0.747
        96 -12.3309     82.8795    128.4304   1.0911019420e+02   3.9226079274e+01    0.7979357    0.1745557 -59.66   0.00247324    4.410    0.773
        97 -11.1334    142.6395    129.9789   9.4777219929e+01   2.8290182543e+01    0.3308325    0.1372305 -46.23  0.001259191    2.534    0.605
        98 -11.7248    131.4350    128.8295   9.7148609768e+01   3.0744894810e+01    0.4928128     0.171923 -50.87  0.001725743    3.058    0.673
        99 -11.1068    152.5523    127.3734   9.1954988513e+01   2.6757515707e+01    0.4110197    0.1363013 -49.83  0.001311709    3.587    0.721
       100 -11.4307     72.4340    128.1617   1.1174463696e+02   4.0773718386e+01    0.3111963    0.1219852 -72.60  0.001149434    3.290    0.696
       101 -11.3953    117.0802    123.7243   9.9562699587e+01   3.4532068445e+01    0.3807091    0.1874803 -60.20  0.001540525    2.352    0.575
       102 -10.9481    179.8420    122.8908   8.5051438516e+01   2.1703386979e+01    0.3717391    0.1742685 -29.31  0.001377998    2.666    0.625
       103 -11.0858    112.3914    132.1973   1.0240896876e+02   3.3596963935e+01    0.2000837    0.1285364 -67.90 0.0009563108    1.749    0.428
       104 -11.7426     58.4233    122.7180   1.1456102937e+02   4.3794240319e+01    0.2536078     0.113965 -72.14  0.001144358    2.199    0.545
       105 -11.8426     42.7135    121.1650   1.1849048326e+02   4.5909261576e+01    0.4251855    0.1571447 -82.78  0.001548814    3.813    0.738
       106 -10.4369    158.0000    119.9811   8.9044253238e+01   2.7007244764e+01    0.2423613     0.084704 -42.17 0.0008079087    2.980    0.664
       107 -11.9370    140.9167    116.5994   9.2181068546e+01   3.1298323675e+01     0.574589    0.1753619 -49.94  0.001752638    3.754    0.734
       108 -12.5446     98.1516    124.8672   1.0456331286e+02   3.7609432189e+01    0.7353463    0.2398998 -59.46  0.002535123    3.375    0.704
       109 -11.8959    108.5157    111.5200   9.9121468138e+01   3.8709003035e+01     0.669179    0.2394199 -55.88  0.002320261    3.045    0.672
       110 -12.0620     92.0144    108.7844   1.0295555907e+02   4.2153918865e+01    0.7914152     0.205185 -55.71  0.002493027    3.786    0.736
       111 -11.7788     78.1827    110.9102   1.0719928943e+02   4.3815462168e+01    0.5497603    0.2377087 -73.19  0.001903953    3.639    0.725
       112 -11.4421    121.6394    110.9891   9.5606413663e+01   3.6349536268e+01    0.3414491    0.1357411 -48.51  0.001257574    2.527    0.604
       113 -10.4831    174.3888    109.7893   8.3003920039e+01   2.5245233354e+01    0.2147109      0.14331 -25.08 0.0009538842    1.711    0.416
       114 -11.3981     13.7495    109.2127   1.2485998142e+02   5.1102425387e+01    0.2968148    0.1176513 -82.69  0.001442369    2.244    0.554
       115 -11.1923     66.0000    108.0367   1.1007212482e+02   4.6149471212e+01    0.3749662   0.06790747 -61.16  0.001060224    5.015    0.801
       116 -10.5010    192.6360    129.1652   8.3943006078e+01   1.7850499342e+01    0.2047537    0.1343892 -23.03 0.0009507114    1.726    0.421
       117 -11.1666    149.7156    100.5647   8.6118490238e+01   3.2559676026e+01    0.4116237    0.1236043 -46.35   0.00122079    3.610    0.723
       118 -11.5565     22.4020    102.2203   1.2167092110e+02   5.2012094582e+01    0.1761578   0.09388644 -85.37 0.0009529586    1.716    0.417
       119 -11.2217    128.5204    100.2255   9.1217200006e+01   3.7206534260e+01    0.3783883    0.1441908 -42.76  0.001317451    2.699    0.629
       120 -11.3951     43.7553    100.5059   1.1520823526e+02   5.0466016506e+01    0.3084947    0.1363763  80.59 0.0009021371    6.190    0.838
       121 -12.1451    107.4985     97.5021   9.6092974476e+01   4.1922397114e+01    0.4009244    0.2051336 -54.98  0.001669283    2.003    0.501
       122 -11.3907     94.8482     94.0994   9.8805118426e+01   4.4924058487e+01    0.5135614    0.1722993 -44.87  0.001742545    3.150    0.683
       123 -11.4650     62.6032     94.4195   1.0844159115e+02   4.9680105138e+01    0.2690631    0.1171541 -74.57 0.0009584237    3.433    0.709
       124 -11.7462    124.3301     87.5980   8.8926218368e+01   4.0670127853e+01    0.6062838    0.2771172 -34.42  0.002155356    2.715    0.632
       125 -11.9732     85.7298     83.9257   9.8936782357e+01   4.8680277140e+01    0.5528449    0.1427139 -48.76  0.001751178    3.551    0.718
       126 -12.0253    104.1893     80.3013   9.2445803122e+01   4.6209904452e+01     0.570841     0.207214 -47.19  0.002025315    2.646    0.622
       127 -11.3398    127.7757     71.5529   8.3272048034e+01   4.3109149287e+01    0.3779005    0.2153877 -21.40  0.001397092    2.617    0.618
       128 -11.7692     62.4283     70.8543   1.0302400918e+02   5.4990341256e+01     0.338767   0.08984374 -48.59  0.001153278    3.316    0.698
       129 -11.7650    160.3868    239.1998   1.0838687359e+02   7.4223546119e+00    0.2055408    0.1449427  63.52   0.00134243    1.650    0.394
       130 -11.0715    100.4131     55.3987   8.5737686522e+01   5.1958474225e+01    0.3635552    0.1338742 -37.13  0.001255005    2.830    0.647
       131 -11.2788     94.3630     68.4464   9.1883912721e+01   5.0503140669e+01    0.4706656    0.1293238 -50.13  0.001409293    3.828    0.739
