#   1 NUMBER                 Running object number                                     
#   2 MAG_AUTO               Kron-like elliptical aperture magnitude                    [mag]
#   3 X_IMAGE                Object position along x                                    [pixel]
#   4 Y_IMAGE                Object position along y                                    [pixel]
#   5 X_WORLD                Barycenter position along world x axis                     [deg]
#   6 Y_WORLD                Barycenter position along world y axis                     [deg]
#   7 A_WORLD                Profile RMS along major axis (world units)                 [deg]
#   8 B_WORLD                Profile RMS along minor axis (world units)                 [deg]
#   9 THETA_WORLD            Position angle (CCW/world-x)                               [deg]
#  10 FWHM_WORLD             FWHM assuming a gaussian core                              [deg]
#  11 ELONGATION             A_IMAGE/B_IMAGE                                           
#  12 ELLIPTICITY            1 - B_IMAGE/A_IMAGE                                       
         1 -14.5333    195.7110     15.1582   6.8901955798e+01   3.3836617018e+01     3.024925     1.911968  24.55   0.01005568    1.916    0.478
         2 -10.7097     32.6319      3.6224   1.0570165900e+02   7.0954568241e+01    0.3073505   0.09629929 -47.62  0.001260579    2.998    0.666
         3 -13.6586    200.7392      8.0038   6.6027878507e+01   3.3220469403e+01     1.576145    0.7104417  51.37  0.001575684    2.205    0.547
         4 -10.0071    228.7602    228.4336   1.1229145411e+02   7.0374904242e-01    0.2164418    0.1569874 -57.73  0.001381049    2.960    0.662
         5 -11.0458    249.1558    247.3307   1.1190965359e+02  -3.6069609340e+00    0.3429798    0.1335392 -20.21   0.00208904    3.379    0.704
         6 -10.9435    163.2263    249.0232   1.2435594599e+02   8.2384591482e+00    0.2067845    0.1676613  51.55  0.001075108    1.199    0.166
         7 -11.2893    143.5065    249.5145   1.2731584871e+02   1.0935465546e+01    0.2125947    0.1366907  45.17  0.001675626    1.114    0.102
         8 -11.3516    124.8246    250.1554   1.3013643033e+02   1.3401859502e+01    0.3768936   0.09942183  41.75  0.001878673    2.925    0.658
         9 -11.8164    111.3283    249.7548   1.3209973073e+02   1.5231469872e+01    0.4613593     0.178554  37.29  0.002614601    2.630    0.620
        10 -11.2498     99.0636    250.2811   1.3394537111e+02   1.6740732764e+01    0.3094891    0.1568898  52.63  0.001770616    1.388    0.279
        11 -11.9517    102.1618    247.4078   1.3328137543e+02   1.6703897210e+01    0.3064409    0.1700643  56.13  0.001424538    1.343    0.255
        12 -10.2914     88.5203    249.0418   1.3540866713e+02   1.8211147513e+01    0.1695001   0.09089234  53.85  0.000549668    1.298    0.230
        13 -11.5817     80.6332    247.6276   1.3647478400e+02   1.9353133135e+01    0.5263997    0.1955285  63.35  0.002942426    3.018    0.669
        14 -11.4602     83.6610    244.7383   1.3584269512e+02   1.9361815022e+01    0.3990257    0.1861554  68.55  0.002592439    2.298    0.565
        15 -10.0914     74.3049    250.2038   1.3755393621e+02   1.9773005525e+01    0.1545641   0.09529138  46.12 0.0006671813    1.331    0.249
        16 -11.9520     66.8792    243.3371   1.3823876343e+02   2.1546128418e+01    0.4140803    0.1902295  56.07 0.0006137028    1.552    0.356
        17 -10.8115     67.3840    250.1896   1.3855290492e+02   2.0579766104e+01    0.2271481    0.1463685  52.06  0.001128019    1.156    0.135
        18 -10.0881     63.5161    250.5754   1.3912990115e+02   2.0971059059e+01    0.2025691   0.05252173  46.03 0.0005172045    2.445    0.591
        19 -14.6236     34.8188    246.3974   1.4301904470e+02   2.4625663475e+01     8.461054     1.955982  34.56   0.02234067   16.451    0.939
        20 -15.2896      2.7230     20.4040   1.2725290176e+02   7.0384659754e+01     20.13495     1.630555 -64.92   0.03564274   17.631    0.943
        21 -15.7393      9.8749    239.9559   1.4629163588e+02   2.7935570555e+01     6.675648    0.9406795 -71.82   0.03204009    5.957    0.832
        22 -10.1012     33.5881    228.7141   1.4243481477e+02   2.7251872174e+01    0.1599609   0.08886448  79.75  0.001273918    1.503    0.334
        23 -13.9197     10.9498    206.8390   1.4498799110e+02   3.2795352535e+01    0.9100791    0.6451609  50.56  0.004952296    1.370    0.270
        24 -11.0404     28.8767    222.2038   1.4285344643e+02   2.8697239440e+01    0.3352281    0.0878105  57.15  0.001826991    2.800    0.643
        25 -11.7665    172.6493    222.1690   1.1997606606e+02   9.7737221076e+00    0.3293059    0.1795829  37.69  0.002107993    1.509    0.337
        26  -9.1719    152.7314    212.9463   1.2207205419e+02   1.3949141773e+01    0.1412031    0.1174423  52.35 0.0003341126    1.096    0.087
        27 -10.9739     33.5612    204.5221   1.4124182057e+02   3.0978417486e+01    0.4613857    0.1838831 -84.33   0.00259324    2.449    0.592
        28 -10.8116    193.0400    194.9134   1.1302683669e+02   9.6900299662e+00    0.6436091    0.3289496 -60.89  0.002257985    7.281    0.863
        29 -11.7159     72.7422    196.3083   1.3401694677e+02   2.7841694595e+01    0.2866889    0.2272756 -46.32  0.001896554    1.975    0.494
        30 -11.7587     77.4127    189.0802   1.3255127004e+02   2.8443607921e+01    0.2229292    0.1982386 -67.44 0.0005905796    1.461    0.316
        31 -11.1494     85.5822    176.8964   1.2983004403e+02   2.9440304083e+01    0.2028104    0.1740734  83.18 0.0004475145    1.142    0.124
        32 -13.3255     73.4114    174.5008   1.3189952263e+02   3.1486809669e+01    0.3647884    0.2473676 -46.11  0.001759879    2.194    0.544
        33 -10.0568     37.6332    231.1888   1.4194369117e+02   2.6472987501e+01    0.1603196   0.08410802  56.26 0.0005642354    1.305    0.233
        34 -13.4797     50.3150    129.8917   1.3185716441e+02   4.2932427094e+01    0.9738166    0.2568447  43.56   0.00259195    3.359    0.702
        35 -12.9121     91.8310    168.0688   1.2762615513e+02   3.0124983251e+01     2.535196    0.4159421  47.99  0.002339013    5.448    0.816
        36 -13.3381     58.1011    131.5265   1.3026550499e+02   4.1682260470e+01     1.664284     0.534999 -77.15  0.005274992    5.647    0.823
        37 -10.3093    103.1430    151.1526   1.2309999786e+02   3.1527457617e+01    0.2571914    0.2380096 -67.14 0.0008690602    1.234    0.190
        38  -9.5939    105.5663    147.2324   1.2200771630e+02   3.1879511057e+01     0.224296    0.1858393 -26.06   0.00137375    1.763    0.433
        39 -12.2442     92.1875    150.7925   1.2533903810e+02   3.3259255924e+01    0.2280901    0.2209097  63.20 0.0004986029    1.275    0.216
        40 -11.7143     47.3801    150.5332   1.3473996036e+02   3.9123675516e+01    0.3753459    0.1941564  70.61  0.001656861    1.943    0.485
        41 -11.6157     47.4907    146.4976   1.3431758384e+02   3.9902402536e+01    0.2307309    0.1806962  81.57  0.001210025    1.012    0.012
        42  -9.1233    134.3977    148.2113   1.1620418593e+02   2.6835683251e+01    0.1764065     0.119481 -65.16 0.0009567747    1.719    0.418
        43  -8.7689    192.1958    144.1633   1.0438327628e+02   1.6527639928e+01    0.1610216    0.1507531  77.65 0.0003393984    1.273    0.215
        44 -11.1674     55.0160    143.2792   1.3235645843e+02   3.9676532078e+01    0.2040907    0.1470764 -54.23  0.001183271    1.652    0.395
        45 -10.1405    112.9489    136.5465   1.1869595220e+02   3.2695591782e+01    0.2977732    0.2367744 -14.80  0.001150483    1.980    0.495
        46 -10.7638    100.5081    133.9021   1.2098372735e+02   3.5247046173e+01     0.235705    0.2159119 -36.87 0.0005009814    1.378    0.274
        47 -11.1802     69.8507    134.9060   1.2803154685e+02   3.9509004124e+01    0.3918983    0.1410792  44.44  0.001796222    2.597    0.615
        48 -12.9162     50.1262    230.2640   1.4001540917e+02   2.5267725741e+01    0.3014186     0.261713 -87.48  0.001052448    1.520    0.342
        49  -9.9175    118.6573    128.5137   1.1600190075e+02   3.3250258875e+01    0.3630232    0.2081418 -24.48  0.001259389    4.750    0.789
        50  -9.4260    109.1319    123.7867   1.1725211336e+02   3.5821535676e+01    0.1854872    0.1592343  76.05 0.0003281791    1.116    0.104
        51 -15.2619     58.0866    217.7965   1.3804537929e+02   2.6217340541e+01     4.445726    0.8039342  45.29   0.01748792    3.358    0.702
        52 -11.0447    168.3883    113.4178   1.0225488487e+02   2.6229039761e+01    0.3782281     0.300912 -86.14  0.001335853    1.655    0.396
        53  -9.0516    135.0000    112.9880   1.0919305299e+02   3.3171302619e+01     0.227088   0.07791199 -45.79 0.0008073093    2.976    0.664
        54  -9.5993     59.3180    112.2999   1.2726392517e+02   4.5554037657e+01    0.1144458   0.09080806 -40.57 0.0003403523    1.618    0.382
        55 -10.8402     20.3060    111.5759   1.3699217342e+02   4.9733817491e+01     0.184138   0.09743735  39.01 0.0007436541    2.021    0.505
        56 -13.9447     67.7151    144.5856   1.2975323566e+02   3.7851282408e+01     1.895719    0.8600986  75.86  0.007482263    3.957    0.747
        57 -11.2266    238.5896    248.6162   1.1351638785e+02  -2.2793932693e+00    0.2610078    0.1119981  26.57  0.001587586    2.255    0.557
        58  -9.1908    127.9945     23.6644   8.3389756331e+01   5.0370411780e+01    0.1990281    0.1847703  50.29 0.0004280376    1.116    0.104
        59 -11.0551    138.9693    250.0000   1.2803084122e+02   1.1504827855e+01    0.2244577    0.1056189  48.20  0.001519429    1.508    0.337
