#   1 NUMBER                 Running object number                                     
#   2 MAG_AUTO               Kron-like elliptical aperture magnitude                    [mag]
#   3 X_IMAGE                Object position along x                                    [pixel]
#   4 Y_IMAGE                Object position along y                                    [pixel]
#   5 X_WORLD                Barycenter position along world x axis                     [deg]
#   6 Y_WORLD                Barycenter position along world y axis                     [deg]
#   7 A_WORLD                Profile RMS along major axis (world units)                 [deg]
#   8 B_WORLD                Profile RMS along minor axis (world units)                 [deg]
#   9 THETA_WORLD            Position angle (CCW/world-x)                               [deg]
#  10 FWHM_WORLD             FWHM assuming a gaussian core                              [deg]
#  11 ELONGATION             A_IMAGE/B_IMAGE                                           
#  12 ELLIPTICITY            1 - B_IMAGE/A_IMAGE                                       
         1 -14.8047    156.2022     50.8198   8.1221083582e+01   4.0014443267e+01     1.168802     1.155943 -46.51  0.003373799    1.048    0.046
         2 -15.0368    166.5229     21.1257   6.9836351073e+01   4.1218838977e+01     1.377802       1.0395 -83.42  0.004802769    1.411    0.291
         3 -14.0179    173.0223      3.5224   6.3507911829e+01   4.1295072535e+01     1.235454     0.471612  86.85  0.004041049    3.773    0.735
         4 -14.2254    189.9763     14.2774   6.4618253990e+01   3.5848208884e+01    0.7752215    0.4909936 -89.96  0.002823386    1.605    0.377
         5  -9.9221      3.8314    244.7372   1.5085141956e+02   2.4676240700e+01    0.1235802   0.08093252  10.91  0.000692805    4.388    0.772
         6 -13.6280    185.5212    235.6477   1.1750109214e+02   5.1616779869e-01    0.6305621    0.3471952  59.83  0.002891858    3.017    0.668
         7 -12.9358    190.7245    249.5124   1.1851925508e+02  -2.1378787674e+00    0.5106739    0.2604148  42.15  0.002894832    1.572    0.364
         8 -14.1470    197.0998    245.0886   1.1676534243e+02  -2.5828489807e+00    0.6597893    0.4273246  45.78  0.004116404    1.450    0.310
         9 -13.9783    187.0229    242.3206   1.1818221228e+02  -6.2586983445e-01     1.193389    0.2839932  38.10  0.004309545    3.660    0.727
        10 -20.5487     85.4051    180.3569   1.3023057936e+02   2.7403210356e+01     14.60894     6.718644 -65.39   0.06612703    2.214    0.548
        11 -11.2621     17.6071    187.5132   1.4555469270e+02   3.4223776598e+01    0.2984817    0.1474031 -77.66  0.001122751    1.704    0.413
        12 -13.0598    237.9358    185.8491   9.9411054930e+01  -1.3670980301e+00    0.6015429    0.1827716  38.11  0.002244376    3.289    0.696
        13 -10.8793     22.4835    184.9357   1.4438874069e+02   3.4289939680e+01    0.1606909     0.123966  73.43 0.0003770379    1.065    0.061
        14 -14.2122    238.2702    174.9716   9.7207711956e+01   1.3631815531e-01    0.6634944    0.5005162  42.20  0.003878436    1.394    0.283
        15  -9.5312     12.5837    237.7067   1.4917809673e+02   2.5033549809e+01    0.1661308    0.1583937 -11.97  0.001416531    1.975    0.494
        16 -12.3928    194.5536    172.1114   1.0478162863e+02   8.8188203815e+00    0.5383667    0.3636786 -56.55  0.002040756    1.952    0.488
        17 -12.0062    192.1436    164.6302   1.0373382134e+02   1.0617275300e+01    0.4941565    0.3538704 -63.50  0.002350125    1.956    0.489
        18 -13.2618    189.2330    155.0634   1.0229502079e+02   1.2951864920e+01    0.5937271    0.5212476 -17.01  0.001792544    1.181    0.154
        19 -12.7002    224.2905    173.2784   9.9346392570e+01   2.9153549551e+00    0.3294125    0.2111625 -28.15  0.001635133    1.567    0.362
        20 -13.0345    230.4505    167.4099   9.7039095045e+01   2.6817786404e+00    0.5192112    0.2457433 -45.81  0.002192243    2.571    0.611
        21 -11.2980    207.1310    170.6659   1.0202303396e+02   6.5947131561e+00    0.2872303    0.1901146 -51.90 0.0008707766    1.905    0.475
        22 -12.0514    203.0122    173.2046   1.0333498305e+02   6.9725388047e+00     0.451146    0.2166219 -52.58  0.001714942    3.137    0.681
        23 -11.6130    151.8939    239.3985   1.2426395428e+02   5.5096693603e+00    0.3491075    0.2729383 -17.36  0.001878935    1.816    0.449
        24 -11.6601    211.3369    237.8770   1.1317128718e+02  -3.9186096643e+00    0.1560473    0.1542178   0.72 0.0009272745    1.441    0.306
        25 -12.5847    167.5653    155.9602   1.0708696514e+02   1.7337883103e+01    0.4180109    0.2807901  75.24  0.001465725    2.344    0.573
        26 -12.3076    207.4950    220.9685   1.1119089034e+02  -1.1081447583e+00    0.2434893    0.2094717 -14.17 0.0007984238    1.256    0.204
        27 -12.0345     23.1710    155.8523   1.4185090480e+02   4.0578276858e+01    0.2733432    0.2066999 -52.30  0.001006797    1.561    0.359
        28 -12.2891    160.4869    152.7040   1.0796408144e+02   1.9476528023e+01    0.3025588     0.240923  29.22 0.0009361429    1.333    0.250
        29 -12.3864    173.9871    148.3368   1.0403356442e+02   1.7470810991e+01    0.4926134    0.3441747 -56.45  0.001796547    1.662    0.398
        30 -12.2770    192.9647    222.0496   1.1405412927e+02   1.1799853224e+00     0.201476    0.1667789  25.50 0.0009885365    1.043    0.042
        31 -11.0855     12.4339    138.2280   1.4278426670e+02   4.5478945145e+01    0.2410831    0.1420076 -47.51  0.001069152    1.980    0.495
        32 -10.9501     14.9399    218.1185   1.4785084491e+02   2.8386170496e+01    0.1358986   0.08013102 -82.11 0.0006395135    1.484    0.326
        33 -11.2820     14.3630    133.3805   1.4181861430e+02   4.6435005025e+01     0.328451    0.2239725 -50.57  0.001755196    1.595    0.373
        34 -13.0432    160.6342    128.0352   1.0230395135e+02   2.4500787166e+01    0.5065249    0.3901597 -59.40  0.001748902    1.436    0.303
        35 -10.0071     17.9316    213.6733   1.4708189256e+02   2.8935886828e+01    0.1457515   0.09990482  72.12 0.0005251534    1.056    0.053
        36  -9.8335      8.3384    131.2684   1.4315294483e+02   4.7363468618e+01    0.1118513    0.0765622 -50.27 0.0003255412    1.598    0.374
        37 -12.7373     38.8517    115.8318   1.3279458324e+02   4.8365891386e+01    0.4427134    0.2857284 -21.81  0.001798019    2.371    0.578
        38 -11.2934    231.2864    113.6915   8.4899693575e+01   1.1196551537e+01     0.265872    0.2556831 -43.83 0.0008125023    1.077    0.072
        39 -11.4290    167.5728    112.7681   9.6888434791e+01   2.6002858456e+01    0.4008098     0.309122 -85.27  0.001106871    1.713    0.416
        40  -9.1360     16.8360    209.3600   1.4704031248e+02   2.9883549209e+01    0.1724086    0.1422727 -70.59  0.001327049    1.519    0.341
        41 -10.9069    205.5909    110.0977   8.8469153940e+01   1.7556874267e+01    0.2771827    0.2185009  43.32 0.0006204505    1.308    0.235
        42 -11.5860     38.1840    102.4296   1.3070670362e+02   5.1578824752e+01    0.2424038    0.2011165 -19.31  0.001059504    1.471    0.320
        43 -13.0222     11.4626    206.1267   1.4784420200e+02   3.1041243604e+01    0.4388983    0.2865891  34.98  0.002787096    1.802    0.445
        44 -11.1615    217.6414    217.3635   1.0874933803e+02  -2.2972601386e+00    0.3280467    0.1657206 -45.53  0.001613557    2.673    0.626
        45 -11.6616    141.8705     83.1428   9.4645386807e+01   3.7982195762e+01     0.374786    0.2348236 -29.44  0.001187104    1.794    0.442
        46 -11.1451      9.6688    212.0760   1.4847524952e+02   3.0055593655e+01    0.1441893    0.0937719 -89.61 0.0003545875    1.253    0.202
        47 -11.2791    222.9275    198.6492   1.0449468763e+02  -6.0969646995e-01    0.2077182    0.1603113  -8.43 0.0003529471    1.279    0.218
        48 -14.7601    146.2838     65.3936   8.8073786935e+01   4.0161131897e+01     1.293386     1.142015  43.09  0.001288778    1.124    0.111
        49 -11.5215     37.6977    248.3080   1.4558855251e+02   2.0458481814e+01    0.1580452   0.09611765  72.84   0.00112688    1.278    0.218
        50 -13.6158    160.2637     42.0189   7.7587440601e+01   4.0242033884e+01    0.5394758    0.5259959 -60.00 0.0007979799    1.062    0.058
        51 -11.7079     15.9062    194.3482   1.4632942970e+02   3.2975950074e+01    0.1796041    0.1312788 -85.15 0.0003861049    1.208    0.172
        52 -11.4901     13.5202     59.8112   1.3070166788e+02   6.3100651134e+01    0.1898666    0.1785145 -84.26 0.0004866438    1.265    0.209
        53 -11.7466     23.8400    190.4480   1.4450818573e+02   3.2998488378e+01    0.1893503     0.138158 -77.26 0.0003440705    1.300    0.231
        54 -10.6175    157.9667    243.6484   1.2367774706e+02   3.8928828626e+00    0.2545625    0.1577927 -34.57  0.001069305    2.249    0.555
