#   1 NUMBER                 Running object number                                     
#   2 MAG_AUTO               Kron-like elliptical aperture magnitude                    [mag]
#   3 X_IMAGE                Object position along x                                    [pixel]
#   4 Y_IMAGE                Object position along y                                    [pixel]
#   5 X_WORLD                Barycenter position along world x axis                     [deg]
#   6 Y_WORLD                Barycenter position along world y axis                     [deg]
#   7 A_WORLD                Profile RMS along major axis (world units)                 [deg]
#   8 B_WORLD                Profile RMS along minor axis (world units)                 [deg]
#   9 THETA_WORLD            Position angle (CCW/world-x)                               [deg]
#  10 FWHM_WORLD             FWHM assuming a gaussian core                              [deg]
#  11 ELONGATION             A_IMAGE/B_IMAGE                                           
#  12 ELLIPTICITY            1 - B_IMAGE/A_IMAGE                                       
         1 -15.3681    244.8298     44.7698   5.7163652242e+01   2.0254508422e+01     5.751534    0.8466358 -31.32   0.01689713    5.989    0.833
         2 -13.3699      4.7496     29.5692   1.2335926815e+02   7.3468049994e+01    0.8920867     0.663802 -48.53  0.004830616    1.174    0.148
         3 -13.6995     71.8481     21.1283   7.8269673333e+01   6.4664864869e+01    0.8890394    0.4525599  55.55   0.00391501    1.821    0.451
         4 -12.6154      3.6237     14.3436   1.1845314036e+02   7.6791169516e+01    0.6069574    0.4510287 -68.02  0.003766896    1.531    0.347
         5 -12.8065      5.5797      5.1842   1.1158559867e+02   7.8438723538e+01    0.7867867    0.5495528  52.00  0.004528208    2.185    0.542
         6 -11.6673    142.0973      5.1764   5.6166566082e+01   4.8271854126e+01    0.3406374    0.1753641 -26.73  0.001587741    2.098    0.523
         7 -12.4132     84.5424      2.7945   6.4894453766e+01   6.3590701783e+01    0.8600945    0.3504904  80.35  0.002946386    3.488    0.713
         8 -12.6967     60.1394      5.3727   7.4018613342e+01   6.9242311964e+01    0.5398116    0.3666144 -88.79  0.002603353    2.273    0.560
         9 -13.2473     28.0265    221.8937   1.3650530324e+02   2.4419261271e+01    0.9607869    0.5420816  29.47  0.003917474    1.545    0.353
        10 -10.5022     79.7715    250.5428   1.2669652578e+02   1.3232953520e+01    0.2881158   0.08335379  32.79  0.001113422    2.418    0.586
        11 -11.2268     62.2116    249.9138   1.3044228749e+02   1.5404312690e+01    0.5097275    0.1281926  35.28  0.002208889    2.512    0.602
        12 -12.8308     35.6074    249.5300   1.3611571934e+02   1.8373546997e+01    0.5433833    0.1365052  37.96  0.002517574    2.355    0.575
        13 -12.9755     24.1845    243.8902   1.3830640534e+02   2.0545736642e+01     1.852428          nan  42.66  0.005888039    5.189    0.807
        14 -14.1190     12.7543    249.3852   1.4087858649e+02   2.0629927064e+01    0.8058725    0.1689967  36.48  0.003587102    2.529    0.605
        15 -14.1477      2.6452    245.7642   1.4285644671e+02   2.2186641301e+01    0.6209781    0.2818972  86.63  0.003664253    2.251    0.556
        16 -14.6771      8.8797    241.2353   1.4145648797e+02   2.2471497235e+01     1.522652          nan  43.22  0.005030029    5.017    0.801
        17 -13.9666     74.8693    192.0847   1.2241823709e+02   2.5288805567e+01     1.374951    0.7735429  56.73  0.005098023    1.866    0.464
        18 -14.2230     67.9057    215.0975   1.2649040061e+02   2.1298449687e+01     1.470814    0.8061844  36.73  0.006066427    1.453    0.312
        19 -15.1285     48.0693    186.8269   1.2911478188e+02   2.9891373775e+01     3.454457     1.846717  57.03   0.01645429    1.798    0.444
        20 -13.0746     29.0083    188.3091   1.3438642199e+02   3.1613166132e+01     1.899074    0.5985955  55.31  0.007130189    3.089    0.676
        21 -15.5653     24.4153    205.9936   1.3658166532e+02   2.8108882222e+01     4.202634    0.8093436  38.72   0.01627678    2.960    0.662
        22 -13.8814     20.2578    195.1944   1.3707727668e+02   3.0887215734e+01     1.144156     0.459889  45.37   0.00514769    1.931    0.482
        23 -15.0364     90.6791    208.1173   1.2018527443e+02   1.9702879118e+01     2.374309     1.107787  44.13   0.00953246    1.871    0.466
        24 -15.0620     97.4038    194.2733   1.1680911099e+02   2.1599002814e+01     2.732864    0.9188458  43.78   0.00969312    2.726    0.633
        25 -11.2929     96.0918    229.3323   1.2117242969e+02   1.4897064162e+01    0.4697629    0.2235044  31.81  0.002339932    1.671    0.402
        26 -11.0054     88.5768    225.2667   1.2250363182e+02   1.6639721648e+01    0.7036732    0.1403403  38.77  0.002454747    3.355    0.702
        27 -12.4723      3.0845    224.6598   1.4226692833e+02   2.6166122719e+01    0.4886022    0.2685106  73.13  0.002619199    1.616    0.381
        28 -10.7661      2.0814    216.8284   1.4228889559e+02   2.7830268503e+01    0.2465067    0.1520728  67.98  0.001057995    1.360    0.265
        29 -10.9981    125.4743    189.1083   1.0904512967e+02   1.8325767404e+01    0.4224209    0.2082663  37.57  0.001878157    1.773    0.436
        30 -10.9652     11.3645    177.0156   1.3853374347e+02   3.5870371054e+01    0.3394356    0.2109344  50.17  0.001266123    1.348    0.258
        31 -11.3791      9.5972    163.1168   1.3833639401e+02   3.9367010628e+01     0.357638    0.3010057  22.21   0.00156677    1.312    0.238
        32 -11.9171      8.9960    158.2613   1.3825642593e+02   4.0612130191e+01    0.5221351    0.3373125  61.14  0.001967282    1.362    0.266
        33 -12.5079      2.2313    141.5904   1.3947430313e+02   4.5268063620e+01     1.223849    0.2318276 -81.07  0.003679004    4.657    0.785
        34 -12.8872      3.7669    130.2141   1.3831764693e+02   4.8095937712e+01    0.9197358    0.4969152  82.71   0.00446267    1.730    0.422
        35 -13.5859     33.2968    158.7392   1.3088679566e+02   3.8344757803e+01     2.997305    0.8669861  28.54   0.01085921    2.948    0.661
        36 -11.2344     12.7934    145.8918   1.3632863132e+02   4.3447339463e+01    0.6378282    0.4641555  31.35  0.003605686    1.369    0.270
        37 -11.0575     33.4184    143.6807   1.2937218136e+02   4.2197298295e+01    0.4487187    0.3007245 -66.48  0.002278368    1.469    0.319
        38 -11.7184     39.3406    142.0941   1.2721495854e+02   4.1986426164e+01     0.905047    0.3101638  34.17   0.00339259    2.509    0.601
        39 -13.1296     57.0950    223.3438   1.2975866989e+02   2.0952127542e+01     1.376267    0.2267229  39.40  0.004892865    3.367    0.703
        40 -12.0523     55.5677    139.0865   1.2134572855e+02   4.0816058477e+01    0.9435486    0.4365217  56.86  0.003439527    2.648    0.622
        41 -11.6193     21.3620    133.3035   1.3244122833e+02   4.6034396063e+01    0.7266871    0.2701324  49.77  0.002767522    2.676    0.626
        42 -13.1790    114.0258    126.9265   1.0033973626e+02   3.3998462071e+01     1.151064    0.9197353  57.12  0.005130469    1.300    0.231
        43 -12.2135      7.4468    119.5995   1.3625966833e+02   5.0645736047e+01    0.6921541    0.3777517  58.69  0.002808494    1.818    0.450
        44 -12.0078     44.5496    115.5076   1.2158703593e+02   4.8429830449e+01    0.9402934    0.4929107  67.06  0.003545746    2.616    0.618
        45 -11.2213     60.0097    115.4910   1.1572286447e+02   4.6389187825e+01    0.7882031    0.4359477  12.46  0.002952551    2.608    0.617
        46 -11.1002     56.0023    111.8217   1.1651209105e+02   4.7922096320e+01    0.4487824    0.2920641  56.59  0.001999784    1.688    0.408
        47 -10.1709      1.4601    110.2606   1.3782575954e+02   5.3420257069e+01    0.3224034     0.119915 -85.38  0.001272195    2.503    0.600
        48 -12.7449     19.1394     98.6938   1.2936640749e+02   5.5398841892e+01     1.278396    0.7760164 -38.75   0.00611365    1.797    0.443
        49 -12.8070      3.5867    101.6359   1.3628483911e+02   5.5577830882e+01     1.139095    0.5116838  63.95   0.00477743    2.461    0.594
        50 -12.8150      8.6530     97.2262   1.3371339726e+02   5.6473028705e+01    0.7973707    0.4685327  85.40  0.002949808    1.705    0.413
        51 -11.2538     72.7561    106.3330   1.0899782077e+02   4.6756314850e+01    0.4531002    0.2777648  52.78  0.001894534    1.785    0.440
        52 -11.1754     27.8441    128.5732   1.2965137082e+02   4.6712507670e+01    0.4415729     0.272429  83.10  0.002006012    1.673    0.402
        53 -11.6553     96.4635     97.3382   9.8319080911e+01   4.4492709022e+01    0.3690665    0.2992277 -77.44  0.001745233    1.424    0.298
        54 -10.9047     58.6683     97.0806   1.1226184231e+02   5.1372271571e+01    0.3023051    0.2357773  22.36  0.001483506    1.363    0.266
        55  -9.3909     55.7477    241.5855   1.3131858061e+02   1.7628525930e+01    0.4489613    0.1328739  43.97  0.002004142    2.406    0.584
        56 -11.8333    134.2110     89.4857   8.5092153517e+01   3.7762889137e+01    0.3046325     0.226243 -42.79  0.001426035    1.367    0.269
        57 -11.9495     72.9584     87.4514   1.0401700618e+02   5.1415410485e+01    0.5420849    0.4014177  59.93  0.002510401    1.527    0.345
        58 -11.9282     23.2455     83.0422   1.2499552020e+02   5.9195293004e+01     0.955124    0.4130262  53.48   0.00351649    3.088    0.676
        59 -13.5806     14.2049     77.5119   1.2846479665e+02   6.1297076004e+01     1.424546    0.4692242 -65.83  0.005477728    2.507    0.601
        60 -12.9934      4.8405     77.5282   1.3315072764e+02   6.1803787732e+01     0.883001    0.7379392 -73.26  0.005341584    1.083    0.077
        61 -11.0050    115.3949     85.2006   8.8889950741e+01   4.3033582153e+01    0.2298546    0.1474676 -54.96 0.0009590288    1.709    0.415
        62 -11.4914     59.7267     80.4151   1.0745100467e+02   5.5390675132e+01    0.3874306    0.3499404 -49.55  0.001903343    1.105    0.095
        63 -10.9158     96.5058     78.5891   9.2712275221e+01   4.8712077578e+01    0.2982706    0.2453622 -48.45  0.001457453    1.253    0.202
        64 -11.8727     28.5580     73.9444   1.2048205991e+02   6.1058669446e+01    0.7017562    0.3132499  42.98  0.002816168    2.485    0.598
        65 -12.0144     40.8775     70.6560   1.1342116451e+02   6.0505184128e+01    0.7356031    0.5040444  32.14  0.003643417    1.473    0.321
        66 -12.5592    127.7146     61.4500   7.8045395336e+01   4.4616608215e+01    0.7787383    0.4571316 -41.13  0.003340134    1.738    0.425
        67 -12.4343      2.9853     57.6677   1.3120751608e+02   6.6904562591e+01    0.7138391    0.3706306 -77.44  0.002961925    1.837    0.456
        68 -11.4233     10.4266     56.9451   1.2665240811e+02   6.6720934467e+01     0.320562    0.2914455  10.99  0.002020262    1.179    0.152
        69 -11.8277     59.5038     55.6949   9.9327330343e+01   6.1117106722e+01    0.4365922    0.1981245  40.35  0.001714035    2.148    0.534
        70 -12.6290     38.1962     49.1885   1.0787100165e+02   6.5891800658e+01    0.8999569     0.500739  13.46  0.003847566    2.274    0.560
        71 -11.7689      9.3401     47.2375   1.2508412880e+02   6.9135714793e+01    0.3286836    0.2758766 -19.60  0.001767317    1.159    0.137
        72 -11.9932      2.8752     45.1801   1.2887154597e+02   6.9945900932e+01    0.5133682    0.3019783  46.71  0.002627984    2.065    0.516
        73 -10.1456     33.4858    240.3151   1.3614889923e+02   2.0275819767e+01    0.9836845          nan  42.82   0.00344484    4.079    0.755
        74 -12.0544     44.1099     25.5389   9.3707023670e+01   6.9685882405e+01    0.5851413    0.4574145  20.67  0.003308014    1.242    0.195
        75 -10.4035     73.0125    239.9795   1.2736073002e+02   1.5893038403e+01    0.1984035    0.1508231  43.00  0.001308386    1.052    0.049
        76 -12.3780     75.7960    232.4194   1.2611774354e+02   1.6935757382e+01    0.8587477    0.4735896  40.38  0.003615708    1.403    0.287
        77 -11.5133     50.0314    229.2372   1.3181769711e+02   2.0606685086e+01    0.7459341    0.2173013  36.88  0.003024072    2.313    0.568
        78 -10.8681     33.4743     12.4841   9.2659267413e+01   7.3636521953e+01    0.1309899    0.1134079  10.10 7.244159e-05    1.013    0.013
        79 -13.7306    107.0213    147.8724   1.0676868845e+02   3.0435869626e+01     2.430547    0.8155071  42.59  0.007967389    2.798    0.643
        80 -14.7605    102.1387    173.4783   1.1258586748e+02   2.5392209934e+01     3.545969     1.775777  33.12   0.01416812    1.824    0.452
