#   1 NUMBER                 Running object number                                     
#   2 MAG_AUTO               Kron-like elliptical aperture magnitude                    [mag]
#   3 X_IMAGE                Object position along x                                    [pixel]
#   4 Y_IMAGE                Object position along y                                    [pixel]
#   5 X_WORLD                Barycenter position along world x axis                     [deg]
#   6 Y_WORLD                Barycenter position along world y axis                     [deg]
#   7 A_WORLD                Profile RMS along major axis (world units)                 [deg]
#   8 B_WORLD                Profile RMS along minor axis (world units)                 [deg]
#   9 THETA_WORLD            Position angle (CCW/world-x)                               [deg]
#  10 FWHM_WORLD             FWHM assuming a gaussian core                              [deg]
#  11 ELONGATION             A_IMAGE/B_IMAGE                                           
#  12 ELLIPTICITY            1 - B_IMAGE/A_IMAGE                                       
         1 -13.9613    168.1640     39.5095   7.6063751006e+01   3.8379426682e+01     1.181554     1.026843   9.34  0.004351386    1.372    0.271
         2 -13.6913    183.8028      7.6921   6.4972776356e+01   3.8176845068e+01    0.9812166    0.8363081  82.00  0.004111057    1.019    0.018
         3  -9.8962    136.0000    209.9376   1.2405274775e+02   1.1629333299e+01    0.2109683   0.07897883 -53.41 0.0007994084    2.921    0.658
         4  -9.8375    167.9804    249.8021   1.2363211532e+02  -1.1410365996e+00    0.1969888    0.1780628 -42.78  0.001107577    1.350    0.259
         5 -10.5610    150.5875    249.0324   1.2678321644e+02   1.9670308653e+00    0.2317831    0.2152771 -71.77 0.0008743769    1.281    0.219
         6 -19.8969     63.6798    169.8661   1.3394176887e+02   3.2354439831e+01     19.42157     4.417565 -64.94   0.06028158    4.284    0.767
         7 -11.8329    129.1440    206.3367   1.2493032223e+02   1.3610067864e+01    0.3246732    0.2452414  35.62  0.001751727    1.410    0.291
         8 -11.0750    166.3004    233.6829   1.2159866528e+02   1.7405695611e+00    0.2504555    0.2042319  53.09 0.0005927329    1.145    0.126
         9 -10.4342    163.7420    203.1498   1.1712819881e+02   7.7112839158e+00    0.3419069    0.2136557  32.55 0.0003550642    1.705    0.413
        10 -12.0423    157.0076    201.3609   1.1822857470e+02   9.3613854367e+00    0.5295268    0.3765288 -86.55  0.002516284    2.001    0.500
        11 -11.3122    153.6808    195.3345   1.1787501691e+02   1.1209617778e+01    0.3769847    0.2398419  66.88  0.001662859    2.029    0.507
        12 -11.7109    122.3516    198.5304   1.2515927682e+02   1.6468396693e+01    0.3965682    0.2368763 -45.61   0.00186342    1.972    0.493
        13 -12.1905    139.3828    200.6256   1.2184526701e+02   1.2879655352e+01    0.6219304     0.326809  51.19 0.0008730661    1.821    0.451
        14 -10.9873    207.8703    194.3011   1.0647436235e+02   7.7826295323e-01    0.2357284    0.1924484 -46.93 0.0007033027    1.363    0.266
        15 -11.5199    166.7280    187.9493   1.1371551797e+02   1.0109719514e+01    0.3847263    0.3616979 -27.17   0.00144396    1.157    0.136
        16 -10.8514    163.2013    188.3814   1.1455459136e+02   1.0730947079e+01    0.3287393    0.2462847  61.92 0.0008698285    1.436    0.304
        17 -11.2556    167.9881    230.7012   1.2081243064e+02   1.9388035067e+00    0.2383423    0.2225641  63.74 0.0005003214    1.145    0.127
        18 -10.8704    176.4670    187.4885   1.1155497388e+02   8.2383944228e+00    0.2507198    0.2190079 -58.21 0.0009785119    1.250    0.200
        19 -10.3669    174.6959    184.3307   1.1131386990e+02   9.2203749650e+00    0.2584469    0.1806915 -58.26 0.0004990725    1.652    0.395
        20 -10.2641    170.6004    185.3339   1.1238356568e+02   9.8519804900e+00    0.2187711     0.173049  84.64 0.0007386291    1.618    0.382
        21 -11.1836    153.4137    184.4166   1.1593448716e+02   1.3508251046e+01    0.3927683    0.2497444 -78.82   0.00158383    2.525    0.604
        22  -9.1721     27.6838    184.1799   1.4337305940e+02   3.3398484834e+01    0.1104969   0.06991348  63.99 0.0001615957    1.467    0.318
        23 -10.8675    207.6446    177.8692   1.0320580458e+02   3.7754379016e+00     0.584491    0.3442027  18.43  0.002282473    2.689    0.628
        24  -9.4577     24.2164    234.8518   1.4801295072e+02   2.3313147967e+01   0.09209217   0.05468096  64.46 0.0005994868    1.307    0.235
        25 -11.9818    195.7463    169.8478   1.0392690874e+02   7.7275191686e+00    0.5428293     0.426521 -46.73  0.001838282    1.320    0.242
        26 -10.8893    193.8046    164.9342   1.0327445830e+02   9.0987964420e+00    0.3481439    0.3332437 -55.93  0.001411317    1.098    0.089
        27  -9.7433    202.9702    171.6576   1.0283943907e+02   5.8848042889e+00    0.2105465    0.1870135  36.88 0.0006395413    1.104    0.094
        28 -11.2848    142.0296    165.8829   1.1488890916e+02   1.9811839206e+01    0.3506865    0.2174205 -58.88  0.000637799    1.735    0.423
        29  -9.7134     22.5922    166.4991   1.4267407646e+02   3.7836347625e+01    0.1607956    0.1217021   6.66 0.0008535536    2.141    0.533
        30  -9.6228    222.5012    161.9418   9.6930020511e+01   3.7155318913e+00    0.2180794    0.1369031 -41.69   0.00101217    1.563    0.360
        31 -13.0752    136.8409    171.6253   1.1721904851e+02   1.9577647422e+01    0.8376521    0.4958591  55.02  0.003223279    1.766    0.434
        32  -9.9393    175.6010    231.7642   1.1949203515e+02   3.9206122720e-01    0.1677534    0.1273428 -60.97 0.0009563242    1.670    0.401
        33 -10.9362     23.7058    230.8058   1.4782921298e+02   2.4150247105e+01     0.277541    0.1319295  57.79   0.00134518    1.719    0.418
        34 -13.6957    132.8286    145.3281   1.1274179246e+02   2.6336363959e+01     1.158879     0.631488 -59.79  0.004328452    2.072    0.517
        35  -9.0714     28.6315    239.1872   1.4757753973e+02   2.1983982378e+01    0.1103263    0.0562864  61.18 0.0006701282    1.555    0.357
        36  -9.9986    174.8567    149.0943   1.0380575301e+02   1.6455769060e+01    0.2419721    0.2140548 -87.30 0.0006453404    1.259    0.206
        37 -11.6039    144.2189    145.5423   1.1003713666e+02   2.3913837093e+01    0.3728253    0.3024231 -84.06  0.001788553    1.424    0.298
        38 -11.6029     13.4049    143.5932   1.4223554905e+02   4.3795968930e+01    0.2058112    0.1542888 -64.87 0.0007496053    1.179    0.151
        39 -12.6077      6.8378    138.7021   1.4321881553e+02   4.5391324411e+01    0.4669746    0.3175977  59.10  0.001382712    1.609    0.379
        40 -11.9484      3.7307    112.5672   1.4077856755e+02   5.1386529669e+01    0.3105095    0.2640597 -36.33  0.002213177    1.369    0.270
        41 -11.5976    135.5482    127.3285   1.0789888562e+02   2.9857074357e+01    0.5976595    0.1501813 -49.91  0.001565901    4.245    0.764
        42 -10.6353    160.3115    127.9472   1.0208407214e+02   2.4257977215e+01    0.4259383    0.2402553 -57.98   0.00161035    2.136    0.532
        43 -10.6593    113.9998    118.0965   1.1120071048e+02   3.6324270214e+01    0.2236619    0.2191917 -55.89 0.0003560829    1.030    0.029
        44  -9.9562     20.7191    219.2005   1.4753878422e+02   2.6766270958e+01    0.1055426   0.06085384  66.72            0    1.411    0.291
        45  -9.8022    167.7252    112.7119   9.6540218438e+01   2.5761378689e+01    0.3246675    0.2007663  74.67  0.001179491    2.526    0.604
        46 -11.1391     16.7405    217.2803   1.4808936949e+02   2.7572476558e+01    0.1708423    0.1183282 -72.91 0.0007368712    1.416    0.294
        47 -11.0808    131.0437    213.9060   1.2568301144e+02   1.1743861931e+01    0.4364359     0.196561 -64.65  0.001726803    2.996    0.666
        48  -9.9652    205.5018    110.1810   8.8116094794e+01   1.7295901612e+01    0.2786347    0.2163455  54.05 0.0006925839    1.321    0.243
        49 -12.6050      2.8369    125.9146   1.4270744087e+02   4.8504591650e+01     1.088386       0.2521 -72.41  0.004084277    3.616    0.723
        50 -13.4768    156.0129     54.8983   8.2911354011e+01   3.9182019136e+01     1.151369    0.9368824  42.95   0.00105833    1.219    0.180
        51  99.0000     13.3715    244.5918   1.5032419412e+02   2.2673620475e+01    0.1939963   0.08908822 -68.66  0.001209253    2.106    0.525
        52 -12.0416    172.1278     31.9628   7.3239870263e+01   3.8363772717e+01    0.3721183    0.3491557  10.49 0.0008968181    1.235    0.190
        53  -9.7038     13.6656     59.8756   1.2782884885e+02   6.1765813491e+01    0.1610069    0.1164631 -50.52 0.0005526668    1.129    0.114
        54  -9.4462    135.9717     30.6983   7.9623877741e+01   4.7270603945e+01    0.1939781    0.1609211  56.96 0.0004004526    1.124    0.111
