#   1 NUMBER                 Running object number                                     
#   2 MAG_AUTO               Kron-like elliptical aperture magnitude                    [mag]
#   3 X_IMAGE                Object position along x                                    [pixel]
#   4 Y_IMAGE                Object position along y                                    [pixel]
#   5 X_WORLD                Barycenter position along world x axis                     [deg]
#   6 Y_WORLD                Barycenter position along world y axis                     [deg]
#   7 A_WORLD                Profile RMS along major axis (world units)                 [deg]
#   8 B_WORLD                Profile RMS along minor axis (world units)                 [deg]
#   9 THETA_WORLD            Position angle (CCW/world-x)                               [deg]
#  10 FWHM_WORLD             FWHM assuming a gaussian core                              [deg]
#  11 ELONGATION             A_IMAGE/B_IMAGE                                           
#  12 ELLIPTICITY            1 - B_IMAGE/A_IMAGE                                       
         1 -12.8834     31.9842     31.9575   6.2445910969e+01   6.8707686452e+01     0.567142    0.3135782 -36.70  0.002883036    1.687    0.407
         2 -13.0700     84.6341     23.9077   3.5688409262e+01   6.1161492479e+01    0.6164689     0.425597 -69.19  0.002423018    2.321    0.569
         3 -10.8641    237.9627     22.7032   1.0154286247e+01   2.3038633701e+01    0.1796099    0.1532119 -63.07 0.0003915628    1.088    0.081
         4  -9.8354    114.2387      7.0071   2.0023888177e+01   5.6101306464e+01    0.1944965    0.1227615 -35.16 0.0003139975    1.627    0.385
         5 -12.1314    120.9991     13.1070   2.1349336169e+01   5.3755831407e+01    0.3084496    0.2817478 -67.40  0.000345093    1.163    0.140
         6 -11.5341    117.0699     10.9258   2.1189193509e+01   5.4990733428e+01    0.2596987     0.204097 -21.21 0.0003502857    1.310    0.237
         7 -11.9304     90.6702     11.9193   2.7918248179e+01   6.1348276044e+01    0.2628024    0.2375607 -35.08 0.0006383119    1.179    0.152
         8 -11.8187     92.4811      8.4809   2.5698241675e+01   6.1301599995e+01    0.2496342    0.2325264  34.78 0.0008328294    1.033    0.032
         9 -12.0626     88.5007      4.3448   2.4631688812e+01   6.2656010975e+01    0.3167057    0.2706318 -75.45 0.0001913041    1.435    0.303
        10  -9.9494    144.3852     11.1041   1.6537109722e+01   4.7830544656e+01    0.1990195    0.1217664 -38.58  0.000368041    1.627    0.385
        11 -10.6317     54.8135     11.0146   4.0083209555e+01   6.8948362483e+01    0.2237188    0.1830909  29.81 0.0008333144    1.207    0.172
        12 -10.9628     45.8182     10.8326   4.4172338781e+01   7.0532652247e+01    0.1621172    0.1531992 -40.27  0.001063043    1.323    0.244
        13 -12.1822     83.8841      9.3699   2.8562724599e+01   6.3190492599e+01    0.3065065    0.2634943  77.16  0.001770339    1.373    0.272
        14 -10.7379     40.7346      9.6049   4.6010652095e+01   7.1530838769e+01    0.1627305    0.1200572  47.38  0.000949587    1.657    0.397
        15 -10.3255    103.8105      8.1942   2.2782095686e+01   5.8597281650e+01    0.1984405    0.1542383  31.35  0.001059798    1.287    0.223
        16 -10.1137      5.2809      3.3229   6.5163754250e+01   7.6803112620e+01    0.1223375   0.06878603 -29.95 0.0002818502    1.590    0.371
        17 -11.0509    101.1678      2.0474   2.0427824130e+01   5.9828992170e+01    0.2510067    0.1919356  59.68  0.001010022    1.242    0.195
        18 -11.2735     97.4758    234.8245   8.0424394493e+01   1.4968573764e+01    0.1991738    0.1870103 -73.54 0.0005118602    1.358    0.263
        19 -12.7510    246.6333    249.4246   5.6391956598e+01  -7.1139313446e+00    0.3418601    0.1682994  26.75 0.0007589899    1.564    0.360
        20 -11.3197    237.5143    248.8123   5.7691853732e+01  -5.9729836215e+00    0.2542352    0.1866474 -13.57  0.002057635    1.399    0.285
        21 -10.3898     89.8817    250.2283   8.3097856145e+01   1.3565677626e+01    0.1659411    0.1091628  54.53 0.0005738168    1.211    0.174
        22 -11.9968     84.7447    247.6656   8.3822082016e+01   1.4616324566e+01    0.4361222    0.2590146  59.05  0.001724243    1.466    0.318
        23 -14.8383      9.2009    185.1331   9.4644687328e+01   3.4731026459e+01     1.995296     1.041828  49.28    0.0123466    1.550    0.355
        24 -14.7219     28.5405    197.8921   9.1274704685e+01   3.0245275984e+01     2.551972    0.8027596  82.55  0.009336154    4.658    0.785
        25 -10.8832    104.0661    232.3202   7.8947762993e+01   1.4467612189e+01    0.1735374    0.1549026   4.98 0.0007725926    1.509    0.337
        26 -10.9290    181.6777    231.7396   6.4541238931e+01   3.3263588685e+00     0.214624    0.1471826  16.19 0.0006752041    1.425    0.298
        27 -11.3033    131.1883    231.7880   7.3770879542e+01   1.0692444787e+01    0.2809395     0.173101  19.46  0.001569692    2.118    0.528
        28 -10.3970    192.7776    231.2281   6.2531799565e+01   1.7992465423e+00    0.1921462     0.072504  30.98 0.0008963224    2.489    0.598
        29 -11.3083    120.8692    231.3888   7.5671141748e+01   1.2242722447e+01    0.3679622   0.06403835  42.90  0.001263755    4.200    0.762
        30 -10.7868    149.2279    229.7834   7.0166550797e+01   8.3445074784e+00    0.1824375    0.1228441   7.94 0.0009861053    2.069    0.517
        31 -12.2902    113.6999    227.6764   7.6644371955e+01   1.3857741132e+01    0.3297067    0.2497144 -28.76  0.002130272    1.971    0.493
        32 -10.7379    178.1476    228.5045   6.4727389180e+01   4.2553926939e+00    0.1701589    0.1508864   0.42 0.0003065282    1.211    0.174
        33 -10.5419     84.6051    229.3835   8.2388836766e+01   1.7596138486e+01    0.2828718    0.1088533  44.60  0.001453101    1.961    0.490
        34 -11.6708     83.0616    224.5342   8.2270516870e+01   1.8633465518e+01    0.2740294    0.1884751 -69.51  0.001379179    1.667    0.400
        35 -10.5749    100.9121    227.8790   7.9122973017e+01   1.5631124097e+01    0.1931609      0.11115  59.25  0.001119936    1.710    0.415
        36 -10.7949    231.9961    227.4960   5.5458661423e+01  -3.1641525145e+00    0.1699622   0.08770809  34.01  0.001046198    1.631    0.387
        37 -10.4331    249.3099    226.6876   5.2637790632e+01  -5.2983795851e+00    0.0884467   0.08047263  16.61 0.0002843785    1.627    0.385
        38 -11.3460     91.2026    225.0276   8.0731897153e+01   1.7450363077e+01    0.3532328    0.1597126  65.72   0.00156874    3.234    0.691
        39 -15.3384     57.9557    234.7479   8.7801995485e+01   2.0042665198e+01     2.062762     1.182497  22.84   0.01175599    2.538    0.606
        40 -11.1818    214.4136    233.5132   5.9200810668e+01  -1.4688199725e+00    0.2118569    0.1543533  22.35 0.0004440125    1.057    0.054
        41 -10.6852    212.4881    223.3843   5.8027551066e+01  -5.4843145060e-02    0.2649975    0.1641374  -3.12  0.001515755    1.815    0.449
        42 -11.5334    159.3503    222.0212   6.7283899474e+01   7.9497021682e+00    0.3331725    0.1586809  38.67 0.0007803268    1.713    0.416
        43 -11.7749    173.7126    220.0493   6.4353794275e+01   6.0522744411e+00    0.3004723    0.2338518 -79.88  0.001842269    2.267    0.559
        44 -10.4670    150.4819    222.0259   6.8951474445e+01   9.2925678370e+00    0.1519299    0.1196269 -45.13 0.0004982342    1.550    0.355
        45 -12.0566    125.4400    221.2008   7.3657866721e+01   1.3188576979e+01    0.3319814    0.2437221  15.86  0.001519647    1.704    0.413
        46 -11.5674    223.2736    220.2649   5.5758840179e+01  -1.1979544120e+00    0.1930341    0.1573757  17.90 0.0003366942    1.153    0.132
        47 -11.4493    189.4257    220.5897   6.1596178750e+01   3.6233736368e+00    0.2391516    0.1443766  10.63 0.0007313721    2.043    0.511
        48 -10.8166    194.5897    219.9128   6.0583613305e+01   2.9468651017e+00    0.1925646    0.1413124  41.80 0.0008210953    1.377    0.274
        49 -11.1725    106.0150    227.1248   7.8065921261e+01   1.5040302272e+01    0.1738001     0.153736  60.07 0.0004853578    1.137    0.121
        50 -10.6754    230.9613    218.4803   5.4229358969e+01  -2.0506102326e+00    0.1401532   0.09226526  52.85 0.0008098712    2.550    0.608
        51 -11.2500    145.6397    216.6829   6.9178721262e+01   1.0844547709e+01    0.2149784     0.199191  87.90  0.001535512    1.317    0.241
        52 -12.0881    110.2313    214.0640   7.5846458996e+01   1.6639522615e+01    0.3026856    0.2283615 -15.95  0.001778979    2.158    0.537
        53 -12.4493    141.6467    211.1177   6.9218126280e+01   1.2345511464e+01    0.3205039    0.2444935 -64.10  0.000752685    1.656    0.396
        54 -11.4631    124.9698    213.1136   7.2782375275e+01   1.4591509262e+01    0.2434973    0.1746175 -44.15   0.00085988    1.730    0.422
        55 -10.8599    247.4876    212.8702   5.0722228036e+01  -3.6483295603e+00     0.149841   0.09386798 -21.79 0.0005266675    1.500    0.333
        56 -14.2265     52.6394    188.8077   8.5476124219e+01   2.9401442845e+01    0.9890986    0.5850133 -41.12  0.004961172    2.909    0.656
        57 -11.7056    120.3686    210.1292   7.3340354188e+01   1.5800555847e+01    0.2997697    0.1363252  28.26  0.001180775    2.781    0.640
        58 -10.8882    209.8468    211.7922   5.6680463696e+01   1.7232716068e+00    0.1500879     0.129325  35.80 0.0005608071    1.352    0.260
        59 -11.4346    154.3524    211.1186   6.6738086123e+01   1.0352779403e+01    0.2956105    0.2840745  74.83  0.002121625    1.252    0.201
        60 -11.7171    229.2466    208.8242   5.2952112575e+01  -7.1578930129e-01    0.3851997    0.2131685  -7.82  0.002124569    2.139    0.533
        61 -10.5650    181.9585    207.5666   6.0985797851e+01   6.5337202529e+00    0.2569066    0.1459426 -19.73  0.001286952    2.494    0.599
        62 -11.9415    114.6217    206.6976   7.4092443910e+01   1.7276500681e+01    0.2738936    0.1226896 -65.87  0.001206973    3.037    0.671
        63 -11.1063    160.5460    206.3799   6.4857318756e+01   1.0105730830e+01    0.1973603    0.1769994  85.81  0.001055826    1.456    0.313
        64 -10.0712    204.9044    206.1298   5.6627140586e+01   3.1837616956e+00    0.1602228    0.1167412  12.82 0.0002538759    1.251    0.201
        65 -11.3210    123.9363    205.5427   7.2039711231e+01   1.6047662200e+01     0.196667    0.1825834 -70.33 0.0003424545    1.246    0.197
        66 -10.6625    162.1831    212.8749   6.5485755353e+01   8.8583218302e+00    0.1621953    0.1282976  12.95 0.0003100446    1.315    0.240
        67 -11.2013    145.6823    204.6731   6.7529386747e+01   1.2757607913e+01    0.2357513    0.1795938 -17.17  0.001003026    1.722    0.419
        68 -11.8520    145.1738    201.2195   6.7136192058e+01   1.3412105950e+01    0.3285223     0.143597  49.22  0.001075908    2.329    0.571
        69 -12.4758    141.2582    198.0017   6.7462537960e+01   1.4593840965e+01    0.3498446    0.2394217 -62.82  0.001969503    1.843    0.457
        70 -11.6313    138.1505    196.8997   6.7939495161e+01   1.5291442797e+01    0.2139436    0.1785168 -32.88 0.0005110861    1.424    0.298
        71 -10.8912    224.2369    204.6070   5.3078051577e+01   5.0271096765e-01    0.1688927   0.09149253  28.10 0.0009533214    1.655    0.396
        72 -11.2558    212.3437    199.9505   5.4310118344e+01   2.8577515964e+00    0.2386457    0.1939685 -42.72 0.0008701878    1.621    0.383
        73 -10.1757    180.8515    201.1190   6.0176482988e+01   7.6422185749e+00    0.1691622    0.1313481   8.12 0.0004992361    1.309    0.236
        74 -10.1472    130.3238    200.3129   7.0033576277e+01   1.5957439627e+01    0.1224817   0.09642644   5.91  0.000236644    1.659    0.397
        75 -10.6935    121.4949    200.0154   7.1823649083e+01   1.7409987898e+01    0.2123905    0.1660893 -71.74  0.001306186    1.492    0.330
        76 -12.7000    123.1518    196.0780   7.0947726720e+01   1.7861570128e+01    0.4605073    0.2352891  47.53  0.002270847    1.759    0.431
        77 -11.2094    225.1132    198.1306   5.1835451887e+01   1.1694633796e+00    0.2411058     0.162821 -41.81  0.001470721    1.895    0.472
        78 -11.8286    112.0218    196.8228   7.3401682875e+01   1.9477349814e+01    0.4975012    0.1813029  53.60  0.001776487    3.510    0.715
        79 -12.8189    188.9206    193.8884   5.7480900087e+01   7.3984742319e+00    0.4995602    0.2733595  38.42   0.00263182    1.629    0.386
        80 -10.9706    212.1782    192.9197   5.3132292255e+01   3.8119060902e+00    0.1752152    0.1651842  21.85  0.001231722    1.318    0.241
        81 -11.6790    152.3248    195.4596   6.4835578562e+01   1.3204904135e+01    0.2441828    0.2268491  28.23  0.001624674    1.072    0.067
        82 -11.1899    234.2556    190.7585   4.9044287574e+01   7.2952343088e-01    0.2085993    0.1656089   5.52  0.001107975    1.007    0.007
        83 -11.6161    148.9911    190.9877   6.4819413660e+01   1.4521957568e+01    0.1970917    0.1730628  38.09 0.0003726449    1.010    0.010
        84 -12.1513    110.8707    188.6866   7.2576853004e+01   2.1208217100e+01     0.338321    0.2329589 -48.01  0.001677355    1.706    0.414
        85 -11.5159    168.0806    195.6445   6.1739663445e+01   1.0562154576e+01    0.2329157    0.1882956  29.44 0.0002743998    1.084    0.078
        86 -10.6818    217.8742    193.8738   5.2317917880e+01   2.8033001080e+00    0.1627163    0.1523539  69.50  0.001114887    1.668    0.400
        87 -12.6404    121.6167    187.2045   7.0029180218e+01   1.9763905903e+01    0.4375935    0.3035969  29.78  0.001864766    1.507    0.336
        88 -11.5861    197.2433    187.9423   5.4920894530e+01   6.9043779335e+00    0.2723186    0.1558958  34.86 0.0009184831    1.584    0.369
        89 -12.2291    135.2627    187.3086   6.7115278914e+01   1.7483247233e+01    0.3658862    0.1786092 -47.73  0.001154612    2.305    0.566
        90 -11.9732    128.1835    187.5714   6.8666139329e+01   1.8614318862e+01    0.2929673     0.209062 -61.96 0.0004987087    1.610    0.379
        91 -12.4373    131.6678    184.3361   6.7428260652e+01   1.8637738502e+01    0.3064979    0.2617862  30.34  0.001294876    1.169    0.144
        92 -10.6462    186.2055    187.2387   5.6848198694e+01   8.8442561295e+00    0.1596163    0.1483671  53.27 0.0004253907    1.312    0.238
        93 -11.1776    248.7360    185.6906   4.5846366922e+01  -7.6224294334e-01    0.2190029     0.167839   8.86 0.0005787776    1.077    0.072
        94 -11.5970    166.4125    182.3292   5.9851066358e+01   1.3018103965e+01    0.3391365    0.2236888  14.98  0.001452569    1.930    0.482
        95 -12.1380    153.1819    180.6029   6.2261715210e+01   1.5622944226e+01    0.3376488    0.1567445 -44.82  0.001505247    2.374    0.579
        96 -11.5058    143.4471    181.3134   6.4427560012e+01   1.7186875443e+01    0.2835606    0.1537036  42.58  0.001363732    1.660    0.398
        97 -12.9385    118.6367    178.6266   6.9417008444e+01   2.1922219256e+01    0.3793722      0.34679 -45.57  0.002367045    1.252    0.201
        98 -10.5431    220.9863    180.5103   4.9383847308e+01   4.0945118665e+00    0.1813762     0.111358  36.82 0.0004675722    1.545    0.353
        99 -10.3910    198.8761    180.0983   5.3211259856e+01   7.7879985249e+00    0.1756963    0.1671478  26.05 0.0002952587    1.229    0.186
       100  -9.9842    177.4927    179.5172   5.7157755099e+01   1.1553771115e+01     0.131099     0.117536  23.44  0.000810297    1.022    0.022
       101 -11.4876    192.0669    177.8669   5.4062983709e+01   9.2876365972e+00    0.1896135    0.1746712  47.20 0.0006542874    1.278    0.217
       102 -11.2396    250.6287    176.2939   4.3823131170e+01   9.3294274600e-02    0.1987627   0.09823109 -28.11 0.0002302911    1.825    0.452
       103 -11.2807    162.3369    177.1514   5.9772575295e+01   1.4619036524e+01    0.2168845    0.1668263  30.11 0.0003797193    1.229    0.186
       104 -12.0655    137.4335    176.4648   6.4921771861e+01   1.9134391533e+01    0.2685048    0.2154494  70.59 0.0009468534    1.429    0.300
       105 -16.5247     70.5061    206.9667   8.3247352953e+01   2.3503430557e+01     3.185223     1.520208  35.70   0.01399351    1.935    0.483
       106 -12.1371    127.1448    174.0801   6.6800606134e+01   2.1380275546e+01    0.3701087    0.2121448 -53.73  0.001795685    1.899    0.474
       107 -12.8385    131.5286    169.1263   6.4992928565e+01   2.1594701474e+01    0.4183095     0.303155  50.76    0.0022393    1.316    0.240
       108 -12.7248    125.3788    167.4900   6.6108814113e+01   2.3004998815e+01     0.557514    0.2705409  35.64  0.002385344    2.090    0.522
       109 -16.1961     68.8298    184.4387   8.1446341386e+01   2.8253535991e+01     2.525316      1.31383  39.52   0.01312252    1.737    0.424
       110 -16.2693     92.2099    196.2612   7.7576562602e+01   2.2572506082e+01      4.23077     1.708863 -48.65   0.01806412    3.316    0.698
       111 -11.8626     24.1880    169.2440   9.0401861313e+01   3.6760872889e+01    0.2396053    0.1365292  44.72  0.001398282    1.576    0.365
       112 -11.9063     32.7990    172.6351   8.8646722539e+01   3.5136300877e+01    0.3320968    0.1302823  49.09  0.001603796    2.153    0.535
       113 -11.5937     14.8434    171.4947   9.2697267229e+01   3.7141601290e+01    0.1962073    0.1454626  88.63 0.0002743602    1.145    0.127
       114 -10.4610    236.7288    171.1658   4.5017755713e+01   2.8487307847e+00    0.2105326    0.1574141  22.59 0.0006859908    1.239    0.193
       115 -12.1224    194.2199    170.8521   5.2340567692e+01   1.0005550425e+01    0.5069022    0.1507566  37.66  0.001751817    3.538    0.717
       116 -13.3978    152.9752    167.2004   5.9938914680e+01   1.8098565348e+01     0.597717    0.3207801 -41.01    0.0027362    2.040    0.510
       117 -12.5584     47.5450    166.1782   8.4580020024e+01   3.4936425046e+01    0.5738049    0.3033624  81.86  0.002816868    1.999    0.500
       118  -9.9407     49.5438    161.5508   8.3620335484e+01   3.5752606611e+01     0.231572    0.1110827  37.74 0.0005817381    1.984    0.496
       119 -11.7288    172.3697    166.2565   5.5717902849e+01   1.4704966238e+01     0.317255    0.1703666 -39.34  0.001471005    1.966    0.491
       120 -10.2271     54.2995    167.3098   8.3057016393e+01   3.3864841025e+01    0.1170099   0.09729679 -43.24 0.0007011687    1.600    0.375
       121 -11.2193     10.8914    166.8288   9.3334336677e+01   3.8516406233e+01    0.2687824    0.2100505  23.94 0.0009863999    1.656    0.396
       122 -17.9409     10.2497    237.2968   9.6448391045e+01   2.4730145153e+01     2.624404     1.879502  65.75   0.02150408    1.084    0.078
       123 -11.7405     73.4550    163.4362   7.7914754116e+01   3.2199838933e+01    0.3122708    0.1643632 -76.03  0.001450081    2.039    0.509
       124 -10.7438    205.9955    164.5091   4.8937797506e+01   8.9136345641e+00    0.1952733    0.1220698  39.52 0.0006774547    1.554    0.356
       125 -10.0252     66.5065    160.5115   7.9269649968e+01   3.3826055125e+01    0.2217053    0.1224425  37.74  0.001066562    1.771    0.435
       126 -11.7270     64.5284    163.8575   8.0169484898e+01   3.3330115923e+01     0.377662    0.1951257  88.32  0.001663753    2.400    0.583
       127 -11.3279     63.2733    157.0206   7.9648362029e+01   3.5063292220e+01    0.2328406    0.1530446 -69.67   0.00059251    1.451    0.311
       128 -11.0262     66.0692    153.7514   7.8511586238e+01   3.5446653447e+01    0.2029293    0.1811415  84.67 0.0004557624    1.064    0.060
       129 -11.3319     56.4391    163.2187   8.2092773736e+01   3.4524184913e+01    0.2944717     0.218273 -43.33 0.0009049426    1.795    0.443
       130 -11.6608     59.2771    158.3747   8.0826708807e+01   3.5273646857e+01    0.3601965    0.1890038  58.09 8.251499e-05    1.902    0.474
       131 -12.1559      6.2565    147.7463   9.3326363059e+01   4.3210790119e+01    0.3719018    0.3206604 -60.12  0.002641636    1.416    0.294
       132 -11.5943     11.8486    149.1163   9.2006110389e+01   4.2448751522e+01    0.4033935    0.1934497 -89.44  0.001779645    1.780    0.438
       133 -12.6160     21.3529    159.7160   9.0398346344e+01   3.9175438147e+01    0.4451902    0.3007376 -85.20  0.001788602    1.255    0.203
       134 -11.4819     22.5269    148.6331   8.9245889529e+01   4.1629108660e+01    0.4767163    0.1554924  37.16  0.002137419    2.707    0.631
       135 -11.2040     16.7277    149.4613   9.0794729832e+01   4.1955528026e+01     0.252014    0.2238556  54.70 0.0008443084    1.260    0.206
       136 -11.2281     27.8142    150.7362   8.8065400978e+01   4.0632935263e+01    0.2553574    0.2259295  14.57 0.0008248768    1.529    0.346
       137 -11.2569     14.2348    156.7636   9.1926612721e+01   4.0488814902e+01     0.218799    0.1401487 -74.34 0.0006435669    1.414    0.293
       138 -12.8045     20.2067    154.1398   9.0268149964e+01   4.0560399565e+01    0.5981747     0.425881  10.62  0.003144042    2.052    0.513
       139 -11.8823     27.9030    160.8642   8.8890259196e+01   3.8281497307e+01     0.339123    0.2029798 -70.48    0.0011706    1.553    0.356
       140 -10.6927      4.0268    162.9390   9.4713424619e+01   3.9945357848e+01    0.2590471    0.1338874  59.98  0.001507674    1.595    0.373
       141 -12.6089    169.9205    159.9169   5.4981854502e+01   1.6279385945e+01     0.343901     0.298502 -51.68   0.00198467    1.288    0.224
       142 -14.6360     26.5145    234.9324   9.3517891772e+01   2.3520291980e+01    0.6181297    0.2365214 -80.88  0.003119497    2.627    0.619
       143 -12.5391    157.8180    159.3615   5.7414468878e+01   1.8663948854e+01     0.412938    0.3163778  80.19  0.002075369    1.855    0.461
       144 -11.6806     39.3475    159.4512   8.5945677725e+01   3.7406564528e+01    0.2354812    0.1576327  73.53  0.001364296    1.322    0.244
       145  -9.9206    196.2845    159.6677   4.9750236547e+01   1.1414792354e+01     0.124665    0.1089319 -75.39 0.0007010446    1.617    0.381
       146 -11.2995     40.7667    167.6788   8.6355331478e+01   3.5376287533e+01    0.3300264    0.1565386  82.01  0.001527754    2.297    0.565
       147 -10.8453    104.9906    158.0258   6.9342852424e+01   2.8514693633e+01    0.2187564    0.1930548  64.47 0.0004313596    1.051    0.048
       148 -12.6456     76.2888    156.2712   7.6239569792e+01   3.3424977638e+01    0.3442461    0.3169715 -36.08  0.001824721    1.376    0.273
       149 -10.8676     82.1573    156.0659   7.4721953809e+01   3.2603576350e+01    0.2866729    0.1863755  43.40 0.0008379848    1.464    0.317
       150 -13.1159    219.5430    230.5119   5.7920903885e+01  -1.8311049794e+00    0.3500386    0.2331831  -0.82  0.001557533    1.459    0.315
       151 -11.4589    121.5279    156.0044   6.4999274509e+01   2.6070696581e+01    0.2038633    0.1393512 -56.73 -6.496168e-05    1.535    0.348
       152 -11.2047    141.4781    154.9771   6.0163991867e+01   2.2602192667e+01    0.2109089     0.140894 -50.74 0.0009733463    1.581    0.368
       153 -12.0430     34.4307    154.7458   8.6739709702e+01   3.9024991949e+01    0.4780413    0.1833802  34.01  0.001430392    2.523    0.604
       154 -11.8863     44.4730    152.7279   8.3968678783e+01   3.8394952843e+01    0.2997404    0.2621066 -26.18 -0.0001365038    1.607    0.378
       155 -12.0998     39.9445    152.6015   8.5122821015e+01   3.8933571679e+01    0.2913397    0.2133482 -63.17  0.001023397    1.409    0.290
       156 -10.6157      2.5346    153.9140   9.4597601196e+01   4.2083648608e+01    0.2888035    0.1304197  72.12  0.001506019    1.914    0.478
       157 -11.5510     50.9597    153.2276   8.2349162160e+01   3.7512871939e+01    0.2648503      0.17455 -83.80 0.0008076102    1.397    0.284
       158 -10.6530    212.3096    153.6838   4.5613273718e+01   9.4445687055e+00    0.1228173    0.1074954 -69.66 0.0003690063    1.635    0.388
       159 -11.1680     88.3457    152.9725   7.2679700961e+01   3.2358298084e+01    0.1985655    0.1707171 -82.22 0.0004786305    1.117    0.105
       160 -12.4658    170.2208    150.2313   5.2946069153e+01   1.7976888915e+01    0.4127735    0.2319576  52.60  0.001747455    1.973    0.493
       161 -12.3968    130.1163    150.8350   6.1992731018e+01   2.5587290772e+01    0.3294874    0.2747725  64.75  0.001238528    1.248    0.199
       162 -10.2686     58.4819    151.0061   8.0126228360e+01   3.7095342382e+01    0.2420259    0.1512151 -25.12 0.0006730978    3.284    0.695
       163 -12.5340    108.7431    148.6539   6.6787100927e+01   2.9940421748e+01    0.3656972    0.3037936 -59.61 0.0008357596    1.227    0.185
       164 -12.0429     97.4104    149.5910   6.9815221623e+01   3.1664547376e+01    0.3916311    0.2082078  50.63  0.001726157    1.880    0.468
       165 -12.7158     84.6677    147.9825   7.2835268021e+01   3.4082766371e+01    0.4774882    0.3232654 -69.75  0.001569589    1.464    0.317
       166 -10.4973    224.1718    148.1745   4.2431451993e+01   8.1521890849e+00    0.1727239    0.1508925 -41.57 0.0003978094    1.334    0.251
       167 -10.3904    185.7052    148.3208   4.9416348746e+01   1.5303839244e+01    0.1327608    0.1130108 -80.00 0.0002540902    1.613    0.380
       168 -13.0214     33.7738    146.2522   8.6092855325e+01   4.1092152705e+01    0.5440032    0.4152045 -52.19  0.003301661    1.542    0.351
       169 -11.4174    133.0000    148.9586   6.0945398364e+01   2.5437802891e+01    0.2203107    0.2005592  86.62   0.00123485    1.160    0.138
       170 -10.1595    206.7792    146.4529   4.5064734202e+01   1.1590315314e+01    0.1914648    0.1210906  30.86   0.00094282    1.660    0.398
       171 -11.8972    147.6766    149.8967   5.7754721403e+01   2.2433192244e+01    0.3107012    0.2505937 -68.01 0.0004078766    1.449    0.310
       172 -12.9180    101.5792    142.2512   6.7437822963e+01   3.2633404414e+01    0.6114564    0.3628896  60.79  0.002281243    1.975    0.494
       173 -10.4784     24.6976    144.0019   8.8281201735e+01   4.2520301011e+01    0.1842632    0.1419122 -89.41  0.001160786    1.074    0.069
       174 -10.3546      3.3025    143.0155   9.3787521409e+01   4.4527449378e+01    0.1696423    0.1262543  87.78 0.0004442396    1.060    0.057
       175 -10.7303     70.0585    141.8373   7.5761862185e+01   3.7707361738e+01    0.2262947    0.1687788  69.88   0.00121989    1.314    0.239
       176 -11.1581    139.8901    140.8791   5.7668797590e+01   2.5791052221e+01    0.2147571    0.1993324  -4.77 0.0004238143    1.187    0.158
       177 -11.4530     94.7631    140.2865   6.8863348640e+01   3.4246020640e+01    0.2874777    0.1847792 -49.07  0.001238531    1.646    0.392
       178 -11.9368      7.8180    129.5839   9.1663457253e+01   4.7370572263e+01    0.4019741    0.1413736 -77.22  0.001711066    2.279    0.561
       179 -11.2905     12.3474    140.9645   9.1296961433e+01   4.4315235588e+01    0.2769011    0.2201542   8.03  0.001797253    1.772    0.436
       180 -11.9983     12.8258    133.7929   9.0610624261e+01   4.5982304735e+01    0.5965206    0.2464117  62.05  0.002724195    2.448    0.592
       181 -12.5205    229.9078    139.3670   3.9610234314e+01   8.4258451293e+00    0.2944414    0.2334612  33.28 0.0004403921    1.305    0.234
       182 -10.5467     30.8286    139.8400   8.6235939179e+01   4.2924188052e+01    0.2631896    0.1459761  46.15   0.00106166    1.725    0.420
       183 -11.9700     35.8981    136.9043   8.4524856107e+01   4.3117375767e+01    0.3451714    0.2384962 -60.42 0.0009943197    1.445    0.308
       184 -11.4210    170.7356    135.6249   4.9652242461e+01   2.0587610092e+01    0.2710669    0.2186106  -0.65 0.0009517421    1.444    0.307
       185 -11.9708    102.8827    134.7428   6.5656834763e+01   3.4134416345e+01    0.3794394    0.2036683 -50.13  0.001627371    1.886    0.470
       186 -10.3646     54.1826    135.8390   7.9270333210e+01   4.1279850075e+01    0.2047638    0.1595473  78.34 0.0004027818    1.185    0.156
       187 -10.5581    179.7419    135.0039   4.7662054188e+01   1.8855208492e+01    0.1956286    0.1807399 -27.13 0.0002094663    1.065    0.061
       188 -11.0412    140.5224    134.9829   5.6241994205e+01   2.6895559474e+01    0.3270322    0.2258563  79.04  0.001390224    2.197    0.545
       189  -9.5273     46.3896    135.2799   8.1389031212e+01   4.2356222432e+01    0.1290554   0.09901405 -35.57 0.0007000788    1.739    0.425
       190 -12.1894     26.0951    133.8828   8.6936885771e+01   4.4819066018e+01    0.3766344    0.2494007  84.14  0.001259878    1.322    0.243
       191 -11.4689     20.6505    132.4572   8.8322289065e+01   4.5654722729e+01    0.2476715    0.1740532  87.08   0.00148607    1.184    0.155
       192 -11.1480    118.5281    134.1966   6.1474851030e+01   3.1383164435e+01    0.2742677    0.2003376  -3.19  0.001194063    2.240    0.554
       193 -12.1002     62.4861    133.8866   7.6639320093e+01   4.0677050911e+01    0.5023211    0.2852916  26.85  0.002324841    2.152    0.535
       194 -11.8168    206.9355    129.3460   4.1226886506e+01   1.4326905369e+01    0.3901418    0.2742538 -65.43  0.001290019    2.206    0.547
       195 -12.0493    126.7119    131.9244   5.8921855807e+01   3.0303522627e+01    0.3311575    0.2649908  74.94  0.000860769    1.434    0.303
       196 -10.6218    143.3339    132.0494   5.4922953751e+01   2.6937525297e+01     0.212055    0.1974757 -52.57  0.001156323    1.086    0.079
       197 -12.0996     32.2445    128.7413   8.4624096358e+01   4.5482794325e+01    0.4170409    0.2919607 -50.81  0.001264575    1.589    0.371
       198 -11.1223     81.6569    129.6749   7.0494838896e+01   3.8896460203e+01    0.2327691    0.1512354  33.37 0.0008811474    1.697    0.411
       199 -11.7807     84.0000    128.0049   6.9518506162e+01   3.8925987108e+01    0.5827121    0.2004634 -67.32  0.001697466    4.253    0.765
       200 -11.5242    155.4939    129.7594   5.1605120334e+01   2.4888889703e+01    0.3307255    0.2186418  38.47  0.001067673    1.557    0.358
       201 -12.4886     35.7122    131.2321   8.3919211415e+01   4.4520022855e+01    0.3671076    0.3063348 -12.83 0.0003037505    1.696    0.410
       202 -10.6076    192.5800    128.2684   4.3597268365e+01   1.7415080563e+01     0.210701    0.1328513 -25.16 0.0009587935    1.693    0.409
       203 -11.5735     60.0235    125.8916   7.6077782360e+01   4.2968911752e+01    0.3471446    0.1732559 -58.58 0.0008126313    1.841    0.457
       204 -12.8771     13.9175    125.3575   8.9579615222e+01   4.7931773949e+01    0.5143352    0.2738092  42.77  0.002007058    1.873    0.466
       205 -11.9629     20.5243    122.6767   8.7385069611e+01   4.8050350884e+01    0.2404052    0.1949115  87.58 0.0006562322    1.023    0.022
       206 -12.1904    104.6384    121.8599   6.2476940272e+01   3.6813440803e+01    0.3679411    0.3235693  67.20 0.0004721577    1.141    0.124
       207 -11.2228     99.3234    118.6039   6.3229913709e+01   3.8551861105e+01    0.3384372    0.2450263  89.15 0.0009011169    1.714    0.416
       208 -10.7434     55.8290    123.0115   7.6853675648e+01   4.4228618296e+01     0.240154    0.1388589 -44.81  0.001099661    2.039    0.510
       209 -12.2190     36.1836    119.9240   8.2340603755e+01   4.7265119080e+01     0.395984    0.2427254  61.67  0.001174722    1.684    0.406
       210 -13.0571     44.3098    120.3583   7.9923263281e+01   4.6278117220e+01    0.4264688    0.3414257 -22.79   0.00240981    1.710    0.415
       211 -11.3837     49.4464    115.8060   7.7624997841e+01   4.6815299924e+01      0.75601    0.2035175  39.91  0.002666915    3.478    0.712
       212 -10.5614     67.9642    121.9911   7.3051346680e+01   4.2835512509e+01    0.1765085    0.1566218 -83.34  0.001008425    1.011    0.011
       213 -10.6639    189.1238    121.1957   4.2568989800e+01   1.9377313229e+01    0.2173074    0.1899859  -2.01 0.0004521428    1.180    0.153
       214 -12.0717      3.5840    119.6218   9.2099533436e+01   5.0059747650e+01     0.364339    0.2369871 -70.87  0.001381171    1.319    0.242
       215 -11.1091    231.2566    118.9703   3.4833037825e+01   1.1204682898e+01    0.3204684    0.1682065  31.99  0.001330719    2.437    0.590
       216 -11.0425     72.9475    120.0000   7.1194140792e+01   4.2594945155e+01     0.224761   0.08144508  35.19 0.0007998798    2.925    0.658
       217 -11.3880     19.1530    113.6636   8.6817758707e+01   5.0386640943e+01    0.2351996    0.1944831  57.95 0.0007902596    1.248    0.199
       218 -11.8439     21.5521    117.5049   8.6512344457e+01   4.9237672093e+01    0.3612734    0.1921168  53.61  0.001383119    1.913    0.477
       219 -11.0608     23.9847    115.2556   8.5499653627e+01   4.9585926801e+01    0.2793913    0.2047603  78.32  0.001063791    1.248    0.199
       220 -10.7454     93.9497    117.0891   6.4422977784e+01   3.9872265050e+01    0.3313634    0.1989544 -51.32 0.0009270912    1.619    0.382
       221 -10.5578      9.0074    116.3096   9.0205364860e+01   5.0499186962e+01    0.1684203    0.1414465  74.40 0.0004408224    1.134    0.118
       222  -9.8836    187.6968    115.2962   4.1393355258e+01   2.0730244194e+01    0.1437496     0.116276 -71.68 0.0002790887    1.580    0.367
       223 -11.3706    107.5624    112.8356   5.9574727899e+01   3.8362246486e+01    0.4198858    0.3236334  -8.68  0.001075951    1.903    0.474
       224 -11.5098     63.7235    113.5904   7.2773910919e+01   4.5516082241e+01    0.2741317    0.2191559  64.84 0.0008132996    1.278    0.217
       225 -11.6487     61.5211    110.4953   7.2867861607e+01   4.6590906398e+01    0.3312848    0.2098965 -50.40  0.001608909    1.570    0.363
       226 -12.1488     53.4442    110.8365   7.5503300753e+01   4.7567244508e+01    0.4610454    0.2981488  72.57  0.001939848    1.786    0.440
       227 -11.5190    219.0357    111.5755   3.4995671362e+01   1.4747123693e+01    0.3153595    0.1881834 -29.11  0.001497813    1.553    0.356
       228 -10.0401     82.3215    112.6718   6.6876021064e+01   4.2917841530e+01    0.1538868    0.1096935  78.50  0.000261589    1.689    0.408
       229 -10.8354    140.7812    107.9981   4.9650965822e+01   3.2532408627e+01    0.2255628    0.1711498  73.38 0.0005279045    1.621    0.383
       230  -9.7532     91.7317    108.3066   6.3055229916e+01   4.2365081938e+01    0.1481679    0.1131812  86.49 0.0001932014    1.536    0.349
       231 -11.5364     14.9074    107.2672   8.7436730216e+01   5.2300215697e+01     0.228478    0.1448877 -89.03 0.0006676533    1.362    0.266
       232 -10.4708    153.7916    106.7700   4.6266914264e+01   2.9885936769e+01    0.2165887    0.1837163 -80.59  0.001063089    1.380    0.275
       233 -10.9308      2.0147    106.8065   9.1512491639e+01   5.3269389297e+01    0.2184666    0.1466561 -82.15 0.0006002083    1.171    0.146
       234  -9.8924    116.2612    103.9896   5.4926896888e+01   3.8651669534e+01    0.2014119    0.1304224 -49.09 0.0007978487    1.503    0.334
       235 -11.2513     79.1084    100.9426   6.5181531617e+01   4.6301617446e+01    0.3067109     0.254026  82.56  0.000837784    1.298    0.230
       236 -10.9625     55.3304    101.1738   7.3024043914e+01   4.9743601422e+01    0.2328077    0.2114318  39.47  0.001004797    1.238    0.192
       237 -12.3731     59.1649     97.1647   7.0875874890e+01   5.0232077015e+01    0.5640887     0.267625 -50.02  0.002261735    2.001    0.500
       238 -11.6322      9.6828     99.2716   8.8248179656e+01   5.4644444239e+01    0.3284068     0.115664  62.44  0.001161785    4.124    0.758
       239 -10.3911    105.5011     99.4865   5.6761625971e+01   4.1851911390e+01    0.1531278    0.1453866 -70.82 2.823358e-05    1.011    0.011
       240 -11.6417     75.0735     97.6247   6.5677982646e+01   4.7762725985e+01    0.2637559    0.2335653 -60.99 0.0003988107    1.050    0.047
       241 -11.5068    167.1889     97.4754   4.0825322003e+01   2.8626295772e+01    0.3245827     0.235524   6.69   0.00117923    1.962    0.490
       242 -10.6939     45.8436     97.8485   7.5586396291e+01   5.1742395938e+01    0.2068592    0.1756232 -51.52 0.0006871953    1.194    0.162
       243 -11.4771     32.7456     97.7412   8.0108340358e+01   5.3162761268e+01    0.2673975    0.1741273 -49.38 0.0009028501    1.533    0.348
       244 -11.4842     22.4745     97.0036   8.3565435602e+01   5.4265642371e+01    0.3158914    0.1934891  43.55  0.001142842    1.770    0.435
       245 -10.0371    243.6047     93.2542   2.7045613054e+01   1.2582189138e+01    0.1809327    0.1151194 -22.49 0.0003089278    1.472    0.321
       246 -10.6241     69.9908    101.9456   6.8348660077e+01   4.7492940230e+01    0.2159393    0.1963446 -71.66            0    1.010    0.010
       247 -10.3741     54.2941     92.2948   7.1473979230e+01   5.2089192919e+01    0.2193652    0.1748603  30.69  0.000669352    1.434    0.303
       248 -12.3295     25.9469     90.0000   8.1221031615e+01   5.5723078528e+01     0.557046    0.2006123  27.73  0.002342849    3.051    0.672
       249 -11.2423    231.9344     89.1536   2.7599586599e+01   1.5522028551e+01    0.2698699    0.1971886  53.33 0.0009378618    1.549    0.354
       250 -10.6464    219.9011     89.2924   2.9336257704e+01   1.8042209213e+01    0.1850059    0.1813448 -11.04 0.0005787745    1.101    0.091
       251 -10.3333    102.3232     89.6849   5.4970391336e+01   4.4724339565e+01    0.1567181    0.1203237  89.74 0.0003717217    1.663    0.399
       252 -11.1209     11.5936     87.1630   8.6047436349e+01   5.7515674480e+01    0.3270647    0.1807438  79.51   0.00127666    1.933    0.483
       253 -11.0220      3.8694     88.2406   8.8999227913e+01   5.7714658073e+01    0.2794967    0.1290087 -64.77  0.001418669    1.696    0.410
       254 -10.4169    138.6184     88.1401   4.4616987561e+01   3.7139032801e+01    0.2179215    0.1906294 -39.28  0.000388454    1.123    0.109
       255 -13.0858     54.4378     85.5726   6.9849123984e+01   5.3729818109e+01    0.6507245    0.4199394  38.39   0.00325728    1.699    0.411
       256 -10.9131     48.1585     76.3842   6.9899798447e+01   5.6774109780e+01    0.2276794    0.1936601 -68.59  0.000394774    1.088    0.080
       257 -10.8788    149.1729     87.5955   4.1951369075e+01   3.4768960442e+01    0.2235184    0.1449376  40.14 0.0009434319    1.694    0.410
       258 -10.3784    125.8068     86.0471   4.7252838491e+01   4.0506820005e+01     0.311943    0.2153513  18.23   0.00126002    2.184    0.542
       259 -10.0689     66.2756     86.3117   6.5799605257e+01   5.1878612057e+01    0.1435445    0.1063031 -32.77 0.0001935879    1.558    0.358
       260 -11.5213     51.3049     79.3837   6.9466565662e+01   5.5649530803e+01    0.3492854    0.2529948  80.72   0.00124423    1.714    0.417
       261 -11.7786    171.0263     84.4953   3.6378756853e+01   3.0112734482e+01     0.291806    0.2185251 -37.98  0.001384195    1.276    0.216
       262 -11.1785     63.1269     82.1345   6.5813221785e+01   5.3356043735e+01    0.2298118    0.1860238 -31.97  0.001222195    1.366    0.268
       263 -11.1559    182.1503     81.1120   3.3295960812e+01   2.8027565354e+01    0.2250665    0.2069034  -2.05 0.0003963081    1.167    0.143
       264 -10.6649     76.9964     81.1947   6.0650046233e+01   5.1383543411e+01    0.2642051    0.1996996  60.34  0.001076513    1.532    0.347
       265 -12.8008     32.4687     73.6717   7.5468970088e+01   5.9168399446e+01    0.4757283    0.3255481 -46.08  0.001976152    1.386    0.278
       266 -12.2536     23.3737     79.0120   8.0225658460e+01   5.8669443538e+01     0.441368    0.2512831 -65.27  0.001979267    1.432    0.301
       267 -12.6321     29.3337     79.4856   7.7980723176e+01   5.8035573885e+01    0.4252994    0.2683964  35.14  0.001931076    1.794    0.443
       268 -10.3265    192.2478     79.9519   3.1198908177e+01   2.5809642010e+01    0.1980865    0.1205525 -35.15 0.0004215829    1.525    0.344
       269 -11.2009    153.4923     79.9983   3.8702289438e+01   3.5189092187e+01    0.2718086    0.2158047  35.67 0.0003711387    1.392    0.282
       270 -10.7638     88.4775     79.0062   5.6128424996e+01   4.9836218184e+01    0.2792195    0.2145846  63.85  0.001212959    1.524    0.344
       271 -12.8738    215.1357     75.6141   2.6469735271e+01   2.1183881723e+01     0.372636       0.2889 -39.55 0.0004454286    1.161    0.139
       272 -10.7831    183.1048     77.1324   3.1982664945e+01   2.8473053186e+01    0.2330203    0.2091122  10.35 0.0006247298    1.243    0.196
       273 -11.1161    112.0286     75.8930   4.7872382271e+01   4.5707270057e+01     0.343392    0.2697586 -34.22  0.001072476    1.295    0.228
       274 -10.9220    116.0918     74.1493   4.6149195011e+01   4.5168164737e+01    0.3430755    0.3025749 -71.57  0.001744207    1.219    0.179
       275 -10.5935    161.5282     76.5272   3.5934939926e+01   3.3861824242e+01    0.1560201     0.148111 -55.08 0.0001104448    1.032    0.031
       276 -11.3470     75.0809     75.3535   5.9573561456e+01   5.3066773960e+01    0.3215852    0.2056106 -48.40  0.001006677    1.442    0.307
       277 -10.1750     66.1485     73.8138   6.2340101899e+01   5.4875594994e+01    0.1956086    0.1586102 -32.24 0.0003527197    1.308    0.236
       278 -10.6376     51.3050     73.6613   6.7947572178e+01   5.7031309212e+01    0.1475412    0.1281248 -50.57 0.0003834554    1.061    0.057
       279 -10.0372     53.7281     72.3502   6.6635152700e+01   5.7023593268e+01    0.1489012    0.1281318 -45.69 0.0002321294    1.098    0.089
       280 -11.0806    187.3197     69.9206   2.9167547266e+01   2.8635300111e+01    0.2570163    0.2146611  52.31 0.0002643449    1.269    0.212
       281 -10.3345    236.2907     69.2804   2.2087555868e+01   1.7466189037e+01    0.2106546    0.1527338 -32.39 0.0004551909    1.193    0.162
       282 -11.2425    234.8657     65.8323   2.1386401242e+01   1.8249784689e+01    0.4142913    0.1545727 -36.54  0.001357295    2.175    0.540
       283 -10.6823      1.9032     68.3086   8.7120676063e+01   6.2680106084e+01    0.2069065    0.1424432 -83.31 0.0005158464    1.252    0.201
       284 -10.5533    196.6632     68.6616   2.7302213953e+01   2.6567143268e+01    0.1536401    0.1145826  17.71 -0.0003924485    1.755    0.430
       285  -9.8298     94.2914     68.6806   5.0879605333e+01   5.0976368670e+01    0.1505774    0.1188661 -80.16 0.0004447708    1.603    0.376
       286  -9.4952    132.6491     67.2594   3.9486307532e+01   4.2655229696e+01    0.1565697    0.1220411 -82.39 0.0001763669    1.607    0.378
       287  -9.6535    203.2945     66.3099   2.5642376599e+01   2.5341494885e+01     0.143948    0.1133634  14.83 0.0003671022    1.590    0.371
       288 -11.2929    178.5174     64.1078   2.8938282188e+01   3.1750811080e+01    0.2581851    0.2406451  56.89 0.0002880844    1.127    0.112
       289 -10.7589     55.4780     63.7849   6.3356646798e+01   5.8784916018e+01    0.2761032    0.1303883 -58.77  0.001134186    2.076    0.518
       290 -10.5499    114.0916     70.1708   4.5388331508e+01   4.6429199600e+01    0.2243418    0.2063523  -3.73 0.0003985586    1.189    0.159
       291 -11.8372     44.9914     61.7500   6.7062974129e+01   6.0643034133e+01    0.2890773    0.2503079 -21.64  0.001716163    1.246    0.197
       292 -11.9848    107.8133     59.5980   4.3489843551e+01   4.9934012775e+01    0.3177827    0.2782276  59.67 0.0005871066    1.211    0.175
       293 -10.5474    208.4746     59.4978   2.3019190488e+01   2.5120384932e+01    0.1464954    0.1313657 -45.62 -6.836131e-06    1.015    0.015
       294 -11.1132    193.2114     57.3930   2.4578445494e+01   2.9129972300e+01    0.2041333    0.1430962  81.34 0.0009506779    1.650    0.394
       295 -10.0358     50.4711     52.4763   6.1625691457e+01   6.2026327387e+01     0.248593    0.1235318 -52.56 -6.419507e-05    1.805    0.446
       296 -11.3415     54.6699     57.3446   6.1550744910e+01   6.0357779887e+01    0.3029555    0.1862048  54.87  0.001387959    2.207    0.547
       297 -11.0307     51.6436     56.3255   6.2473116029e+01   6.1011431998e+01    0.2772616     0.180881  62.63  0.001168171    2.316    0.568
       298 -11.1597     14.5824     61.1848   8.0311893296e+01   6.3669668608e+01    0.1907166    0.1793801 -13.84 0.0002817182    1.257    0.205
       299 -11.6360     28.1305     55.2859   7.2629122776e+01   6.3976966257e+01    0.3115053    0.2344375  64.61  0.001160244    1.694    0.410
       300 -10.9420    126.4930     53.7085   3.6272453046e+01   4.6612380572e+01    0.3739648    0.2367703 -87.59  0.001372573    2.759    0.638
       301 -10.5155    115.6014     53.7867   3.9138627735e+01   4.9222909463e+01    0.2174202    0.1376706 -46.31   0.00050138    1.599    0.375
       302 -12.0491     37.2721     52.1201   6.7420717961e+01   6.3762095277e+01    0.3577508    0.1984538 -57.61  0.001189363    1.589    0.371
       303 -11.2586    233.4998     52.9421   1.8255541069e+01   2.0298315829e+01    0.2241658    0.1982073  82.94 0.0003079557    1.252    0.201
       304 -10.4782     43.5052     51.5938   6.4398497352e+01   6.3138905313e+01    0.1346203     0.118641 -42.83 2.506162e-05    1.019    0.018
       305 -11.5572     30.6694     49.7530   6.9752765358e+01   6.5003149065e+01    0.3143525    0.2517787  60.10  0.001591691    1.581    0.367
       306 -10.0502    172.6776     49.6826   2.5445230974e+01   3.5473580698e+01    0.1546261    0.1164549  24.83 0.0007043126    1.666    0.400
       307 -10.9479     18.6107     48.9183   7.5377846412e+01   6.6267454204e+01    0.2396901    0.1823797 -43.28 0.0006631758    1.180    0.153
       308 -11.7837    155.4004     47.2371   2.7691959675e+01   4.0318065623e+01    0.2684015    0.2578077  53.89 0.0002958765    1.075    0.070
       309 -10.9376    176.8431     47.1643   2.3973802812e+01   3.4770713064e+01    0.2009841    0.1779657  11.10 0.0004049712    1.301    0.231
       310 -10.4391    190.0463     43.5110   2.0903541204e+01   3.1913155511e+01    0.2123632    0.1443858  67.42 0.0008761463    1.524    0.344
       311 -11.0940      1.9965     42.5710   8.2230031238e+01   6.8761347069e+01    0.2253249     0.144234 -65.70  0.000332732    1.241    0.194
       312 -11.1865    134.6285     39.3365   2.9044815783e+01   4.6884176896e+01     0.466835    0.1960722  46.94   0.00166397    2.504    0.601
       313 -11.5159     35.7384     39.7958   6.3729798914e+01   6.6643618835e+01     0.335026    0.2313893  11.23   0.00151278    1.735    0.424
       314 -10.3230    103.0077     39.5124   3.7047297373e+01   5.4627098522e+01    0.2205306    0.1450599  51.76 0.0006364568    1.541    0.351
       315 -10.5671    118.0023     41.7400   3.3872157090e+01   5.0693250437e+01    0.1983237    0.1301557  56.47 0.0008537885    1.542    0.352
       316 -10.0874     60.3303     37.6917   5.1411623731e+01   6.3564273559e+01    0.1320422    0.1107399 -82.37 0.0007040208    1.664    0.399
       317 -11.0657    230.3754     34.6653   1.3848817935e+01   2.3332611922e+01    0.2307423    0.2123122 -34.75 0.0003955324    1.127    0.113
       318 -10.5033    138.9534    247.4707   7.4057930684e+01   7.3446044901e+00    0.2474367    0.1476084  61.91  0.001454101    2.252    0.556
       319 -12.3416     22.1750     31.1712   6.7496724886e+01   6.9890212099e+01     0.308333    0.2138508 -44.45 0.0005509215    1.186    0.157
       320 -12.1690    105.9418     31.4338   3.2790013303e+01   5.5192924738e+01    0.3662039    0.3287195  72.84   0.00121267    1.211    0.174
       321 -11.4813     44.2268     33.0089   5.6658098388e+01   6.6942177493e+01    0.2698525    0.1793332 -19.87  0.001147515    1.716    0.417
       322 -12.4351     78.1687     30.6891   4.1157885383e+01   6.1483503072e+01    0.3281619    0.3094604  62.05 0.0008002876    1.220    0.180
       323  -9.9304      8.4930     31.5878   7.5528773609e+01   7.0871982975e+01    0.1213134   0.09928364 -50.46 0.0001960575    1.032    0.031
       324 -10.2838    146.9920     29.3417   2.2904236700e+01   4.5044619113e+01    0.2031782    0.1845483  75.74  0.001094076    1.091    0.083
       325 -12.6305     47.2292     27.0214   5.2358540539e+01   6.7635439125e+01    0.2996443     0.279989 -76.17  0.000896622    1.400    0.286
       326  -9.9369    162.4187    246.7895   6.9831912526e+01   4.1586741084e+00    0.1324455   0.09925854 -17.59 0.0009358713    1.695    0.410
       327  -9.7367    167.5878     25.5133   1.8304198603e+01   4.0071503170e+01    0.1467942    0.1351819 -61.57 8.821491e-05    1.038    0.037
       328 -12.1062     67.9282     25.1659   4.2326462870e+01   6.4395642626e+01    0.2067726    0.1903273 -57.49  0.001025388    1.303    0.232
       329 -10.2877    115.5059    244.9761   7.8030893281e+01   1.0941543622e+01    0.1372997    0.1110698 -66.78 0.0007903907    1.572    0.364
       330 -10.6160    134.8254     22.1520   2.2393867504e+01   4.9140422582e+01    0.2193335    0.1927141 -61.55 0.0003778574    1.183    0.155
       331 -11.3032    100.8180     21.4570   2.9725634058e+01   5.7796800089e+01    0.2551713    0.1928999 -25.78 0.0004619559    1.318    0.241
       332 -11.8007    189.6333     20.0961   1.3839332399e+01   3.4951952284e+01    0.2420238    0.2182678  89.76 0.0003159737    1.089    0.082
       333 -10.5174    172.1564     21.0695   1.6212459010e+01   3.9387987761e+01    0.2186212    0.1953837  36.35 0.0007773816    1.248    0.199
       334 -10.2624     31.0796     15.8866   5.5060110030e+01   7.1876441343e+01    0.1774386    0.1288213 -19.04 0.0004717375    1.303    0.233
       335 -11.1436    250.2337     21.8656   9.0555902646e+00   2.0477589365e+01    0.2046716    0.1630682 -33.22 0.0005407752    1.164    0.141
       336  -9.8248    205.6737    244.3300   6.2149406448e+01  -1.4777577003e+00   0.09692629   0.07842552  48.74 0.0005703938    1.706    0.414
       337 -11.0791    180.2041    243.4536   6.6333386680e+01   2.0905588062e+00    0.2521063     0.218999 -41.98  0.001977778    1.564    0.361
       338  -9.9092    131.2652    243.3443   7.5007256020e+01   8.9914869216e+00      0.11642   0.08893207  44.22   0.00031048    1.058    0.055
       339 -10.0168    134.3021    241.3650   7.4245910317e+01   8.8450377460e+00    0.1665754    0.0973838  29.02 0.0009968661    1.632    0.387
       340 -10.3385    197.6090    241.8773   6.3163438998e+01  -1.2173697738e-01    0.1458712    0.1166582  22.14 0.0006832371    1.092    0.084
       341 -11.8890     90.0481    238.2079   8.2105466274e+01   1.5418976440e+01    0.3539299     0.263861 -47.73   0.00183311    1.892    0.471
       342 -10.6710    116.7159    240.5676   7.7384782856e+01   1.1428647024e+01    0.2031662     0.086432  38.58 0.0009097492    1.827    0.453
       343 -12.0955    116.9270    236.0672   7.6897457310e+01   1.2081004904e+01    0.2880565    0.2310856  36.75  0.002083565    1.146    0.127
       344 -11.0995    111.9780    234.4612   7.7663380190e+01   1.3024599330e+01    0.2763592    0.1365379  32.50  0.001050879    1.910    0.476
       345 -10.7988     94.7496    250.1940   8.2226654063e+01   1.2941006794e+01    0.2657938    0.1000387  45.97  0.001022848    1.957    0.489
       346  -9.6254    230.2526    239.6273   5.7525282588e+01  -4.1872826760e+00   0.08583344   0.08069354  14.27 0.0006960442    1.640    0.390
       347 -10.0758    147.8235    239.1173   7.1538089305e+01   7.2344863436e+00    0.1502519    0.1109645  25.57 0.0004249616    1.265    0.209
       348  -9.8644     84.9811    237.9209   8.3022541282e+01   1.6130575127e+01    0.1309206    0.1013644  54.69 0.0004072342    1.036    0.035
