#   1 NUMBER                 Running object number                                     
#   2 MAG_AUTO               Kron-like elliptical aperture magnitude                    [mag]
#   3 X_IMAGE                Object position along x                                    [pixel]
#   4 Y_IMAGE                Object position along y                                    [pixel]
#   5 X_WORLD                Barycenter position along world x axis                     [deg]
#   6 Y_WORLD                Barycenter position along world y axis                     [deg]
#   7 A_WORLD                Profile RMS along major axis (world units)                 [deg]
#   8 B_WORLD                Profile RMS along minor axis (world units)                 [deg]
#   9 THETA_WORLD            Position angle (CCW/world-x)                               [deg]
#  10 FWHM_WORLD             FWHM assuming a gaussian core                              [deg]
#  11 ELONGATION             A_IMAGE/B_IMAGE                                           
#  12 ELLIPTICITY            1 - B_IMAGE/A_IMAGE                                       
         1 -14.6677     68.6417    144.3540   9.8552746444e+01   3.7361332303e+01     5.282728     2.794778  69.85  0.004383523    3.824    0.738
         2 -14.2870    218.8513     29.1080   3.4832618904e+01   2.7847756574e+01     1.145606    0.8881149  38.89  0.006986618    1.828    0.453
         3 -14.4737    205.8375     41.1352   3.8954430859e+01   2.9188212273e+01     1.895972     1.470206  32.35  0.007675101    1.817    0.450
         4 -12.7917    247.6049      6.1801   2.7954627876e+01   2.4587828375e+01     0.525536    0.3998305 -29.73  0.003718459    1.668    0.400
         5 -12.6454    241.4338      4.6506   2.8051253157e+01   2.5955876506e+01     0.506257    0.3485177 -47.07  0.003292503    1.328    0.247
         6 -10.9245     50.9457      3.7888   5.9566033944e+01   6.7948882111e+01    0.2861623     0.195559  61.82  0.001115458    2.209    0.547
         7  -9.9055     46.4469    167.0945   1.0847389518e+02   3.4297734088e+01    0.2442375    0.1868252  47.62 0.0004687812    1.335    0.251
         8 -10.7211    139.8810    249.5417   9.7089464455e+01   2.6696766066e+00    0.2295026    0.1788473 -86.04  0.001337558    1.903    0.475
         9 -12.8584     83.2326    216.3410   1.0541449469e+02   1.7673856059e+01    0.7680515    0.5293994 -89.97 0.0005014504    1.657    0.397
        10 -16.0554     40.3627    193.1069   1.1298852237e+02   2.8552969594e+01     5.342601     2.444702  57.03   0.01924839    2.345    0.574
        11 -10.8845    204.3264    199.4344   7.5172027553e+01   1.4884993285e+00    0.3151607    0.1262187  30.64  0.001226008    2.714    0.632
        12 -10.0965    121.8476    198.0791   9.3540411490e+01   1.5737557845e+01    0.3657546    0.2056734 -68.45   0.00148756    2.421    0.587
        13 -15.2611      6.2167    139.3164   1.1640814758e+02   4.4909856522e+01     4.951217     1.296426 -77.78   0.01176928    3.710    0.730
        14 -10.0826    147.2745    187.0766   8.5402160068e+01   1.3739343168e+01    0.2102724    0.1904671 -37.92 0.0007132904    1.129    0.114
        15  -9.7209     89.1009    210.9075   1.0335865239e+02   1.8031265330e+01    0.2039977    0.1848064  62.27  0.000571712    1.023    0.022
        16 -11.0087     81.0948    182.1354   1.0133811077e+02   2.5986232366e+01    0.3519736    0.3136579  68.08  0.001042485    1.092    0.084
        17  -9.8731     99.3469    180.8788   9.6357763721e+01   2.3473046391e+01    0.2595028    0.2135052  24.48 0.0006155274    1.293    0.227
        18 -11.5640    240.9138    178.3327   6.4169653488e+01  -5.2764154810e-01    0.2773845    0.1707468 -29.73  0.001487128    1.394    0.283
        19 -10.3544    187.3916    175.7849   7.3979917892e+01   8.8142345902e+00     0.357892    0.2658724 -45.82  0.001222926    1.390    0.281
        20 -12.0414     68.0176    168.8484   1.0283300866e+02   3.1160806550e+01    0.3902698    0.3318105 -23.17 0.0006204504    1.415    0.294
        21 -12.7716     85.0484    153.2464   9.5370801398e+01   3.2654686542e+01     1.778289    0.8945807 -59.43  0.007110638    1.935    0.483
        22 -12.6454     77.7004    159.7743   9.8657448034e+01   3.2101537617e+01    0.7690741    0.5085702  40.20 0.0004686987    1.538    0.350
        23 -13.5345     64.9213    155.5196   1.0159651648e+02   3.4986500428e+01    0.5692141    0.4532859 -42.43  0.001281978    1.320    0.243
        24 -11.0682    116.5764    247.7567   1.0180306520e+02   6.4380735146e+00    0.2929305     0.199291 -47.77  0.001078071    1.733    0.423
        25  -8.6910     77.6815    173.2932   1.0088918595e+02   2.8680476094e+01    0.1507223     0.106481  67.23 0.0005047595    1.605    0.377
        26  -8.9119    102.9486    164.9833   9.2561730141e+01   2.6775675421e+01    0.1744281    0.1697921  46.09            0    1.033    0.032
        27  -9.6726     53.8094    162.0680   1.0576215699e+02   3.4716340968e+01    0.2621153    0.1811481 -20.12  0.001236836    2.049    0.512
        28 -11.0753    133.6636    144.3801   7.9879205014e+01   2.6100841906e+01     1.235531    0.2963642 -53.85   0.00262787    6.446    0.845
        29  -8.7174    112.3058    150.2710   8.7006647468e+01   2.8768228115e+01    0.1540599     0.122441 -11.95 0.0002778263    1.538    0.350
        30 -10.4030    174.5737    149.0250   7.0957902474e+01   1.6779394804e+01    0.2756296    0.2713774 -83.42   0.00076537    1.138    0.122
        31 -11.5658     56.1517    146.2675   1.0264078029e+02   3.8501450560e+01    0.5794178    0.4306114 -44.76  0.002986804    1.361    0.265
        32  -9.5477     34.7734    145.0005   1.0880432573e+02   4.1181129843e+01     0.276851      0.20392 -66.67  0.000964773    1.181    0.153
        33 -10.2955     31.8141    143.1799   1.0942606147e+02   4.1929930648e+01    0.3379081     0.211486 -48.52  0.001716244    1.554    0.357
        34 -10.8232     99.8996    139.2731   8.8160298370e+01   3.3728225234e+01    0.5851188    0.3768551 -21.20  0.002288524    2.282    0.562
        35 -12.5067     86.9571    138.6566   9.1885183433e+01   3.6070243836e+01    0.3199039     0.273011 -43.74 0.0004013815    1.146    0.128
        36 -17.1969     18.4841    242.9140   1.2139104041e+02   1.9921793899e+01      7.29571     2.397564  25.54    0.0211305    4.296    0.767
        37 -10.4721    105.8357    130.8429   8.4475598398e+01   3.4746143561e+01    0.3755215    0.3673002  58.10  0.001238304    1.071    0.067
        38 -10.3808    109.6526    129.7137   8.3085095143e+01   3.4307606813e+01    0.3289361    0.2512853   9.43 0.0009406304    1.611    0.379
        39 -10.5305    134.9835    128.1800   7.5630205848e+01   2.9612851447e+01    0.4562005    0.3657333 -46.29  0.002162357    1.228    0.186
        40 -12.1211    236.2857    173.2208   6.3950762668e+01   1.0383906421e+00    0.2943283    0.2418719  14.12  0.001793017    1.253    0.202
        41 -12.3581     63.2881    173.3162   1.0477210908e+02   3.0663240957e+01     0.531723     0.305869 -41.24  0.002213236    2.110    0.526
        42 -10.7031     67.1636    125.0653   9.5191644216e+01   4.2517670068e+01    0.3302679    0.1881582 -44.36  0.001421099    1.708    0.414
        43  -9.6656    160.4407    127.7132   6.9126597899e+01   2.4303473906e+01    0.3118214    0.1489955 -47.79  0.001137331    2.107    0.525
        44 -10.6070     97.2068    125.4634   8.5779602088e+01   3.7634778402e+01    0.3124278    0.2462666  -4.78 0.0008078335    1.545    0.353
        45  -9.9594    116.4770    124.0365   7.9706305469e+01   3.4350657993e+01    0.3123826    0.1948442  -1.61  0.001018197    3.274    0.695
        46  -8.9948    163.2644    121.0046   6.6784856870e+01   2.5126197662e+01    0.2010065    0.1331006 -42.00 0.0003681746    1.462    0.316
        47 -10.0094    135.0000    120.4095   7.3647119249e+01   3.1382776998e+01    0.3516553   0.08965158 -45.65 0.0009246195    3.853    0.740
        48  -8.8722     61.2526    119.9462   9.6038990759e+01   4.4616126793e+01    0.1883251    0.1188065 -59.59   0.00051333    1.478    0.323
        49 -11.6838    193.3697    195.4545   7.6656463697e+01   3.9920852797e+00    0.9846662    0.5229129 -62.91  0.002977495    5.560    0.820
        50  -9.8985    106.8141    118.7747   8.1205633066e+01   3.7482766660e+01     0.222151    0.2024315 -13.79  0.000351557    1.132    0.117
        51 -13.1683    246.5347    108.5906   4.8850161714e+01   1.0440660523e+01    0.9035152    0.5384616 -28.08  0.004543304    1.776    0.437
        52 -10.1821    205.2367    110.3292   5.5637717998e+01   1.8177782134e+01    0.3221357    0.2526602  30.90  0.001072815    1.517    0.341
        53 -10.8457     29.0256    107.7316   1.0464613792e+02   5.1179440706e+01    0.4786033    0.1330887  17.53  0.001535478    4.789    0.791
        54  -9.7270    134.3289    104.8343   6.9654062164e+01   3.4963190782e+01    0.3321815    0.1394949 -50.08  0.001096288    2.633    0.620
        55  -9.7214     56.7055     99.9920   9.3010755428e+01   5.0137860791e+01    0.2010399    0.1688339 -46.31 0.0002116751    1.078    0.073
        56 -12.8740    245.9692     95.7027   4.6197866642e+01   1.2664054475e+01    0.6750953    0.4599318 -76.97  0.003610805    1.901    0.474
        57 -10.7876     53.0973     91.3400   9.2133047245e+01   5.2644641202e+01    0.2877212    0.2028497 -59.04 0.0009347355    1.423    0.297
        58 -10.3191     17.9178     90.1500   1.0533642880e+02   5.6306172874e+01    0.1870321    0.1693017 -86.94 0.0004840259    1.270    0.213
        59 -10.2453     30.4956     95.2352   1.0160783561e+02   5.4111680049e+01    0.4045818    0.1001532  33.97  0.001369427    4.184    0.761
        60  -9.6312    160.4895     83.0570   5.7282347363e+01   3.3283791377e+01    0.2243066    0.1476594 -37.91 0.0004909523    1.522    0.343
        61  -9.5014     71.9091     83.0904   8.2801057816e+01   5.1838106275e+01    0.2066576    0.1949393  70.88 0.0004846037    1.317    0.241
        62  -8.9614    184.3782     77.2725   5.1093984077e+01   2.8698306889e+01    0.1454363    0.1118408  26.62 0.0006998564    1.694    0.410
        63  -8.8451     90.3962     65.4734   7.0589609035e+01   5.2100983475e+01    0.1423846    0.1344573  -3.76 3.846523e-05    1.066    0.062
        64  -9.4770     47.9937     62.3424   8.5581177023e+01   5.9600529615e+01    0.1829621    0.1562889   3.17 0.0003779525    1.125    0.111
        65 -11.0078     13.5235     59.9913   1.0017367464e+02   6.3406632418e+01     0.259767    0.2043622 -57.99 0.0004458549    1.281    0.219
        66 -11.6632    115.6639    241.9926   1.0129275075e+02   7.6440508930e+00    0.3311912     0.235122 -68.01   0.00126966    1.714    0.417
        67 -12.6798    196.6985     47.1623   4.1547395449e+01   3.0453001012e+01    0.6605227    0.5120611  44.23  0.001179697    1.540    0.351
        68 -14.2002     15.1246    215.1926   1.2041556165e+02   2.6067131513e+01    0.9563809    0.4128537  34.65  0.004972583    2.202    0.546
        69 -10.4399    197.9961     23.9532   3.5772557625e+01   3.3085595870e+01    0.2636131    0.1879806 -22.19 0.0009769865    1.764    0.433
        70  -9.8515    189.5224     14.9882   3.4522223301e+01   3.6013477020e+01    0.1905694    0.1536162  85.73 0.0006906679    1.071    0.066
        71 -10.7439    135.7297     42.1826   5.0375581751e+01   4.5698902272e+01    0.2597442    0.2317461 -73.36 0.0004038263    1.232    0.188
        72 -15.1019     10.4329    206.5709   1.2085023450e+02   2.8415834833e+01    0.9969868    0.8059881  23.59  0.003234622    1.567    0.362
        73 -12.9064    177.0769    216.8601   8.4063057274e+01   2.7159108029e+00    0.7306586    0.3134755  23.85  0.002694017    3.023    0.669
        74 -10.2990    111.1371    203.4948   9.7013296288e+01   1.6290246821e+01     0.236578    0.1923191  78.01 0.0008654232    1.415    0.293
