#   1 NUMBER                 Running object number                                     
#   2 MAG_AUTO               Kron-like elliptical aperture magnitude                    [mag]
#   3 X_IMAGE                Object position along x                                    [pixel]
#   4 Y_IMAGE                Object position along y                                    [pixel]
#   5 X_WORLD                Barycenter position along world x axis                     [deg]
#   6 Y_WORLD                Barycenter position along world y axis                     [deg]
#   7 A_WORLD                Profile RMS along major axis (world units)                 [deg]
#   8 B_WORLD                Profile RMS along minor axis (world units)                 [deg]
#   9 THETA_WORLD            Position angle (CCW/world-x)                               [deg]
#  10 FWHM_WORLD             FWHM assuming a gaussian core                              [deg]
#  11 ELONGATION             A_IMAGE/B_IMAGE                                           
#  12 ELLIPTICITY            1 - B_IMAGE/A_IMAGE                                       
         1 -14.8803     46.9877     65.4878   1.1003780045e+02   5.7869920421e+01     2.171841    0.8563238 -45.69  0.009557415    2.208    0.547
         2 -13.0234      2.9968     46.3516   1.2233339313e+02   6.5316289333e+01    0.8963154    0.4226632 -72.87  0.003916803    2.062    0.515
         3 -14.1482      5.7225     22.2898   1.1456354699e+02   6.9935408373e+01     1.290217    0.6991702 -42.40  0.006988476    1.386    0.279
         4 -12.8179     12.6681     14.9926   1.0837780560e+02   7.0815996719e+01    0.4439273     0.294862  19.70  0.002352574    1.720    0.419
         5 -12.3407     83.6854     22.6577   8.1257470423e+01   6.0186457936e+01    0.3825209    0.3251166  -7.05 0.0008849404    1.068    0.064
         6 -11.4741     65.0919     17.6443   8.5646308878e+01   6.4171685427e+01    0.4099077    0.2649723  12.62  0.002201779    1.714    0.417
         7 -12.2187     95.4143      3.5319   6.9204975383e+01   6.0075185322e+01    0.5313067    0.2615989  41.52  0.002507031    1.834    0.455
         8 -11.5263     79.0392      3.3939   7.3981167292e+01   6.3437042656e+01    0.5135298    0.2486536 -21.46  0.002221383    2.054    0.513
         9 -11.9423     75.6126     13.4866   7.9896306764e+01   6.2908272059e+01    0.3740546    0.2828906  35.64  0.001006961    1.274    0.215
        10 -12.9192     87.0331      3.0306   7.1348544409e+01   6.1881434775e+01      0.89377    0.5225735  33.64  0.003870329    1.601    0.375
        11 -11.6769     82.1844     13.8130   7.7834147194e+01   6.1635183652e+01     0.301444    0.2300944  31.74 0.0007568809    1.213    0.176
        12 -12.6160     87.1888     11.7250   7.5296072328e+01   6.0904262095e+01     0.615534     0.386457  63.60  0.001836411    2.106    0.525
        13 -11.6821    123.8133     10.4607   6.5222686439e+01   5.2906531798e+01    0.3374086     0.223172  43.93 0.0005522215    1.375    0.273
        14 -11.1679    137.7255      5.6524   6.0617565156e+01   4.9947171907e+01    0.3770329     0.216836  62.97  0.001276959    1.591    0.372
        15  -9.9658    128.5879      5.5533   6.2321773406e+01   5.2222328841e+01    0.1367584       0.1239  40.95 0.0001164327    1.014    0.013
        16 -10.8698    111.7287      4.7650   6.5634533542e+01   5.6316415161e+01    0.3840216    0.1519081  52.41  0.001604795    2.139    0.533
        17 -11.4706    104.9119      3.8764   6.6893798401e+01   5.7955169953e+01    0.3751371    0.2436169  27.29  0.001955824    1.521    0.342
        18 -10.8749     32.9113      4.1741   9.3047480975e+01   7.0627645700e+01    0.2678187    0.1739474  18.47  0.001562076    1.535    0.349
        19 -11.5299     73.3070      1.5148   7.4948647199e+01   6.4726738437e+01    0.2294631    0.1446702  48.80 0.0004627739    1.599    0.375
        20 -12.8432    248.0515    144.9545   8.0401755819e+01   3.5639877885e+00     1.163685    0.4341272 -35.19   0.00477462    2.530    0.605
        21 -10.9141     29.5091    153.0532   1.2956025910e+02   4.0037041578e+01    0.1835577   0.09711501 -75.79  0.001038263    1.606    0.377
        22 -11.6530    166.1478    150.4462   9.7177513534e+01   1.9117149129e+01    0.4881776     0.321054 -44.32  0.002346626    1.621    0.383
        23 -10.4527     91.4137    151.2498   1.1467177651e+02   3.2730247016e+01    0.1903451    0.1231183 -74.57 0.0009556201    1.663    0.398
        24 -13.3507     49.6196    142.0246   1.2356911440e+02   4.0377343575e+01    0.8096887    0.4713382  38.55  0.004502728    1.797    0.443
        25 -10.5776     90.3717    145.8038   1.1403415184e+02   3.4084478293e+01    0.1968463    0.1165876 -50.84 0.0009554356    1.748    0.428
        26 -12.3633    215.8996    142.3311   8.5401076390e+01   1.0227188660e+01    0.7374454    0.3958179  45.54  0.003323693    1.823    0.451
        27 -11.3596      3.1022    140.5163   1.3450655806e+02   4.4897615223e+01    0.3235371    0.1690737 -79.14  0.001990898    1.495    0.331
        28 -11.2617     75.7053    140.9909   1.1690567016e+02   3.7316761470e+01    0.1958229    0.1622462 -76.24   0.00117338    1.115    0.104
        29 -11.1648    240.1853    145.9775   8.1922730086e+01   4.8889843727e+00    0.3264324    0.2533364 -16.19  0.001871161    1.202    0.168
        30 -13.9349    201.0020    126.9520   8.4692888788e+01   1.5925637936e+01     1.873737      1.09324 -13.48  0.007306034    2.566    0.610
        31 -14.5522    214.6887    124.8787   8.1626066820e+01   1.3305141314e+01     1.540908     1.351354  52.87  0.008564275    1.236    0.191
        32 -10.0932    122.5233    134.4762   1.0392509378e+02   3.1027001258e+01    0.1437218     0.137024  73.81 0.0002433135    1.018    0.018
        33 -11.6724     21.3009    133.8729   1.2961272171e+02   4.4956887438e+01    0.2590234    0.1352227  49.92  0.001471601    1.953    0.488
        34 -10.9043    138.9155    152.3474   1.0363528960e+02   2.4176321043e+01    0.2679977    0.2170599 -41.45  0.001006491    1.341    0.254
        35 -11.0460    121.8127    127.3170   1.0256997653e+02   3.2698347523e+01    0.3124931    0.2583025  30.78  0.001309032    1.304    0.233
        36 -12.4505     34.3111    135.8847   1.2661359651e+02   4.3344996777e+01    0.3588276     0.168532  39.17  0.001890013    2.184    0.542
        37 -11.7849     32.9650    103.2435   1.2254797932e+02   5.0842339616e+01    0.3179125    0.1261387 -58.77  0.001017919    2.012    0.503
        38 -10.8077    113.9618     96.7746   9.7260897282e+01   4.0787404696e+01    0.2947981    0.2141803 -57.16  0.001415627    1.450    0.310
        39 -12.0999    188.0604     94.6435   7.9083398020e+01   2.4518269567e+01    0.3787478    0.2993649  53.49   0.00128883    1.279    0.218
        40 -12.6203     40.9694     82.4520   1.1620543643e+02   5.4787361645e+01    0.4744065    0.4122678 -36.62  0.002905092    1.182    0.154
        41 -13.8359     34.0183     86.1941   1.1924945097e+02   5.4601118110e+01    0.8181182    0.5632936  60.38  0.004776969    1.791    0.442
        42 -14.6932     34.6465     73.7946   1.1647579469e+02   5.7298570271e+01     0.955784    0.5623815 -53.59  0.005382877    1.389    0.280
        43 -13.5138      5.1308     83.9230   1.2816609239e+02   5.7156794554e+01    0.7262428    0.3034678 -54.74  0.003922429    1.888    0.470
        44 -13.0708    135.6855     79.3273   8.6493926135e+01   3.9728344848e+01    0.5944398    0.4595554  19.99   0.00282501    1.520    0.342
        45 -11.4132     89.1169     82.9240   1.0072993504e+02   4.8273278590e+01    0.2103746    0.1906244 -37.93 0.0003223306    1.046    0.044
        46 -12.2262     84.2313     80.5945   1.0160142799e+02   4.9577240810e+01    0.2785985    0.2294155 -84.37  0.001499119    1.515    0.340
        47 -12.3341    245.0708    248.3055   9.9650508272e+01  -8.2667399112e+00    0.2581635    0.1743653  -7.66  0.001874201    1.481    0.325
        48 -12.8771     34.3962     47.8574   1.0983236271e+02   6.2805859698e+01    0.3693334    0.3544466   9.30  0.001567955    1.249    0.199
        49 -14.6040     80.4311     69.4529   9.9583298734e+01   5.2526179837e+01     1.325364      0.90137  -4.37   0.00619518    2.138    0.532
        50 -14.8585     60.0646     70.6298   1.0680883656e+02   5.5219383043e+01      1.23712    0.7402973  21.77  0.005769399    2.058    0.514
        51 -13.5769     36.6279     55.5312   1.1118214099e+02   6.1024330120e+01    0.5717486    0.3521931 -41.53  0.002501344    1.403    0.287
        52 -13.8301     42.2970     47.7276   1.0661333468e+02   6.2036242282e+01     1.004709    0.4259594  19.11  0.003221816    3.386    0.705
        53 -13.6582     96.1945     71.7378   9.5266355959e+01   4.9355540930e+01    0.6339079    0.4661888  30.34  0.001697482    1.467    0.318
        54  -9.8794    144.6440     73.7387   8.2570205533e+01   3.8698709963e+01     0.157613    0.1167276  21.76 0.0002927019    1.621    0.383
        55 -11.6080    107.9933     71.0096   9.1496838349e+01   4.7246550479e+01    0.2243982    0.2136866 -28.65 0.0004316049    1.028    0.027
        56 -11.3374    130.9602     66.5112   8.3721545954e+01   4.3179035615e+01    0.4213092    0.2093262 -18.96  0.001298145    3.778    0.735
        57 -12.9658    118.1125     72.1343   8.8963258932e+01   4.4952059773e+01    0.5691807    0.2063515 -34.08  0.001794469    3.329    0.700
        58 -10.4407    169.8654     63.1395   7.3723145754e+01   3.4327682077e+01    0.2369282    0.2252471  42.45 0.0004005314    1.036    0.035
        59 -10.6102    166.0353     63.2344   7.4534551953e+01   3.5276160727e+01    0.3017337    0.2237153  60.27  0.000807994    1.369    0.270
        60 -10.5653    214.6306     61.4356   6.5425197129e+01   2.3347416798e+01    0.2968085    0.1747604 -26.59  0.001310922    1.741    0.426
        61 -12.0159    125.0345     57.6329   8.2347277537e+01   4.6088008237e+01    0.4205192     0.293165  44.67 0.0007929358    1.418    0.295
        62 -13.6669     67.8844     54.0465   9.8981248885e+01   5.7540921731e+01    0.4720809    0.4186648  79.50   0.00149977    1.527    0.345
        63 -10.1763    174.9528     56.5099   7.0709137753e+01   3.4074082830e+01    0.2236274    0.1474986  58.58 0.0005074429    1.495    0.331
        64 -10.5366    210.0889     54.8343   6.4307136685e+01   2.5410866725e+01    0.2324401    0.1633546  33.21  0.001091768    1.690    0.408
        65 -11.6832    133.5108     54.0017   7.8940116055e+01   4.4745904939e+01    0.4185561    0.2926339  65.07  0.001453679    1.653    0.395
        66 -10.5394     92.3245     53.0185   9.0305088062e+01   5.3665012270e+01    0.1927892    0.1713934 -24.19 0.0005604076    1.053    0.050
        67 -11.3411    145.4923     50.8720   7.5034621555e+01   4.2361627421e+01    0.3004357    0.2734534  -6.19 0.0007956096    1.126    0.112
        68 -11.5759    194.0059    249.2906   1.0824828351e+02  -8.9646649739e-01     0.172783    0.1186486  34.91  0.001185999    1.085    0.078
        69 -11.1878    187.6053    197.8021   1.0171368317e+02   6.9645650918e+00    0.1666696    0.1250013 -51.40  0.000959055    1.712    0.416
        70 -11.0102    144.5047    181.4859   1.0763535777e+02   1.7515866019e+01    0.1361385    0.1195039  52.77 0.0003286588    1.051    0.048
        71 -12.2890     80.1927     48.6125   9.2757497503e+01   5.6620196501e+01    0.2719281    0.2485319  11.54  0.001229792    1.101    0.092
        72 -11.4467     68.2409     48.2080   9.6840322964e+01   5.8604364756e+01     0.167918    0.1587994 -69.42 0.0006355142    1.319    0.242
        73 -13.7313     42.2183     42.3839   1.0488415598e+02   6.3090991422e+01    0.8578436    0.3803036  25.56  0.002220799    2.653    0.623
        74 -10.7712    182.4845     45.4622   6.5996412255e+01   3.3748045067e+01    0.3011375    0.1456296 -30.06 0.0008727619    2.094    0.522
        75 -10.9342    157.1162     43.9685   7.0244957111e+01   4.0483538215e+01    0.2512371    0.2100617  51.57 0.0005124534    1.149    0.130
        76 -11.0987     28.8678     42.8152   1.1057379950e+02   6.4315368642e+01    0.1897823    0.1339236 -35.89 0.0005502785    1.210    0.173
        77 -10.5687    218.0765     38.6303   5.8804657330e+01   2.5603833446e+01    0.2376707    0.1815197 -46.05 0.0006295035    1.263    0.209
        78 -11.6987     37.6211     34.7973   1.0415109458e+02   6.5021815823e+01    0.3112016    0.1927244 -47.93  0.001383746    1.423    0.297
        79 -12.3619     40.6603     33.2869   1.0228896109e+02   6.4971900357e+01    0.3856233    0.2364533  11.84  0.002142383    1.935    0.483
        80 -12.1376     79.5382     29.8640   8.5716691554e+01   5.9893117405e+01    0.3417279    0.2697236 -20.36 0.0004020102    1.169    0.145
        81 -10.7035    176.5041     33.4569   6.3311699825e+01   3.6896288823e+01    0.2377768     0.228913  58.94 6.697293e-05    1.017    0.017
        82 -10.8843     54.0912     34.1957   9.7048352726e+01   6.3163018192e+01    0.1977045    0.1530132 -11.28 0.0005279204    1.240    0.193
        83 -11.3363     83.0115     33.4755   8.6004182346e+01   5.8703858043e+01    0.3393038    0.2805156 -12.38 0.0009612066    1.119    0.106
        84 -11.4148    203.0542    172.2263   9.4085065823e+01   8.0314964437e+00    0.2936988     0.225691 -18.09   0.00164649    1.377    0.274
        85 -10.2229    242.5349     23.3752   5.2223283529e+01   2.1580361913e+01    0.2578273    0.1128501 -89.47 0.0009492122    3.404    0.706
        86  -9.5841    140.6900     21.2940   6.5764727938e+01   4.7582394375e+01    0.1414149     0.110212 -68.24 0.0002081341    1.589    0.371
        87 -11.0503      2.6270    171.1534   1.3660951366e+02   3.8583147679e+01    0.1563379    0.1073241  70.94  0.001151768    1.157    0.135
        88 -12.2393    197.9283    167.3812   9.4116222844e+01   9.7854003332e+00    0.3446059    0.3029546  23.27  0.001670555    1.017    0.017
        89 -11.9400    240.3150    159.0387   8.4666066835e+01   3.0030263703e+00    0.3138977    0.2436412 -24.06  0.001604698    1.246    0.198
        90 -12.4264    240.3992    153.7502   8.3545804823e+01   3.7340613236e+00    0.3888421    0.2682587 -14.17  0.002032092    1.438    0.305
        91 -11.2567     79.4951    162.5221   1.1915931737e+02   3.2060922010e+01    0.1299001    0.1118329  76.96 0.0001128933    1.024    0.023
        92 -11.1527    227.2370    160.6301   8.7270861107e+01   5.1967445548e+00    0.2502124    0.1614064  33.44  0.001114236    1.467    0.318
        93 -12.0315     74.7722    158.3055   1.1968063845e+02   3.3629967076e+01    0.2688149    0.1657022 -56.37  0.001445583    1.650    0.394
        94 -12.3068    170.9498    158.0833   9.7720948925e+01   1.6734080550e+01    0.4442895    0.2000662  43.65  0.001799302    2.060    0.515
        95 -13.5868    203.0060    150.4727   8.9621713886e+01   1.1534927824e+01    0.8875854    0.4693615 -28.17  0.003819765    2.133    0.531
        96 -11.4880    232.1608    153.9148   8.4996158511e+01   5.2523050701e+00    0.2961425    0.2630481 -12.59  0.001569035    1.108    0.097
        97 -12.4862    189.7794    153.4201   9.2864600337e+01   1.3736901507e+01    0.5538316    0.3359811 -20.53  0.002429419    2.149    0.535
        98 -12.6003    193.2055    147.0674   9.0812096754e+01   1.4124732217e+01    0.5401549    0.2445443 -42.62  0.002161586    2.355    0.575
        99 -12.6103     19.3039    153.7339   1.3191204305e+02   4.0816704937e+01    0.2778123    0.2693186  40.29  0.002210173    1.397    0.284
