#   1 NUMBER                 Running object number                                     
#   2 MAG_AUTO               Kron-like elliptical aperture magnitude                    [mag]
#   3 X_IMAGE                Object position along x                                    [pixel]
#   4 Y_IMAGE                Object position along y                                    [pixel]
#   5 X_WORLD                Barycenter position along world x axis                     [deg]
#   6 Y_WORLD                Barycenter position along world y axis                     [deg]
#   7 A_WORLD                Profile RMS along major axis (world units)                 [deg]
#   8 B_WORLD                Profile RMS along minor axis (world units)                 [deg]
#   9 THETA_WORLD            Position angle (CCW/world-x)                               [deg]
#  10 FWHM_WORLD             FWHM assuming a gaussian core                              [deg]
#  11 ELONGATION             A_IMAGE/B_IMAGE                                           
#  12 ELLIPTICITY            1 - B_IMAGE/A_IMAGE                                       
         1 -12.3628    201.1990     34.7843   4.7074891051e+01   3.0513450443e+01     1.146864    0.9354933 -20.79  0.005571899    1.378    0.274
         2 -12.6121    214.6027     21.9197   4.2119970401e+01   2.8805545698e+01     1.337479    0.9135089  20.98  0.006583037    2.277    0.561
         3 -11.1491     21.5648     37.5139   9.8701703013e+01   6.6536080823e+01    0.5852516    0.1109407 -54.66  0.001843233    5.075    0.803
         4 -10.2102     32.9093      5.2184   7.8952143561e+01   7.0589004153e+01    0.6154776   0.08958122 -34.63  0.001811232    6.569    0.848
         5 -10.4852     21.2264     14.2281   8.9373602625e+01   7.0608862348e+01    0.2770611     0.127916 -49.64  0.001396337    2.523    0.604
         6  -8.5541    239.9714      1.4714   3.5075932566e+01   2.5176818009e+01    0.1842173    0.1087136  79.85 0.0006373076    1.588    0.370
         7 -12.3853     47.5309    223.7748   1.2144136439e+02   2.2387405470e+01     1.171785    0.5804008  89.75 0.0003306735    2.068    0.516
         8 -12.9951     86.6394    227.6902   1.1437302346e+02   1.6476620159e+01     2.748037    0.9161339  57.86 0.0004200292    4.391    0.772
         9 -13.5801     69.7251    248.3425   1.1931801070e+02   1.5078761481e+01     4.430878    0.7579412  38.37   0.01559621    4.854    0.794
        10 -12.0396     40.6724    206.8760   1.2143992524e+02   2.6566421073e+01    0.6419612    0.5733727  38.66  0.001281018    1.457    0.313
        11 -13.3995     50.5932    195.9612   1.1849505042e+02   2.7688050390e+01     1.959222     1.179228  68.14  0.008235241    1.545    0.353
        12 -13.2017     10.3255    189.4661   1.2613091574e+02   3.3309518209e+01     1.382481     1.040405 -54.58   0.00971692    1.708    0.414
        13 -10.5258     96.3990    227.0159   1.1240720721e+02   1.5178613494e+01     0.453336    0.1793825  51.87  0.002051486    2.342    0.573
        14  -9.5329     57.0659    224.8961   1.1975300037e+02   2.0997404287e+01    0.1870368     0.122246  66.77  0.000455983    1.276    0.216
        15  -9.5123     94.9474    221.3813   1.1207888137e+02   1.6453256447e+01    0.2495963    0.2066908  44.66 0.0005198973    1.197    0.164
        16 -15.7240      9.0749    240.9299   1.2907834028e+02   2.3376580905e+01      17.6448     1.627977 -77.49  0.006475673    9.723    0.897
        17 -11.5096    135.0887    233.5844   1.0562611000e+02   8.0027169643e+00     0.744865    0.3772239 -56.66  0.003829959    2.416    0.586
        18  -7.7572    114.3222    200.3263   1.0540641108e+02   1.7549397674e+01    0.1273344     0.106556  -6.68 0.0007047991    1.687    0.407
        19 -10.6223    121.2781    224.3066   1.0717085187e+02   1.1830422479e+01    0.4883697    0.3400661 -26.37  0.002603831    2.352    0.575
        20 -10.5976     54.9263    185.2435   1.1649638952e+02   2.9490849707e+01    0.5268247    0.2240165  52.72  0.002428005    2.293    0.564
        21 -10.3631     66.5169    178.8769   1.1317784813e+02   2.9420706493e+01    0.4108548    0.2739601 -39.92  0.002131429    2.112    0.527
        22 -10.2449     71.2558    173.5884   1.1140818776e+02   2.9978080829e+01    0.3434806    0.2620314 -49.57 0.0007699744    1.502    0.334
        23  -7.9753     99.5335    180.5274   1.0581086125e+02   2.4163665946e+01    0.1374285    0.1241892  73.37  0.000809094    1.002    0.002
        24  -8.0631     72.1694    186.3717   1.1281882611e+02   2.6976603804e+01    0.1876956    0.1028495  49.72  0.000732151    1.700    0.412
        25 -10.0241    100.5659    170.3940   1.0398266211e+02   2.6262746828e+01    0.5393931    0.2816284  63.68  0.002095493    2.726    0.633
        26 -11.8015     68.1627    159.7583   1.1023880930e+02   3.3618741476e+01    0.6489732     0.468973 -29.13  0.001613265    2.036    0.509
        27 -11.7588     68.6622    144.3777   1.0773929302e+02   3.7224994056e+01    0.9908221    0.5906753  86.65  0.002910166    2.208    0.547
        28 -11.1899     80.7500    163.9382   1.0776167848e+02   3.0852066493e+01    0.7333004    0.4078963  50.64 0.0006237669    1.814    0.449
        29 -11.0336     86.5274    157.4995   1.0530527369e+02   3.1489653251e+01    0.6839422    0.4929596 -19.56  0.001539306    2.225    0.551
        30 -10.4140     32.8852    156.1316   1.1840105939e+02   3.8622103626e+01    0.4360038    0.1510542 -74.48  0.001798449    2.633    0.620
        31  -7.8782    126.2661    155.0067   9.4932696000e+01   2.5194767015e+01    0.1769415    0.1287997 -52.77 0.0008449738    1.385    0.278
        32  -9.2223     32.7213    143.4475   1.1697523680e+02   4.1628175591e+01    0.2434044   0.09470136 -69.60  0.001073753    2.133    0.531
        33  -9.2842    101.2365    141.8040   9.8637792851e+01   3.2806844604e+01    0.4340334    0.2591913 -36.46  0.001824375    2.122    0.529
        34 -10.4588     88.6753    141.5964   1.0192744105e+02   3.4939500983e+01    0.2808416    0.2390641 -47.96 0.0008540277    1.212    0.175
        35  -8.2926     83.1301    142.6302   1.0359676112e+02   3.5555556565e+01    0.2451468    0.1529155 -56.20 0.0007563118    1.500    0.333
        36 -13.6452      9.6169    206.9207   1.2730666943e+02   2.9776137255e+01     1.529855     1.249983 -12.68  0.004203957    2.285    0.562
        37 -10.9356     58.1645    131.0060   1.0834550120e+02   4.1833442154e+01    0.8488637    0.3622462 -73.91  0.003174096    2.851    0.649
        38  -8.2927    110.4339    131.6902   9.4044981389e+01   3.3553018455e+01    0.2481874    0.1895861  11.85 0.0007093202    1.749    0.428
        39  -8.4745    105.9369    131.0290   9.5108346029e+01   3.4530688804e+01    0.2385816    0.2253538 -62.22  0.001117581    1.019    0.019
        40  -9.1624     98.1980    127.5744   9.6462970025e+01   3.6718830535e+01    0.2900587     0.227155 -30.58 0.0005252785    1.478    0.323
        41  -8.1811    107.6900    119.9328   9.2065695814e+01   3.6821116706e+01    0.2057608    0.1862185 -51.92 0.0004476542    1.059    0.055
        42  -9.2172     32.6858    114.5546   1.1293649047e+02   4.8556317302e+01    0.2419573    0.1013891 -67.26  0.001074163    1.993    0.498
        43  -8.3341    205.5305    110.0534   6.6521066005e+01   1.7408333800e+01    0.2343851    0.2036222  51.68 0.0007027765    1.222    0.182
        44  -7.6526    168.6795    113.3734   7.4926434236e+01   2.5252530166e+01    0.1659697    0.1252546 -75.94  0.000703143    1.807    0.447
        45  -8.1584    134.6767    106.6689   8.1343514140e+01   3.4352111725e+01    0.1624152    0.1256633  -1.69 0.0007050067    1.701    0.412
        46 -11.6004    138.8531    230.5179   1.0449424320e+02   7.9088882111e+00    0.7565278     0.400352  18.85  0.002838854    4.157    0.759
        47  -7.9969     41.3901     91.8229   1.0590815435e+02   5.3127835860e+01    0.1927036   0.09981716 -51.43 0.0004935588    1.598    0.374
        48 -11.9286    125.8666    229.5327   1.0691755020e+02   1.0171027476e+01    0.6762034    0.5505155  62.71  0.004394824    1.179    0.152
        49  -9.3756     32.8353     67.8609   1.0321101725e+02   5.9366341803e+01    0.4294362    0.1304739 -61.38  0.001544693    3.352    0.702
        50 -11.0841     21.5417     53.3125   1.0372408249e+02   6.3398551407e+01    0.6096326    0.1489181 -60.18  0.002090647    4.059    0.754
        51  -8.1785    143.0528     48.0389   6.1133458775e+01   4.3381042063e+01    0.2390888    0.1797709 -72.13 0.0007009153    1.736    0.424
        52 -11.2118    193.3684     41.2250   4.9933696967e+01   3.1623579148e+01    0.4856995    0.3800474  13.47  0.001617596    1.668    0.401
        53 -10.8834    114.7070    241.8077   1.1050052664e+02   9.8092699152e+00    0.6565745    0.2088735 -58.99  0.002805408    3.830    0.739
        54 -10.5983    119.4513    240.2940   1.0943597144e+02   9.3380294350e+00    0.2856405    0.2484035  71.86   0.00200903    1.173    0.148
        55  -8.5408     33.0000     46.9731   9.6886306318e+01   6.3687123133e+01    0.2046341   0.06056037 -51.96  0.000559437    2.871    0.652
        56  -7.7436    145.7302     42.6906   5.8757954424e+01   4.3495336770e+01    0.1473527    0.1103838  22.37 0.0002421687    1.543    0.352
        57  -9.7548     32.5243     35.4904   9.2956676157e+01   6.5901585482e+01    0.2944489     0.105007 -48.89  0.001287561    2.500    0.600
        58 -14.0721    163.3433    230.6928   9.9737459584e+01   3.8614169733e+00     1.476037     1.121017  40.88  0.004504493    1.120    0.107
        59 -11.2089    127.9265    237.7181   1.0751964688e+02   8.4503715049e+00    0.5214633     0.293915  24.74  0.002553048    2.419    0.587
        60 -11.9481    110.6841    229.2546   1.0986308854e+02   1.2605716961e+01     1.194485    0.2314239  43.60  0.004030844    3.964    0.748
