#   1 NUMBER                 Running object number                                     
#   2 MAG_AUTO               Kron-like elliptical aperture magnitude                    [mag]
#   3 X_IMAGE                Object position along x                                    [pixel]
#   4 Y_IMAGE                Object position along y                                    [pixel]
#   5 X_WORLD                Barycenter position along world x axis                     [deg]
#   6 Y_WORLD                Barycenter position along world y axis                     [deg]
#   7 A_WORLD                Profile RMS along major axis (world units)                 [deg]
#   8 B_WORLD                Profile RMS along minor axis (world units)                 [deg]
#   9 THETA_WORLD            Position angle (CCW/world-x)                               [deg]
#  10 FWHM_WORLD             FWHM assuming a gaussian core                              [deg]
#  11 ELONGATION             A_IMAGE/B_IMAGE                                           
#  12 ELLIPTICITY            1 - B_IMAGE/A_IMAGE                                       
         1 -14.7447    159.2955     45.0637   8.1875123251e+01   3.9728443504e+01     1.422082     1.083952 -24.69  0.003759928    1.363    0.267
         2 -14.5948    171.8665     13.2756   6.8961968558e+01   4.0143453595e+01      1.22653     1.078391  31.46  0.004002605    1.238    0.193
         3 -13.2571    189.2625     13.4452   6.7007931306e+01   3.5441106114e+01    0.7754407    0.3826773 -57.46  0.003149576    2.289    0.563
         4 -12.6037    198.7527      6.9776   6.4134946773e+01   3.3581344573e+01    0.4072065    0.2024202 -30.66  0.001836465    1.877    0.467
         5 -11.5749     52.4977      8.4915   9.9818598354e+01   7.0974941181e+01     0.137924    0.1193211   1.13 5.407913e-05    1.008    0.008
         6 -14.5197    204.5012    176.5218   1.0623006959e+02   9.0810946311e+00    0.9940572    0.7483793 -59.01  0.005407608    2.522    0.603
         7 -19.8250     90.8031    226.6764   1.3661698314e+02   1.8805667640e+01     7.953428     5.396424  42.14   0.05078084    1.087    0.080
         8 -19.1608     74.4960     97.4726   1.2353599885e+02   4.8183048782e+01     19.07622     0.923793 -58.59   0.02540901   19.251    0.948
         9 -12.3217    165.2950    171.7114   1.1331332785e+02   1.6493687221e+01    0.2662045    0.2139848  60.09  0.001500932    1.631    0.387
        10 -12.4154    230.2968    167.1569   9.9844684537e+01   6.1137136377e+00    0.3695033    0.1792664 -38.80  0.001818901    2.474    0.596
        11 -11.1191    150.9074    239.6108   1.2592725775e+02   8.8669437664e+00    0.1718836    0.1497299  15.70 0.0004607301    1.262    0.207
        12 -14.1977    163.6467    156.2084   1.1079384666e+02   1.9381527297e+01    0.6514645    0.5151824  53.04   0.00356072    1.439    0.305
        13 -13.6203    159.8208    151.9748   1.1082740462e+02   2.0836013311e+01     0.433592    0.3610514  18.61  0.002252987    1.122    0.109
        14 -11.3315     29.1096    156.7300   1.4565839598e+02   3.9312138982e+01    0.2568318    0.2098765  81.44 0.0007525241    1.112    0.100
        15 -12.0901    192.0853    157.9356   1.0510444167e+02   1.3865605473e+01    0.3594083    0.2478444   4.46  0.001328688    1.565    0.361
        16  -9.9271      4.2511    157.5694   1.5208004410e+02   4.1063711359e+01    0.1291073    0.1080945   5.01 0.0009174688    1.569    0.363
        17 -12.3260    161.3395    238.7047   1.2384432192e+02   7.5468473820e+00    0.2833193    0.1572815  39.48    0.0016599    1.431    0.301
        18 -10.9634    218.3887    219.7713   1.1087934039e+02   1.8263098343e+00    0.1767661    0.1017894 -31.94 0.0007057789    2.061    0.515
        19 -10.7791     18.2002    220.3622   1.5095377095e+02   2.7798185285e+01    0.0844121   0.07148816 -73.60 0.0006764423    1.551    0.355
        20 -11.4399     17.7109    153.6135   1.4847459083e+02   4.0950882666e+01    0.3713814    0.2250811 -36.21    0.0018778    2.481    0.597
        21 -11.2025     18.3391    148.7070   1.4804821465e+02   4.1991128284e+01    0.2404391    0.2268036  89.26  0.001184946    1.211    0.174
        22 -11.1310     23.9389    217.0100   1.4971216901e+02   2.7860822870e+01     0.146878    0.1173322  56.78 0.0005215502    1.127    0.113
        23 -12.2059     27.4667    145.6443   1.4535950107e+02   4.1940440963e+01     0.323988    0.3075956  -7.31 0.0008844766    1.337    0.252
        24 -11.2362     35.7830    141.5634   1.4268966073e+02   4.2132012335e+01    0.2203526    0.1236712  20.15 0.0009837386    2.017    0.504
        25 -12.2190    173.5104    139.9805   1.0526813863e+02   2.0268910379e+01    0.2638838    0.1974027  53.50  0.000684944    1.524    0.344
        26 -10.4584     25.8438    139.4762   1.4538190311e+02   4.3492111455e+01    0.1869195    0.1463059  84.20 0.0007704252    1.130    0.115
        27 -13.2184    173.5199    148.5799   1.0708317023e+02   1.8811728742e+01    0.4235933    0.3766188  35.99   0.00197033    1.154    0.134
        28 -10.8545     28.3287    237.7697   1.4956391817e+02   2.3978887420e+01    0.1205147   0.09084494  69.12 0.0004450933    1.247    0.198
        29 -13.3117    160.5665    128.1469   1.0555749263e+02   2.4993352432e+01    0.4743725     0.389092 -47.22  0.001732818    1.384    0.277
        30 -11.7698     30.9587    205.9303   1.4783568572e+02   2.9186440073e+01    0.2464251    0.1712643 -60.95  0.001705756    1.854    0.461
        31 -13.2125     39.6124    123.5102   1.3976944154e+02   4.6049308796e+01    0.4021016     0.319242  -6.41  0.001524574    1.622    0.384
        32 -12.3635    141.8626    121.5149   1.0860261193e+02   3.0161455356e+01    0.4954499    0.2721876  62.06    0.0017344    2.992    0.666
        33 -13.0663     11.8570    205.9280   1.5180924045e+02   3.0898657640e+01    0.4859405    0.2307189  22.09  0.002846595    2.338    0.572
        34 -11.0986    167.6412    112.6373   1.0019247273e+02   2.6303658829e+01    0.2935788    0.2267321 -84.71  0.001322584    2.058    0.514
        35 -12.7442    139.8992    200.1874   1.2330836748e+02   1.6095725917e+01    0.4986576    0.2530015  37.01 0.0008564443    1.557    0.358
        36 -10.8571    205.4482    110.1731   9.1918107541e+01   1.8534202095e+01    0.3061655    0.1919716  37.76  0.000937983    1.584    0.369
        37 -11.9248     21.7024    235.7899   1.5073507030e+02   2.4913678554e+01    0.1590727    0.1105798  66.57 0.0009768284    1.227    0.185
        38 -11.9780     25.0601    106.6388   1.4281344386e+02   5.1424546968e+01    0.3935427    0.2369602   2.62  0.002006611    2.186    0.543
        39 -10.6619     36.9965     95.9865   1.3715737960e+02   5.3100063198e+01    0.3504787    0.1928294  83.75  0.001053288    2.132    0.531
        40 -11.6520     40.8274     93.2777   1.3527798179e+02   5.3421727125e+01    0.4653193    0.2836497 -41.91  0.001552595    1.804    0.446
        41 -12.4166     48.0837     92.7413   1.3239580010e+02   5.2810103507e+01    0.4722678    0.3078314  13.91  0.002046915    1.831    0.454
        42 -10.4964     30.3050    199.6918   1.4769782642e+02   3.0408696836e+01    0.1244197    0.1154439  85.37 0.0004552281    1.321    0.243
        43 -12.0640    199.0220    178.4860   1.0762908904e+02   9.7171948105e+00    0.2746996    0.2546905 -25.93 0.0009426225    1.435    0.303
        44 -11.6550      6.4153     88.9694   1.4797254922e+02   5.6876725503e+01    0.5814223    0.2149087 -17.17  0.002152781    4.651    0.785
        45 -10.8603    103.6966     81.9803   1.0925929156e+02   4.6583767774e+01    0.2519998    0.2122882  39.60 0.0004157128    1.165    0.142
        46 -10.7453    142.9808     80.9826   9.7379594598e+01   3.7902014306e+01    0.2404668    0.2337439  25.31  0.000468234    1.018    0.017
        47 -14.3720    148.5171     59.9418   8.9249981742e+01   4.0270962369e+01     1.315338     1.070849   1.64  0.001049571    1.408    0.290
        48 -14.3500    194.4778    167.7481   1.0653208725e+02   1.1994672858e+01    0.8493322     0.674306  -5.43  0.001959556    1.207    0.171
        49 -13.2031    163.3601     36.2903   7.8111145947e+01   3.9830979873e+01    0.4829232    0.4426439 -58.03 0.0009144282    1.126    0.112
        50 -11.0204     13.3910     59.8900   1.4179083778e+02   6.3766231572e+01    0.1897869    0.1704857  52.11 0.0004218731    1.248    0.199
        51 -11.4153    148.4803     35.4643   8.0626783171e+01   4.3997194603e+01    0.5662168    0.2802868  78.49  0.001767438    2.964    0.663
        52 -12.8006    203.9146    169.3262   1.0500546928e+02   1.0156546282e+01    0.5664085    0.4131874 -12.04  0.002803774    1.339    0.253
        53 -10.6508     13.4121    236.3275   1.5227434870e+02   2.5567208535e+01   0.09727946   0.06749389  48.48 0.0002296235    1.077    0.071
        54 -11.6961     12.8228    240.9205   1.5248411755e+02   2.4889232517e+01    0.1579279    0.1310145 -85.95  0.001401549    1.529    0.346
