#   1 NUMBER                 Running object number                                     
#   2 MAG_AUTO               Kron-like elliptical aperture magnitude                    [mag]
#   3 X_IMAGE                Object position along x                                    [pixel]
#   4 Y_IMAGE                Object position along y                                    [pixel]
#   5 X_WORLD                Barycenter position along world x axis                     [deg]
#   6 Y_WORLD                Barycenter position along world y axis                     [deg]
#   7 A_WORLD                Profile RMS along major axis (world units)                 [deg]
#   8 B_WORLD                Profile RMS along minor axis (world units)                 [deg]
#   9 THETA_WORLD            Position angle (CCW/world-x)                               [deg]
#  10 FWHM_WORLD             FWHM assuming a gaussian core                              [deg]
#  11 ELONGATION             A_IMAGE/B_IMAGE                                           
#  12 ELLIPTICITY            1 - B_IMAGE/A_IMAGE                                       
         1 -12.5854    188.5823     43.7773   4.4342654689e+01   3.2761803604e+01     1.202327    0.9645599  30.33  0.004205877    1.544    0.352
         2 -12.5556    212.8161     13.2166   3.4121940480e+01   3.0911801078e+01     0.895534    0.8025138 -60.49  0.004513506    1.135    0.119
         3  -9.7304      7.2529      5.5100   8.4479377630e+01   7.2749317813e+01    0.3053084   0.07958819 -42.83  0.001324975    3.414    0.707
         4  -9.6781    120.0111      9.4278   4.5391496885e+01   5.2757011460e+01    0.4454559    0.2874951  38.51  0.001905297    1.486    0.327
         5  -8.9895      2.4894      3.0133   8.6055629239e+01   7.3508547256e+01     0.165582    0.0869006 -36.76 0.0005904142    1.595    0.373
         6  -9.7037    192.0395     16.4627   3.6953933627e+01   3.5214297146e+01    0.4755619    0.1737494  84.01  0.001587382    4.359    0.771
         7  -9.7312    244.4572    249.2237   7.9325350309e+01  -1.0739814892e+01    0.3381889    0.2001798  49.93  0.001613912    4.129    0.758
         8  -7.8792    237.3157    250.3006   8.0750114359e+01  -1.0015485001e+01    0.1200128   0.07070643   1.10 0.0001952229    1.615    0.381
         9  -8.4771    150.9693    249.7259   9.7122784435e+01   1.9106208197e+00     0.208472    0.1833514 -55.28  0.001411087    1.423    0.297
        10 -18.4226     21.1652    238.2475   1.2159942364e+02   2.1000795868e+01     4.512976     3.773587 -63.43   0.01599212    1.494    0.331
        11 -10.4703     97.5234    192.5097   1.0069368681e+02   2.1216563839e+01    0.3957749    0.2764553 -88.42   0.00195205    1.780    0.438
        12 -10.2414    222.3524    220.8406   7.8489434050e+01  -4.0272359894e+00    0.2179258    0.1864004  -2.87 0.0003282172    1.147    0.128
        13  -8.6872    190.4631    221.2099   8.4742733183e+01   6.1669283821e-01    0.2137615    0.1579687  26.09 0.0002521199    1.215    0.177
        14  -9.4937    131.9471    194.1567   9.2793707128e+01   1.5305967991e+01    0.2647381    0.2142541 -29.40   0.00141933    1.354    0.261
        15  -8.2493     10.2597    193.2115   1.2085334267e+02   3.1464981534e+01    0.2261578    0.1670968 -15.84  0.001336262    2.159    0.537
        16  -8.9657    181.9219    191.9326   8.1193764394e+01   7.1572242878e+00    0.2385394    0.1865508 -33.05 0.0004385781    1.258    0.205
        17  -9.3744    148.9152    191.9188   8.8476638824e+01   1.2872946682e+01    0.3800042    0.2841359 -79.77   0.00130487    1.995    0.499
        18 -10.2619    144.6047    186.7135   8.8515380871e+01   1.4706623853e+01    0.5372421    0.3435941  43.67  0.001340227    1.565    0.361
        19 -11.1257    109.0638    186.4841   9.6960006051e+01   2.0770691493e+01    0.6389549    0.3531186  43.15 0.0009704779    1.765    0.433
        20  -9.5463    108.9352    179.7909   9.5868394806e+01   2.2317715935e+01    0.4270504    0.2233979  56.53  0.001356603    2.577    0.612
        21  -8.5921    191.9674    216.7964   8.3675371665e+01   1.1147757515e+00    0.2006649    0.1687597 -14.38 0.0003284653    1.127    0.113
        22  -8.7278      2.1915    188.8687   1.2226567062e+02   3.3094608623e+01    0.1908956    0.1833583   8.95  0.001457623    1.430    0.301
        23  -7.7478    167.4824    188.0535   8.3574898640e+01   1.0409897834e+01    0.2153166    0.1385828 -42.69  0.001026936    1.574    0.365
        24  -9.2964    125.1980    186.3722   9.3041671049e+01   1.8128000690e+01    0.2925073    0.1937972  49.49 0.0008734675    1.583    0.368
        25  -9.4941    127.1083    182.9945   9.1982803804e+01   1.8547564640e+01    0.3355507     0.269755 -67.46  0.001475406    1.398    0.285
        26 -10.8922    121.9585    181.5445   9.2971655244e+01   1.9749187205e+01    0.6028336    0.2885674 -47.20 0.0005071065    2.132    0.531
        27  -7.5846    165.6199    184.2932   8.3260722664e+01   1.1488247220e+01    0.1434826    0.1152563  70.20 0.0007019856    1.749    0.428
        28  -8.6727    202.4964    227.0627   8.3358995093e+01  -2.1181774483e+00    0.2078849    0.2040536 -61.32  0.001137285    1.524    0.344
        29  -9.3105    221.1229    176.4769   7.0268015604e+01   3.3361180682e+00    0.3115073     0.184731 -45.03  0.001517217    1.777    0.437
        30  -8.1962    138.6855    177.3480   8.8147974687e+01   1.7763823393e+01     0.208545    0.1450772  51.76 0.0004681844    1.592    0.372
        31 -10.6875    136.1283    173.2978   8.7981239951e+01   1.9112829402e+01    0.5241681    0.4408989  44.37  0.002024724    1.206    0.171
        32  -8.2202    192.4950    211.9919   8.2719194005e+01   1.8394289516e+00    0.1954949    0.1576651  19.38 -9.975654e-05    1.116    0.104
        33  -9.2992    186.3483    174.8200   7.6843671007e+01   9.6414555885e+00    0.3356415    0.3156505  62.21  0.001361125    1.328    0.247
        34  -9.5674    147.5085    174.0991   8.5412242906e+01   1.6878368814e+01    0.5123253    0.3167498 -69.05  0.002030868    2.573    0.611
        35 -10.1393    111.2531    169.0906   9.3378180742e+01   2.4417151926e+01    0.4500959    0.3195215  69.54  0.002022604    1.849    0.459
        36 -10.3680    104.7877    172.7470   9.5685835820e+01   2.4630530650e+01    0.4299491    0.3328275 -79.57  0.001968206    1.479    0.324
        37  -8.1846    235.4864    184.4962   6.9264380337e+01  -2.7056481619e-01    0.1329352    0.1098071 -13.64 0.0008104406    1.020    0.020
        38 -10.9363    113.9586    174.6448   9.3709966898e+01   2.2670980755e+01    0.5287359    0.3873671  59.02   0.00244775    1.554    0.356
        39  -9.0081    185.5972    226.1675   8.6560605378e+01   5.4807996607e-01     0.461637    0.1462156 -48.02  0.001672869    4.031    0.752
        40  -8.6937      6.9717    163.2178   1.1926482761e+02   3.8633547243e+01      0.34812    0.2072369 -86.13  0.001604955    1.432    0.302
        41  -9.0170      2.8828    162.8446   1.2021021150e+02   3.9016065187e+01    0.3115077    0.2217141  76.20  0.001981894    1.276    0.216
        42  -7.6865    219.3987    209.1660   7.6936303106e+01  -1.8112324920e+00    0.1580518    0.1153161 -39.71 0.0001594765    1.511    0.338
        43  -9.4440    121.7527    159.1104   8.8744704317e+01   2.4924748905e+01    0.3750935    0.2777738  89.27  0.001676911    1.920    0.479
        44 -11.2761     97.6605    150.9470   9.3494089767e+01   3.1016153956e+01    0.7512237     0.634982  64.52   0.00391757    1.306    0.234
        45 -11.9214    110.7008    149.5093   8.9666941347e+01   2.9152055510e+01     1.133574    0.7910739  71.64   0.00412311    2.053    0.513
        46 -11.4901    108.0956    138.7849   8.8066176038e+01   3.2177497074e+01    0.8929514    0.4636232 -51.23  0.002356637    1.855    0.461
        47  -9.5581     91.8860    156.6070   9.6147852575e+01   3.0562154181e+01    0.2707276     0.227217 -45.03 0.0003878362    1.192    0.161
        48 -10.5997    134.0129    146.5920   8.2917114786e+01   2.5542564103e+01     1.495407    0.3894641 -54.99  0.003160811    7.033    0.858
        49  -9.1496    131.0229    137.0826   8.1505561113e+01   2.8297998548e+01    0.2468731    0.2347125 -31.85 0.0002889333    1.018    0.018
        50  -8.6501      1.5909    151.8641   1.1959660932e+02   4.1700899512e+01    0.3273671    0.1339941 -84.11  0.001496257    2.236    0.553
        51  -9.7250    143.3027    149.7684   8.1295988637e+01   2.3031046333e+01    0.5295777    0.3541667  72.70  0.002052311    2.587    0.613
        52  -9.1745    124.8176    141.0566   8.4052920725e+01   2.8572264774e+01    0.2340932    0.2117568 -83.02  0.000462575    1.255    0.203
        53  -9.4011    103.5364    140.4733   8.9702306511e+01   3.2568461000e+01     0.279469    0.2530837  84.71  0.001024191    1.227    0.185
        54  -9.6590    187.3497    138.3215   6.8590816051e+01   1.6650696399e+01    0.2664194    0.2416022 -17.09 0.0002613411    1.049    0.047
        55  -8.0922    192.2498    135.5353   6.6935730831e+01   1.6215083875e+01    0.2055099    0.1407762  29.88 0.0009466055    1.648    0.393
        56 -10.0140    119.7531    134.1633   8.3815027456e+01   3.1137423052e+01     0.469665    0.3033015 -80.75  0.001710495    2.840    0.648
        57 -10.1295    115.3394    128.8257   8.3757935178e+01   3.3216529971e+01    0.3509085    0.3430561  19.35  0.001858402    1.054    0.051
        58 -10.2586    159.5021    206.5789   8.8713023770e+01   8.1737757294e+00    0.2784345    0.2451437  -3.21   0.00163964    1.114    0.102
        59  -8.3956     93.8557    129.1992   8.9966734737e+01   3.6936801012e+01    0.2040848    0.1712046 -21.06 0.0002631776    1.301    0.231
        60  -9.7287    102.9204    124.0199   8.6119379934e+01   3.6619686954e+01    0.4505712    0.2726942 -61.37  0.000967368    1.882    0.469
        61  -8.3319     91.2437    124.4055   8.9638930887e+01   3.8528163494e+01    0.2081951    0.1403576  46.65  0.000942707    1.636    0.389
        62  -9.4717    104.0368    147.9695   9.1150688459e+01   3.0673333305e+01    0.2696969    0.2452056  82.91 0.0003045294    1.201    0.167
        63  -8.1842    123.1554    120.6230   7.9584087282e+01   3.3603670538e+01    0.2189871    0.1475953  28.48  0.000942394    1.661    0.398
        64  -9.3645    108.9844    119.0179   8.3141292090e+01   3.6691793818e+01    0.4302264    0.2929484  24.18  0.001902024    1.701    0.412
        65  -9.7669    141.4620    207.0498   9.2782374995e+01   1.1069978334e+01    0.2674103     0.234638  17.76  0.001563242    1.103    0.094
        66  -9.8209     63.6795    114.6499   9.5951912897e+01   4.5001038087e+01    0.2635055     0.246999  88.04 0.0007030112    1.185    0.156
        67  -9.7290    117.9697    110.5320   7.8393075847e+01   3.6900901909e+01    0.4093573    0.3128221 -80.70  0.001402791    1.865    0.464
        68 -10.8312     31.6758    107.4813   1.0497622593e+02   5.0270061120e+01    0.6147937    0.2312267 -58.04  0.002586144    2.087    0.521
        69 -10.5687     26.9695    108.4672   1.0671536575e+02   5.0431439814e+01    0.4341456    0.2644892  41.40  0.002266097    1.951    0.487
        70  -8.0094    135.2666    111.7259   7.4043107425e+01   3.3106805910e+01    0.2188902    0.1803672  -9.56  0.001045488    1.371    0.271
        71  -8.3908     78.4980    108.0076   8.9628729403e+01   4.4482020213e+01    0.2035213    0.1919045 -17.81  0.001139138    1.060    0.057
        72 -10.4698     41.5708    104.8669   1.0113501108e+02   4.9962404088e+01    0.4056665    0.2152665  26.35  0.001914467    2.119    0.528
        73 -10.2143     34.2851    102.9758   1.0322270148e+02   5.1123772846e+01    0.3397812    0.2803864 -22.66  0.001330041    1.275    0.216
        74  -8.5928     27.9892    102.4398   1.0526344049e+02   5.1803215151e+01    0.1784708    0.1321005  15.14 0.0004643847    1.581    0.368
        75 -10.4934    147.9306    204.9855   9.0993197034e+01   1.0407835050e+01    0.5197703    0.2144922  39.79  0.002089707    2.262    0.558
        76  -8.3560     35.1153     96.8422   1.0166277557e+02   5.2511870217e+01    0.2294002    0.1573427  33.00  0.001246186    1.682    0.405
        77  -8.7238    191.9128     91.3125   5.6134448966e+01   2.4596980855e+01     0.328595    0.1997892 -31.12 0.0009613829    1.682    0.406
        78 -10.4004     95.8899     89.0049   7.8894547624e+01   4.5829578057e+01    0.2399184    0.2206955 -27.48  0.001308603    1.034    0.033
        79  -8.6664    112.7185     95.9761   7.5864500612e+01   4.1119427325e+01     0.322589    0.1951513  14.34   0.00117083    2.749    0.636
        80  -9.5916    129.9536    201.6842   9.4512204060e+01   1.4056244242e+01    0.2040452    0.1756699  37.49  0.001159785    1.095    0.086
        81  -8.3188      1.4959     74.9664   1.0958223525e+02   5.9908176880e+01     0.195993   0.09736647 -63.43  0.001035219    1.597    0.374
        82 -10.1765    166.0365     64.1272   5.3629580845e+01   3.5111320001e+01    0.6593413    0.3434199  77.36  0.002259531    3.458    0.711
        83 -11.3950    173.0870     57.5040   5.0485438459e+01   3.4464045781e+01    0.6415079    0.4921519 -36.68 0.0008672783    1.309    0.236
        84  -8.0909    203.5043    244.4732   8.6022814215e+01  -4.8415920173e+00    0.1237279   0.09797653   9.97 3.621869e-05    1.004    0.004
        85  -8.6704    141.6785     42.0680   5.1849515807e+01   4.4092641508e+01    0.1898833    0.1828272  21.48 0.0004659116    1.062    0.058
        86 -11.2477    193.4550     37.9406   4.2177211790e+01   3.2392786099e+01    0.4844847    0.4315686  -9.52  0.001446102    1.355    0.262
        87  -8.1033    157.3279     37.0950   4.7389964760e+01   4.1017157025e+01    0.1790677    0.1712098 -61.00 0.0004162733    1.084    0.077
        88  -8.2745    125.7639     31.2382   5.1676030119e+01   4.9177641827e+01    0.1894439     0.176185  70.86 0.0004988157    1.139    0.122
        89  -8.4477    231.1033     24.6960   3.5007960615e+01   2.5730616828e+01    0.1966265    0.1365016 -52.72 0.0003765504    1.252    0.201
        90 -14.5465     12.0271    209.0530   1.2155488617e+02   2.7847597279e+01    0.8872026    0.6560792 -74.93   0.00612055    1.283    0.221
        91  -9.6692    192.9944    194.5633   7.9388778145e+01   4.8044501994e+00    0.9560809    0.5358264 -65.29  0.002838685    6.187    0.838
        92  -8.6008    241.9905    238.9968   7.8066658559e+01  -9.1495309550e+00    0.1452556    0.1068662 -10.02 0.0004251448    1.110    0.099
        93 -10.5721     94.4396    186.5701   1.0054216215e+02   2.3038707257e+01    0.5041364    0.3664505 -28.63  0.001785062    1.782    0.439
        94  -9.8285     97.5195    197.2385   1.0139030379e+02   2.0157972489e+01    0.3697514     0.197467 -66.25  0.001253578    2.090    0.522
