#   1 NUMBER                 Running object number                                     
#   2 MAG_AUTO               Kron-like elliptical aperture magnitude                    [mag]
#   3 X_IMAGE                Object position along x                                    [pixel]
#   4 Y_IMAGE                Object position along y                                    [pixel]
#   5 X_WORLD                Barycenter position along world x axis                     [deg]
#   6 Y_WORLD                Barycenter position along world y axis                     [deg]
#   7 A_WORLD                Profile RMS along major axis (world units)                 [deg]
#   8 B_WORLD                Profile RMS along minor axis (world units)                 [deg]
#   9 THETA_WORLD            Position angle (CCW/world-x)                               [deg]
#  10 FWHM_WORLD             FWHM assuming a gaussian core                              [deg]
#  11 ELONGATION             A_IMAGE/B_IMAGE                                           
#  12 ELLIPTICITY            1 - B_IMAGE/A_IMAGE                                       
         1 -13.1123    248.4385    114.2517   8.1430499764e+01   7.2715191553e+00     1.479624    0.9362336 -23.33  0.006882057    1.883    0.469
         2 -14.2361    201.7033     17.1971   6.4877217793e+01   3.2900036475e+01     2.365196     1.454971  33.69    0.0103313    2.434    0.589
         3 -13.8541    206.9110     10.4997   6.2682549500e+01   3.2387731760e+01      1.52022    0.8189265  45.31  0.001477869    2.322    0.569
         4 -12.3232      2.2671     14.1601   1.1757567770e+02   7.0293382272e+01    0.8393841    0.1574074 -47.06  0.003518674    4.039    0.752
         5 -12.9049      2.3105      5.0759   1.1386697690e+02   7.1566059656e+01    0.6352707    0.4698355  -8.57  0.005223312    1.155    0.134
         6 -11.3444    143.3748    249.2998   1.2779605888e+02   3.1786066655e+00    0.4809638     0.320886  79.50  0.002563172    2.066    0.516
         7  -9.7863    193.1318    249.1949   1.1848245478e+02  -5.2283664325e+00    0.1934037    0.1778595  -9.83  0.000792602    1.225    0.184
         8 -10.2259    193.7588    245.0776   1.1773328832e+02  -4.7367502831e+00    0.1930925    0.1686643 -53.30 0.0006070844    1.465    0.317
         9  -9.7345    184.1014    250.1854   1.2030790871e+02  -3.8634643616e+00    0.1902163    0.1513772  18.55 0.0005691695    1.285    0.222
        10 -11.0258    136.1572    227.8226   1.2627957761e+02   8.1900226278e+00    0.3671811    0.2187054 -45.70  0.001875228    2.031    0.508
        11 -11.7632    150.1720    248.9225   1.2647500488e+02   2.0887386807e+00    0.4493172    0.3376124  61.39  0.002783119    1.313    0.238
        12 -11.6293    135.8899    241.0467   1.2813292298e+02   5.8529684410e+00    0.3634234    0.2790929  28.41 0.0004467664    1.507    0.336
        13 -12.3516    135.3146    236.6854   1.2766474449e+02   6.7223885240e+00    0.4255841       0.3943 -41.33  0.001226223    1.352    0.261
        14 -11.2528    133.5613    249.2539   1.2961913141e+02   4.8353732534e+00    0.6210772    0.2435748  53.18  0.002671974    2.527    0.604
        15 -10.6194    121.5681    244.7764   1.3130724651e+02   7.6029707104e+00    0.3372027    0.2091836  71.13  0.001553033    1.852    0.460
        16 -12.2687    126.3128    240.8513   1.2992988672e+02   7.5094644644e+00    0.5249434    0.3720971 -60.44  0.001888031    1.609    0.379
        17  -9.8903    126.8001    248.8583   1.3082573705e+02   6.0269963340e+00     0.258774    0.1710411  57.17 0.0009182752    1.319    0.242
        18 -11.2401    115.2560    250.2220   1.3311020773e+02   7.6781853619e+00     0.536691     0.279098  42.60  0.002870359    1.672    0.402
        19 -11.2942    109.8661    247.7355   1.3381680503e+02   8.9816870343e+00    0.4900337    0.3369245  30.56   0.00283854    1.836    0.455
        20 -10.3565    108.5998    242.8112   1.3349445785e+02   1.0070402449e+01    0.2327529    0.1766683 -87.14  0.001472549    1.359    0.264
        21 -11.6464     96.4460    239.3131   1.3536102984e+02   1.2642283726e+01      0.49625    0.2803077 -81.07   0.00184034    2.087    0.521
        22  -8.9906     92.4665    232.5208   1.3535843130e+02   1.4555993440e+01    0.1267953    0.1021787  68.77  4.07833e-05    1.002    0.002
        23 -11.7288     98.8450    247.4267   1.3579095495e+02   1.0775190418e+01    0.5695261     0.291915  57.47  0.003037117    1.733    0.423
        24 -10.9867    103.3781    244.4111   1.3463915573e+02   1.0611636589e+01    0.4068689    0.2027178  73.56  0.001749697    3.086    0.676
        25 -10.8920    104.4830    237.8402   1.3369467371e+02   1.1648486353e+01    0.2460017    0.1886528  52.29 0.0007966936    1.146    0.128
        26 -10.1634     87.8183    250.5981   1.3808302242e+02   1.1883265885e+01    0.4254216    0.1414494  41.04  0.001380864    2.743    0.635
        27 -10.6677     88.4343    247.2006   1.3764055993e+02   1.2407530599e+01    0.3074601    0.1799184  40.86   0.00176783    1.682    0.405
        28 -10.8577     80.8264    245.6529   1.3884487328e+02   1.3821557013e+01    0.5480685    0.2655146  86.18  0.002519951    2.947    0.661
        29 -10.2645     83.5976    242.2297   1.3801566177e+02   1.4050496117e+01    0.1822071     0.140518 -56.41  0.000849198    1.661    0.398
        30  -9.0913     74.6802    250.5768   1.4037577184e+02   1.3806001576e+01    0.2217685    0.1011637  40.17  0.001153551    2.157    0.536
        31 -11.4456     59.8975    245.0992   1.4244894466e+02   1.6868163435e+01    0.3787892    0.2724487  89.52  0.001661235    1.217    0.178
        32 -10.3271     63.1836    250.0859   1.4230167088e+02   1.5499012372e+01    0.1988462     0.157605  44.42 0.0009720875    1.495    0.331
        33 -11.3236     66.8841    244.1270   1.4115815767e+02   1.6095583442e+01    0.4171061    0.2349298  32.19   0.00224599    2.476    0.596
        34 -12.1794     51.6598    237.5701   1.4324756315e+02   1.9387337543e+01    0.8949472    0.6113933  88.43  0.004935728    1.232    0.188
        35 -14.8136     19.1720    161.6401   1.4251011986e+02   3.9213368972e+01       3.8425     1.291097 -54.13   0.01703726    2.886    0.653
        36 -13.6260      9.0206    206.8839   1.4837569493e+02   3.0379306328e+01     1.176901    0.8237572  49.10  0.008537633    1.513    0.339
        37 -14.2892      6.2739    246.2423   1.5118012303e+02   2.3009687906e+01      1.14486    0.6548018  87.84  0.008292871    1.312    0.238
        38 -13.0056     13.8431    238.7773   1.4959930033e+02   2.3604908960e+01    0.5654597    0.2872117  65.29  0.003696967    1.540    0.351
        39 -12.8525     42.1326    228.5627   1.4417758998e+02   2.2352484766e+01    0.3420676     0.327078 -67.29  0.000788519    1.606    0.377
        40 -14.6529     48.1337    219.2500   1.4230865979e+02   2.3484626457e+01     1.657289     1.444706  43.51  0.006226615    1.502    0.334
        41 -10.5489    165.1223    242.1214   1.2269964876e+02   6.2434859945e-01    0.2220715    0.1907617  19.84 0.0006843432    1.263    0.208
        42  -9.9926    161.7963    232.5893   1.2192906331e+02   2.7947154324e+00    0.2183923    0.1676544  65.38 0.0007582063    1.436    0.304
        43 -10.1882    122.9955    249.7270   1.3163250176e+02   6.5045239807e+00    0.2872755    0.1812236  42.70  0.001666793    1.394    0.283
        44 -11.7049    122.3280    232.6627   1.2964868361e+02   9.6752109664e+00    0.4104153    0.3188972 -65.44  0.001519334    1.418    0.295
        45  -9.7489     94.0771    217.3885   1.3327719506e+02   1.7322425554e+01    0.4098798    0.2042555 -89.03  0.001596553    3.399    0.706
        46 -11.3531     98.5425    231.5735   1.3409765538e+02   1.3787349844e+01    0.3911999     0.301601 -73.21 0.0006375333    1.343    0.255
        47 -11.4279    111.4580    230.4339   1.3147510144e+02   1.1915380814e+01    0.5780235    0.3284813  43.60  0.001489795    1.582    0.368
        48  -9.3668    104.1587    229.2088   1.3273889122e+02   1.3345853661e+01    0.2470668    0.1624743  53.28  0.001162724    1.302    0.232
        49 -10.7278     92.6136    226.0056   1.3459211756e+02   1.5811950635e+01    0.3189298    0.1877657  57.49  0.001134309    1.510    0.338
        50 -11.7145     98.8875    223.6042   1.3308628113e+02   1.5298354983e+01    0.4856524    0.3364731  44.18  0.001251884    1.387    0.279
        51 -10.7085    172.9568    239.7762   1.2085586941e+02  -3.5999575657e-01    0.3676206    0.1838132 -52.51  0.001765912    2.530    0.605
        52  -9.3601     78.0787    233.4092   1.3813892107e+02   1.6550932696e+01    0.1792139    0.1449136 -78.81 0.0004255441    1.267    0.211
        53 -11.4082    144.7328    240.6134   1.2638536081e+02   4.4102664584e+00    0.3165753    0.1403764  50.10  0.001189318    2.033    0.508
        54 -11.1043    156.6615    231.6519   1.2279327257e+02   3.8695654868e+00    0.2383347    0.2294217 -22.36 0.0005252668    1.223    0.183
        55  -8.7391     62.5976    233.2463   1.4094327734e+02   1.8772769970e+01    0.1283708   0.06836446  64.27  0.000507561    1.693    0.409
        56 -10.5886    165.6944    235.0605   1.2154345389e+02   1.6859831574e+00    0.2563721     0.227227  39.19  0.001308329    1.049    0.047
        57 -10.4251    141.7652    230.4661   1.2554744335e+02   6.7189371819e+00    0.3087083    0.2300697  -8.85   0.00086101    2.292    0.564
        58 -10.4698     84.6768    229.5250   1.3650142280e+02   1.6332548332e+01    0.2501371    0.2206988  23.92 0.0008416944    1.644    0.392
        59 -10.5907     77.6282    221.0631   1.3692796701e+02   1.9081177924e+01    0.2717541    0.1745951  64.25 0.0004031413    1.383    0.277
        60 -10.7429     80.4020    227.5808   1.3710052577e+02   1.7357091206e+01    0.2962402    0.2708831 -11.36 0.0007583788    1.785    0.440
        61 -10.0435     78.9461    224.5604   1.3705384402e+02   1.8177569939e+01    0.2001201    0.1881647 -40.15 0.0007391286    1.574    0.365
        62 -10.6602    115.7881    239.8651   1.3180162612e+02   9.4381164666e+00    0.2224781    0.2061195  73.65 0.0006813793    1.184    0.155
        63 -11.0182    165.5757    227.0574   1.2033416853e+02   3.0714528328e+00    0.4271455    0.2469126 -66.47  0.001748199    2.746    0.636
        64 -11.3247    160.5413    223.5993   1.2079039551e+02   4.5925514672e+00    0.4643552    0.2424533  41.15 0.0006082028    1.706    0.414
        65  -9.4460    190.7232    228.0145   1.1556729593e+02  -1.5942793060e+00    0.1721065    0.1595577  14.58 0.0002912149    1.092    0.084
        66  -9.2984    179.6643    228.1208   1.1773480860e+02   3.5730648479e-01    0.1929697     0.163539  89.85 0.0009278344    1.551    0.355
        67  -9.6431    197.5521    226.8592   1.1405623837e+02  -2.6143792290e+00    0.2593231    0.1990522  73.54  0.001409347    1.968    0.492
        68 -10.3054    147.2623    225.3373   1.2370948322e+02   6.6770105937e+00    0.2348635    0.1908785  16.00 0.0002192952    1.551    0.355
        69  -9.7333    149.7965    222.4360   1.2276300970e+02   6.7538400373e+00    0.2206001    0.1806549  37.49 0.0007911783    1.181    0.153
        70 -11.7723    141.9967    221.6797   1.2421893310e+02   8.3013406269e+00    0.4613583    0.3604774 -47.77 0.0002831824    1.475    0.322
        71 -11.1794    137.3700    214.6137   1.2409253370e+02   1.0491867835e+01    0.5814407    0.3818895  31.87  0.001710466    1.705    0.414
        72  -9.3044    129.6684    221.3385   1.2665480376e+02   1.0558392869e+01    0.2165621    0.1640569  88.18  0.001210605    1.484    0.326
        73 -10.8842    117.3660    224.3157   1.2952764983e+02   1.2106877138e+01    0.2336396    0.2051792  64.38 0.0002621059    1.053    0.050
        74 -10.1195    110.9273    221.2251   1.3040194508e+02   1.3800222722e+01     0.314847    0.1868145 -64.36  0.001089706    1.803    0.445
        75 -11.2052     70.4113    218.9380   1.3808797066e+02   2.0560475119e+01    0.5992178    0.3306981 -83.29  0.003157871    1.868    0.465
        76 -11.0751     72.1450    210.0788   1.3678297274e+02   2.2165379096e+01    0.4176016    0.2785239  33.42  0.002338989    1.851    0.460
        77  -9.3608     33.9429    219.8180   1.4492549947e+02   2.5087526167e+01    0.4019689    0.2730702  68.51  0.002723008    1.186    0.157
        78 -10.5627    105.6040    219.5368   1.3124621459e+02   1.5022340453e+01     0.389972    0.2219877  76.32 0.0008910847    2.349    0.574
        79 -10.9036    244.6625    226.8276   1.0531812781e+02  -1.0431091075e+01    0.2362519    0.1565018 -57.96  0.001174249    2.996    0.666
        80 -10.4198    246.2624    218.8528   1.0358705508e+02  -9.5771719591e+00    0.2527376    0.1437532  15.47  0.001249963    2.111    0.526
        81 -11.1628    132.3672    224.4548   1.2655671945e+02   9.4876287202e+00     0.308534    0.2252681  52.35   0.00175693    1.196    0.164
        82  -8.7041     89.4902    218.5213   1.3432420452e+02   1.7809045588e+01    0.1308442    0.1069094  72.55 0.0008101732    1.016    0.016
        83 -10.0709     22.8341    215.4540   1.4655762770e+02   2.7218554770e+01    0.3989321    0.2541546 -79.62  0.002629707    1.305    0.234
        84  -9.8655     88.1476    212.9792   1.3392328835e+02   1.9164613728e+01    0.2394405    0.1642645 -83.92  0.000707366    1.439    0.305
        85  -9.0002    182.7157    213.7012   1.1470147633e+02   2.2650369056e+00    0.1325587    0.1027345   7.67 0.0002088194    1.549    0.354
        86 -10.3060    101.9335    211.9075   1.3098991295e+02   1.7187608261e+01    0.3897804    0.2059452  67.29  0.001702151    2.379    0.580
        87  -8.9050    152.0307    212.0168   1.2066169318e+02   8.3032651835e+00    0.2160243    0.1578946  73.00 0.0007034776    1.652    0.395
        88  -9.7646     33.4301    211.5667   1.4434539826e+02   2.6842714022e+01    0.1768998    0.1273002  46.67 0.0006586259    1.491    0.329
        89 -10.2093    109.0422    207.8108   1.2896132073e+02   1.6856259260e+01    0.3706446    0.1866989 -65.53  0.001206037    2.178    0.541
        90  -9.9440    134.7377    208.3981   1.2367633920e+02   1.2203532334e+01    0.2651955    0.2116993 -19.01  0.001249925    1.821    0.451
        91  -9.2126    119.9420    208.7198   1.2681884221e+02   1.4786927120e+01    0.1920633    0.1601641  56.29 0.0003738812    1.081    0.075
        92 -12.2154     93.4903    202.9336   1.3153901258e+02   2.0456919574e+01    0.5570108    0.4669767 -71.34    0.0020298    1.206    0.171
        93 -10.6422    102.6380    202.7101   1.2958479574e+02   1.9012419001e+01     0.430196    0.2542782  58.52  0.002115074    1.669    0.401
        94 -10.6741     98.7021    196.7442   1.2957374974e+02   2.0955559025e+01    0.5126572    0.2924182  51.12  0.001882676    1.651    0.394
        95 -11.4320    247.1190    205.9645   1.0101896941e+02  -7.8523376940e+00    0.4649193    0.2522629  20.98  0.002190565    2.244    0.554
        96 -10.4451    175.2585    205.3395   1.1473375585e+02   5.1785203896e+00    0.3427449    0.2323122 -16.63  0.001585634    2.184    0.542
        97  -9.4309    178.2841    204.6922   1.1399787425e+02   4.7208986873e+00    0.2079792    0.1836371  54.74 0.0002342452    1.148    0.129
        98 -11.2230     89.9856    237.4445   1.3635692041e+02   1.3992228837e+01    0.3322397    0.2155176 -83.87  0.001495366    1.590    0.371
        99  -9.4027    125.9214    205.7255   1.2511318447e+02   1.4343227436e+01    0.1984076    0.1623632  54.84 0.0004758296    1.106    0.095
       100  -9.2288    149.2532    204.7740   1.2004174661e+02   1.0234636280e+01    0.2794204    0.1749092 -26.53  0.001190237    2.620    0.618
       101 -10.5670     37.4460    202.8327   1.4282699097e+02   2.8221182553e+01    0.2884626    0.1705352 -83.09  0.001159687    1.431    0.301
       102  -9.7976    166.9778    203.2769   1.1607570272e+02   7.1511958271e+00    0.1964087    0.1649257  44.82  0.001093699    1.097    0.088
       103  -9.5091    133.0842    202.8503   1.2314432515e+02   1.3635582063e+01    0.2241951    0.2001529 -66.96 0.0004402955    1.180    0.152
       104 -10.0232    134.1439    197.9050   1.2210979381e+02   1.4465508477e+01    0.2917422    0.2017475 -67.51 0.0003129958    1.608    0.378
       105 -10.2740    138.0539    201.5582   1.2187656486e+02   1.2982092326e+01    0.2356084    0.2019112 -63.45 0.0001910737    1.232    0.189
       106 -10.0645     83.6171    238.2629   1.3761375107e+02   1.4797311399e+01    0.2971915    0.1419128  45.51  0.001553068    1.812    0.448
       107  -9.8051     64.0404    202.1294   1.3751166540e+02   2.5009477555e+01    0.2435002    0.1733777  35.74 0.0007640625    1.679    0.404
       108  -9.5242     32.9242    201.9684   1.4361252435e+02   2.8921945775e+01    0.1717387    0.1323049  87.21 0.0003134094    1.037    0.035
       109 -10.2871    197.0498    200.6322   1.0945122484e+02   1.8813399098e+00      0.33111    0.2326626  51.83  0.001697713    1.507    0.336
       110 -10.4387    112.7738    193.6251   1.2605657765e+02   1.9246496369e+01    0.4879576    0.2798571 -66.16  0.001363098    1.873    0.466
       111 -11.1541    115.2406    200.2557   1.2654572856e+02   1.7384837300e+01    0.2509017    0.2308662 -88.53 0.0002227888    1.094    0.086
       112 -10.3098    119.9713    199.1265   1.2535726462e+02   1.6789661199e+01    0.3326144    0.2219615  66.53 0.0003757292    1.617    0.382
       113  -9.1223    169.5124    200.4518   1.1504208672e+02   7.2038542484e+00     0.141531    0.1302915  47.61 7.918205e-05    1.026    0.026
       114  -8.7557    158.5637    199.4970   1.1716851600e+02   9.5043038157e+00    0.1410736    0.1312718  52.68 7.038096e-05    1.009    0.009
       115  -8.9467     86.2652    199.2870   1.3257069712e+02   2.2385514410e+01    0.1649285    0.1559242  76.73 0.0001901328    1.216    0.178
       116  -9.4355     85.9696    195.9668   1.3219037837e+02   2.3160390399e+01    0.2421796    0.1678684 -76.50 0.0003423719    1.382    0.276
       117 -11.3583     53.1970    198.0400   1.3925215368e+02   2.7337592217e+01    0.5477668    0.2148446  46.50  0.002569527    2.370    0.578
       118 -10.2248     56.5468    194.2009   1.3814684932e+02   2.7749034465e+01    0.3394165    0.1907671 -75.42  0.001628643    1.609    0.378
       119  -9.7293     44.3373    199.0837   1.4112803970e+02   2.8212151550e+01    0.2645783    0.1480846  53.09 0.0006200692    1.664    0.399
       120 -11.7056     67.2659    195.0684   1.3602438421e+02   2.6111664601e+01    0.4147103    0.2880118 -46.99  0.001655078    1.852    0.460
       121  -9.8524     72.9383    193.0781   1.3458360565e+02   2.5749509134e+01     0.204183    0.1684773  62.78  0.001257986    1.147    0.128
       122  -9.4473     77.1802    188.8419   1.3312082195e+02   2.6078825507e+01    0.2010059    0.1556387  76.38 0.0002872152    1.178    0.151
       123 -11.8907     72.7091    187.4505   1.3390447141e+02   2.7044123602e+01    0.3539063    0.2464067 -49.79 0.0009280868    1.676    0.403
       124  -8.9827    107.3954    196.2247   1.2762387436e+02   1.9610663885e+01    0.1841632     0.124968 -75.76 0.0004521988    1.562    0.360
       125  -9.4016     31.1248    195.2355   1.4335109342e+02   3.0567967255e+01    0.2266024    0.1252185  58.91 0.0009948529    1.686    0.407
       126  -9.9624    159.6084    193.9859   1.1595550912e+02   1.0399727470e+01    0.3105564    0.1996334  53.74  0.001037114    1.571    0.364
       127 -10.7500    119.2323    191.6188   1.2432130313e+02   1.8537444911e+01    0.5442581    0.3701932  89.34  0.001615345    1.827    0.453
       128  -8.8937     81.8708    194.3908   1.3285348212e+02   2.4136930143e+01    0.1807328    0.1241433  45.84  0.000126046    1.443    0.307
       129  -8.8546     84.6945    192.3524   1.3197263523e+02   2.4158740179e+01    0.1392641    0.1223756  84.53 0.0004548283    1.052    0.049
       130 -10.6322     38.7659    192.3638   1.4156638218e+02   3.0335314132e+01    0.2286591    0.1579764 -63.76  0.000104261    1.435    0.303
       131  -9.5668     42.1303    188.8483   1.4052471178e+02   3.0719514931e+01    0.1707882    0.1378634 -49.13 0.0005013213    1.609    0.379
       132  -9.0916     47.7945    192.6135   1.3976645950e+02   2.9206840795e+01    0.1567551    0.1444379 -81.21  0.001084032    1.296    0.228
       133  -9.7166     26.0914    193.0851   1.4413539171e+02   3.1573260174e+01    0.1799948     0.134227 -89.85 0.0006031112    1.031    0.030
       134  -9.8831     20.4553    191.9130   1.4512238488e+02   3.2405231434e+01    0.2849257    0.1499326  87.35  0.001609137    1.691    0.409
       135 -10.2049    191.4675    191.4415   1.0881075125e+02   4.6268656522e+00    0.2733129    0.2354629   9.25 0.0006583365    1.227    0.185
       136  -9.3953    172.7158    192.6430   1.1292760990e+02   8.0895809711e+00    0.1440577    0.1127804  -2.72 0.0003485544    1.671    0.401
       137  -9.3159    135.3046    190.1297   1.2053561664e+02   1.5890150604e+01    0.1937402    0.1752165 -84.46 0.0004057547    1.108    0.097
       138  -9.9589     32.5507    189.2845   1.4250866612e+02   3.1708711664e+01    0.3187236    0.2752115  15.59  0.002189639    1.776    0.437
       139 -12.2369    249.7203    183.9843   9.6236024683e+01  -4.8982586890e+00     1.112906    0.2687333 -41.08  0.003613653    4.064    0.754
       140 -12.2125    248.1928    171.9837   9.4041288883e+01  -2.6782735686e+00    0.5910594    0.4734735  27.30  0.003437261    1.281    0.219
       141 -12.6685    248.2924    101.3341   7.8546349018e+01   9.5404547494e+00     0.925057    0.4923056 -38.05  0.004203287    1.711    0.416
       142 -13.6878    244.6611    157.8768   9.1672854043e+01   3.5919990899e-01     2.283849    0.8665488 -46.04    0.0084632    2.820    0.645
       143 -12.5770    248.3009    134.2039   8.5899266232e+01   3.7975579903e+00     1.193692     0.646121 -37.67  0.005468149    1.669    0.401
       144  -9.9958    143.3238    181.3329   1.1717031607e+02   1.6231659383e+01    0.2504792    0.2137195  16.53 0.0009712915    1.423    0.297
       145 -10.8282     25.3348    184.3326   1.4348289314e+02   3.3560351340e+01    0.3535504    0.1944485  67.54   0.00189451    1.773    0.436
       146  -9.4522     30.0524    183.0843   1.4240644090e+02   3.3344966297e+01    0.2398212     0.181027  83.79  0.001316992    1.082    0.075
       147  -9.4902     86.1939    183.4797   1.3038652236e+02   2.5924939003e+01    0.2691568    0.1973062  -6.53   0.00117177    2.700    0.630
       148  -9.2602     37.7177    184.2109   1.4094582110e+02   3.2257473200e+01    0.2139801    0.1331194  45.11    0.0012638    1.668    0.400
       149  -9.6009     53.8616    182.2197   1.3731494588e+02   3.0776613411e+01    0.2379115    0.1937007 -18.83  0.001251546    2.011    0.503
       150  -9.6755     65.9521    181.9787   1.3465796156e+02   2.9236045068e+01    0.1946642    0.1636602  86.72 0.0003061444    1.013    0.013
       151 -10.4658    169.7143    248.6228   1.2276819316e+02  -1.1935712243e+00    0.3135094    0.1990594  17.75 0.0008249145    2.229    0.551
       152  -9.6982    174.9600    179.9877   1.0998661318e+02   1.0150759450e+01    0.3489119    0.1540396  43.77   0.00133244    2.182    0.542
       153  -9.2737    170.1082    180.0680   1.1104298716e+02   1.1122700345e+01    0.2093172     0.191752   6.55  0.001138492    1.193    0.162
       154  -8.7573    104.3919    180.5512   1.2583206477e+02   2.3612008814e+01    0.1402019    0.1262305  88.53 0.0001038547    1.022    0.021
       155  -9.1967     48.0329    179.5953   1.3825639272e+02   3.2092180270e+01    0.1659711    0.1173642  44.57 0.0004659427    1.516    0.340
       156  -9.3171    109.4287    178.1242   1.2427831830e+02   2.3287993593e+01    0.2075581    0.1347179 -59.40 0.0006571413    1.520    0.342
       157 -11.4683     81.9674    175.6737   1.3017985697e+02   2.8366496393e+01    0.3984157    0.3375948  50.69  0.001386761    1.235    0.190
       158  -9.8455     77.1964    175.6272   1.3126142262e+02   2.9092488405e+01    0.2098009    0.1621876 -82.15 0.0005392601    1.177    0.151
       159 -11.8064     68.8416    173.3812   1.3283933629e+02   3.0812477141e+01    0.5644829    0.2467919 -52.10  0.001545556    2.348    0.574
       160 -10.9465     68.9554    166.8674   1.3186681109e+02   3.2313189955e+01    0.3387786    0.2034802 -54.86 0.0003507526    1.614    0.380
       161  -9.1671    114.9871    176.4890   1.2272005885e+02   2.2667852224e+01    0.1955118    0.1139047  65.05 -8.969357e-05    2.171    0.539
       162 -10.1226     95.4822    172.8975   1.2662333795e+02   2.6866615112e+01    0.2478725    0.1776014  64.84 0.0005074921    1.433    0.302
       163 -12.6298     88.1902    167.0910   1.2737532096e+02   2.9397454431e+01      0.79746    0.6654215 -61.96  0.004548464    1.170    0.145
       164 -11.2397     28.2986    171.6105   1.4159524438e+02   3.6090877415e+01    0.3687196    0.2391349 -68.53  0.001215422    1.302    0.232
       165 -10.7336     89.8995    160.4912   1.2584515813e+02   3.0674941919e+01    0.4175355    0.2406014 -56.52 0.0006362765    1.628    0.386
       166 -11.0083     44.9014    168.7690   1.3763473040e+02   3.4936474083e+01     0.557412    0.3197205  35.51  0.003014019    2.002    0.501
       167  -9.5322    126.5896    167.7751   1.1842316962e+02   2.2487111318e+01    0.2077835    0.1389242 -67.20   0.00093962    1.641    0.391
       168  -9.3869    107.2029    168.2170   1.2306939056e+02   2.5952948036e+01    0.1974051    0.1932577 -82.81  0.000373049    1.140    0.123
       169  -9.1493     58.5156    167.4979   1.3437751900e+02   3.3565395509e+01    0.1332328    0.1114903 -84.99 0.0002813361    1.003    0.003
       170  -8.9135     77.0000    165.9279   1.2983382155e+02   3.1380784872e+01    0.2170803   0.07164006 -61.13  0.000370266    2.786    0.641
       171  -9.0241    136.1951    165.4013   1.1571318880e+02   2.1149596715e+01    0.2051823    0.1364806  55.51 0.0001658925    1.558    0.358
       172  -9.1568     53.9722    164.7477   1.3504635486e+02   3.4779791682e+01    0.1768042    0.1483686 -87.23 0.0003729399    1.025    0.024
       173  -9.6004     80.8718    164.0784   1.2861981859e+02   3.1237204370e+01    0.2133197    0.1703704  88.01  0.001187514    1.206    0.171
       174 -11.7664    248.2713    142.3030   8.7685067787e+01   2.3838443306e+00    0.6463537    0.5200232 -11.07  0.003566185    1.346    0.257
       175  -9.3045     46.9429    163.0681   1.3644177796e+02   3.6015963233e+01    0.1545495    0.1255985 -82.98   0.00037212    1.014    0.014
       176  -9.5923     37.0004    162.6961   1.3866380626e+02   3.7213863833e+01    0.1677463    0.1407316  79.30 0.0005137051    1.133    0.117
       177  -9.4247    154.7012    161.8944   1.1072270817e+02   1.8150631938e+01    0.2091255    0.1861168 -64.52 0.0003715742    1.151    0.131
       178 -11.0353     73.6753    157.9227   1.2934906506e+02   3.3749200022e+01    0.4537826    0.3430653 -73.85  0.001906072    1.199    0.166
       179 -10.5995     96.0012    157.1733   1.2376442534e+02   3.0458242910e+01    0.3894174     0.200223 -65.04 0.0009151982    2.035    0.509
       180  -9.2461     79.0207    158.7453   1.2818681353e+02   3.2772137878e+01     0.186119    0.1703924  82.34 0.0003906647    1.077    0.071
       181  -8.8399     52.4704    158.4723   1.3452288459e+02   3.6428477065e+01    0.1314068    0.1106159 -74.62 0.0008085563    1.060    0.057
       182  -9.5158    134.3168    155.9672   1.1422340726e+02   2.3658221087e+01    0.2147273    0.1941407 -60.41 0.0003960874    1.094    0.086
       183  -9.3709    228.2912    155.1265   9.3987981481e+01   4.0203179536e+00    0.2085324    0.1697616 -36.94 0.0005565225    1.166    0.142
       184  -8.4954    175.7314    155.2589   1.0458336312e+02   1.5089465724e+01    0.1442315    0.1199279  88.75 0.0006828252    1.455    0.313
       185  -8.6434    124.6934    154.3085   1.1619121356e+02   2.5937482840e+01    0.1541486    0.1159096  83.08  0.000332142    1.612    0.380
       186 -10.6124    113.7025    151.1512   1.1823414332e+02   2.8755554255e+01    0.4144429     0.311206 -50.45  0.001014425    1.316    0.240
       187 -11.0911    100.6881    151.2971   1.2149612498e+02   3.1049207884e+01    0.5646962    0.4355169  17.93  0.002807095    1.743    0.426
       188  -9.9588    103.7873    146.0245   1.1966982207e+02   3.1751937210e+01    0.4685193    0.2176464 -50.55  0.001862889    2.057    0.514
       189  -9.0578    132.4316    152.4552   1.1393323028e+02   2.4836950302e+01    0.1521655    0.1434652 -88.20 9.650519e-05    1.029    0.028
       190  -9.4142     53.0188    146.4666   1.3260189490e+02   3.9180671241e+01    0.2171008    0.1632411  89.47 0.0006801261    1.306    0.235
       191 -10.3347     60.1965    151.0631   1.3154516432e+02   3.7204806872e+01    0.4150811    0.2538812  78.00  0.001152102    2.056    0.514
       192 -10.9892     56.0051    150.1422   1.3243374717e+02   3.7950959577e+01    0.4635057    0.2881041 -47.03  0.002406296    1.717    0.418
       193  -9.2942     90.1703    149.8163   1.2384685272e+02   3.3155327380e+01    0.2146468    0.1818272  88.63 0.0005512356    1.172    0.147
       194  -9.0544     49.4839    150.4886   1.3408423014e+02   3.8654754937e+01    0.1316603    0.1101799 -71.92 -3.312588e-05    1.052    0.049
       195 -12.9374     67.5404    144.2702   1.2857643794e+02   3.7840709678e+01    0.7243851    0.5122884  78.18  0.003350942    1.623    0.384
       196 -12.0002     74.3660    139.4634   1.2594991555e+02   3.8025458158e+01    0.6657793     0.491012 -81.45   0.00343031    1.412    0.292
       197 -10.6500    134.0000    145.0209   1.1193730987e+02   2.6218174638e+01    0.6107083     0.197682 -51.96  0.001873383    3.214    0.689
       198 -10.8318    133.1278    140.3178   1.1109419187e+02   2.7469660119e+01    0.4472396    0.3029667 -50.31  0.001177854    1.451    0.311
       199 -13.0148      4.0154    144.6353   1.4409928747e+02   4.4255869326e+01     0.684579    0.4621372  16.88  0.004504815    2.130    0.531
       200 -10.5549    236.2927    145.9021   9.0517300226e+01   4.0938221797e+00    0.2754939    0.2047707  34.53  0.000961479    1.471    0.320
       201  -8.7182     93.4741    145.4980   1.2218253611e+02   3.3638629573e+01    0.1467986    0.1312276 -83.39 0.0008092772    1.065    0.061
       202 -11.5759     42.5146    237.1224   1.4478243198e+02   2.0631509187e+01    0.3516819    0.2065126  65.58  0.001161785    1.373    0.272
       203 -12.6595     12.4438    186.3936   1.4620266632e+02   3.4367845918e+01    0.6857275    0.6184198 -37.09  0.002859455    1.684    0.406
       204 -11.1477     42.4453    140.8561   1.3438707313e+02   4.1700143117e+01    0.3668863    0.1800079  59.61  0.001617382    2.776    0.640
       205 -14.4274     30.7568    246.4194   1.4738224579e+02   2.0288266672e+01     2.090369     1.102615  61.89   0.01357255    1.479    0.324
       206  -9.1182    122.1386    147.9061   1.1547397729e+02   2.7913148821e+01    0.1918736    0.1764081 -25.39            0    1.244    0.196
       207 -11.2101     60.3040    137.5797   1.2927323228e+02   4.0375668732e+01    0.3033713    0.1918105  48.12 0.0009412928    1.746    0.427
       208 -11.3191     47.7229    138.3045   1.3264841501e+02   4.1714954251e+01    0.4521434    0.1653829  27.50  0.001789229    3.643    0.726
       209 -13.7424      2.5111    221.2819   1.5039359875e+02   2.8113589646e+01     2.106208    0.4689346 -73.80  0.009413371    3.419    0.708
       210 -10.3740    111.4067    136.3142   1.1566368446e+02   3.2649025040e+01    0.4008119    0.2965275  21.63   0.00120785    1.746    0.427
       211 -11.8412     20.2933    134.0146   1.3896377930e+02   4.5389836989e+01    0.2670462     0.195664  41.69  0.001738775    1.615    0.381
       212 -12.5541     44.3421    129.9373   1.3215706081e+02   4.4042368445e+01    0.6689938    0.4040346  65.59  0.003350526    2.164    0.538
       213 -12.6209      2.5516    129.1083   1.4272641436e+02   4.7808662567e+01     1.014502    0.1274537 -68.74  0.003273397    4.778    0.791
       214  -9.5974    159.0001    145.0943   1.0603017866e+02   2.0910194311e+01    0.2231941    0.2175079 -83.57            0    1.014    0.013
       215 -12.0119     67.7088    128.3181   1.2558468119e+02   4.1585037490e+01    0.4185688    0.3700215 -80.43  0.001243188    1.103    0.093
       216  -9.1781    105.8909    128.0068   1.1523331073e+02   3.5594792009e+01    0.3871912    0.1601369 -58.26 0.0009406773    2.711    0.631
       217 -11.8371     38.4491    121.5110   1.3231033811e+02   4.6602631421e+01      0.46185    0.2493958  75.26  0.001928059    3.276    0.695
       218 -12.1814     31.3575    127.0614   1.3512309225e+02   4.6008731414e+01    0.3629874    0.2200641  47.35  0.001773218    1.924    0.480
       219 -10.4686    209.8151    125.7725   9.0708246479e+01   1.3492062898e+01    0.2984731    0.2559183 -37.47 0.0005453633    1.130    0.115
       220 -10.5480      9.7758    127.5850   1.4075217539e+02   4.7654875516e+01    0.1435001    0.1028098  50.55  0.000365639    1.636    0.389
       221  -9.5006     86.1373    126.1707   1.2012824195e+02   3.9382740490e+01    0.3398174    0.2065874  12.67  0.001342041    2.976    0.664
       222 -12.9712     20.3850    121.2332   1.3713486539e+02   4.8283999949e+01     0.470138     0.322809 -60.53  0.001751667    1.167    0.143
       223 -11.8729     24.4862    121.4610   1.3607745125e+02   4.7895910274e+01    0.2873068    0.2205156  10.03  0.001076657    1.745    0.427
       224  -9.2091     98.4530    134.2532   1.1858292583e+02   3.5452336687e+01    0.3629334    0.1919632 -34.27  0.001345799    2.765    0.638
       225 -10.4556     55.0893    120.8965   1.2760528063e+02   4.4924389073e+01    0.2667905    0.2008524  18.80  0.001502997    1.671    0.401
       226 -11.4494     10.3121    118.3371   1.3937894474e+02   4.9683891622e+01    0.2533983     0.129208 -54.32  0.001437334    1.597    0.374
       227 -11.7389     31.0888    117.6412   1.3366982009e+02   4.8187328180e+01    0.3590208      0.24936 -54.64  0.002065642    1.216    0.177
       228  -9.4436    175.0880    186.2273   1.1119480814e+02   8.8791205068e+00    0.2422891    0.1672956  70.37  0.001076326    2.007    0.502
       229  -8.6155     86.2973    116.2890   1.1786550689e+02   4.1645513062e+01    0.1402713    0.1083634 -23.59 0.0002419301    1.555    0.357
       230 -11.7868     15.4871    114.6803   1.3746394918e+02   5.0131168774e+01    0.3139244    0.1555022 -61.96  0.001109787    1.523    0.343
       231 -11.0682    168.0347    113.1737   9.6159944739e+01   2.5691506169e+01    0.3721078    0.3111261 -86.40 0.0007936683    1.386    0.279
       232  -9.9319     50.1674    112.8565   1.2741292376e+02   4.7344363880e+01    0.1905664    0.1628436 -76.04 0.0004213485    1.164    0.141
       233 -10.6269     64.8935    111.8811   1.2296439907e+02   4.5769453278e+01    0.2037348    0.1686117 -37.94  0.001181777    1.207    0.171
       234 -10.0472    140.0519    183.0892   1.1822555412e+02   1.6491544166e+01    0.2397781    0.2005272  49.48 0.0003617766    1.142    0.124
       235  -9.2739    203.5107    111.4999   8.8433813139e+01   1.7685540360e+01    0.1515411    0.1471837 -44.75  0.000111589    1.039    0.038
       236  -8.9526     83.8048    111.1396   1.1735831531e+02   4.3212719294e+01    0.1893613    0.1573886 -29.27  0.000346164    1.281    0.219
       237 -10.2271     69.9533    111.0795   1.2132443699e+02   4.5269253444e+01    0.2033913    0.1841459 -57.91            0    1.033    0.032
       238 -11.2984     57.7910    110.3647   1.2469393778e+02   4.7016345556e+01     0.438048    0.2426708  34.95    0.0021691    2.048    0.512
       239 -10.5819     31.6504    110.8858   1.3233813983e+02   4.9665893454e+01    0.2108242      0.18181  46.42 0.0006318848    1.390    0.281
       240  -8.6190    114.3591    107.2638   1.0786036038e+02   3.8682716951e+01    0.1496745    0.1186249   1.77 0.0006984118    1.633    0.388
       241  -9.7052     62.4956    107.0550   1.2259225268e+02   4.7175534873e+01    0.2100421    0.1200021 -56.98 0.0008183515    1.554    0.356
       242 -11.2363     27.6442    106.4398   1.3268671388e+02   5.1012250060e+01    0.2607501    0.2168838 -38.41  0.001755568    1.241    0.194
       243  -9.1891    134.6595    104.9970   1.0193683222e+02   3.4975524795e+01    0.2609982    0.1255378 -25.60 0.0007048262    4.504    0.778
       244  -8.5925     95.2672    106.6217   1.1298263797e+02   4.2340464997e+01    0.1467478    0.1125543 -81.61 0.0006989843    1.683    0.406
       245  -9.2838     32.9964     99.9985   1.2988340663e+02   5.1971832887e+01    0.1560986    0.1168715 -57.31 0.0003652649    1.087    0.080
       246  -8.4465     85.7188     97.2556   1.1331987120e+02   4.5983196060e+01    0.1293081    0.1100489  86.81            0    1.471    0.320
       247  -8.5402     80.2687     97.7163   1.1505588715e+02   4.6741164231e+01    0.1298682    0.1083386 -86.44 0.0001693696    1.495    0.331
       248  -9.0776     72.2395     90.0866   1.1548898329e+02   4.9569249751e+01    0.1865743    0.1595184 -43.11 0.0002898284    1.050    0.047
       249 -10.9333    249.5720    151.0165   8.9361597096e+01   6.2369671790e-01    0.5147914    0.2910217 -41.30  0.002445619    1.630    0.386
       250  -8.8850    123.9996     51.0352   8.8546333872e+01   4.7213661771e+01    0.1651986    0.1562041  11.21            0    1.032    0.031
       251 -12.0054    247.5472    241.0962   1.0730906216e+02  -1.2728731243e+01    0.4940908    0.2385384  42.50  0.002608903    2.093    0.522
       252  -9.7316    200.0489    245.8236   1.1667857680e+02  -5.8946131601e+00    0.1797602    0.1528683  45.27 0.0004366071    1.231    0.187
       253 -10.2504    222.9630    244.4944   1.1225916240e+02  -9.4237278998e+00    0.1908806    0.1025963  36.91 0.0007792591    1.593    0.372
