#   1 NUMBER                 Running object number                                     
#   2 MAG_AUTO               Kron-like elliptical aperture magnitude                    [mag]
#   3 X_IMAGE                Object position along x                                    [pixel]
#   4 Y_IMAGE                Object position along y                                    [pixel]
#   5 X_WORLD                Barycenter position along world x axis                     [deg]
#   6 Y_WORLD                Barycenter position along world y axis                     [deg]
#   7 A_WORLD                Profile RMS along major axis (world units)                 [deg]
#   8 B_WORLD                Profile RMS along minor axis (world units)                 [deg]
#   9 THETA_WORLD            Position angle (CCW/world-x)                               [deg]
#  10 FWHM_WORLD             FWHM assuming a gaussian core                              [deg]
#  11 ELONGATION             A_IMAGE/B_IMAGE                                           
#  12 ELLIPTICITY            1 - B_IMAGE/A_IMAGE                                       
         1 -13.7757      3.2288     59.7513   1.2265298006e+02   6.2654457849e+01     1.148474    0.2036908 -69.27  0.004151332    3.749    0.733
         2 -15.8168    226.2580     65.5262   6.4774107194e+01   1.9897387120e+01     7.088302     2.987599 -45.84   0.02554646    2.623    0.619
         3 -16.0260    245.3406     43.5224   5.6292205488e+01   1.8253196703e+01     4.453993     1.038277  54.48  0.007043291    4.078    0.755
         4 -13.7499    212.2924     26.8150   5.5233251769e+01   2.8424317379e+01      1.68526     1.229213  64.28  0.006489038    1.422    0.297
         5 -15.6413    247.8988     21.0834   4.9973096309e+01   2.0252135490e+01     2.628582    0.9644637 -48.24  0.009905053    2.737    0.635
         6 -15.1832    231.0642     32.8008   5.4864970247e+01   2.2975973572e+01     2.219679     1.709139 -22.68   0.01170823    1.228    0.186
         7 -14.4657      3.7199    108.3409   1.2866347858e+02   5.1707217131e+01     1.777328     0.297295 -73.17  0.006583614    3.869    0.742
         8 -10.4908    219.4729     11.9139   4.9994597885e+01   2.8211390725e+01     0.241428    0.2038832  81.53 0.0003566947    1.220    0.180
         9 -10.0054    157.1350      7.7808   5.6126203287e+01   4.5149804529e+01    0.2940255    0.1855317 -24.03 0.0008701099    1.559    0.358
        10  -9.0708    207.5473      8.5503   5.0153760650e+01   3.1632929665e+01    0.1395079    0.1366934 -47.42 0.0008063187    1.037    0.036
        11 -11.8560      2.2687      3.0280   1.0659438165e+02   7.4560813497e+01    0.4771031    0.1509954 -57.19  0.002182957    2.734    0.634
        12 -13.3355    248.9127     14.6385   4.8168236921e+01   2.0701899866e+01    0.3530611    0.2683237 -13.49 0.0007008374    1.356    0.263
        13 -10.0954    128.1098      4.6763   5.9811658533e+01   5.2964725538e+01    0.2735107    0.1962144  -5.66 0.0006691965    1.404    0.288
        14  -9.6835    214.9810      3.9349   4.8047771839e+01   3.0151557047e+01    0.1994583    0.1869287 -54.66  0.001170636    1.003    0.003
        15 -10.0285    146.8730    224.9325   1.1200464671e+02   1.1178270496e+01    0.1625307    0.1303753  48.10 0.0004062622    1.029    0.028
        16 -13.5739    246.9898    248.1984   9.9369313721e+01  -6.0865334780e+00     1.055208    0.8523714  11.17  0.009182804    1.268    0.211
        17 -13.1907    234.7818    248.2738   1.0114784173e+02  -4.4299400440e+00    0.7167618    0.2589174  42.24  0.003021379    2.125    0.529
        18 -10.7937    199.2159     98.9926   7.8431756417e+01   2.1214661404e+01    0.3612341    0.3052334  20.00  0.000946541    1.235    0.190
        19 -10.2010    160.2574    117.2402   9.0891677967e+01   2.6766362845e+01    0.2527663    0.2169732 -79.26 0.0004970384    1.362    0.266
        20 -11.0192    169.6760     91.4255   8.2092620990e+01   2.9460521582e+01    0.4734568    0.3539543 -16.04  0.001649502    1.516    0.341
        21  -8.7751    138.7381     92.7357   8.9363847243e+01   3.6254127829e+01    0.1410626    0.1183495   0.03 0.0001897685    1.453    0.312
        22 -10.4833    152.4928     89.2303   8.5181667323e+01   3.3868200053e+01    0.2709386    0.2490028 -37.42 0.0003516033    1.052    0.050
        23 -10.2205    175.9421     86.9456   7.9533963938e+01   2.8772785064e+01    0.2297539    0.2205292 -12.68 0.0003656601    1.016    0.016
        24 -12.2639    183.9162     82.4970   7.6683928892e+01   2.7614374718e+01    0.6156868    0.4410203 -30.06  0.002624374    1.350    0.259
        25 -11.9611    188.5133     80.4826   7.5231694278e+01   2.6830304085e+01     0.526152    0.3782407  72.21  0.001118618    1.708    0.414
        26  -9.3019    168.3890    114.1225   8.8404562828e+01   2.5578931434e+01    0.2131359    0.1349763 -49.64  0.000939988    1.694    0.410
        27 -10.3821    206.3310    110.5097   8.0144620294e+01   1.7729282466e+01     0.513577    0.2486235  49.82  0.002097503    2.088    0.521
        28 -11.8951    166.6165     77.8120   7.8738298531e+01   3.2639159259e+01    0.4495211    0.3364504  -0.54 0.0008940959    1.671    0.401
        29 -12.4521      3.2479    228.4537   1.3531343252e+02   2.8552665789e+01    0.3594936    0.1932258 -85.16  0.002894236    1.622    0.383
        30 -11.2604    205.5143     70.4968   6.9348667740e+01   2.4228719667e+01    0.3469241    0.2774512 -38.54 0.0009219411    1.203    0.169
        31 -12.6900    197.2125     74.6212   7.1953910306e+01   2.5640574374e+01    0.8291027    0.5292864 -19.04  0.003582789    1.670    0.401
        32 -12.3861    202.5662     73.7530   7.0785492313e+01   2.4456588305e+01    0.9211301    0.3403026 -37.28  0.003182072    2.471    0.595
        33 -12.5771    154.3252     63.6759   7.6880302163e+01   3.8127748331e+01    0.9937826     0.306017 -41.78  0.002993729    3.174    0.685
        34 -10.4735    205.0049     64.4900   6.7663674752e+01   2.5257080800e+01    0.2966146    0.1981276 -43.63 0.0007807292    1.490    0.329
        35 -10.1516    126.9025     53.9063   7.9935228527e+01   4.6367426357e+01    0.2191954    0.2066781 -24.38 0.0002939104    1.006    0.006
        36 -10.8074    140.9761     53.4788   7.6386666952e+01   4.3132710500e+01    0.3498935    0.1545567  55.19  0.001270902    2.381    0.580
        37 -14.1301    250.2111     33.2096   5.3009526922e+01   1.8348998277e+01    0.5866016    0.4420729 -14.13  0.001640083    1.326    0.246
        38 -11.1900    191.2199     41.2512   6.2629148295e+01   3.2114300497e+01    0.3367804    0.3112996  -0.69 0.0007226628    1.101    0.092
        39 -13.2510      9.8684    206.3593   1.3348856837e+02   3.1598726142e+01    0.5729678    0.3823492  54.40  0.003305211    1.308    0.236
        40  -9.8129    190.1120     35.6039   6.0961601032e+01   3.3153819724e+01    0.2914244    0.2145829 -14.68 0.0006664947    1.401    0.286
        41  -9.7771    188.1403     27.8764   5.8703437172e+01   3.4646988239e+01    0.2209411     0.195414 -49.02 0.0003654319    1.130    0.115
        42  -9.3430    159.6282     26.8334   6.2858565909e+01   4.2352702455e+01     0.216019    0.1312979 -35.39 0.0004278609    1.592    0.372
        43 -13.6828     21.0358    170.5966   1.2965504385e+02   3.7155684920e+01    0.7253364    0.4856642  81.46  0.005147218    1.110    0.099
        44 -10.2653    178.9306     23.7941   5.8658046900e+01   3.7592649147e+01    0.3092421    0.2997434 -16.98  0.001712793    1.015    0.015
        45  -9.1731     96.4708    165.4761   1.1392471264e+02   2.8932674759e+01    0.1242649    0.1078641  75.23 0.0002202023    1.030    0.029
        46 -10.6762    202.4190     18.2166   5.3727094187e+01   3.1973767531e+01    0.3485006    0.2831597 -55.88  0.001822169    1.238    0.192
        47  -9.0075    211.6606     13.7012   5.1309624154e+01   3.0037961032e+01    0.1498016    0.1043854  34.58 0.0007034434    1.663    0.399
        48  -9.4026    209.5084    159.1350   9.0603691238e+01   9.6444395371e+00    0.1681127    0.1266364 -28.37  0.000329667    1.373    0.272
        49 -12.0074     48.4565    156.5488   1.2297091416e+02   3.7158397865e+01    0.2932496    0.2704848   2.30 0.0008548829    1.697    0.411
        50 -13.5391     58.7569    149.9844   1.2002835382e+02   3.7320994828e+01     1.069276    0.7840583  15.76  0.006317991    2.238    0.553
        51 -12.9839     67.7180    143.8685   1.1725221951e+02   3.7493353914e+01    0.7220222    0.4045455  57.05  0.002907973    1.774    0.436
        52 -13.7050      8.6872    245.3647   1.3507294872e+02   2.5460979659e+01     1.098135    0.4432293  53.70  0.008275255    1.602    0.376
        53 -11.2429     73.1527    249.8401   1.2594894990e+02   1.7859136966e+01    0.2454459     0.060501  39.39  0.001124324    3.802    0.737
