#   1 NUMBER                 Running object number                                     
#   2 MAG_AUTO               Kron-like elliptical aperture magnitude                    [mag]
#   3 X_IMAGE                Object position along x                                    [pixel]
#   4 Y_IMAGE                Object position along y                                    [pixel]
#   5 X_WORLD                Barycenter position along world x axis                     [deg]
#   6 Y_WORLD                Barycenter position along world y axis                     [deg]
#   7 A_WORLD                Profile RMS along major axis (world units)                 [deg]
#   8 B_WORLD                Profile RMS along minor axis (world units)                 [deg]
#   9 THETA_WORLD            Position angle (CCW/world-x)                               [deg]
#  10 FWHM_WORLD             FWHM assuming a gaussian core                              [deg]
#  11 ELONGATION             A_IMAGE/B_IMAGE                                           
#  12 ELLIPTICITY            1 - B_IMAGE/A_IMAGE                                       
         1 -11.7956      5.2290     38.3949   6.3146549809e+01   7.1793626815e+01    0.5152029    0.1612148 -62.80  0.001946127    2.971    0.663
         2 -11.3699    100.1344    205.8773   5.5911157997e+01   1.8074860127e+01    0.2196465    0.1768409  41.36   0.00125676    1.276    0.216
         3 -12.0918     89.2745    198.6633   5.7824181560e+01   2.0988244532e+01    0.3762248    0.2208659  76.79  0.001474295    3.279    0.695
         4 -11.4572    113.1590    197.6322   5.1450731140e+01   1.8089229495e+01    0.2478439    0.1936703  77.69  0.001303994    1.910    0.476
         5 -11.5823     67.2460    195.1146   6.3492930759e+01   2.4509851870e+01    0.3073847    0.1421631  45.97  0.001253661    2.197    0.545
         6 -13.1444     77.9766    192.6820   6.0167592459e+01   2.3758426452e+01    0.3838542    0.3504717 -59.51  0.002252238    1.222    0.182
         7 -13.9953     95.6224    185.4032   5.4264339126e+01   2.3091834387e+01     0.798556    0.4340267 -72.39  0.003266349    2.677    0.626
         8 -12.3881     87.2853    188.8970   5.7065476840e+01   2.3423369220e+01    0.3420615    0.1881016  49.50  0.001468146    2.083    0.520
         9 -12.5019    109.7386    185.8210   5.0545484511e+01   2.1041051172e+01    0.4479599    0.2699315  62.16  0.001816483    2.860    0.650
        10 -11.2429     55.1878    186.7919   6.6081237953e+01   2.7893070032e+01    0.2659974    0.1175231  55.60 0.0009590843    2.883    0.653
        11 -12.5688    120.3322    184.1617   4.7562543616e+01   1.9895954799e+01    0.4694647    0.2776404 -73.40  0.001906073    3.032    0.670
        12 -13.1923     74.7195    183.3960   5.9906507378e+01   2.6340404047e+01    0.4238243    0.2995496  48.75  0.002111575    1.449    0.310
        13 -13.2500     89.5928    176.5155   5.4624901266e+01   2.5966074779e+01    0.4614734    0.3289864  74.78  0.002153424    1.951    0.487
        14 -13.5035     79.0373    175.6598   5.7572512744e+01   2.7622806112e+01    0.6207023    0.2901395  43.76  0.002448475    2.161    0.537
        15 -12.4623    106.2277    175.3788   4.9807965595e+01   2.3836684654e+01    0.2772167    0.2513924  79.43  0.001541525    1.338    0.253
        16 -10.5090    100.6860    176.2821   5.1469305319e+01   2.4439894471e+01    0.1442249    0.1077067  55.26            0    1.574    0.365
        17 -13.3524    121.7434    168.1309   4.4464152448e+01   2.3093646289e+01    0.5565846    0.3899408 -78.94  0.002533351    2.254    0.556
        18 -12.3109     55.0938    168.9730   6.4046111888e+01   3.2353656125e+01    0.4249249    0.2229853  75.43  0.001544402    2.943    0.660
        19 -12.5891     69.1864    162.1563   5.8614269993e+01   3.2295630366e+01    0.2860492    0.2556738  75.07  0.001433615    1.210    0.174
        20 -13.9166     99.5426    165.3245   4.9970674841e+01   2.7131249131e+01    0.6410292      0.39104  40.95   0.00289913    1.613    0.380
        21 -14.1730     93.5619    159.5636   5.0702708274e+01   2.9405445073e+01    0.6766531    0.4835988  53.37  0.003196045    1.577    0.366
        22 -13.7731     80.5741    163.0705   5.5199703311e+01   3.0479343774e+01    0.8144346    0.5081517  72.64  0.003265119    2.460    0.594
        23 -13.9872    106.7513    157.0412   4.6453234327e+01   2.7930008922e+01    0.6426314    0.4860819  60.44  0.003113517    1.630    0.387
        24 -13.2068    119.6398    154.3777   4.2443321154e+01   2.6436500523e+01    0.5052401    0.2988738 -57.09  0.002226635    1.885    0.470
        25 -13.4200     82.3068    154.1727   5.3182749570e+01   3.2432658363e+01    0.7525074    0.4033589  44.69  0.003054352    1.911    0.477
        26 -11.7447     49.8378    154.5232   6.3913879223e+01   3.6752005424e+01     0.311185    0.1988789  80.96  0.001337214    1.930    0.482
        27 -12.4912     68.3925    153.5367   5.7539301796e+01   3.4608855622e+01    0.4879709    0.2684478  37.05  0.002043426    1.690    0.408
        28 -13.8183     98.9960    149.3118   4.7219383540e+01   3.0999675543e+01    0.6257322     0.389127 -65.96  0.002684216    1.935    0.483
        29 -14.5224    107.7588    144.2698   4.3687134382e+01   3.0724872032e+01    0.9012414    0.6525362  84.44  0.003952533    2.106    0.525
        30 -12.9136     78.6688    145.6084   5.2823924096e+01   3.5138832610e+01    0.4675178    0.3091644 -69.64  0.002061886    1.726    0.421
        31 -12.6203     56.3212    145.6935   6.0394710726e+01   3.8293314156e+01    0.5454197    0.3027489  61.77  0.002073739    2.375    0.579
        32 -10.9535     39.1690    147.0015   6.6670213054e+01   3.9988336913e+01    0.2646778    0.1552336  65.66  0.001084052    2.024    0.506
        33 -13.2975    125.3191    142.7552   3.8619604850e+01   2.8030632884e+01    0.5711571    0.3560721 -68.74  0.002355238    2.382    0.580
        34 -14.4472     88.8893    141.7002   4.8816425680e+01   3.4501746539e+01    0.8926325    0.4754817 -58.47  0.003592025    1.985    0.496
        35 -14.2289     84.4110    131.6057   4.8214100536e+01   3.7757198608e+01    0.8277733     0.494118  53.26  0.003343678    1.966    0.491
        36 -11.6605     69.2214    134.9914   5.4040175035e+01   3.9309926368e+01    0.3077994    0.1854063  43.14  0.001292398    1.644    0.392
        37 -12.9812    113.5244    133.4389   3.9780665033e+01   3.2205566755e+01    0.5614743    0.2347377  48.93  0.001901028    2.907    0.656
        38 -12.4532    131.4586    131.1567   3.4564532102e+01   2.9430377055e+01    0.3937144    0.2422666 -64.60  0.001606981    2.226    0.551
        39 -14.3985     99.7134    126.1418   4.2173671299e+01   3.6413768100e+01     1.004734    0.5578755 -61.20  0.003973614    2.102    0.524
        40 -12.0774    118.0765    125.7529   3.6806785120e+01   3.3095762996e+01    0.3590444     0.201434  56.36  0.001391829    2.350    0.574
        41 -13.0498     58.9683    122.2831   5.5320446513e+01   4.4185283542e+01    0.8688936    0.4042758 -73.91  0.002909854    2.935    0.659
        42 -12.9831     43.5844    121.6714   6.1226791071e+01   4.6415291184e+01    0.7396563    0.3779536  89.28  0.002515462    3.021    0.669
        43 -12.2274    130.6709    117.6761   3.1654446709e+01   3.2425415068e+01    0.3716342    0.2341468 -66.94  0.001539889    2.242    0.554
        44 -12.1851     70.4953    117.9675   5.0112190740e+01   4.3536469022e+01    0.4305567    0.1554236 -58.31  0.001391597    2.841    0.648
        45 -13.5575    109.1086    112.0554   3.6032109520e+01   3.7890678742e+01    0.8380088     0.372384 -58.19  0.002834911    2.901    0.655
        46 -13.3476     92.4508    112.3019   4.1189192441e+01   4.1060436048e+01    0.5287671    0.4188549  71.23  0.002488468    1.521    0.342
        47 -13.3047     92.8242    106.0540   3.9491918017e+01   4.2466863182e+01    0.5749585    0.3800943 -58.80   0.00251578    1.638    0.390
        48 -12.3116    140.9805    118.4192   2.9380827290e+01   3.0276218764e+01    0.3819178     0.233923 -65.79  0.001574945    2.380    0.580
        49 -12.4367     78.7796    112.3775   4.5842730852e+01   4.3546045437e+01    0.4174308    0.2985276 -77.18  0.001824482    1.749    0.428
        50 -11.9476    122.4493    111.2263   3.2168579841e+01   3.5413710722e+01    0.3865934    0.1450725 -49.27  0.001319012    2.729    0.634
        51 -12.2044     66.1806    110.5955   5.0062644207e+01   4.6141698237e+01    0.3467158     0.250037  78.12  0.001495076    1.833    0.454
        52 -12.8131     43.8787    100.5744   5.6989431309e+01   5.2094936337e+01    0.5770146    0.3047377  58.21  0.002072564    2.653    0.623
        53 -12.1849     20.7912     99.2032   6.7388508362e+01   5.5007446484e+01    0.5220442    0.2778202  82.55  0.001998238    2.492    0.599
        54 -12.8804    128.8696    100.8874   2.7923583807e+01   3.6247446358e+01    0.4358502     0.296347 -51.84  0.002059732    1.489    0.328
        55 -13.0007    108.3789     98.0980   3.2610671567e+01   4.1117274064e+01    0.5387654    0.3538671 -74.01  0.002176035    2.267    0.559
        56 -12.4481     94.8215     96.5859   3.6318021563e+01   4.4249972556e+01    0.4994459    0.2093835 -50.93  0.001755455    2.484    0.597
        57 -12.2958     34.8115     86.5987   5.8048058595e+01   5.6949321940e+01    0.8327175    0.2297112 -57.71  0.002628697    3.166    0.684
        58 -12.5125     85.7996     86.0993   3.6320598675e+01   4.8448371639e+01    0.3846801    0.2425183 -57.77  0.001640575    1.766    0.434
        59 -11.6063     63.5159     96.0165   4.7527018796e+01   5.0295509378e+01    0.4379261    0.2424363  73.35  0.001224113    4.672    0.786
        60 -11.6975     47.2901     82.4580   5.0953169304e+01   5.6306179267e+01    0.4075353    0.1503073 -65.20  0.001230293    3.638    0.725
        61 -12.4534     24.7263     78.6477   6.1385537058e+01   6.0163435892e+01    0.5202506    0.2132421 -62.17   0.00197058    2.312    0.568
        62 -10.6506    157.6620     75.3216   1.5275376359e+01   3.4789047067e+01    0.1449164   0.09928419 -71.37 0.0007050447    1.714    0.417
        63 -12.2681     62.7698     72.8085   4.1032778189e+01   5.5982567072e+01    0.6114261    0.1817474 -53.72  0.001792639    3.828    0.739
        64 -12.3771     81.4616     71.2715   3.3182515989e+01   5.2557558507e+01    0.4253857    0.2298329 -46.81  0.001744267    1.939    0.484
        65 -11.8611     16.8045     68.5167   6.3488880126e+01   6.3535825004e+01    0.4869382    0.1229833 -57.27  0.001603696    3.141    0.682
        66 -11.3861     50.9925     67.0061   4.4451842318e+01   5.9417154833e+01    0.1861339    0.1802848  11.41  0.001028128    1.023    0.023
        67 -12.0446      7.0000     54.9830   6.6462801283e+01   6.7700396094e+01     0.317754    0.1969475 -80.18  0.001518742    1.851    0.460
