#   1 NUMBER                 Running object number                                     
#   2 MAG_AUTO               Kron-like elliptical aperture magnitude                    [mag]
#   3 X_IMAGE                Object position along x                                    [pixel]
#   4 Y_IMAGE                Object position along y                                    [pixel]
#   5 X_WORLD                Barycenter position along world x axis                     [deg]
#   6 Y_WORLD                Barycenter position along world y axis                     [deg]
#   7 A_WORLD                Profile RMS along major axis (world units)                 [deg]
#   8 B_WORLD                Profile RMS along minor axis (world units)                 [deg]
#   9 THETA_WORLD            Position angle (CCW/world-x)                               [deg]
#  10 FWHM_WORLD             FWHM assuming a gaussian core                              [deg]
#  11 ELONGATION             A_IMAGE/B_IMAGE                                           
#  12 ELLIPTICITY            1 - B_IMAGE/A_IMAGE                                       
         1 -14.0184     51.9686     81.4732   5.8152141659e+01   5.6048611280e+01     1.437522     1.355838 -80.83  0.006399978    1.084    0.078
         2 -13.2342      7.8901     39.9047   6.8525263199e+01   7.0466856370e+01       1.2482    0.2928043 -56.88  0.004822384    2.888    0.654
         3 -13.3582    219.4957     52.7251   8.4043238402e+00   2.4358068240e+01     1.840478    0.5460241 -40.55  0.007130537    2.565    0.610
         4 -13.1523     11.1119     27.0079   6.1679527200e+01   7.3016040399e+01    0.7346237    0.3852737 -51.93  0.003364656    1.637    0.389
         5 -12.3165     15.0895     18.5896   5.4835462663e+01   7.4311096343e+01     0.379324    0.2631732 -29.40  0.001974238    1.278    0.217
         6 -12.5435     27.1951     15.7572   4.4805669084e+01   7.3381876070e+01    0.6356663    0.3089693 -40.61  0.002793941    1.956    0.489
         7 -12.3129     22.3111      7.8790   4.3206612958e+01   7.5292956874e+01    0.3174962    0.3003398  -5.53  0.002096362    1.281    0.219
         8 -13.1381      5.8709     13.4779   5.9311761980e+01   7.6088878251e+01      0.95695    0.4832309 -30.13  0.005072893    1.906    0.475
         9 -10.9886     32.9879      1.8202   3.2051024953e+01   7.4505590336e+01    0.2818995    0.1618831  41.19   0.00156536    1.633    0.388
        10 -13.0353     65.5793    246.7377   7.7491590408e+01   1.4056419829e+01     1.370269    0.4456562  48.77  0.006186298    2.493    0.599
        11 -12.9947    248.4334    242.6127   4.2148541830e+01  -8.3561718667e+00    0.9940047    0.4578459 -21.43  0.006059766    2.030    0.507
        12 -13.2467    233.1573    244.6196   4.4867392842e+01  -6.9851476276e+00    0.8076915    0.4973505  14.82  0.004870857    1.334    0.250
        13 -12.3618    222.6296    244.1286   4.6532417366e+01  -5.7704981852e+00    0.6733792    0.2967536 -23.32  0.003636642    2.511    0.602
        14 -11.9263    174.0945    245.6660   5.5421545138e+01  -8.7559033645e-02    0.4756524    0.3693718 -25.58  0.002582314    1.390    0.280
        15 -11.4690    138.0257    248.9558   6.2855907829e+01   4.1854956507e+00    0.4991925    0.3267082  23.55  0.002903684    1.360    0.265
        16 -14.4419    113.0984    236.7194   6.6598509144e+01   9.6199898148e+00     2.313896      1.62502 -70.91   0.01401509    1.809    0.447
        17 -14.8335     80.8943    239.3099   7.3699461226e+01   1.3493327140e+01     2.166228     1.171722  52.11   0.00972777    1.635    0.388
        18 -13.0470     55.2224    233.0907   7.8701765759e+01   1.7923028361e+01     1.188176    0.6129612  85.87  0.005724773    2.251    0.556
        19 -12.1131     37.5939    223.8693   8.1920211203e+01   2.1857831891e+01     2.595275     1.033749  76.33    0.0111238    3.034    0.670
        20 -14.0208     32.1241    240.5147   8.3986526603e+01   1.9115752147e+01     2.068949    0.4873215  60.66  0.006787896    5.359    0.813
        21 -14.8739     14.7039    212.5540   8.6357696155e+01   2.6671745607e+01     2.160151    0.9836733  62.92   0.01125866    1.826    0.452
        22 -14.6863      3.2981    192.3318   8.8084275115e+01   3.2252318448e+01     2.536699    0.4723499 -80.94  0.008390153    4.668    0.786
        23  -9.9952     50.0737    250.5202   8.0894364601e+01   1.5213662352e+01    0.2635739   0.07178237  37.74  0.001186746    2.463    0.594
        24 -11.7347     14.7992    245.2544   8.7644287706e+01   2.0006902084e+01    0.9982582    0.2949247  54.69  0.004866299    2.412    0.585
        25 -12.9437      7.4168    242.0991   8.8977327646e+01   2.1328265327e+01     0.763074     0.413041  60.58  0.004899445    1.365    0.267
        26 -11.7590     56.5522    213.1180   7.6880781288e+01   2.1900251715e+01     1.032765    0.3529834  55.12    0.0039702    3.048    0.672
        27 -11.2414    158.7657    211.8464   5.3638703231e+01   7.3595239120e+00    0.3488174    0.3308359 -48.63  0.001772241    1.263    0.208
        28 -12.7899    161.4987    204.3535   5.1893436519e+01   8.2616674432e+00    0.6997915     0.535225 -10.55  0.004032215    1.438    0.305
        29 -12.3904    131.1143    204.8870   5.8589779057e+01   1.2907084770e+01    0.8200306    0.3384009  45.83  0.003326064    2.448    0.592
        30 -12.3414    129.9637    173.0788   5.3713997808e+01   1.9733138388e+01    0.7543818    0.6986006  55.37   0.00261534    1.079    0.073
        31 -13.9330    138.7714    184.9072   5.3683890388e+01   1.5688025375e+01     1.641947     1.331325 -14.93  0.008900948    1.438    0.304
        32 -13.4365    147.5874    201.2186   5.4371800464e+01   1.1016269870e+01     1.006424    0.4451575 -46.26  0.004390256    2.425    0.588
        33 -13.3010    141.6338    194.7038   5.4652509353e+01   1.3232172356e+01    0.6655291    0.6045501  59.42  0.003428571    1.206    0.171
        34 -11.6865    116.1517    206.0895   6.2172152579e+01   1.4988877813e+01    0.7962965    0.3000828  40.97  0.003177413    2.308    0.567
        35 -10.2499    104.5013    201.5046   6.4284524937e+01   1.7725950130e+01    0.2556933    0.2189185  45.28 0.0009561754    1.038    0.037
        36 -12.0239    119.9295    195.5247   5.9787408751e+01   1.6576965731e+01    0.7591752    0.5026083  74.46  0.003514953    2.203    0.546
        37 -13.3169    114.2619    183.8859   5.9377351886e+01   2.0012952482e+01     1.355194    0.7036892  52.65  0.005631974    2.150    0.535
        38 -12.6557    139.4348    206.1663   5.6923931848e+01   1.1360686947e+01    0.7111183    0.5212409  67.86  0.003771546    1.857    0.461
        39 -11.0151    177.8039    192.3522   4.6517986605e+01   7.8400674324e+00    0.3577948    0.2997567 -56.10  0.002132825    1.477    0.323
        40  -8.7905     29.9775    189.8011   8.1474116136e+01   3.0307615868e+01    0.6656307    0.2733904  62.98   0.00282483    2.427    0.588
        41  -9.9841     90.9468    190.5137   6.6139274073e+01   2.2209677532e+01    0.2408647    0.1856951  69.36   0.00129589    1.324    0.244
        42 -12.0434    157.2924    182.4391   4.9076420379e+01   1.3045139580e+01     0.635834    0.4017449  52.99  0.003010043    1.897    0.473
        43 -10.7806     98.1535    181.9574   6.3126181617e+01   2.3061383270e+01    0.3211004    0.2423159 -81.28  0.001230361    1.459    0.315
        44 -11.0812     63.3358    176.1288   7.1505515446e+01   2.9623315513e+01    0.8209032    0.3904716  57.20  0.003346206    2.260    0.558
        45 -13.3985     75.6964    133.0944   6.1333833483e+01   3.8945690534e+01     2.094772    0.6628695  47.55  0.006193737    3.661    0.727
        46 -12.2479     41.4098    146.6716   7.4252836235e+01   3.9991785230e+01    0.5878736    0.4206099 -24.42  0.001311736    1.989    0.497
        47 -13.4625     49.2197    134.0317   7.0043277866e+01   4.2454599042e+01     2.048305     1.605007  70.58  0.009024907    1.250    0.200
        48 -12.7457     53.7670    149.9124   7.0899030630e+01   3.7626659318e+01      1.58909     0.499042  39.63  0.005106241    2.833    0.647
        49 -13.4539     10.3851    134.7601   8.2746846360e+01   4.6085483990e+01     1.067196    0.7245838  26.03  0.005476566    1.660    0.398
        50 -13.9080      4.2610    127.9035   8.4162632678e+01   4.8317210051e+01     1.219493     1.122053  39.69  0.006817636    1.261    0.207
        51 -14.1376     32.5653    160.2181   7.8351014145e+01   3.7399405796e+01     2.682216     1.076763  54.45  0.009679837    2.496    0.599
        52 -12.6231     22.6202    150.2219   8.0328237526e+01   4.0990084476e+01     2.221019    0.4647176 -71.67  0.007080371    3.733    0.732
        53 -10.2953     77.4452    174.9016   6.7553619132e+01   2.7928119841e+01    0.3078904    0.2565427  35.25   0.00168502    1.228    0.186
        54 -12.1035     96.7347    170.4744   6.1743589980e+01   2.6005187873e+01    0.7919227    0.5063373  57.75  0.002876777    1.668    0.401
        55 -11.9545     99.5903    160.3620   5.9294965534e+01   2.7990789707e+01    0.9577019    0.6055676  88.48  0.003918528    2.244    0.554
        56 -11.2418     61.7813    166.6454   7.0767653223e+01   3.2215125174e+01    0.5522993    0.5164308  86.35  0.002502541    1.099    0.090
        57 -10.1491      1.4078    157.4270   8.6931251262e+01   4.0866794523e+01    0.2957278    0.1072951 -83.96 0.0009130143    2.355    0.575
        58 -12.7339     45.4216    157.7126   7.4364887859e+01   3.6609694504e+01    0.8278724     0.680119 -20.79  0.004484037    1.647    0.393
        59 -12.3277     99.3648    146.7724   5.6869001746e+01   3.1410967055e+01     1.086086    0.6733042 -75.36  0.004486352    1.965    0.491
        60 -12.0652    110.4032    149.0669   5.4243113062e+01   2.8854398044e+01     0.809566    0.6519302 -73.39  0.003758544    1.309    0.236
        61  -9.5023     66.1593    146.6484   6.6654683787e+01   3.6799051542e+01    0.2791254    0.2067956  37.03 0.0005615319    1.375    0.273
        62 -10.7702     69.4853    144.7896   6.5341661876e+01   3.6804166222e+01    0.7563984    0.3744475  68.11  0.002519995    3.242    0.692
        63 -12.0047      6.4631    147.1646   8.4875095082e+01   4.3125229968e+01    0.5456028     0.333936  52.71   0.00172252    1.512    0.338
        64  -9.4974     87.7032    122.4056   5.5310288751e+01   3.9730084108e+01    0.2020643    0.1546394  25.54 0.0005156953    1.509    0.337
        65 -10.2473     23.1100    118.8221   7.6815176314e+01   4.9339733764e+01     0.644258    0.4090967  17.00  0.002863689    1.885    0.470
        66 -11.4982     25.1854    111.7161   7.5108073406e+01   5.1076914968e+01    0.5928178    0.3729272  56.87  0.002160335    1.691    0.409
        67 -11.2874      4.3602    107.5569   8.2331256640e+01   5.3696574392e+01     0.380441     0.367368   6.30  0.002053225    1.258    0.205
        68 -10.4989      9.3585    116.6083   8.1430997441e+01   5.0983809148e+01    0.4256896     0.224869 -59.52  0.002053752    1.699    0.411
        69 -12.6050     15.4973    108.7107   7.8313714455e+01   5.2668148612e+01    0.8021163    0.7455677   1.63  0.003355526    1.291    0.225
        70  -9.0396    101.4055    116.4885   4.9659864244e+01   3.8681450570e+01    0.1585747    0.1496846 -72.75 7.404756e-05    1.018    0.018
        71 -13.2348    247.9293     92.8695   1.4440429249e+01   1.2802667984e+01      2.02688    0.4088469 -39.98  0.006941744    3.506    0.715
        72  -9.8366    205.1983    110.6132   2.4295898861e+01   1.7897176126e+01    0.1932962    0.1321067  39.56 0.0009595332    1.743    0.426
        73 -11.8248     30.3111     87.5228   6.8885272187e+01   5.7057114793e+01     1.271211    0.6912104 -51.36  0.005854829    1.664    0.399
        74 -12.2828     29.4835    103.3914   7.2186230441e+01   5.2925588590e+01    0.9172053     0.541248  47.80  0.004218925    1.830    0.454
        75 -11.3761     23.9820     97.7943   7.3433670282e+01   5.4918533274e+01    0.4164869    0.3760912  81.45  0.001917722    1.112    0.101
        76 -13.1510     70.3576     82.0682   5.0904597285e+01   5.3018281903e+01     2.019971     1.004639 -58.38  0.007842017    2.074    0.518
        77 -13.5360     50.7151     94.5802   6.2012103324e+01   5.2858187477e+01     1.522659     1.064675  68.35  0.005417696    1.741    0.425
        78 -11.7224    136.9391    238.5400   6.1838124598e+01   5.9949800060e+00     0.413002    0.2348846  55.74  0.002085766    2.363    0.577
        79  -9.8528     19.6843    238.3278   8.6411296803e+01   2.0849940959e+01    0.1982141    0.1015955  69.08 0.0008977056    1.664    0.399
        80 -12.0218     16.3206     67.3763   7.1012663660e+01   6.3388612747e+01    0.7915305    0.5903335 -63.90  0.004533132    1.170    0.145
        81 -12.1848     20.6417     62.5320   6.7647918584e+01   6.4248047146e+01     1.072721    0.4983048  47.04  0.004478828    2.853    0.650
        82 -12.5906      3.5354     71.9995   7.8172061577e+01   6.2985660182e+01    0.9826028    0.6753026 -62.40  0.005640406    1.203    0.169
        83 -13.5892      6.4231     59.0098   7.4300291380e+01   6.6068204678e+01     1.159503    0.9089317   9.73  0.007133238    1.452    0.311
        84 -13.6579    114.6675     68.6472   3.1650009843e+01   4.6754609332e+01     1.333508    0.9012454  61.56  0.005920665    1.578    0.366
        85 -13.0975    108.8123     56.0159   2.8850301554e+01   5.0549344958e+01    0.8253255    0.4773922 -44.89  0.003517052    1.744    0.427
        86  99.0000     18.9225    172.0248   8.3081104103e+01   3.5747991047e+01     2.015465     1.448122  61.94   0.01177328    1.187    0.158
        87 -11.9091     38.0428     55.3791   5.6502825266e+01   6.4138115182e+01    0.9519878     0.500696   9.67  0.003826946    2.875    0.652
        88 -12.4068     36.8397     48.9214   5.4784924947e+01   6.5726026061e+01    0.8305013    0.5015998  19.57  0.003524025    1.866    0.464
        89 -12.8795     27.4215     39.8588   5.6495948166e+01   6.8788369054e+01     1.108626    0.6145679  29.81  0.004401601    1.897    0.473
        90 -12.4727    243.5939     49.4405   5.3837937446e+00   1.9914751208e+01    0.7163725    0.4229611  67.25  0.002724009    1.960    0.490
        91 -12.2104     90.1159     45.8438   3.0618491388e+01   5.6700884728e+01    0.6702269    0.3515077  53.98  0.002801939    1.928    0.481
        92 -11.5831     11.7053    101.0232   7.8793675067e+01   5.4982782619e+01    0.4420154    0.3523664 -80.76  0.001460658    1.080    0.074
        93 -11.5598     13.9728     33.8806   6.2500272247e+01   7.1350692884e+01    0.5686357    0.2777123  -9.29  0.002469844    2.899    0.655
        94 -11.2424     18.9733     22.4965   5.4073794454e+01   7.3179376338e+01     0.240051    0.2268036  46.80  0.001628593    1.385    0.278
        95 -12.3569    167.7000    247.3207   5.6853929640e+01   5.0596764583e-01    0.7485507    0.4432177  25.62  0.004549519    1.408    0.290
        96 -10.7989    165.4462    227.7005   5.4622666914e+01   3.7561954021e+00     0.427722    0.2297974 -31.32  0.002205597    2.227    0.551
        97 -11.8228    229.3220     23.3665   6.2892183207e-01   2.6163571479e+01    0.3637828    0.2681051 -68.43  0.002312158    1.147    0.128
        98 -13.7230    140.8633    221.7497   5.8845613765e+01   8.2915875737e+00     1.130748    0.9133583   1.52   0.00619357    1.343    0.255
        99 -12.4366    154.1276    223.6368   5.6335765363e+01   6.0307418071e+00    0.8458067    0.5446045   2.03    0.0044036    2.048    0.512
       100 -10.1280     11.5195    227.8779   8.7668458205e+01   2.3750404233e+01     0.237162    0.1173914  59.67 0.0008772543    1.551    0.355
