#   1 NUMBER                 Running object number                                     
#   2 MAG_AUTO               Kron-like elliptical aperture magnitude                    [mag]
#   3 X_IMAGE                Object position along x                                    [pixel]
#   4 Y_IMAGE                Object position along y                                    [pixel]
#   5 X_WORLD                Barycenter position along world x axis                     [deg]
#   6 Y_WORLD                Barycenter position along world y axis                     [deg]
#   7 A_WORLD                Profile RMS along major axis (world units)                 [deg]
#   8 B_WORLD                Profile RMS along minor axis (world units)                 [deg]
#   9 THETA_WORLD            Position angle (CCW/world-x)                               [deg]
#  10 FWHM_WORLD             FWHM assuming a gaussian core                              [deg]
#  11 ELONGATION             A_IMAGE/B_IMAGE                                           
#  12 ELLIPTICITY            1 - B_IMAGE/A_IMAGE                                       
         1 -11.1287     32.7478      8.9697   6.9788087692e+01   7.0113169935e+01    0.5733329    0.1428672 -36.76  0.002237567    4.241    0.764
         2 -12.1509    233.0042      9.2785   2.9178100121e+01   2.7286645681e+01    0.8031514    0.6285973 -71.90  0.004218371    1.021    0.020
         3 -11.1947     42.2566      7.6387   6.4630235766e+01   6.8853019949e+01    0.4509497    0.2398973   6.05  0.002249656    2.383    0.580
         4  -9.9915     58.5912      2.8907   5.5734790357e+01   6.6519728444e+01    0.2561587    0.1427327  43.97  0.001457295    1.479    0.324
         5  -9.0063     59.7735    218.1813   1.1000501263e+02   2.0642913036e+01    0.3425351    0.2343493 -53.02 0.0005968483    1.659    0.397
         6 -10.5942    106.1094    249.5748   1.0315044251e+02   7.8568484194e+00    0.3322446    0.1925989  36.28  0.001375063    1.452    0.311
         7 -13.3214     54.7720    233.1740   1.1251041116e+02   1.8030822017e+01    0.9954667    0.7484356  32.55  0.003735695    1.369    0.270
         8 -17.0428      8.9378    242.4981   1.2235521645e+02   2.1109934022e+01      13.9014     4.049612 -77.77   0.02185316    3.177    0.685
         9 -11.0337     57.3215    210.9498   1.0983410213e+02   2.2576503794e+01    0.7814157    0.3439949  41.50  0.003570317    2.019    0.505
        10  -9.9752     54.6435    206.3091   1.0998161303e+02   2.3972878897e+01    0.3078574    0.2305192  40.11 0.0008231366    1.292    0.226
        11 -10.8268    119.1746    211.8322   9.5232658849e+01   1.3430719567e+01    0.4052237     0.237512  25.41  0.001842548    1.813    0.448
        12  -8.4357     74.9042    209.1043   1.0546963825e+02   2.0687239061e+01     0.209349    0.1693953  65.75 0.0007550842    1.185    0.156
        13  -9.8022    123.7816    201.6975   9.2531404351e+01   1.4872426340e+01     0.274998    0.2004396 -68.60  0.000840747    1.639    0.390
        14  -9.2879    195.0368    198.8456   7.5821874119e+01   3.4616669660e+00    0.2123743    0.1621142  60.51  0.001079662    2.004    0.501
        15  -9.6655    109.5283    198.9680   9.5591063133e+01   1.7813332953e+01    0.2115465    0.1122611 -35.22 0.0008099064    2.666    0.625
        16 -10.7090    120.0724    246.3225   9.9767719087e+01   6.4339365896e+00    0.3051142    0.2431263 -84.99  0.001575428    1.616    0.381
        17  -8.9250     58.9802    196.2812   1.0782833401e+02   2.5785548606e+01    0.2127739    0.1798192 -78.38 0.0003896251    1.138    0.121
        18  -8.2196     59.9493    192.4978   1.0713940028e+02   2.6568230150e+01    0.1931385    0.1284056  36.66 0.0003294841    1.481    0.325
        19 -11.5720     56.9725    183.6255   1.0680912594e+02   2.9101461001e+01    0.6933273    0.6108148 -62.56  0.002588326    1.156    0.135
        20  -8.5730     79.0059    182.0000   1.0080905106e+02   2.6533245287e+01    0.2917313    0.1698322  33.30 0.0009123894    1.717    0.418
        21  -8.6434     99.1837    180.9559   9.5314757741e+01   2.3699728882e+01    0.2540904    0.2099361  33.09 0.0006656667    1.206    0.171
        22  -9.4531     83.2667    184.2613   1.0002612940e+02   2.5357879014e+01    0.5824667    0.3107514 -76.24   0.00233653    2.396    0.583
        23  -8.8293     41.3390    178.9286   1.1030201986e+02   3.2089494967e+01    0.2216598    0.1886216 -49.94 0.0003423993    1.288    0.224
        24  -8.9740     44.9787    176.5277   1.0907347089e+02   3.2280585344e+01    0.3079925    0.1960851  24.90  0.001065613    1.770    0.435
        25  -8.6439     36.6825    180.4368   1.1166478645e+02   3.2217336422e+01    0.2164114    0.1564964  37.60 0.0008613833    1.427    0.299
        26 -10.1897     69.9543    170.5354   1.0152239908e+02   3.0660762929e+01    0.3405631    0.2739508 -24.12 0.0006088382    1.524    0.344
        27 -10.9362     73.8446    166.1767   9.9759365888e+01   3.1215591007e+01     0.656361    0.4271805 -52.49    0.0020508    1.507    0.336
        28  -8.4083    110.5309    167.5530   8.9886621464e+01   2.5045594460e+01    0.1510755    0.1461591  63.75 0.0001190492    1.050    0.047
        29 -10.9918     82.4427    157.8148   9.5893143845e+01   3.2066839180e+01    0.6703881    0.5817258  46.87  0.003571568    1.173    0.147
        30 -11.8827     71.0998    152.3145   9.8210306163e+01   3.5128660447e+01    0.5139609    0.4586539 -58.21 0.0009572294    1.073    0.068
        31 -11.7917     70.1302    144.7489   9.7133211219e+01   3.7199876906e+01    0.8123473    0.5238683  56.28  0.002554221    1.841    0.457
        32  -9.7440    133.8655    146.5185   7.9229453221e+01   2.5737824122e+01    0.7838393    0.1902397 -52.97  0.001833722    5.385    0.814
        33  -9.3256     39.0191    146.4957   1.0680824699e+02   4.0526708423e+01    0.3382657    0.2087337  52.15  0.001157378    1.805    0.446
        34  -9.1838    102.2013    138.2179   8.6168823741e+01   3.3718320971e+01    0.3883225    0.2815299 -20.86  0.001708733    1.736    0.424
        35  -9.6350    105.9305    131.5735   8.3549864875e+01   3.4666433143e+01    0.5685098    0.3114871 -46.60  0.002278399    1.785    0.440
        36 -10.4174     90.6516    136.9643   8.9334936117e+01   3.6021365881e+01    0.2970261    0.2526785 -36.20 0.0004418833    1.192    0.161
        37 -10.6346     56.5922    129.2536   9.8443927406e+01   4.2955703084e+01    0.3834054    0.3566848 -68.91  0.002199524    1.056    0.053
        38  -9.8903     60.3291    136.6569   9.8652789958e+01   4.0592577846e+01    0.3635699    0.2137536  53.53  0.001563889    2.077    0.519
        39 -10.3909     59.3062    132.9953   9.8288260307e+01   4.1659665574e+01    0.3051273    0.2997316  10.01  0.001784609    1.095    0.087
        40 -10.2860     89.5912    151.2944   9.2601663024e+01   3.2594312086e+01    0.6529889    0.4106346 -16.78  0.002287725    2.637    0.621
        41 -10.5036     32.3951    128.1770   1.0608928118e+02   4.5843847015e+01    0.4769976    0.1778853 -64.24  0.001892422    2.261    0.558
        42  -9.5278    112.4639    128.6414   8.0943514100e+01   3.4142505855e+01    0.3356181    0.2646273   0.26 0.0008517361    1.556    0.357
        43  -9.7092     42.5925    129.4961   1.0301814209e+02   4.4503303938e+01    0.2763419    0.1393939  25.95  0.001212228    2.177    0.541
        44  -9.9643     54.2355    148.4654   1.0256682643e+02   3.8323152325e+01    0.4128178    0.2014565 -56.97  0.001761705    1.833    0.454
        45  -9.2541     99.1629    124.6512   8.3927157039e+01   3.7578466101e+01    0.2846854    0.2329035 -29.22 0.0004873309    1.282    0.220
        46  -8.1167    108.2825    118.0078   7.9527594157e+01   3.7459681031e+01    0.2107043    0.1947269 -38.14 0.0002540119    1.059    0.056
        47 -13.8110     10.4677    206.4131   1.2001698557e+02   2.8623807712e+01    0.8369816    0.6858034  13.63  0.002700345    1.629    0.386
        48 -11.4879     32.3036    107.8986   1.0257436156e+02   5.0931797666e+01    0.6631857    0.2514088 -60.02  0.002693902    2.183    0.542
        49  -9.3094     55.1525    221.9797   1.1141575950e+02   2.0382843930e+01    0.1997658    0.1672519  52.27 0.0006163031    1.088    0.081
        50  -8.6110    230.9825    113.9344   5.1456743065e+01   1.2706525235e+01    0.2077018    0.1839818 -42.38 0.0007421258    1.021    0.021
        51 -10.2764     48.3412    107.0838   9.6682045073e+01   4.9487921603e+01    0.2593613    0.2095028  33.32  0.000797749    1.361    0.265
        52  -7.9860     66.2002    241.9351   1.1085890237e+02   1.4793422943e+01    0.1388308   0.09434886 -77.12 0.0008105607    1.568    0.362
        53  -9.7091     33.1502     87.0215   9.7783039593e+01   5.5852818840e+01    0.3393893   0.08508022 -59.62   0.00110548    3.551    0.718
        54  -8.0529    154.4741     86.5210   5.8741390803e+01   3.4094684815e+01    0.1490383    0.1454659 -86.10 0.0001310777    1.026    0.025
        55 -10.1053     72.0661    246.5017   1.1004288783e+02   1.3124729873e+01    0.3932834    0.3098608 -80.33  0.001002427    1.360    0.265
        56 -10.4944     94.1519    237.1485   1.0432926928e+02   1.1962894336e+01    0.2902603    0.2069167  89.87   0.00114147    1.696    0.410
        57 -11.1684    186.7585     53.4720   4.3955895653e+01   3.1924876373e+01    0.4309936    0.3612952  43.38  0.000983723    1.375    0.273
        58 -11.8809    198.7792     44.2586   4.0051680222e+01   3.0445734202e+01    0.7988263    0.7209728 -72.92  0.003171899    1.056    0.053
        59 -11.9591    207.6295     35.7818   3.7034190932e+01   2.9569501090e+01    0.6022707    0.5449419  62.21  0.001369026    1.280    0.219
        60 -15.0319      2.3709    207.4070   1.2179981660e+02   2.9099886172e+01     8.176898          nan -71.51    0.0147126   11.812    0.915
        61  -8.8272     73.5018    236.9457   1.0882490017e+02   1.4851672953e+01    0.1791595    0.1221789 -71.58  0.001029065    1.578    0.366
        62  -9.3062    141.8220    249.4032   9.5508291364e+01   2.6780776385e+00    0.1921637    0.1075516  24.41 0.0009519826    1.737    0.424
        63 -11.1843    126.9718    248.0938   9.8506957016e+01   5.0972924787e+00    0.4419855    0.3354493  15.94  0.002630517    1.363    0.266
        64  -8.4456     76.2079    244.0033   1.0893429564e+02   1.3070823587e+01    0.2409035    0.1507752 -80.60 0.0008935084    1.839    0.456
