#   1 NUMBER                 Running object number                                     
#   2 MAG_AUTO               Kron-like elliptical aperture magnitude                    [mag]
#   3 X_IMAGE                Object position along x                                    [pixel]
#   4 Y_IMAGE                Object position along y                                    [pixel]
#   5 X_WORLD                Barycenter position along world x axis                     [deg]
#   6 Y_WORLD                Barycenter position along world y axis                     [deg]
#   7 A_WORLD                Profile RMS along major axis (world units)                 [deg]
#   8 B_WORLD                Profile RMS along minor axis (world units)                 [deg]
#   9 THETA_WORLD            Position angle (CCW/world-x)                               [deg]
#  10 FWHM_WORLD             FWHM assuming a gaussian core                              [deg]
#  11 ELONGATION             A_IMAGE/B_IMAGE                                           
#  12 ELLIPTICITY            1 - B_IMAGE/A_IMAGE                                       
         1 -13.5833     55.1989    146.3582   1.0718591409e+02   3.8695242738e+01     5.584738     1.025773 -61.81   0.01622977    4.247    0.765
         2 -14.4469    212.3547     27.7773   3.9461233541e+01   2.8843589214e+01     1.287048     1.008427   0.46  0.003565188    1.857    0.462
         3 -14.5004    200.8240     39.4058   4.3693827148e+01   3.0098144559e+01     1.975402     1.434723  30.20  0.006326662    1.924    0.480
         4 -11.7348      2.3087     12.8270   9.3768390533e+01   7.2812881894e+01    0.3254898    0.1477375 -47.24  0.001870179    1.894    0.472
         5 -12.2996      2.5290      4.3753   8.9598910911e+01   7.4103648110e+01    0.5941603    0.3430241 -30.91  0.003980926    1.332    0.249
         6 -12.5819    239.8197      4.0448   3.1818052364e+01   2.5420785606e+01    0.5035293    0.4131935  52.91  0.003069948    1.603    0.376
         7 -12.5756    234.2574      3.7628   3.2138706538e+01   2.6637956009e+01    0.4330662    0.3388625 -71.92  0.002456248    1.016    0.016
         8  -9.1173    134.1236    196.2139   9.5409667146e+01   1.4460903987e+01    0.1902253     0.158914  65.81 0.0004155292    1.291    0.225
         9 -11.8106    139.7987    248.5485   1.0183517951e+02   3.7907565843e+00    0.4071902    0.2905243 -61.03  0.002492974    1.783    0.439
        10 -13.0776     69.5893    173.1697   1.0736124428e+02   3.0198996704e+01     1.203637    0.5374314 -37.96  0.003798177    4.790    0.791
        11 -14.8335     84.6826    221.8097   1.0994081575e+02   1.7151891136e+01     4.852299    0.9859414  42.50  0.004265569    3.731    0.732
        12 -12.9113     27.7044    214.8774   1.2104855296e+02   2.5847943432e+01    0.9490168    0.3638602  78.50  0.002971782    3.354    0.702
        13 -15.3224     47.6988    196.6081   1.1531954195e+02   2.7560198617e+01     4.219208     2.335736  82.67    0.0194623    1.914    0.477
        14  -8.9737    120.1735    194.1743   9.8289879784e+01   1.7335989391e+01    0.1920516    0.1574238  71.49 0.0004017402    1.308    0.236
        15 -14.1338     57.4624    240.3272   1.1716231451e+02   1.7194205876e+01    0.7212337    0.3714164  55.86  0.004082538    1.633    0.387
        16  -9.2367     72.1870    188.2198   1.0874563119e+02   2.6280351771e+01    0.1856466    0.1376245  73.25 0.0004684746    1.318    0.241
        17 -14.2119     24.7533    226.7613   1.2240528110e+02   2.3716609086e+01     1.206059    0.5429505  63.66  0.004763862    1.969    0.492
        18  -9.1474     70.0913    184.1958   1.0872701136e+02   2.7511108704e+01    0.1860666    0.1400524  69.96 0.0004709345    1.280    0.219
        19  -9.3250     91.2574    182.9247   1.0342359250e+02   2.4661898017e+01    0.1926134    0.1703335 -78.55 0.0004385947    1.105    0.095
        20 -10.0717     99.4232    180.9113   1.0111739394e+02   2.3814589876e+01     0.248676     0.203297  33.01 0.0005394153    1.292    0.226
        21 -10.4282    144.1214    178.6205   8.9939721051e+01   1.6354182857e+01    0.2919005    0.2177212 -38.20  0.001440272    1.439    0.305
        22 -10.0516    187.9650    173.6700   7.9164134977e+01   8.9543895876e+00    0.3598687    0.2025363 -62.68  0.001277022    3.426    0.708
        23  -9.6577    149.7676    177.1413   8.8337215108e+01   1.5597453556e+01    0.2135443    0.1971121  82.89  0.000461161    1.216    0.177
        24 -16.4591      7.6518    244.1264   1.2638459151e+02   2.2103518240e+01     1.695995     1.217291  53.19   0.01302839    1.254    0.202
        25 -12.8715     81.0578    161.0083   1.0254528760e+02   3.1483154263e+01     1.065792    0.5094859  55.97 0.0003643278    2.645    0.622
        26 -13.7122     69.0293    156.3763   1.0499151635e+02   3.4378950465e+01    0.5952468    0.4927876 -43.90  0.002057516    1.337    0.252
        27 -14.6283     68.5813    144.2957   1.0309415059e+02   3.7447460742e+01     5.103067     2.081528  59.94   0.01070044    6.159    0.838
        28  -9.8551     34.5056    171.5278   1.1582588057e+02   3.4889102156e+01    0.2224266    0.1802675  82.78 0.0007569491    1.058    0.055
        29 -12.7462     11.7800    188.9088   1.2249216265e+02   3.3078563547e+01    0.2327819    0.1916847  75.65 0.0005711687    1.103    0.094
        30 -16.4998      7.6214    199.9700   1.2407532575e+02   3.1019274174e+01     9.188455     0.948872 -74.77   0.02422839    6.547    0.847
        31 -10.0726    156.3089    158.2312   8.2906298299e+01   1.8368553506e+01    0.3889033    0.2567418 -71.89  0.001480913    2.353    0.575
        32 -16.1433     35.9514    249.1442   1.2173906785e+02   1.8139434092e+01     10.85373     3.127619  27.61    0.0244718   14.930    0.933
        33 -12.2136     88.1314    154.1933   9.9471537657e+01   3.2051127900e+01    0.6299065    0.4620691 -24.73  0.002968573    1.868    0.465
        34 -10.1334    187.3267    151.9247   7.4582190064e+01   1.3331119026e+01    0.2201024    0.1913263 -30.64   0.00115457    1.110    0.099
        35 -10.6262    137.5839    168.6774   8.9558169499e+01   1.9774302551e+01    0.3449724    0.2933412  62.24  0.001779369    1.256    0.204
        36 -11.2199    133.7520    144.6319   8.5408181053e+01   2.6000300422e+01     1.192806    0.3161477 -54.65   0.00276033    5.691    0.824
        37  -9.0857    111.7836    149.7863   9.2262554437e+01   2.9040983017e+01    0.3742379    0.1670233  58.59  0.001060914    4.249    0.765
        38 -10.3032    174.5999    149.0424   7.6674777099e+01   1.6544912950e+01    0.2764432    0.2639668  66.65 0.0008374444    1.153    0.133
        39 -10.2857     38.4835    146.3961   1.1180344078e+02   4.0594520798e+01    0.3129281     0.210932  52.87  0.001699633    1.563    0.360
        40 -11.0022     82.6997    142.4538   9.8769095068e+01   3.5815241120e+01    0.3445908    0.2520491  65.47  0.000447791    1.563    0.360
        41 -10.8143    102.0496    139.5700   9.2750555680e+01   3.3280414254e+01    0.5714651    0.3715045 -22.85  0.002279117    2.380    0.580
        42 -12.3052     89.3954    139.4391   9.6275805295e+01   3.5486605987e+01    0.3045059    0.2604901 -41.66  0.001598097    1.215    0.177
        43 -10.5290    106.0152    130.8798   8.9703090365e+01   3.4666746514e+01    0.3585103    0.3143175 -66.03  0.001164297    1.147    0.128
        44 -11.8898     44.4539    129.7744   1.0760649105e+02   4.4094636628e+01    0.3972035    0.2892346 -68.31  0.001853678    1.202    0.168
        45 -11.3128     39.7612    127.5614   1.0864534830e+02   4.5145262461e+01    0.2965531    0.2031254  44.55  0.001314623    1.613    0.380
        46 -10.2313    111.4132    130.1435   8.8018710327e+01   3.3826097891e+01    0.2898394    0.2381228  -0.52 0.0008620882    1.520    0.342
        47 -11.0289    135.9008    127.4293   8.0769998719e+01   2.9501844202e+01    0.6163796    0.1805055 -50.11  0.001704113    3.704    0.730
        48 -10.7816     98.6939    126.1035   9.0687728389e+01   3.7157736817e+01    0.3290226    0.2570659 -20.69  0.001556279    1.571    0.363
        49 -10.4844    117.2896    124.3793   8.4995067137e+01   3.4044480236e+01    0.3158718    0.2412483   5.00 0.0007627027    1.762    0.433
        50  -9.5605     91.0997    123.9366   9.2412224232e+01   3.9013667833e+01    0.2308936    0.1935108  79.73 0.0006149856    1.374    0.272
        51  -8.5748     87.6117    121.2903   9.2841377716e+01   4.0248173512e+01    0.1567936     0.115505  72.47 0.0007010579    1.763    0.433
        52 -10.0040    160.8593    128.1094   7.4797476732e+01   2.3924379455e+01    0.2524453     0.222112 -80.77  0.001242331    1.316    0.240
        53 -12.0104     33.6248    118.2776   1.0899150476e+02   4.8052184270e+01    0.4269065    0.2375539 -43.91  0.002009897    1.811    0.448
        54  -9.9561    107.8618    119.0347   8.6324473448e+01   3.7149350589e+01     0.219605    0.2133814 -46.37 0.0003486136    1.007    0.007
        55 -10.7755     45.2627    117.9636   1.0528351109e+02   4.6943430767e+01    0.2019507    0.1600431 -62.97 0.0003315561    1.097    0.089
        56  -9.2627    168.0318    112.9773   6.9285273100e+01   2.5478949195e+01    0.2594487    0.1961671 -78.26  0.001131622    1.783    0.439
        57 -10.4833    135.0000    111.9921   7.7010436236e+01   3.3157596985e+01    0.4435805    0.0893361 -44.52  0.001045634    4.883    0.795
        58 -11.8899     34.1656    109.3685   1.0725646159e+02   5.0188397278e+01    0.3635223    0.2784496  86.24  0.002062859    1.447    0.309
        59  -9.6587    115.3075    109.3606   8.1674712815e+01   3.7921837562e+01    0.1635199    0.1234151 -11.55 0.0004130007    1.736    0.424
        60  -8.9216    140.3487    106.7446   7.4204077621e+01   3.3110890531e+01    0.1570941    0.1258906  83.74 0.0006953047    1.595    0.373
        61 -10.2180    205.4323    110.3411   6.1100948849e+01   1.7517879090e+01    0.3349532    0.2524355  31.60  0.001067972    1.556    0.358
        62 -11.8816     41.1092    103.7360   1.0385093596e+02   5.0872252200e+01     0.542782      0.26556  43.32  0.002419733    2.440    0.590
        63 -10.9814     32.6897     99.7153   1.0590210619e+02   5.2662910040e+01    0.3542589      0.21946  37.79  0.001511499    1.870    0.465
        64 -11.5424    245.8571    103.0936   5.2979519362e+01   1.0371000544e+01    0.2620829    0.2006432  87.05  0.001437606    1.688    0.407
        65  -9.7529    127.6169     94.9976   7.4217235230e+01   3.8450501954e+01    0.3001469    0.2176136  63.40 0.0008877728    1.646    0.393
        66 -10.2186     52.8926     91.1186   9.6864055385e+01   5.2541674745e+01    0.2090061    0.1859714 -75.30 0.0005977072    1.241    0.194
        67  -9.6051    156.6963     88.7085   6.5175460319e+01   3.2972557707e+01    0.3049892    0.2154601 -75.08  0.001270073    1.997    0.499
        68 -11.8180    109.6132    201.4256   1.0183851017e+02   1.7558227954e+01     0.512765    0.3026551 -43.34  0.001721681    2.057    0.514
        69  -9.3449    116.0377     85.0057   7.4443409674e+01   4.3047870576e+01     0.235294    0.1908722  83.20 0.0008487755    1.631    0.387
        70  -8.6399     75.2926     85.2670   8.7393470902e+01   5.0701563908e+01     0.142242    0.1074525 -15.30 0.0002108862    1.508    0.337
        71  -9.7882    158.7074     82.0263   6.2799356875e+01   3.3743827987e+01    0.2202574    0.2011418 -40.10 0.0005355949    1.091    0.084
        72  -8.9584    184.3630     77.3008   5.6343011223e+01   2.8345190537e+01    0.1537047    0.1169516  22.99 0.0007035407    1.725    0.420
        73 -10.0264     54.5564     65.5630   8.8897703952e+01   5.7947593933e+01    0.2253729    0.2218651  -9.52 0.0006079457    1.217    0.178
        74  -8.9309     83.8699     61.6306   7.6791418786e+01   5.4054847157e+01     0.192527    0.1316351  52.24 0.0005096771    1.749    0.428
        75 -10.9216     13.4384     59.8581   1.0421887658e+02   6.3220156889e+01    0.2466116    0.1898905 -57.46 0.0004116573    1.194    0.162
        76 -11.4798     62.2512    199.8181   1.1240580140e+02   2.4996938633e+01    0.4482732    0.2047184 -60.29  0.001114248    2.159    0.537
        77 -10.1126     59.8131    220.4141   1.1499484123e+02   2.0869584988e+01    0.2855783    0.2013348  23.85  0.001099877    1.852    0.460
        78 -13.1613    191.2696     46.3019   4.6795147751e+01   3.1479310974e+01    0.9715289    0.5728935  51.64  0.001027426    1.766    0.434
        79 -11.7162    193.4929    195.7087   8.2406433835e+01   3.8923849936e+00     1.109084    0.5512493 -60.33   0.00335817    5.625    0.822
        80 -10.8380      2.3142     29.1326   1.0024542611e+02   6.9993971307e+01    0.2057894    0.1713516 -37.56 0.0008053161    1.185    0.156
        81 -11.5342      2.4324     24.2754   9.8412027333e+01   7.0863702715e+01    0.3174228    0.1446862 -46.31   0.00181881    1.663    0.399
        82 -10.2529    144.6516     41.4502   5.3301895443e+01   4.3745033490e+01    0.2592401    0.2201296 -87.60  0.001401347    1.288    0.223
        83  -9.6710    189.6564     14.9767   3.8696636769e+01   3.5712949366e+01    0.1814297    0.1595797 -56.25 0.0006641131    1.149    0.129
        84 -10.0503    113.3023    206.0590   1.0167590752e+02   1.5969686721e+01    0.1900069    0.1733498  72.44 0.0006199194    1.077    0.072
        85 -10.2197     66.1902    194.5868   1.1092261408e+02   2.5649066235e+01    0.2717959    0.2234264  46.02 0.0007287929    1.219    0.179
        86 -11.2617    141.4848     46.7788   5.5685827604e+01   4.3783495154e+01    0.4357374    0.2947041 -76.28 0.0009965186    2.129    0.530
        87 -12.1642    203.0514    199.3807   8.1184696374e+01   1.6113783528e+00     0.462007    0.3675502   4.32  0.002670251    1.200    0.167
