#   1 NUMBER                 Running object number                                     
#   2 MAG_AUTO               Kron-like elliptical aperture magnitude                    [mag]
#   3 X_IMAGE                Object position along x                                    [pixel]
#   4 Y_IMAGE                Object position along y                                    [pixel]
#   5 X_WORLD                Barycenter position along world x axis                     [deg]
#   6 Y_WORLD                Barycenter position along world y axis                     [deg]
#   7 A_WORLD                Profile RMS along major axis (world units)                 [deg]
#   8 B_WORLD                Profile RMS along minor axis (world units)                 [deg]
#   9 THETA_WORLD            Position angle (CCW/world-x)                               [deg]
#  10 FWHM_WORLD             FWHM assuming a gaussian core                              [deg]
#  11 ELONGATION             A_IMAGE/B_IMAGE                                           
#  12 ELLIPTICITY            1 - B_IMAGE/A_IMAGE                                       
         1  -8.0991    161.5439     14.5237   6.1252316550e+01   4.2469141608e+01     0.124356    0.1031855  73.35 0.0008083494    1.032    0.031
         2  -8.4374     80.3386     12.3298   7.6405097828e+01   6.0051601906e+01    0.2029597    0.1712921 -39.37 0.0008884922    1.527    0.345
         3  -7.6004     17.2872      2.6350   9.5059037486e+01   7.0595739108e+01   0.08741987   0.07976551 -11.53 0.0004776066    1.697    0.411
         4  -8.7115    107.5318      1.6834   6.6460697492e+01   5.5482195684e+01    0.3311148   0.06029192  56.88 0.0007491013    3.392    0.705
         5  -8.5631    206.2336    248.6247   1.0504974779e+02  -8.6285914392e+00    0.1814274    0.1054388  24.27 0.0009291252    1.664    0.399
         6 -10.9620    246.4565    243.9633   9.6729461944e+01  -1.3405111311e+01    0.7510908    0.4203139  -4.09  0.002784887    2.223    0.550
         7 -10.3001    176.0343    233.0757   1.0855573760e+02  -1.2398918861e+00     1.024862    0.6049873  45.96  0.004351818    1.753    0.430
         8  -8.8612    150.2532    240.4274   1.1520148214e+02   1.6762280037e+00    0.3120576    0.1867811  33.97   0.00094026    1.560    0.359
         9 -10.0992    145.0113    237.4443   1.1586418979e+02   3.1318060113e+00    0.8000207    0.4926569  36.22  0.003380491    1.496    0.332
        10  -9.6794    230.4156    250.3666   1.0073661984e+02  -1.2268023955e+01    0.3317183    0.1396964  33.31   0.00123503    2.258    0.557
        11  -8.5668    150.5823    249.3204   1.1647295386e+02  -4.1606298067e-02    0.2884611    0.2371423 -89.23  0.001683722    1.588    0.370
        12  -8.5404    220.8910    240.1253   1.0077936890e+02  -9.3968070788e+00    0.1772629    0.1682678  -2.35  0.001158089    1.284    0.221
        13  -9.2530     89.7806    238.5533   1.2790178738e+02   1.1927250174e+01    0.2399922    0.2124897 -27.63   0.00144076    1.530    0.346
        14  -7.3410    102.8362    238.5925   1.2512086474e+02   9.8712601079e+00    0.1810774    0.1100127  50.75 0.0001724162    1.510    0.338
        15  -8.0870     58.8239    235.6116   1.3405387379e+02   1.7072092581e+01    0.2475944   0.08517238 -65.09  0.001021416    2.776    0.640
        16  -8.5644     50.4599    235.5136   1.3575097997e+02   1.8212476278e+01    0.1291017    0.1037157  74.77 0.0004107244    1.015    0.015
        17  -7.9906    231.7948    233.9976   9.7659364371e+01  -9.9603332317e+00    0.1714385    0.1388773 -15.61 0.0002877527    1.073    0.068
        18  -8.9046    188.1390    233.5496   1.0612622816e+02  -3.3059698674e+00    0.2527674    0.2256969 -39.13  0.001380379    1.229    0.186
        19 -10.7720    178.6842    242.6997   1.0960180750e+02  -3.4078377493e+00     1.008317     0.573467  24.89  0.004566482    1.853    0.460
        20  -9.5774    159.6786    232.3808   1.1190863856e+02   1.6366583083e+00      1.02791    0.3848309 -53.19   0.00385641    3.153    0.683
        21  -9.9359    153.6855    220.1754   1.1117344075e+02   5.1083046877e+00     1.136877    0.5336493  26.13  0.004134889    2.951    0.661
        22 -10.8833    149.8020    228.4400   1.1340239139e+02   4.1030155311e+00     1.120463    0.8211103 -14.11   0.00329375    1.841    0.457
        23  -9.5821    141.0870    228.7001   1.1535284297e+02   5.5510655883e+00     0.677909    0.3303286  42.94  0.002869186    1.902    0.474
        24  -8.9141    113.7707    231.1490   1.2173802447e+02   9.6668924265e+00    0.4073156    0.2343974  30.41  0.001876105    1.898    0.473
        25  -9.4754    104.9162    230.5803   1.2360596247e+02   1.1242326542e+01    0.6681808    0.1923933  38.91  0.002316325    3.118    0.679
        26  -7.5593     90.5219    230.9928   1.2680870936e+02   1.3444681328e+01     0.191295    0.1094068  85.25 0.0005726173    2.482    0.597
        27  -8.5207     81.4492    229.5166   1.2859560819e+02   1.5161342622e+01    0.3487309    0.2015374  50.14  0.001451138    1.584    0.369
        28  -7.7994    139.4190    247.7592   1.1858643949e+02   2.0749692851e+00    0.1740477    0.1249667 -38.97 0.0009464717    1.637    0.389
        29  -8.7602      6.0047    248.4977   1.4511875549e+02   2.0673872342e+01    0.1720226   0.05560799  55.28 0.0008106366    2.598    0.615
        30  -8.0824    249.3376    225.3105   9.2942870959e+01  -1.0969728141e+01    0.1286991   0.08206138  -6.96 0.0007044582    1.686    0.407
        31  -9.8695    108.4117    223.7942   1.2187866233e+02   1.2149767251e+01    0.5674186    0.2848729  25.48  0.002188221    2.841    0.648
        32  -7.9977    218.2139    221.8778   9.8053933879e+01  -5.9873195037e+00     0.180038    0.1621258 -22.21 0.0003313756    1.139    0.122
        33  -8.3288     73.1850    221.1590   1.2938901689e+02   1.8273638464e+01    0.2000086    0.1433572  69.01  0.001081823    1.340    0.254
        34  -8.7352    127.2664    217.5250   1.1666069886e+02   1.0317924933e+01    0.3405821    0.2070552  82.29  0.001289581    3.042    0.671
        35  -7.6932    177.4880    217.5155   1.0553623150e+02   1.4774434065e+00    0.1384465    0.1310174  15.88 0.0006642945    1.036    0.035
        36 -10.6102    117.2411    201.1055   1.1629147840e+02   1.5800552680e+01    0.5361552    0.4093594 -86.51 0.0003236834    1.513    0.339
        37 -11.7334    110.2909    211.1321   1.1955336259e+02   1.4683426327e+01     1.500204      0.62911  41.24  0.005881326    2.237    0.553
        38 -11.4036    128.1323    205.8563   1.1453109755e+02   1.2768121613e+01     1.589037    0.8598135 -34.34  0.006085141    2.711    0.631
        39 -10.2282    136.2736    203.1691   1.1216576254e+02   1.1904676217e+01    0.6904512    0.5300196  75.46   0.00287991    1.594    0.373
        40  -8.8591    250.4419    215.7490   9.1018744803e+01  -9.6039233253e+00    0.2428256    0.1072494 -43.39   0.00114687    2.164    0.538
        41  -7.5341     29.0000    219.0348   1.3861601579e+02   2.4527413076e+01    0.2055001   0.06179745 -71.71 0.0008036561    2.951    0.661
        42  -9.9113     62.7088    215.2363   1.3100130534e+02   2.1139590481e+01    0.3891856     0.154192  46.77  0.001622724    2.367    0.577
        43  -8.4644     86.1507    220.0578   1.2636280547e+02   1.6569524164e+01    0.2014921     0.190153 -45.85 0.0006150091    1.281    0.220
        44 -11.1031    109.8390    207.1157   1.1902723631e+02   1.5687454401e+01    0.5843604    0.4708135  83.36  0.002288556    1.330    0.248
        45  -8.0813     52.6591    209.7119   1.3260025699e+02   2.3795185493e+01    0.1242322    0.1023876 -36.63 0.0007021321    1.643    0.391
        46 -11.0395     68.4211    203.4694   1.2823485520e+02   2.3119094476e+01    0.4959861    0.3721724   1.64  0.002485418    2.126    0.530
        47  -8.7423    151.9117    204.1198   1.0873777770e+02   8.8289158241e+00    0.4322977    0.2752569 -59.11  0.001959655    1.764    0.433
        48  -7.2159    172.3391    205.6777   1.0447454664e+02   4.7695588496e+00     0.144913    0.1155285  77.45 0.0007050649    1.718    0.418
        49  -9.2328     97.8286    203.1120   1.2123946993e+02   1.8650641760e+01    0.2787205    0.2240018 -60.25 0.0007107873    1.251    0.200
        50  -9.8593     79.0144    202.5456   1.2562049391e+02   2.1775123668e+01    0.3805009    0.1892033 -59.66  0.001660274    1.928    0.481
        51  -9.7354     39.0582    201.5154   1.3473550240e+02   2.7443653963e+01    0.4027162    0.1481765  44.36   0.00170921    2.577    0.612
        52  -9.6817    100.0129    199.0291   1.2007562749e+02   1.9260997717e+01     0.328537    0.2224176  72.61  0.001504643    1.774    0.436
        53  -9.1310     57.4210    198.7526   1.3019750736e+02   2.5787329974e+01    0.3321469     0.267646 -87.95  0.001918272    1.106    0.096
        54  -8.9389    161.6984    198.5168   1.0548053600e+02   8.2346319825e+00    0.3480166    0.2605692 -58.06  0.001715501    1.450    0.311
        55  -9.8832     94.0328    198.7433   1.2147030628e+02   2.0319800459e+01    0.3679989    0.2768466  43.86  0.001894791    1.311    0.237
        56 -10.2810     80.1050    196.8629   1.2454268108e+02   2.2983847865e+01    0.3896017    0.3168229   1.72  0.002029258    1.739    0.425
        57 -10.6743    110.6117    193.3497   1.1656575332e+02   1.8804446081e+01    0.4682942    0.3515842  29.77  0.001605167    1.465    0.318
        58  -7.1028    219.2927    206.6917   9.5021482344e+01  -3.4733234412e+00    0.1220526    0.1086827 -78.64 0.0002541967    1.583    0.368
        59  -9.0173     89.0236    195.2581   1.2214054393e+02   2.1975150890e+01     0.399165    0.2470727 -53.65  0.001864135    1.620    0.383
        60  -8.7263    250.0432    193.2034   8.6881059421e+01  -5.7886324665e+00    0.2318971    0.1487179 -47.60 0.0009748178    1.577    0.366
        61  -6.8455    223.3117    194.3081   9.1874252795e+01  -1.8528987409e+00     0.139096    0.0993978  -8.67 0.0007025243    1.622    0.383
        62 -10.4097    128.9090    188.2902   1.1120839116e+02   1.6697517469e+01    0.7315507    0.4282441  79.77  0.002316012    3.901    0.744
        63 -10.8317    130.6378    182.0541   1.0960263884e+02   1.7850405659e+01    0.6302904    0.4177575  68.05  0.002632269    2.026    0.506
        64  -7.1969     76.6432    190.6889   1.2446903066e+02   2.5023241277e+01    0.1425341    0.1114954 -27.54 0.0007043322    1.735    0.424
        65  -9.6215    143.0163    187.7860   1.0773474625e+02   1.4157309183e+01    0.3684706    0.2143405 -69.56  0.001393535    2.484    0.598
        66 -10.9089    115.3153    187.9565   1.1446499244e+02   1.9265435573e+01    0.6107172    0.3558424 -54.78  0.002642585    1.702    0.412
        67  -8.0735     98.4635    189.4660   1.1888858563e+02   2.1835855234e+01    0.1474225    0.1388169  88.50 6.901921e-05    1.019    0.019
        68  -9.6789     47.3334    186.3204   1.3101594268e+02   3.0132709883e+01    0.2601139    0.1995223 -29.11  0.001401833    1.807    0.446
        69  -9.7172    104.7690    187.4892   1.1698834272e+02   2.1241093063e+01    0.2813738    0.2053611 -60.88  0.001078262    1.348    0.258
        70 -10.1346    143.1553    181.9188   1.0655378323e+02   1.5488539249e+01     0.522443    0.4156901  33.36  0.002570424    1.305    0.233
        71  -8.5825     61.7397    182.9665   1.2702069959e+02   2.9087137431e+01    0.1900157    0.1118741 -65.18 0.0008889197    1.549    0.354
        72  -9.4914    248.9997    181.3968   8.4791034081e+01  -3.5686263588e+00    0.2745981    0.2447025  54.66  0.001095436    1.446    0.309
        73 -10.4393    123.9824    205.9623   1.1551918418e+02   1.3484130882e+01     0.219393    0.2020983 -87.28  0.001217802    1.098    0.089
        74 -10.6386    103.5850    178.5202   1.1568879660e+02   2.3649487393e+01    0.5540968    0.3281456 -62.70  0.002378827    1.719    0.418
        75  -9.5884    121.4876    180.4904   1.1155542690e+02   1.9939605668e+01    0.2818621     0.206387  27.69  0.001304672    1.546    0.353
        76  -8.3043     89.3252    174.3479   1.1860066824e+02   2.7100536072e+01     0.153461    0.1151174 -27.69 0.0001581611    1.749    0.428
        77  -9.0584    238.0624    171.6434   8.4729580443e+01  -6.2911758063e-02    0.2240068     0.171639 -47.93  0.000612998    1.249    0.199
        78  -9.3363     92.6287    170.7534   1.1709492245e+02   2.7455608475e+01    0.2837979    0.1948936 -70.31  0.001307212    1.504    0.335
        79  -9.5873     78.2458    169.2439   1.2060356946e+02   3.0139844620e+01    0.3436518     0.236104 -68.65  0.001650542    1.408    0.290
        80 -10.1679     54.7388    173.7157   1.2744227392e+02   3.2334620627e+01    0.7057016    0.2673491 -71.93  0.002474255    2.997    0.666
        81  -7.6508    158.8244    167.1986   9.9818251616e+01   1.5788138920e+01    0.2017592    0.1777424 -13.70 0.0002896129    1.275    0.216
        82 -10.2417    120.6732    176.3889   1.1096935567e+02   2.1084195126e+01    0.4021638     0.291767  72.53  0.001800032    1.713    0.416
        83  -9.2862    111.0012    166.0128   1.1139202101e+02   2.5416917735e+01    0.2570019    0.1876352  78.58  0.001134343    1.740    0.425
        84  -9.6642     68.9326    165.1985   1.2238000929e+02   3.2544904335e+01    0.3116396    0.2744906  85.52  0.001313765    1.111    0.100
        85  -8.8355    205.9108    163.9626   8.9045859502e+01   7.1550154600e+00    0.3012107    0.2627651 -82.69 0.0009114815    1.376    0.273
        86  -9.5001     89.2619    163.9339   1.1671961956e+02   2.9726296712e+01    0.2971718    0.2010092 -43.23  0.001361362    1.573    0.364
        87  -8.2059    137.9909    179.4931   1.0731304997e+02   1.7052241987e+01    0.2413159    0.2058719 -55.99 0.0004862915    1.169    0.145
        88  -8.4093    236.9094    176.0826   8.5812995113e+01  -6.9655531581e-01    0.2045089    0.1780539 -28.60  0.000450071    1.019    0.019
        89  -8.1804     68.0767    159.2041   1.2157603284e+02   3.4182026623e+01    0.2143138    0.1942955 -35.26 0.0006524643    1.227    0.185
        90  -8.0672     91.6484    153.8050   1.1410126209e+02   3.1870923174e+01    0.2263254    0.2084236  21.63 0.0006361925    1.210    0.173
        91  -7.5838    225.5201    146.5351   8.1751501618e+01   6.9342231007e+00    0.1421861     0.126411 -41.53 0.0002494935    1.027    0.026
        92  -7.0046    158.2900    140.2771   9.3915469200e+01   2.2028366512e+01    0.1504407    0.1252677  -3.60 0.0002012131    1.520    0.342
        93  -8.1036    248.5065    116.5266   7.1972093247e+01   8.2981212655e+00    0.1356699    0.1115788 -56.49 0.0008097254    1.040    0.039
        94  -7.7507    244.0629     97.3110   6.8703979378e+01   1.2514246690e+01    0.1975756   0.09532509  38.10 0.0006043246    4.452    0.775
        95  -9.0197    224.1805     91.7054   7.0260905080e+01   1.7469495928e+01    0.2424445    0.2314664  48.44 0.0004580574    1.312    0.238
        96  -7.1422    233.4715     82.4743   6.7055291123e+01   1.7131102486e+01    0.1366912    0.1103032 -67.81 6.530217e-05    1.065    0.061
        97  -7.9668    111.0297     79.3851   8.9925618244e+01   4.4896918727e+01    0.1976546    0.1679477  39.28 0.0004349849    1.144    0.126
        98  -7.6111    184.6408     77.7228   7.3278380490e+01   2.8600433901e+01    0.1385781    0.1107652  30.39  0.000424958    1.661    0.398
        99  -9.7027    124.5695     57.5368   7.9981152166e+01   4.5621396256e+01    0.2483925    0.2328178  50.69 0.0003918254    1.021    0.021
       100  -8.1668     94.4524     52.6068   8.6318522433e+01   5.2611910147e+01     0.206834    0.1880445  16.93  0.000633771    1.023    0.023
       101  -8.5326    220.5262     42.9009   6.0447429466e+01   2.5886186741e+01    0.2841328    0.1844512 -45.19  0.001442823    1.502    0.334
       102  -8.5072     77.0227     29.8042   8.3690354602e+01   5.8867560287e+01     0.162318    0.1320146 -44.51  0.001026767    1.594    0.372
       103  -7.1509     79.7247     23.3039   8.0548395809e+01   5.9095558229e+01    0.1046027   0.09639092 -82.48 0.0003444318    1.542    0.352
       104  -8.9711     84.9339     21.3083   7.8364813110e+01   5.8323656555e+01    0.2526037    0.1741218 -27.02  0.001078775    1.612    0.380
       105  -7.2105     50.1916     21.3961   8.9501360141e+01   6.4259577120e+01    0.1450822    0.1000318  43.03 0.0004722483    1.571    0.363
       106  -9.3428     75.2065     17.8749   7.9889944871e+01   6.0478294712e+01    0.2245467    0.2042323  22.68 0.0004888985    1.165    0.142
       107  -7.7400    143.7800    248.9350   1.1783988521e+02   1.1400860431e+00    0.1596361    0.1095392 -50.26 0.0004480436    1.638    0.389
       108  -8.8147    133.3983    248.2150   1.1991824956e+02   2.9741646742e+00    0.3675358    0.3064609 -63.76    0.0015235    1.357    0.263
       109  -8.2031    113.5707     10.4861   6.8027356553e+01   5.3504043792e+01    0.1207749    0.1015514  54.13 0.0001798946    1.023    0.022
       110  -9.7949    164.8831    248.7195   1.1340769039e+02  -2.2523841016e+00    0.4966304    0.3768485  31.71  0.002905019    1.176    0.150
