#   1 NUMBER                 Running object number                                     
#   2 MAG_AUTO               Kron-like elliptical aperture magnitude                    [mag]
#   3 X_IMAGE                Object position along x                                    [pixel]
#   4 Y_IMAGE                Object position along y                                    [pixel]
#   5 X_WORLD                Barycenter position along world x axis                     [deg]
#   6 Y_WORLD                Barycenter position along world y axis                     [deg]
#   7 A_WORLD                Profile RMS along major axis (world units)                 [deg]
#   8 B_WORLD                Profile RMS along minor axis (world units)                 [deg]
#   9 THETA_WORLD            Position angle (CCW/world-x)                               [deg]
#  10 FWHM_WORLD             FWHM assuming a gaussian core                              [deg]
#  11 ELONGATION             A_IMAGE/B_IMAGE                                           
#  12 ELLIPTICITY            1 - B_IMAGE/A_IMAGE                                       
         1 -14.1710    187.0565     24.1223   7.0302610214e+01   3.5500380997e+01     1.874916     1.403471  -5.78  0.006106468    1.653    0.395
         2 -14.2413    194.5457     17.4729   6.7385460548e+01   3.4288753498e+01     1.677323     1.560021 -38.78  0.005966252    1.156    0.135
         3 -13.9032    200.2392     10.3137   6.4704129482e+01   3.3573298661e+01     1.686921    0.7907248  47.87   0.00161145    2.394    0.582
         4 -11.9471     32.9931      2.6662   1.0263237640e+02   7.1351981666e+01    0.4030607    0.2086731  40.23  0.002297803    2.277    0.561
         5 -11.5603     33.1295     14.3786   1.0850954220e+02   6.9663807050e+01    0.2962798    0.1107434 -38.37  0.001423988    2.275    0.560
         6 -15.8347      2.8905    146.2371   1.4721954657e+02   4.4359900419e+01     16.78548          nan -75.13    0.0311157   16.279    0.939
         7 -12.1446    245.2888    248.0804   1.1166836276e+02  -9.6804914688e+00    0.4466489    0.2955941   9.64  0.003124742    1.355    0.262
         8 -12.2500    139.8455    248.5380   1.2979404830e+02   6.6625585272e+00    0.3939181    0.2845448  61.52  0.002670907    1.324    0.244
         9 -14.1038    102.1291    246.0906   1.3616627297e+02   1.2831279251e+01     3.297026     1.976036  23.10    0.0132191    3.275    0.695
        10 -14.2559     33.0878    246.1629   1.4772265842e+02   2.1870466018e+01     1.898615    0.9220325  36.09   0.01184907    2.326    0.570
        11 -13.4481     50.6761    226.6629   1.4361350856e+02   2.3191442626e+01    0.6390024     0.446418 -86.30  0.003719894    1.333    0.250
        12 -15.9352     52.4535    206.6638   1.4177701147e+02   2.6729537260e+01     8.364339     2.911205  59.41   0.03708076    2.935    0.659
        13  -9.7549     37.6450    225.3426   1.4579305790e+02   2.4982891433e+01     0.229625    0.1493306  73.33  0.001646239    1.159    0.137
        14 -11.6100    174.0313    220.3823   1.1991020182e+02   5.1053187346e+00    0.3186217    0.2919966  25.59  0.002191889    1.143    0.125
        15 -10.9394    183.0331    216.4768   1.1763215914e+02   4.1082319921e+00    0.2308832    0.1786759  -9.07  0.001397078    1.604    0.377
        16 -11.8810     70.4822    243.9915   1.4144345390e+02   1.7629696319e+01    0.3671631     0.204353 -72.71  0.002394187    1.936    0.484
        17 -12.0793     33.8886    205.6527   1.4518079211e+02   2.9111259719e+01    0.3709486    0.2113675  56.65  0.002088938    1.412    0.292
        18 -11.5850     72.5174    239.9661   1.4079089453e+02   1.8033499045e+01    0.2482885    0.1779207  87.66  0.001328968    1.327    0.247
        19 -11.5757     63.1065    249.7083   1.4307954401e+02   1.7651850793e+01    0.4806251    0.2013482  42.72  0.002798207    1.956    0.489
        20 -10.5346    229.8351    207.3789   1.0763007031e+02  -2.7204743546e+00    0.2063634    0.1922362   2.59 0.0004085101    1.260    0.206
        21 -13.8292     10.6865    206.5585   1.4941272720e+02   3.1329086272e+01    0.7173202     0.535382  39.56  0.002807072    1.637    0.389
        22 -10.8335    193.3021    195.2052   1.1214871332e+02   5.4729190365e+00    0.8365103    0.4217068 -62.14    0.0025021    6.658    0.850
        23 -10.7975     67.5011    196.4424   1.3790037687e+02   2.6804252657e+01    0.3566248    0.1668819  59.45  0.001777241    2.041    0.510
        24 -11.9709     73.5268    193.1682   1.3633194147e+02   2.6636842236e+01    0.3771815    0.2553544 -49.19   0.00217436    1.974    0.493
        25 -11.9645     77.9504    186.3992   1.3464841745e+02   2.7400905701e+01    0.2750974      0.22759 -60.22 0.0007978918    1.415    0.293
        26  -8.7795    181.5348    192.4314   1.1394024372e+02   8.1244448569e+00    0.1358021    0.1176671  35.10 4.036752e-05    1.017    0.016
        27  -9.7453     92.9412    178.0067   1.3033491652e+02   2.6897282142e+01    0.4691927    0.2111163  66.85  0.001632142    3.867    0.741
        28  -9.6912    221.3287    177.3497   1.0354285012e+02   2.9563419701e+00    0.1431831   0.09616392   9.83 -7.300916e-05    1.763    0.433
        29 -11.4186     85.9597    174.7248   1.3143876670e+02   2.8680868430e+01    0.2428708     0.219932 -85.25 0.0003654459    1.154    0.133
        30 -13.3778     73.8547    172.1104   1.3380496168e+02   3.1029110289e+01    0.4385573    0.2738692 -46.65  0.001680005    2.088    0.521
        31 -13.5130     58.1005    131.1404   1.3185375283e+02   4.2429697280e+01     2.251366    0.7070281 -73.72  0.006220846    5.708    0.825
        32 -13.0349     91.9953    166.6135   1.2892109267e+02   2.9498096599e+01     2.979555    0.5801359  48.02  0.002223851    5.557    0.820
        33 -13.9046     67.5804    144.1131   1.3141617324e+02   3.8185570428e+01     1.749873    0.8767572  82.23  0.004253845    3.464    0.711
        34  -9.7266    198.6448    246.3171   1.1921216911e+02  -2.4623263127e+00    0.1114339   0.08206853  58.89 9.781801e-06    1.747    0.428
        35 -10.5369    138.9943    171.4986   1.1908475605e+02   2.0144047863e+01    0.2283327    0.1295903  44.83  0.001042165    1.618    0.382
        36 -12.4254     47.3042    148.6581   1.3705128267e+02   3.9686138545e+01    0.7628408    0.2745865 -77.84  0.002905208    3.260    0.693
        37 -10.2435    103.5003    149.9320   1.2345895073e+02   3.1282487254e+01    0.2995253    0.2697836 -73.69 0.0008802105    1.094    0.086
        38  -9.8719    105.7880    145.8133   1.2214384017e+02   3.1805696289e+01    0.3014047    0.2162832 -30.62  0.001437093    1.967    0.492
        39 -12.2733     92.4402    149.1336   1.2603180838e+02   3.3319996549e+01    0.2658677    0.2587444 -81.64 0.0005303502    1.175    0.149
        40 -10.0770    134.0000    145.9215   1.1532691076e+02   2.6442208399e+01    0.6673909    0.1420766 -52.90  0.001606539    5.983    0.833
        41 -12.2611     54.8265    144.6369   1.3468213138e+02   3.9712667234e+01    0.4361292    0.3286644  43.20  0.002642573    1.424    0.298
        42 -13.5450     43.1733    127.2559   1.3524272154e+02   4.5064568425e+01    0.8495667    0.4327963 -83.22  0.004008988    2.111    0.526
        43 -10.8482    100.7356    132.6023   1.2085863975e+02   3.5691023449e+01    0.2882177    0.2450877 -26.78 0.0008471697    1.478    0.323
        44 -10.0688    113.1065    135.4339   1.1826822921e+02   3.2809606835e+01    0.2972663    0.2443825  -7.07 0.0009930392    1.718    0.418
        45  -9.6607    109.1161    122.9651   1.1660971382e+02   3.6372199689e+01    0.2088662    0.1997495 -80.05 0.0003457271    1.026    0.026
        46 -11.5293     69.4969    134.7298   1.2943115751e+02   4.0093875745e+01    0.4316542    0.2466767  41.65  0.001666435    1.813    0.448
        47 -10.9341    168.2063    113.0136   9.9666644120e+01   2.5787247970e+01    0.3819645    0.3027844 -83.27  0.000976613    1.597    0.374
        48 -11.1532     19.9693    111.9446   1.3947803798e+02   5.0740544120e+01     0.256353    0.1233631  46.54  0.001348342    2.317    0.568
        49  -9.5136    205.1470    110.5031   9.1509085335e+01   1.7515980683e+01    0.3954942    0.1937708  36.19  0.001416689    2.648    0.622
        50 -15.5647     11.5686    237.9037   1.5072198354e+02   2.5569480472e+01     4.747736    0.6699495 -68.03   0.01426241    5.803    0.828
        51  -9.5797    154.3933     75.8065   9.2313368120e+01   3.6280444942e+01    0.2148686    0.1512072 -24.48 0.0007328278    1.598    0.374
        52 -10.3640    203.0231    249.7650   1.1893874087e+02  -3.5530310665e+00    0.1618278   0.07512074  40.60 0.0008880633    1.655    0.396
        53 -10.7747    163.4072    249.5946   1.2577716016e+02   2.7567691932e+00    0.2668373    0.1589102  60.92  0.001515949    2.030    0.507
        54 -12.3780    126.6986    245.1460   1.3174892979e+02   9.2346973924e+00    0.4201698    0.2257804  56.68  0.002407885    1.679    0.404
        55 -11.0734    224.7689    245.1406   1.1460090121e+02  -6.3748051648e+00    0.2327656    0.1160741  23.20  0.001244422    2.108    0.526
