#   1 NUMBER                 Running object number                                     
#   2 MAG_AUTO               Kron-like elliptical aperture magnitude                    [mag]
#   3 X_IMAGE                Object position along x                                    [pixel]
#   4 Y_IMAGE                Object position along y                                    [pixel]
#   5 X_WORLD                Barycenter position along world x axis                     [deg]
#   6 Y_WORLD                Barycenter position along world y axis                     [deg]
#   7 A_WORLD                Profile RMS along major axis (world units)                 [deg]
#   8 B_WORLD                Profile RMS along minor axis (world units)                 [deg]
#   9 THETA_WORLD            Position angle (CCW/world-x)                               [deg]
#  10 FWHM_WORLD             FWHM assuming a gaussian core                              [deg]
#  11 ELONGATION             A_IMAGE/B_IMAGE                                           
#  12 ELLIPTICITY            1 - B_IMAGE/A_IMAGE                                       
         1 -13.8030     69.4160    145.4890   6.2664664658e+01   3.6788760078e+01     4.160966     2.089843  88.47  0.007901782    4.059    0.754
         2 -12.7763    246.6033     40.3442   1.2516451529e-02   2.0432391013e+01    0.8033498    0.5331997 -41.37  0.002863007    1.219    0.179
         3 -13.4420    229.0716     50.8948   3.7240382352e+00   2.2441288727e+01     1.304213    0.9782175  45.19  0.007848348    1.845    0.458
         4 -12.0161      2.3814     23.2976   6.1777527181e+01   7.4810913239e+01    0.7049199    0.3227342 -58.47  0.003497873    2.078    0.519
         5 -12.8176      2.6818      8.6993   5.3600159301e+01   7.7535009715e+01     1.317071    0.7185308 -44.71   0.00754301    1.654    0.396
         6  -8.9758    158.1289      8.8616   3.5943282679e+02   4.3734122182e+01    0.2127916    0.1534996 -65.46 0.0003878141    1.270    0.213
         7 -10.2007     32.5562      3.8304   2.7747525235e+01   7.4131701954e+01    0.2648729    0.1719476 -25.69  0.001539106    1.570    0.363
         8  -8.4594     78.6670     22.3139   1.9210909084e+01   6.2421609707e+01    0.1372103     0.107536 -73.18  0.000240707    1.683    0.406
         9 -10.6451     57.7395    248.0242   7.7358437617e+01   1.4437334206e+01     0.366491    0.2503248 -75.16  0.001776303    1.682    0.406
        10 -12.4512     49.9016    160.8574   7.1047868018e+01   3.5355157257e+01      1.75341      0.93225 -11.63  0.003844539    5.013    0.801
        11 -15.8393     21.9991    172.3748   8.0346056256e+01   3.5392262834e+01     8.668897     3.583286  78.53   0.03317207    2.818    0.645
        12 -10.0348    144.6589    230.1194   5.6531595413e+01   6.1128667625e+00    0.1780768    0.1635991  78.74  0.001163975    1.484    0.326
        13 -10.7523    113.9927    229.4946   6.3173365449e+01   1.0574844513e+01    0.2601406    0.1944339  39.17  0.001545367    1.165    0.142
        14 -10.0776    109.8270    229.2141   6.4075363158e+01   1.1214997273e+01    0.3360617    0.1804224 -49.44  0.001692721    2.152    0.535
        15 -10.6742    132.1290    227.0000   5.8817549337e+01   8.4447134557e+00    0.3155249    0.2390935  57.32  0.001823492    1.614    0.380
        16  -9.3045     62.5994    226.6519   7.4620667820e+01   1.8067761544e+01    0.2202067     0.117458  48.58  0.000621006    1.601    0.375
        17 -14.0212     12.9546    183.9644   8.3583400730e+01   3.3314714594e+01     1.637925     1.158365 -28.68   0.00672183    2.062    0.515
        18 -10.1409     71.5682    207.3710   7.0617969383e+01   2.1065140505e+01    0.2653553    0.1606308  29.69  0.001022591    1.579    0.367
        19 -10.0816    105.8170    195.5273   6.0522334327e+01   1.8721072211e+01    0.2307143    0.1998127 -18.82  0.001070048    1.327    0.246
        20  -9.7753    126.2899    190.9013   5.4731409603e+01   1.6443985938e+01    0.2634975    0.2008509  26.21  0.000604252    1.264    0.209
        21  -9.1567    159.9666    181.7234   4.5227229718e+01   1.2692471708e+01    0.3251686    0.1996672 -56.39  0.001132677    2.035    0.509
        22 -10.1076     98.9781    181.3729   6.0116267489e+01   2.3040134456e+01    0.2955485    0.2541955  35.76 0.0007030161    1.111    0.100
        23  -9.5354    171.5615    174.4436   4.1293376995e+01   1.2140621164e+01    0.3378087    0.1686938 -50.55   0.00127196    2.277    0.561
        24 -12.7284     87.8981    166.5583   6.0745265864e+01   2.8429309298e+01      2.63045     1.051136  57.11  0.006941371    5.050    0.802
        25 -11.7274     78.2335    132.8954   5.7405090747e+01   3.8763935759e+01    0.5354268    0.4768934  49.48 0.0004562117    1.134    0.118
        26 -12.8518     50.6270    146.4212   6.8822963358e+01   3.9136185416e+01    0.9150502    0.5352241  17.66  0.001122613    2.105    0.525
        27 -11.7941     65.4394    151.3018   6.4897533970e+01   3.5819203999e+01    0.4076292    0.3624246 -58.12 0.0002913309    1.146    0.128
        28  -9.7063     43.4480    248.0281   8.0370323626e+01   1.6086287765e+01    0.3004717    0.1930024  71.67  0.001297952    1.504    0.335
        29  -9.5503     71.0666    165.2808   6.5388178180e+01   3.1332145414e+01    0.3114938     0.184927  74.67 0.0009318774    2.237    0.553
        30  -8.3778     86.5611    152.4838   5.8661275810e+01   3.2237631490e+01    0.1553431     0.145074  76.50 0.0001821483    1.052    0.049
        31 -12.1058     70.6912    153.5358   6.3645023054e+01   3.4457848337e+01    0.9683432    0.6760326 -24.64  0.004259733    1.994    0.498
        32  -8.5492    134.3374    148.6716   4.4570813203e+01   2.4438103049e+01    0.1588576    0.1242678  81.02  0.000359908    1.730    0.422
        33  -9.8879     92.8392    134.3731   5.3081817507e+01   3.5846836132e+01    0.6435789    0.4113822  -0.34  0.002264601    2.938    0.660
        34  -8.8241    110.3681    167.1221   5.4631605177e+01   2.4526851059e+01    0.2049705    0.1879052 -69.01 0.0004223951    1.138    0.121
        35  -9.8011    104.9638    128.1440   4.7950913394e+01   3.5153224824e+01    0.4690331    0.3836487 -49.65  0.001891523    1.204    0.170
        36 -10.9056     68.8308    125.3649   5.8965896759e+01   4.2291021659e+01    0.6304504    0.2933623 -49.49  0.002340962    2.115    0.527
        37 -11.3098    231.3691    165.2793   2.8364782371e+01   4.2244630719e+00    0.3628884    0.2039315 -19.63  0.001842216    1.869    0.465
        38  -8.7692     92.0753    121.9306   5.0440381588e+01   3.9196096467e+01    0.2554554    0.1980084 -11.30  0.001117503    1.711    0.416
        39 -10.4136     32.5597    119.7631   7.0948878125e+01   4.8521462088e+01    0.4470336    0.2251589 -89.20  0.001701809    2.439    0.590
        40  -8.8741    103.2285    116.3750   4.5534168383e+01   3.8429702981e+01    0.2547103    0.2082924 -41.53 0.0005698052    1.236    0.191
        41 -14.2213     12.9856    242.7890   8.6406896280e+01   2.0292695171e+01     2.816323     1.217871 -75.62   0.01540236    2.401    0.584
        42  -8.5610    183.5094    116.5229   2.5922459717e+01   2.1185923446e+01    0.1486679    0.1351879 -35.18 0.0003473679    1.022    0.021
        43 -14.0254      4.6372    244.9208   8.8157499086e+01   2.0668351308e+01     2.146801    0.5654346 -85.11  0.009193296    3.909    0.744
        44  -9.6995    204.9424    110.6292   2.0791769079e+01   1.7933284445e+01    0.3169673    0.2433815  39.59  0.001151442    1.525    0.344
        45  -9.1769     23.9841    105.2865   7.1898383985e+01   5.3295356392e+01    0.1916692    0.1867506 -53.29 0.0005120627    1.109    0.099
        46  -8.4020     38.8173     97.5501   6.4274545065e+01   5.3893989314e+01    0.1989807    0.1317637  43.25 0.0007089037    1.648    0.393
        47 -13.4189      2.5410    218.0215   8.7682299102e+01   2.6364954786e+01     0.833419    0.5376036  25.17   0.00512643    1.690    0.408
        48 -10.5721     53.2349     92.9986   5.7162950613e+01   5.3232228223e+01    0.4687964    0.1930186 -51.84  0.001719223    2.192    0.544
        49  -9.0389     35.4009     93.9533   6.4917967998e+01   5.5233643049e+01    0.2198058    0.1919902  42.19 0.0003891986    1.249    0.199
        50  -8.9345     29.8900     91.6968   6.6811896881e+01   5.6404982311e+01     0.194854    0.1878978 -57.48   0.00113871    1.070    0.066
        51  -8.5871    165.5955     89.6049   2.2319926217e+01   3.0251773019e+01    0.2997774    0.1203984  41.98 0.0009609326    3.346    0.701
        52 -14.0271      9.7744    206.7039   8.5578867676e+01   2.8225210367e+01     1.260582    0.8067911  33.30  0.005772175    1.504    0.335
        53 -10.7048      2.1160     63.6481   7.4379621679e+01   6.5643569274e+01    0.4196899    0.1419807 -74.32  0.001587491    2.860    0.650
        54  -8.7731     83.3111     67.3307   3.6984845732e+01   5.3930752281e+01    0.1572384    0.1208913  -1.17 0.0007042732    1.671    0.402
        55 -10.1928     42.2929    233.8780   7.9739104784e+01   1.8999668317e+01    0.3289641    0.1785727  89.11  0.001458443    2.007    0.502
        56 -12.4597    217.5941     58.3387   6.5717701223e+00   2.3748841051e+01    0.5401461    0.4844019  59.18  0.002260444    1.364    0.267
        57 -10.1116     62.0942    234.3133   7.5374467157e+01   1.6569655327e+01    0.2207962    0.1641525  75.57 0.0004977544    1.372    0.271
        58  -8.4982     83.2252     61.9780   3.5000311045e+01   5.5033775649e+01    0.1970266    0.1239665 -41.80 0.0004268762    1.594    0.373
        59  -9.8559     13.3629     60.3309   6.7396615818e+01   6.5800496452e+01    0.2370844    0.2081919 -62.88 0.0004622029    1.132    0.117
        60  -9.1194     72.8312     56.8326   3.6887604037e+01   5.8212805323e+01    0.1973051    0.1811209 -87.26 0.0004912911    1.302    0.232
        61 -10.7576      2.0000     44.9673   6.9916308136e+01   7.0131575676e+01    0.4666722    0.1406714 -72.70  0.001563104    4.137    0.758
        62 -11.2691    125.5035    228.8319   6.0524444371e+01   9.0620774489e+00    0.3573274    0.3002749  45.48   0.00225208    1.212    0.175
        63  -9.5999    111.9536    244.0678   6.5327354903e+01   8.2274409582e+00    0.1911083    0.1757841 -62.36 0.0004235362    1.338    0.253
        64  -8.9879     60.1742     21.2089   2.5281432058e+01   6.6666419690e+01    0.2042631    0.1648188  25.97 0.0005258164    1.157    0.135
        65  -8.5040    189.4871     15.4729   3.5849831243e+02   3.5455257510e+01    0.1322096    0.1068193 -67.77 0.0001419547    1.021    0.020
        66 -10.3035     71.5392    242.2966   7.3946267479e+01   1.3837962305e+01    0.3915091    0.1904187 -86.49  0.001816738    3.029    0.670
        67 -11.5447     51.1124    243.4192   7.8454566783e+01   1.6093456772e+01    0.5726836    0.2334288 -66.26   0.00267845    2.720    0.632
