#   1 NUMBER                 Running object number                                     
#   2 MAG_AUTO               Kron-like elliptical aperture magnitude                    [mag]
#   3 X_IMAGE                Object position along x                                    [pixel]
#   4 Y_IMAGE                Object position along y                                    [pixel]
#   5 X_WORLD                Barycenter position along world x axis                     [deg]
#   6 Y_WORLD                Barycenter position along world y axis                     [deg]
#   7 A_WORLD                Profile RMS along major axis (world units)                 [deg]
#   8 B_WORLD                Profile RMS along minor axis (world units)                 [deg]
#   9 THETA_WORLD            Position angle (CCW/world-x)                               [deg]
#  10 FWHM_WORLD             FWHM assuming a gaussian core                              [deg]
#  11 ELONGATION             A_IMAGE/B_IMAGE                                           
#  12 ELLIPTICITY            1 - B_IMAGE/A_IMAGE                                       
         1 -14.9933     12.5305    152.2218   1.4211997743e+02   4.2143716999e+01     11.08491     4.723851  81.81   0.04575652    3.362    0.703
         2 -13.2386    196.9903     30.5087   6.7523097882e+01   3.2502149824e+01     1.332596     1.196556  61.15  0.007059642    1.191    0.160
         3 -13.3658    213.0896     10.6316   6.0929944559e+01   3.0971463275e+01     1.140631    0.8815708  44.71  0.006926579    1.639    0.390
         4 -12.2726      2.2051     11.0710   1.1511296517e+02   7.1037614774e+01    0.6834304    0.2526532 -41.66  0.003971729    2.108    0.526
         5 -10.2199     12.5098     23.9946   1.1538025242e+02   6.8395588087e+01    0.1636771   0.08612064 -42.20 0.0006741518    1.584    0.369
         6 -10.3464     97.1008    245.6392   1.3479589834e+02   1.1123395939e+01     0.285115    0.1710828  74.21  0.001097027    1.799    0.444
         7 -10.2278    156.6182    250.1292   1.2406760980e+02   4.5031110726e-01    0.2246788     0.136017  38.81  0.001187842    1.425    0.298
         8 -10.7367    139.5573    249.3305   1.2721364340e+02   3.4884022157e+00    0.2384246    0.2265998 -74.86  0.001652403    1.245    0.197
         9 -10.9889    123.3724    250.1313   1.3038113916e+02   6.0642788178e+00    0.4874355    0.1250547  43.14  0.001806911    3.168    0.684
        10  -8.9803     66.1211    249.8497   1.4080710989e+02   1.4932158090e+01     0.190253     0.121593  67.61 0.0006601855    1.273    0.215
        11 -10.0887     46.5493    249.0949   1.4411338060e+02   1.7696329233e+01    0.3117461    0.1602076  84.20  0.001330602    1.868    0.465
        12 -10.5910     28.8981    249.0383   1.4703203824e+02   1.9875333282e+01    0.3190682    0.1957151 -68.05  0.001528223    1.749    0.428
        13 -11.7818     35.5722    245.2770   1.4568144137e+02   1.9789793042e+01    0.4545822    0.4094129 -55.82  0.003472286    1.790    0.441
        14 -10.1474     31.3297    242.7861   1.4621776543e+02   2.0774943111e+01    0.3195846    0.1299071  57.02  0.001750321    2.013    0.503
        15 -11.7953      6.1537    249.3611   1.5063626580e+02   2.2334395075e+01    0.9565271    0.2956024  43.07  0.004073929    2.702    0.630
        16 -12.3693     11.2052    240.3856   1.4935696311e+02   2.3489123476e+01    0.8197845    0.3676213  60.66  0.005018732    1.767    0.434
        17 -11.4205    237.5750    248.1492   1.0866756970e+02  -1.2438325332e+01    0.3999199    0.1507444  34.29  0.001829102    2.376    0.579
        18 -10.3762    198.7963    246.3918   1.1549493173e+02  -6.1104345200e+00    0.1871129     0.101169  32.30 0.0009576831    1.678    0.404
        19 -10.5200     18.5018    241.9265   1.4827272306e+02   2.2406967080e+01    0.2076736    0.1318037  56.54 0.0008793135    1.331    0.249
        20 -10.4035    234.8046    239.4431   1.0769464518e+02  -1.0881238396e+01    0.1995468    0.1463661 -57.45  0.001139484    2.329    0.571
        21  -9.4642    185.9824    239.4782   1.1684336499e+02  -2.8965928637e+00    0.1790559    0.1010785  58.23 0.0005737513    2.439    0.590
        22 -10.3736     50.5678    235.6431   1.4235287344e+02   1.9777705234e+01    0.2564677    0.1574799  70.56 0.0006912232    1.359    0.264
        23  -9.4686     22.3453    236.3653   1.4728827813e+02   2.3053412098e+01    0.1462073    0.1211381 -67.19  0.001097368    1.615    0.381
        24 -11.5103    245.8717    247.2192   1.0704537776e+02  -1.3525612013e+01    0.4536215      0.30882   2.34  0.002891307    1.402    0.287
        25  -9.7864    150.7834    229.5942   1.2225626171e+02   5.0069765432e+00    0.2026727    0.1099095  50.47 0.0009584901    1.705    0.413
        26 -10.3936      5.2412    228.6072   1.4964335444e+02   2.6383902589e+01    0.1828158    0.1641654 -45.96  0.001146037    1.916    0.478
        27  -9.0759    126.8049    225.3790   1.2649442978e+02   1.0062187588e+01    0.1828911    0.1172497  36.63  0.000503862    1.581    0.368
        28  -9.1351      5.2865    224.3245   1.4938311818e+02   2.7226517616e+01   0.09746824   0.07210476 -66.73 0.0002666368    1.604    0.377
        29 -10.0954     79.2836    218.9324   1.3527869820e+02   1.9171190553e+01    0.2335758     0.150994  59.13  0.000835933    1.362    0.266
        30 -10.1345      6.8880    214.9380   1.4852606610e+02   2.8963098326e+01    0.1779415    0.1560428  62.40 0.0006953012    1.424    0.298
        31 -12.5128      9.7461    207.0954   1.4749075458e+02   3.0307044987e+01    0.6507809    0.5509925  34.77  0.004011902    1.676    0.404
        32  -8.6023    152.5519    212.9880   1.1928081921e+02   7.8085066284e+00    0.1839323    0.1385401 -52.07 0.0003390777    1.460    0.315
        33 -10.1226    139.9998    230.5180   1.2455879404e+02   6.7590004808e+00    0.2168021    0.1165338  42.92  0.001044607    1.627    0.385
        34  -9.2588     34.6363    202.6086   1.4244446046e+02   2.8629403514e+01    0.1937008    0.1283766  49.46 0.0005728024    1.484    0.326
        35  -9.6923    194.4453    197.6562   1.0783665936e+02   2.7241326828e+00    0.6043376    0.3050969 -66.00  0.001394145    8.979    0.889
        36 -11.4112     59.4387    197.7374   1.3691520983e+02   2.6613917161e+01    0.2860033    0.2304306 -56.91 0.0005459104    1.451    0.311
        37 -11.6623     65.8795    189.4727   1.3454107049e+02   2.7599616633e+01    0.2843275    0.2296157 -63.54 0.0004393913    1.287    0.223
        38 -12.6074     32.2900    231.2119   1.4523120213e+02   2.2928948546e+01    0.2951242    0.2296382 -73.76 0.0007673646    1.414    0.293
        39 -10.6619     76.3425    176.8130   1.3045036784e+02   2.9025368770e+01    0.2420257    0.2110985 -77.02 0.0003913518    1.090    0.082
        40 -13.0258     62.9296    174.7668   1.3325989259e+02   3.1413833098e+01    0.5230823     0.281479 -46.28  0.001647479    2.289    0.563
        41  -9.5219     96.2827    172.8240   1.2513114621e+02   2.6805429502e+01    0.2477654    0.1937769  51.92  0.000615051    1.262    0.208
        42 -11.5747     83.8313    167.5805   1.2724110200e+02   3.0064882406e+01     0.680061    0.5481181 -62.38  0.003794496    1.189    0.159
        43 -13.6283     37.7303    224.0366   1.4370693792e+02   2.3733160467e+01    0.7302095    0.5438095  76.09  0.002374399    1.025    0.025
        44  -9.7555     96.8125    152.0189   1.2124509778e+02   3.1662167116e+01    0.2831236    0.2609493  64.40 0.0007651348    1.101    0.092
        45 -11.8542     85.3939    151.0243   1.2396776468e+02   3.3780214915e+01     0.303776    0.2495878 -45.55 0.0008420967    1.302    0.232
        46  -8.6473     99.9491    147.7570   1.1960341317e+02   3.2139694703e+01    0.1967165    0.1845664  87.27 0.0002907728    1.037    0.036
        47 -12.0828     67.4996    143.5522   1.2723978137e+02   3.8227376774e+01    0.6770478    0.4542976  71.87  0.002363726    1.804    0.446
        48  -9.5780    108.9763    137.1530   1.1502104781e+02   3.3032502306e+01    0.3841677    0.2664587 -16.62  0.001571671    2.362    0.577
        49 -10.2419     96.1381    134.3086   1.1779866361e+02   3.6004725544e+01    0.2644719    0.2224612 -41.22 0.0004732747    1.238    0.192
        50  -9.8988     77.6420    130.3495   1.2198340822e+02   3.9924033877e+01    0.2904348    0.2154211  70.29 0.0006026406    1.611    0.379
        51 -10.5520     29.9585    130.7470   1.3503139023e+02   4.5581681955e+01    0.2519589     0.202225  55.83 0.0008048578    1.409    0.290
        52 -11.7724     21.4714    126.1342   1.3659724581e+02   4.7390569150e+01    0.4618717    0.2526793  50.57  0.001309696    2.212    0.548
        53  -8.8179    106.2911    123.7437   1.1265972788e+02   3.6667995112e+01    0.1842616    0.1666255 -19.95 0.0002880622    1.238    0.192
        54 -10.2209    167.8908    112.9399   9.4543624378e+01   2.5805085620e+01     0.326818    0.2737512 -80.07 0.0005717956    1.347    0.257
        55 -10.5229    228.9536    228.8554   1.0691917899e+02  -8.4872701991e+00    0.4320028    0.2684175 -60.24  0.001955791    3.408    0.707
        56  -9.8942    242.9892     93.4808   7.6126585689e+01   1.2089583136e+01    0.1975899    0.1186005 -88.87 0.0008102718    2.581    0.613
        57  -8.3461     66.4710     82.4017   1.1379377605e+02   5.2258193494e+01     0.129719    0.1213284 -43.35 0.0002434341    1.117    0.104
        58  -9.1517    158.0449     77.0031   8.6964271646e+01   3.5124992805e+01    0.1846676    0.1745797  63.39 0.0005239662    1.029    0.028
        59 -11.5036      9.7240    228.1685   1.4887530541e+02   2.6017779430e+01    0.3699405    0.1832767 -76.17  0.002314018    1.679    0.404
        60 -11.7852      2.5352     62.0039   1.3071901810e+02   6.2389394578e+01    0.5080282    0.1777536 -65.37   0.00231998    2.895    0.655
        61 -11.8457     10.0626     53.2696   1.2572290157e+02   6.3608976108e+01    0.4519056    0.2293904  36.73   0.00257992    2.706    0.630
        62 -11.7002      2.7793     37.8126   1.2424132637e+02   6.6811695694e+01    0.3860324    0.1783522 -57.41  0.002209765    2.084    0.520
        63  -9.4000    218.9843    249.6575   1.1227078908e+02  -9.8152306458e+00    0.1925558   0.08915461  54.60 0.0007051103    4.422    0.774
        64 -10.4234    163.2786    249.4088   1.2269634124e+02  -5.7094293608e-01    0.2452373    0.1411432  48.07  0.001304311    1.517    0.341
        65 -11.0776    100.5176    245.4942   1.3414226434e+02   1.0612138288e+01    0.4485288    0.2054685 -57.91  0.002238368    2.441    0.590
