#   1 NUMBER                 Running object number                                     
#   2 MAG_AUTO               Kron-like elliptical aperture magnitude                    [mag]
#   3 X_IMAGE                Object position along x                                    [pixel]
#   4 Y_IMAGE                Object position along y                                    [pixel]
#   5 X_WORLD                Barycenter position along world x axis                     [deg]
#   6 Y_WORLD                Barycenter position along world y axis                     [deg]
#   7 A_WORLD                Profile RMS along major axis (world units)                 [deg]
#   8 B_WORLD                Profile RMS along minor axis (world units)                 [deg]
#   9 THETA_WORLD            Position angle (CCW/world-x)                               [deg]
#  10 FWHM_WORLD             FWHM assuming a gaussian core                              [deg]
#  11 ELONGATION             A_IMAGE/B_IMAGE                                           
#  12 ELLIPTICITY            1 - B_IMAGE/A_IMAGE                                       
         1 -14.7940     12.4967    160.6633   1.4553701312e+02   4.0407751018e+01     5.934827     1.844643 -86.63   0.02388325    3.449    0.710
         2 -13.0878    193.0332     28.7569   7.0433298773e+01   3.3663027364e+01     1.491218     1.058503  63.65   0.00681701    1.357    0.263
         3 -13.4793    205.8108     10.0892   6.3664882191e+01   3.2509467409e+01     1.641358     1.017641  43.47   0.00802384    1.934    0.483
         4 -11.7097      2.0000     12.5073   1.2219443207e+02   7.2803864453e+01    0.8031647     0.208515 -58.54    0.0028635    5.291    0.811
         5 -11.4312      2.5217      5.0164   1.1857588769e+02   7.4015026245e+01    0.4831365    0.2387709 -48.62  0.003005862    1.694    0.410
         6  -8.5775     33.7052      8.7163   1.0395526539e+02   7.0495934416e+01     0.116324   0.07481919  -7.38            0    1.540    0.351
         7 -10.4223     29.3620    249.6552   1.4794067882e+02   2.1409815955e+01    0.4651796    0.1393349  46.65  0.002634521    2.305    0.566
         8 -10.4390    139.4764    250.2036   1.2960490095e+02   6.2988206541e+00    0.2932493    0.1211676  45.65  0.001528466    1.858    0.462
         9  -9.9243    121.2789    249.6474   1.3270192686e+02   9.1777548351e+00    0.1884312    0.1323081 -88.00  0.001253279    1.724    0.420
        10 -10.1674     97.9899    249.5226   1.3669564747e+02   1.2642442983e+01    0.1852221    0.1604598 -51.98   0.00140228    1.681    0.405
        11  -9.9571     33.6233    248.2101   1.4720243423e+02   2.1174438523e+01    0.3011169    0.1710782  66.03  0.002185662    1.262    0.208
        12 -10.2166     35.0130    243.8856   1.4675257615e+02   2.1748788246e+01    0.3423875    0.2251411  73.26  0.002623598    1.113    0.101
        13  -9.9526      1.9118    249.1635   1.5206599684e+02   2.4339819479e+01    0.3123005    0.1561915 -79.05  0.002301295    1.851    0.460
        14 -10.2005      5.5017    248.4654   1.5151107295e+02   2.4105294925e+01    0.3010753   0.05903229  51.19   0.00159588    2.833    0.647
        15 -10.0270    198.8225    246.0217   1.1880854116e+02  -2.4869387744e+00    0.1616035     0.133613  83.21  0.001083515    1.996    0.499
        16 -10.1807    129.0175    244.8248   1.3084646940e+02   8.7226994579e+00    0.2022502    0.1043437  59.01   0.00108518    1.974    0.494
        17 -10.2682      1.5583    240.2660   1.5179971995e+02   2.5870956091e+01    0.3335556    0.1107235 -78.80  0.001982297    2.591    0.614
        18 -10.3302      5.7339    240.9356   1.5119096561e+02   2.5352585964e+01    0.1759763    0.1485415  39.87 0.0003324653    1.785    0.440
        19  -9.2789     11.9405    240.7931   1.5023280862e+02   2.4759366602e+01    0.1728637    0.1267605  38.34  0.001050577    1.789    0.441
        20  -8.4861     70.9880    238.9880   1.4045133984e+02   1.8141900525e+01    0.1373935    0.1020333  67.76 0.0009949628    1.036    0.035
        21  -9.1693    183.4480    238.5122   1.2042815016e+02   9.0709137023e-01    0.1193675   0.09518685  35.15 3.444394e-05    1.017    0.017
        22  -9.1132     24.6150    238.1058   1.4811469095e+02   2.3899692871e+01     0.170926   0.09965524  61.81 0.0004981746    1.221    0.181
        23 -10.2478    232.9165    235.8093   1.1155521531e+02  -6.5179103425e+00    0.2533697    0.1818194 -64.62  0.001361239    3.554    0.719
        24 -14.0409      9.8756    206.2597   1.4895050153e+02   3.1262348272e+01     9.274539          nan  41.97   0.03266269    6.162    0.838
        25 -10.0365    249.3629    248.6533   1.1087007327e+02  -1.0214041163e+01    0.2187783    0.1232918 -17.11  0.001413962    1.903    0.475
        26  -9.8465    229.7504    230.2537   1.1120620471e+02  -5.4066389798e+00    0.2339819    0.1503083 -47.62  0.001379693    2.380    0.580
        27 -10.3711    173.6198    222.5099   1.1991326028e+02   4.7974950215e+00     0.344593    0.2620008  62.77  0.002117566    1.511    0.338
        28  -9.8852    140.8377    230.3657   1.2703524185e+02   9.0863506502e+00    0.1804232   0.09769989  36.26 0.0007337951    1.761    0.432
        29  -8.7200     94.3429    216.6784   1.3417439457e+02   1.8821809533e+01    0.1974711    0.1139728  68.12 0.0007478626    1.768    0.434
        30 -10.0585    150.6140    229.2599   1.2509432840e+02   7.6471387043e+00    0.2426997    0.1230758  49.99  0.001260711    1.716    0.417
        31  -8.4430    152.4609    212.9565   1.2250257496e+02   9.9591031338e+00    0.1594082    0.1279184 -54.29 0.0003784103    1.459    0.315
        32 -11.5738     19.6651    199.4422   1.4680402988e+02   3.1640159996e+01    0.3477538    0.1569826  56.16  0.001084361    1.811    0.448
        33 -12.3737     39.1139    233.0948   1.4546165291e+02   2.3160468652e+01    0.2648463    0.2140255 -85.26 0.0007753729    1.381    0.276
        34  -9.7402    194.3383    197.8539   1.1206887652e+02   4.9061397285e+00    0.3823723    0.1937107 -58.69  0.001448039    4.044    0.753
        35  -9.1348    191.9976    193.0430   1.1165809179e+02   6.0915789487e+00    0.2774761    0.1840975 -67.39  0.001293591    2.634    0.620
        36 -11.1853     64.6573    198.5491   1.3809903329e+02   2.6573603468e+01    0.3097028    0.2303179 -48.80  0.001345865    1.881    0.468
        37  -8.6609     50.8696    196.8284   1.4066471504e+02   2.8688510639e+01    0.1619921    0.1058597  66.56 0.0003506843    1.269    0.212
        38 -10.2285     41.4030    193.2672   1.4222146545e+02   3.0545941924e+01    0.4867288    0.1614463  66.02  0.001728924    4.619    0.784
        39 -11.4911     70.3399    190.6462   1.3613460597e+02   2.7426899137e+01    0.2529706    0.2235212 -75.20 0.0004563472    1.289    0.224
        40 -10.5687     79.8021    177.9022   1.3262338118e+02   2.8783301886e+01    0.2314078    0.1958294 -79.53 0.0003705334    1.153    0.133
        41 -12.9646     66.9103    175.9078   1.3519464353e+02   3.1033692922e+01    0.4519841    0.2634314 -48.40  0.001585614    2.222    0.550
        42  -8.4308    102.0183    178.4750   1.2783647593e+02   2.5207441467e+01    0.1876425    0.1201126  47.93 0.0004061829    1.445    0.308
        43 -11.6223     87.3697    168.1259   1.2960607498e+02   2.9779236355e+01     0.662356    0.5771381  57.73  0.004099585    1.154    0.133
        44 -14.1803     44.9938    225.3291   1.4395815049e+02   2.3873982758e+01     1.602179     1.404225  24.11  0.006144904    1.853    0.460
        45  -9.8154    187.7199    151.0978   1.0417993906e+02   1.4190948608e+01     0.429748    0.2935987 -80.65  0.001753922    2.671    0.626
        46  -9.6336     99.1900    152.3818   1.2433417301e+02   3.1397392437e+01    0.2687703    0.2352674 -79.44 0.0007858356    1.069    0.064
        47 -11.8287     88.0017    151.6459   1.2691344831e+02   3.3383428988e+01     0.275259    0.2487153 -50.31 0.0005772978    1.285    0.222
        48 -12.2652     67.0172    143.9471   1.3085927126e+02   3.8237761342e+01    0.7550257    0.4877278  79.01  0.003876462    1.705    0.414
        49  -8.8318    102.0984    148.1402   1.2287480606e+02   3.1864008407e+01    0.2030649    0.1888863 -38.47 0.0005054743    1.284    0.221
        50  -8.6753    182.5316    145.7375   1.0405088589e+02   1.6295404934e+01    0.1902605    0.1413473 -53.67 0.0007677348    1.483    0.326
        51 -11.0264     29.6620    145.0706   1.4019416137e+02   4.2313675201e+01    0.2944872    0.1687347  38.69  0.001294834    1.900    0.474
        52  -8.4319    192.0008    144.0010   1.0174627532e+02   1.4587503897e+01    0.1734342    0.1628483 -26.45 0.0003765044    1.067    0.063
        53  -9.4876    110.4594    137.0762   1.1866943815e+02   3.2896793713e+01    0.3464454    0.2420326 -27.56  0.001422306    2.093    0.522
        54 -11.2149     58.1050    133.5217   1.3151621930e+02   4.1839753289e+01     0.798921    0.2670107 -74.79  0.002339439    5.008    0.800
        55 -10.8155     96.5983    134.4511   1.2165688481e+02   3.5941166497e+01    0.4348032    0.2483316  45.00  0.001409781    1.785    0.440
        56  -9.3557      8.0282    225.9819   1.5021015369e+02   2.7757104103e+01     0.146315    0.1362076 -24.89 0.0006655669    2.083    0.520
        57  -9.0593    160.7463    125.6677   1.0404121437e+02   2.5047792093e+01    0.2745678    0.1911169 -70.45   0.00105613    1.920    0.479
        58  -9.1442    107.2028    124.0642   1.1672309164e+02   3.6464648265e+01      0.19964    0.1862142 -45.31 0.0003141157    1.146    0.128
        59  -9.7114     85.1066    135.5117   1.2482297678e+02   3.7565793316e+01    0.3097542    0.1993269  67.12  0.001473683    1.818    0.450
        60 -10.4279    167.9104    113.0838   9.9290249055e+01   2.5961557084e+01    0.3604213     0.299993 -81.64 0.0006644325    1.415    0.293
        61  -9.0490    203.4693    111.0495   9.1608859140e+01   1.8042948313e+01    0.2340439    0.1456293 -33.96  0.001022091    1.579    0.367
        62 -10.3435      3.5992    228.0871   1.5100975654e+02   2.7804995477e+01    0.2635607    0.1308499  61.57   0.00184924    1.438    0.305
        63  -9.6721     73.7670     86.6053   1.1720078363e+02   5.0621678055e+01    0.3143522    0.2090352  61.06 0.0009814637    2.005    0.501
        64  -8.3343    184.3810     77.2883   8.6063731193e+01   2.8665418654e+01    0.1613557    0.1185464  25.28 0.0007015542    1.739    0.425
        65 -11.3788     10.3447     64.1474   1.3373402380e+02   6.2197931244e+01    0.3519181    0.2149712  34.69  0.000766531    2.053    0.513
        66 -10.3312     29.5905     61.0185   1.2569769128e+02   6.1446787227e+01    0.3057173    0.1760457  37.67 0.0008483402    2.128    0.530
        67  -9.8261    109.5525    250.7263   1.3482728281e+02   1.0768022333e+01    0.3063107    0.0629271  45.66  0.001193426    3.473    0.712
        68  -9.3638     81.7063    248.5937   1.3938000259e+02   1.5080937309e+01     0.251518    0.1168671  70.11  0.001319583    2.491    0.599
        69  -9.2350     46.3547    248.5367   1.4519869318e+02   1.9637640533e+01    0.2976148    0.1178558  70.74  0.001379476    2.601    0.615
        70  -9.2927    151.6948    248.3097   1.2726223053e+02   4.6545097062e+00    0.1142241   0.07707657  62.96 0.0002335671    1.611    0.379
