#   1 NUMBER                 Running object number                                     
#   2 MAG_AUTO               Kron-like elliptical aperture magnitude                    [mag]
#   3 X_IMAGE                Object position along x                                    [pixel]
#   4 Y_IMAGE                Object position along y                                    [pixel]
#   5 X_WORLD                Barycenter position along world x axis                     [deg]
#   6 Y_WORLD                Barycenter position along world y axis                     [deg]
#   7 A_WORLD                Profile RMS along major axis (world units)                 [deg]
#   8 B_WORLD                Profile RMS along minor axis (world units)                 [deg]
#   9 THETA_WORLD            Position angle (CCW/world-x)                               [deg]
#  10 FWHM_WORLD             FWHM assuming a gaussian core                              [deg]
#  11 ELONGATION             A_IMAGE/B_IMAGE                                           
#  12 ELLIPTICITY            1 - B_IMAGE/A_IMAGE                                       
         1 -13.9505    227.4353     26.5236   3.5740729527e+02   2.6388697945e+01    0.9119815    0.8371614  -2.14  0.005085335    1.418    0.295
         2 -12.5139     33.1200     15.4616   3.4875144322e+01   7.2838054441e+01    0.4200119    0.2744409   6.47  0.002101646    1.953    0.488
         3 -11.5167    227.3141      9.5745   3.5345493684e+02   2.8224091340e+01    0.2417847     0.197823 -62.77 0.0007336846    1.099    0.090
         4 -11.5019     39.5099      2.0735   2.1837610176e+01   7.3538757513e+01     0.454116    0.1095719  45.16  0.001559387    3.706    0.730
         5 -10.3943     59.9775      2.0000   1.3074578464e+01   6.9175283059e+01    0.2235875   0.07016899  61.34 0.0008101881    2.996    0.666
         6  -9.3320     50.3486    200.3640   7.1885112462e+01   2.6023729493e+01    0.1715211   0.09826274  40.56 0.0002480292    1.468    0.319
         7 -14.3093    120.6270    234.9713   5.9427831830e+01   1.0727156137e+01     4.529732     3.881696  85.35   0.03168013    1.581    0.367
         8  -9.9093    210.8977    198.6514   3.6742718674e+01   4.4652035413e+00    0.1957334     0.149012 -24.34   0.00045307    1.230    0.187
         9  -9.7020    193.2957    195.2819   3.9277657173e+01   7.2736512410e+00    0.2194718    0.1481706 -57.50  0.001168395    2.527    0.604
        10 -10.9877     69.2038    194.6149   6.6686282421e+01   2.5019697759e+01    0.2552447    0.2063791  77.34  0.000860958    1.266    0.210
        11 -11.8580     15.6665    249.7596   8.2192311564e+01   1.9830152981e+01    0.1761608     0.122264  30.24 0.0007609698    1.352    0.260
        12  -9.6408     46.1748    190.1369   7.2072784616e+01   2.8755075863e+01    0.2050636    0.1223984  61.52 0.0006239221    1.619    0.382
        13  -9.1804    237.5433    188.4503   3.0709554338e+01   2.5196126300e+00     0.113907   0.08744653 -11.12 0.0001786788    1.041    0.039
        14  -9.1875     72.1368    186.3634   6.5036092453e+01   2.6463333291e+01    0.3610466    0.1567824  56.44  0.001386082    2.896    0.655
        15  -9.9841     40.3025    185.7824   7.3220001217e+01   3.0391353918e+01     0.306942    0.1977458 -17.56 0.0009208109    2.567    0.610
        16  -8.8421     78.2925    184.2921   6.3206819285e+01   2.6109367485e+01     0.127796    0.1041964 -19.66 0.0002728482    1.552    0.355
        17 -10.4129     97.2256    182.0033   5.8077355494e+01   2.3947508432e+01    0.3562942    0.1678753 -56.66  0.001555565    2.239    0.553
        18  -9.9804     94.9209    176.1022   5.7810638187e+01   2.5582361689e+01    0.2906694    0.1996961 -67.90  0.001478779    1.615    0.381
        19 -19.2329     10.5393    165.4091   7.9785780612e+01   3.8053600087e+01     17.20141     3.105291 -82.87   0.04740152    5.942    0.832
        20  -9.4417     62.9421    180.6972   6.6791162476e+01   2.8929986117e+01    0.1829407    0.1567822  52.02  0.001086198    1.046    0.044
        21 -10.1957     53.2590    231.0310   7.3494053653e+01   1.9500827585e+01    0.2551123    0.1329689 -70.66 0.0009741558    2.180    0.541
        22 -11.9528    172.5103    174.0702   3.9498265030e+01   1.3745964521e+01    0.5925113    0.4144495 -14.50  0.001523235    1.544    0.352
        23 -11.3777    179.7123    168.0936   3.6945583009e+01   1.3640978902e+01    0.5906848    0.3892607 -46.59  0.003154888    1.647    0.393
        24 -10.8521    110.8077    167.2279   5.2326092577e+01   2.5094661447e+01    0.3788916    0.2638164 -76.46  0.001342266    1.867    0.464
        25 -11.5562    105.0044    171.8516   5.4568881028e+01   2.4993799207e+01    0.3462157    0.3035767 -77.90   0.00197923    1.255    0.203
        26 -10.4956     47.0812    229.0511   7.4709999672e+01   2.0542383459e+01    0.1904205     0.127114  49.17  0.001212198    1.207    0.172
        27 -12.6212     91.5464    144.3131   5.3465523042e+01   3.3531176605e+01    0.8389295    0.5948608 -18.83  0.002763927    2.005    0.501
        28 -12.1609     89.0673    151.5236   5.5471247958e+01   3.2182801992e+01      0.36957    0.2908647  71.64 0.0008005445    1.413    0.293
        29 -11.2753    133.5514    144.8158   4.2341677454e+01   2.6072160424e+01       1.0837    0.2638041 -53.49  0.002601685    6.119    0.837
        30 -11.2695    108.8589    145.2474   4.8800610878e+01   3.0389003847e+01    0.3184226    0.3015546 -50.82 0.0006710379    1.069    0.064
        31 -10.9947     85.4910    149.4475   5.6134828217e+01   3.3244875528e+01    0.2481004    0.2264678  86.19 9.596593e-05    1.101    0.092
        32 -10.6511     98.1526    138.8984   5.0516953237e+01   3.3736869511e+01    0.2277243    0.2003866  76.29 0.0004530691    1.215    0.177
        33 -11.4707     91.9938    155.0758   5.5260594220e+01   3.0872640327e+01    0.2607153    0.2378656 -86.56  0.000456866    1.125    0.111
        34  -9.0707    128.0583    138.5516   4.2366190634e+01   2.8441238967e+01    0.2142261     0.143791  42.08 0.0003424954    1.498    0.332
        35 -11.7615    113.4892    172.0217   5.2454774717e+01   2.3626456312e+01    0.3388874    0.2898414  76.94  0.001895494    1.365    0.267
        36 -11.7711    105.4161    131.3535   4.6862376239e+01   3.4260859485e+01    0.5727677    0.3966838 -35.71  0.001543861    1.631    0.387
        37 -11.7217     92.6345    131.2264   5.0560521177e+01   3.6549344321e+01    0.2834044    0.2796948 -13.92 0.0003898058    1.072    0.067
        38 -10.6572    135.6279    128.1951   3.8137121828e+01   2.9247670540e+01    0.5406224    0.1403341 -50.23  0.001458087    4.372    0.771
        39 -11.3284    113.0836    125.1233   4.3303969154e+01   3.4298625463e+01    0.5341686    0.3039795 -40.62  0.002194896    1.871    0.466
        40 -10.3813    100.2840    120.7881   4.5964225019e+01   3.7728548275e+01    0.2740315    0.2364362   0.49 0.0005838138    1.375    0.273
        41 -11.0546     76.2363    120.4175   5.3419987563e+01   4.1999794549e+01    0.2892662    0.2409838 -87.01 0.0005467093    1.269    0.212
        42 -10.0804    108.7105    115.7636   4.2288425118e+01   3.7322644242e+01     0.251576    0.2270154 -20.16 0.0003124624    1.213    0.176
        43 -15.8856     63.6415    142.7182   6.1566425663e+01   3.8138139308e+01     4.378937     3.134131  85.95   0.02138799    1.532    0.347
        44 -11.3956    111.7649    105.4456   3.8750306827e+01   3.9100254598e+01    0.3859254    0.3045951  81.77  0.001199637    1.594    0.373
        45  -9.9321    134.4329    104.7862   3.2548297993e+01   3.4487251462e+01    0.3035746    0.1439109 -47.46  0.001138394    2.078    0.519
        46 -11.7298     65.4263    103.7983   5.3439003923e+01   4.7995213990e+01    0.4227418    0.2966624  60.25  0.001181306    1.643    0.391
        47 -10.5312     37.5153    224.8513   7.6554778537e+01   2.2353866964e+01    0.1779404    0.1448089  54.78 0.0005856834    1.043    0.041
        48  -8.9088     92.8219    100.3693   4.3122162748e+01   4.4060277263e+01    0.1961606    0.1492766  29.43 0.0002200047    1.455    0.313
        49  -9.1012    113.3124     94.6625   3.5303586605e+01   4.1199485276e+01    0.1606577    0.1236249 -85.06 0.0004692576    1.690    0.408
        50 -11.3815     51.6266     93.1896   5.6195079832e+01   5.2781003958e+01    0.4347461    0.2515515  46.13  0.001388531    1.872    0.466
        51 -11.5474     37.9587     88.1983   6.0732821351e+01   5.5823739418e+01    0.3895607    0.2552408   8.18  0.001798813    1.919    0.479
        52 -10.4176     44.9977     90.3064   5.8227772391e+01   5.4415369150e+01    0.2006841    0.1916835  36.08 0.0004872428    1.122    0.109
        53 -10.6167     89.1279    250.5808   6.7428877447e+01   1.2014648708e+01    0.1590325   0.08943379  30.65 9.731318e-05    1.410    0.291
        54 -11.1231     88.1425    220.7857   6.4909995800e+01   1.7323271867e+01    0.3674781    0.2885132   6.64  0.001957889    1.469    0.319
        55 -12.2187    181.1186     65.3323   1.2271393145e+01   3.1206767020e+01     0.441532    0.3622138 -47.37  0.000769269    1.094    0.086
        56 -13.5390    198.0570     53.4128   6.8097117381e+00   2.9181453873e+01     1.059552    0.8949502  36.40  0.003588085    1.482    0.325
        57 -12.3812    204.2370     47.9897   4.7064768843e+00   2.8577071800e+01    0.4700317    0.4692813  15.63  0.001620502    1.220    0.180
        58  -9.7849     69.3559     56.6348   3.7326271273e+01   5.8599490165e+01    0.2195533    0.1785525  86.90  0.001075513    1.614    0.381
        59  -9.7882     46.9596     56.6646   4.7329952049e+01   6.2483788699e+01    0.1981729    0.1832734  28.38 0.0005462766    1.135    0.119
        60  -8.8222     62.6762     45.2669   3.5388453282e+01   6.2195658214e+01    0.1381989    0.1157025  83.63 0.0002103473    1.566    0.361
        61  -9.1652     83.3933    223.4860   6.6235648404e+01   1.7409633696e+01    0.1197854    0.1036186  37.40 0.0001075996    1.049    0.047
        62  -9.8977     35.0277    244.2646   7.8096902194e+01   1.8970449156e+01    0.1898417    0.1260223  -8.75  0.001097414    2.617    0.618
        63 -10.1627     71.3363    222.8669   6.8873837479e+01   1.8987675443e+01    0.1634943    0.1371192 -64.94 0.0003436143    1.398    0.285
        64 -11.0813     60.0057     22.0057   2.4989109693e+01   6.6741381647e+01    0.3588991    0.2609245  15.23  0.001207544    1.600    0.375
        65  -9.8261     51.8329    243.3458   7.4583280184e+01   1.7406723809e+01    0.2022005   0.08726793  39.75  0.001106434    1.697    0.411
        66 -10.5414     50.0064     20.0063   2.8371593134e+01   6.9070267081e+01    0.1991708    0.1704871 -79.52 0.0004158036    1.620    0.383
        67  -9.3792    163.7793    237.2110   5.1124784386e+01   4.9944892578e+00    0.1545929    0.1112304   2.58 0.0003739736    1.294    0.227
