#   1 NUMBER                 Running object number                                     
#   2 MAG_AUTO               Kron-like elliptical aperture magnitude                    [mag]
#   3 X_IMAGE                Object position along x                                    [pixel]
#   4 Y_IMAGE                Object position along y                                    [pixel]
#   5 X_WORLD                Barycenter position along world x axis                     [deg]
#   6 Y_WORLD                Barycenter position along world y axis                     [deg]
#   7 A_WORLD                Profile RMS along major axis (world units)                 [deg]
#   8 B_WORLD                Profile RMS along minor axis (world units)                 [deg]
#   9 THETA_WORLD            Position angle (CCW/world-x)                               [deg]
#  10 FWHM_WORLD             FWHM assuming a gaussian core                              [deg]
#  11 ELONGATION             A_IMAGE/B_IMAGE                                           
#  12 ELLIPTICITY            1 - B_IMAGE/A_IMAGE                                       
         1 -13.9737      4.8229     52.9102   1.3233357165e+02   6.3229199622e+01     2.049238    0.4753822 -71.09  0.008025096    3.252    0.693
         2 -15.3041     13.1213    149.8029   1.3937719263e+02   4.1428225500e+01     11.05288     3.784817  73.42   0.04804377    3.514    0.715
         3 -13.3854    197.8615     30.8305   6.4695701275e+01   3.1612470626e+01     1.614658     1.271749  18.39  0.006813437    1.378    0.274
         4 -13.5245    214.2575     10.6184   5.6676836578e+01   2.9525549310e+01     1.229669    0.9088765  31.07  0.004331142    1.514    0.339
         5 -13.0619      2.7626      8.0834   1.2271694181e+02   7.2937585630e+01     1.542135    0.3703374 -60.56  0.006552794    2.958    0.662
         6  -9.7639     85.2931    246.6374   1.3186958502e+02   1.6955295765e+01    0.1064036   0.05733971  60.24 0.0007029366    1.705    0.413
         7 -12.2310    240.2533    248.0551   1.0570224621e+02  -4.3303721570e+00    0.4391344    0.2348798  29.39  0.003009061    1.285    0.222
         8 -11.2278    248.7642    248.6952   1.0444394442e+02  -5.4969852663e+00    0.3302207    0.2099596  10.96   0.00249392    1.231    0.188
         9 -11.0359     46.0197    248.6471   1.3842529402e+02   2.1056960633e+01    0.2692486    0.1346151  67.92  0.001416315    1.779    0.438
        10 -11.1868     29.1076    249.0000   1.4108543344e+02   2.2678544398e+01    0.2662306    0.1804631  64.92  0.002370359    1.112    0.101
        11 -12.4840     35.7061    244.7339   1.3988880029e+02   2.2661777249e+01    0.4618356    0.3450996  57.67  0.003603546    1.113    0.101
        12 -12.0204     17.2298    240.9450   1.4264015079e+02   2.4954197902e+01    0.3049425    0.1417367  50.51  0.001561279    1.457    0.314
        13 -12.8246     11.1043    239.1200   1.4352839093e+02   2.5764646978e+01    0.7964308    0.2326661  42.45  0.005141312    2.187    0.543
        14 -11.8315      3.8079    249.2771   1.4489204973e+02   2.4898125817e+01    0.5720123    0.3051729  60.02  0.003293844    1.245    0.197
        15  -9.9979     65.8260    249.4932   1.3527934254e+02   1.8812186419e+01    0.1792948    0.1134972  62.76 0.0005948285    1.306    0.234
        16 -10.1218    185.7882    239.1954   1.1362368465e+02   4.1588917918e+00    0.1657864    0.1100904  62.64 0.0007664228    2.787    0.641
        17 -11.5198     15.7567    249.1388   1.4311910140e+02   2.3886610353e+01     0.472866    0.1846239  47.81  0.003455376    1.660    0.397
        18 -11.3700    218.2360    249.1778   1.0942278139e+02  -1.4568447049e+00    0.3375146    0.1161382  41.33  0.001751018    2.343    0.573
        19 -11.7581     58.6219    197.7468   1.3317889788e+02   2.7879875114e+01    0.3014776    0.2130508 -74.96  0.000648964    1.483    0.326
        20 -12.5130     16.7144    123.7539   1.3666514096e+02   4.6679936540e+01     1.308268    0.1386032  44.05  0.004251291    6.282    0.841
        21 -10.5987    156.8528    249.2914   1.1982087184e+02   7.1525483374e+00    0.1795995    0.1043306  46.25  0.001193304    1.437    0.304
        22 -12.1145      6.5643    227.3479   1.4389255578e+02   2.7950104250e+01     0.336972     0.294736  11.58   0.00312458    1.875    0.467
        23  -9.2007    126.6660    225.3251   1.2266930130e+02   1.4558892243e+01    0.1162847   0.07217548  58.52 0.0007051158    1.713    0.416
        24 -10.7884     78.4993    218.0156   1.3095882672e+02   2.2096922292e+01    0.2878357    0.1192009  53.06  0.001571796    2.110    0.526
        25 -12.6506      9.5252    207.2837   1.4275668766e+02   3.0966035209e+01    0.6066941    0.4449049  25.89  0.003441829    1.758    0.431
        26 -10.3690      6.5413    215.0488   1.4352202389e+02   2.9919635284e+01    0.1781692    0.1135348  46.77 0.0005564145    1.308    0.236
        27 -12.7941     31.0347    230.9905   1.4006493970e+02   2.5191448583e+01    0.2449358    0.2169743  74.22 0.0007746748    1.351    0.260
        28  -8.7954    152.5165    212.9335   1.1632370000e+02   1.2488705923e+01    0.1385826    0.1210219 -42.01 0.0003681037    1.458    0.314
        29 -13.9132     36.5096    224.1344   1.3883649728e+02   2.5740848177e+01    0.6166354    0.4264044  57.18  0.002366243    1.053    0.051
        30  -9.3904     34.6306    202.7174   1.3807068402e+02   2.9505730185e+01     0.171821    0.1144027  44.69 0.0004839941    1.304    0.233
        31 -11.9615     65.1266    189.3100   1.3119533516e+02   2.8662286993e+01    0.2244306    0.2142856  89.84 0.0004732845    1.269    0.212
        32 -11.8525    124.6929    249.8594   1.2541172783e+02   1.1497888744e+01    0.6063676   0.09724313  38.80  0.002232517    4.408    0.773
        33  -9.7417    192.4013    193.7277   1.0580777200e+02   8.6825373078e+00    0.3811719    0.2192922 -62.01  0.001326057    6.387    0.843
        34 -13.2625     62.2485    174.5514   1.3047224749e+02   3.1790770083e+01    0.4328119    0.2490778 -46.79  0.001859514    2.336    0.572
        35 -10.9296     75.6464    176.5974   1.2776355754e+02   2.9776639957e+01    0.2110373    0.1844055  62.93 0.0003321657    1.039    0.038
        36  -9.8680     95.4345    172.0578   1.2286396842e+02   2.7999684413e+01    0.2898104     0.147496  43.06 0.0009038305    1.717    0.418
        37 -11.8253     83.3255    167.5241   1.2503495627e+02   3.0549603649e+01    0.5144897    0.4992886 -70.69  0.003667779    1.200    0.167
        38 -10.0067     96.4518    151.8619   1.1983900699e+02   3.1860103926e+01    0.2445528    0.2363771  54.52 0.0008246192    1.085    0.078
        39 -12.0227     84.9756    150.9188   1.2249368885e+02   3.3692914494e+01    0.2530921    0.2288792 -43.59 0.0005148026    1.277    0.217
        40  -9.0819     99.6578    147.7740   1.1842524198e+02   3.2219640079e+01    0.1853645    0.1555999 -40.47 0.0004707887    1.356    0.263
        41 -12.2299     67.5399    143.6706   1.2582781662e+02   3.7485877437e+01    0.6348922    0.3704528  59.70  0.003170884    1.837    0.456
        42  -9.7240    108.6773    137.0030   1.1433530028e+02   3.3032236480e+01    0.3442764     0.221315 -26.26  0.001533657    2.326    0.570
        43 -10.4916     95.7581    134.2772   1.1717780169e+02   3.5649779644e+01    0.2220824    0.2091576 -23.26    0.0003619    1.194    0.163
        44 -11.2040    229.3326    229.3233   1.0479597110e+02  -1.1370338782e+00    0.3521729    0.2642097 -57.87  0.002059504    3.602    0.722
        45  -9.9913     75.7777    128.9462   1.2158223573e+02   3.9648027945e+01    0.2220167    0.1729354  53.14 0.0003889916    1.275    0.215
        46  -9.1736    106.1152    123.7229   1.1246988985e+02   3.6264946499e+01    0.1832969    0.1670107  34.68 0.0002934103    1.094    0.086
        47 -10.3319    167.8740    112.8998   9.4433051211e+01   2.6339540542e+01    0.2944838    0.2735436  87.48 0.0005537724    1.352    0.260
        48  -9.4933    203.4851    111.9542   8.6667088186e+01   1.8701030942e+01    0.2184234    0.1404116 -28.87 0.0005209811    1.541    0.351
        49 -10.9676    243.2721     92.8407   7.5013886038e+01   1.2916090798e+01     0.337689     0.115925 -25.48  0.001210509    2.822    0.646
        50  -9.4095     64.4365     81.0194   1.1577656888e+02   5.1968884550e+01    0.2264824    0.1774216  53.28 0.0005736737    1.476    0.322
        51  -9.9847    158.7854     77.2244   8.6708335454e+01   3.4799939816e+01    0.2229516    0.1779885  14.26 0.0005749738    1.337    0.252
        52  -9.3471     56.9381     75.2702   1.1702924748e+02   5.4176690013e+01    0.1883446     0.168542  69.96 0.0005605206    1.287    0.223
        53  -9.5236     47.7091     69.9476   1.1911871619e+02   5.6386272092e+01    0.2148924    0.1793825  45.60 0.0006875544    1.389    0.280
        54 -12.1401     98.3573    245.9906   1.2960343731e+02   1.5435889016e+01    0.3852697    0.2370177  45.66  0.001948238    1.170    0.146
        55 -11.1118    198.6013    247.1005   1.1242694425e+02   1.4825840060e+00    0.2210142    0.1435195  48.44  0.001362995    1.784    0.439
