#   1 NUMBER                 Running object number                                     
#   2 MAG_AUTO               Kron-like elliptical aperture magnitude                    [mag]
#   3 X_IMAGE                Object position along x                                    [pixel]
#   4 Y_IMAGE                Object position along y                                    [pixel]
#   5 X_WORLD                Barycenter position along world x axis                     [deg]
#   6 Y_WORLD                Barycenter position along world y axis                     [deg]
#   7 A_WORLD                Profile RMS along major axis (world units)                 [deg]
#   8 B_WORLD                Profile RMS along minor axis (world units)                 [deg]
#   9 THETA_WORLD            Position angle (CCW/world-x)                               [deg]
#  10 FWHM_WORLD             FWHM assuming a gaussian core                              [deg]
#  11 ELONGATION             A_IMAGE/B_IMAGE                                           
#  12 ELLIPTICITY            1 - B_IMAGE/A_IMAGE                                       
         1 -12.1930    161.7352     46.7696   7.9894454841e+01   3.9129579887e+01     1.155489     1.012972  18.20  0.004631731    1.289    0.224
         2 -11.6051    174.1101     17.7431   6.9432955833e+01   3.9672330479e+01    0.8908221    0.6307232  84.89  0.004815212    1.414    0.293
         3  -9.1115    234.0039      8.3639   6.0267487220e+01   2.6277733629e+01    0.2977671    0.1660215 -40.04 0.0006980521    1.761    0.432
         4  -9.1592    119.9502      9.9421   7.6563741052e+01   5.3234893178e+01    0.4106289    0.2712376  32.04  0.002292665    1.481    0.325
         5  -9.1729    205.9209      3.3760   6.1822634236e+01   3.3397453503e+01    0.2076531    0.1593286 -58.61 0.0005848534    1.276    0.216
         6 -11.3353    176.6032     12.2308   6.7564041333e+01   3.9635120434e+01    0.6288145    0.3998351  85.37  0.002439347    1.606    0.377
         7 -10.0540     13.2339    240.6392   1.5040454399e+02   2.3593241761e+01    0.3331462    0.1673117 -82.47 0.0008121194    1.621    0.383
         8  -9.2082    165.5640    249.0150   1.2448922655e+02  -3.0520367128e-01    0.2934909    0.1797891  56.34 0.0006370295    1.663    0.399
         9 -14.1782    102.8397    243.9884   1.3546613676e+02   1.1046819983e+01     1.115448    0.5878574 -67.01  0.006051165    2.111    0.526
        10 -18.4907     69.7492    234.5623   1.4049612018e+02   1.7783616445e+01     4.836876     3.709182 -89.27   0.01214824    1.179    0.152
        11  -9.2689    137.6789    178.2798   1.1883362554e+02   1.8140838838e+01    0.3019896    0.2251439 -51.66 0.0007550159    1.392    0.281
        12  -9.3601    222.1146    178.3857   1.0114800870e+02   1.0707366162e+00    0.2696728    0.2029288 -43.16 0.0008440552    1.384    0.277
        13  -8.1135      1.4083    178.9951   1.4840482989e+02   3.7078568158e+01    0.1629794   0.08178388 -76.24 0.0003667117    1.503    0.335
        14  -8.6392    212.0182    177.6783   1.0294630340e+02   3.1734058276e+00    0.1963397    0.1830294  30.05  0.000536081    1.064    0.060
        15  -9.9510    204.6530    176.4874   1.0415293760e+02   4.8659666004e+00    0.3830079    0.3332359  42.69  0.001104951    1.141    0.124
        16  -9.2087    197.2466    177.4622   1.0584562812e+02   6.1857715876e+00    0.2748468    0.2490212 -73.17  0.001515224    1.290    0.225
        17 -10.0755    125.8826    172.6395   1.2046786231e+02   2.1660414058e+01     0.342008    0.3295713  36.11  0.001301782    1.174    0.148
        18  -8.4559    121.9687    172.4933   1.2134102996e+02   2.2431005846e+01    0.2740061    0.1968628 -88.12  0.000990217    1.659    0.397
        19  -9.7400    136.5636    171.3845   1.1778467116e+02   1.9872060420e+01      0.40343    0.3222225  40.19  0.002037401    1.282    0.220
        20  -9.3511    200.5831    168.4973   1.0328665544e+02   7.2059017526e+00    0.3215701    0.2669302  83.85  0.001631234    1.561    0.359
        21  -9.0651    204.0105    164.1529   1.0166189131e+02   7.3230448026e+00    0.7102066      0.26274 -46.19  0.002447737    2.865    0.651
        22 -10.7592    193.0021    165.6136   1.0421807758e+02   9.3537445731e+00    0.7746963    0.4603589 -58.35  0.002201185    2.187    0.543
        23  -8.5772    142.3719    157.7014   1.1369286841e+02   2.1745514523e+01    0.4009816    0.2392019  74.33  0.001416708    2.954    0.661
        24 -10.7096    147.5152    159.4721   1.1287156053e+02   2.0289787211e+01     0.686909    0.4427206 -69.54  0.002136907    2.007    0.502
        25  -8.8989    142.6390    154.1471   1.1287734942e+02   2.2484824122e+01    0.3145967     0.279554 -88.84 0.0006396755    1.167    0.143
        26 -14.7538     58.1130    213.1769   1.4058886593e+02   2.3670763817e+01    0.9862744    0.3978542  56.41  0.003431275    2.385    0.581
        27  -8.3862    158.9630    157.9472   1.0993162756e+02   1.8213654398e+01    0.2506944    0.1881983  86.08  0.001122696    1.753    0.429
        28  -9.6924    126.6063    249.0358   1.3169698030e+02   6.3013448551e+00    0.3704926    0.2063434  56.57  0.001172571    1.613    0.380
        29 -10.1808    175.4503    202.6175   1.1518318582e+02   5.7963998012e+00    0.2536084    0.2507821 -63.68 0.0004298987    1.107    0.097
        30 -11.1221    134.2177    147.4321   1.1343201253e+02   2.5730595877e+01     1.089582    0.4824784 -60.13  0.003640173    2.937    0.659
        31  -9.9960    131.9733    140.7090   1.1249010544e+02   2.7718968486e+01    0.4347528    0.3028975 -88.27  0.001828288    2.040    0.510
        32  -9.3595    141.7180    165.6731   1.1548116326e+02   2.0106492396e+01    0.3257768    0.2484861 -79.29 0.0006570076    1.534    0.348
        33  -9.5832    148.2171    151.5103   1.1100083206e+02   2.1906136813e+01    0.3480931    0.2905952  70.46  0.001150131    1.278    0.218
        34 -10.2278    144.0830    146.2991   1.1082142472e+02   2.3940650091e+01    0.4320236    0.3118743 -82.80  0.001883037    1.842    0.457
        35  -8.6856     26.8554    146.8209   1.3982910079e+02   4.1975987728e+01    0.2184327    0.1662808 -71.44  0.001101238    1.078    0.072
        36  -8.0098      7.2943    149.9832   1.4465032835e+02   4.2921852269e+01    0.1697927    0.1140095 -77.16 0.0009430016    1.121    0.108
        37  -7.3672     12.2721    145.3168   1.4303757798e+02   4.3572281600e+01    0.1155599   0.07187677 -54.15 0.0005429914    1.561    0.360
        38  -7.8902     15.5517    143.2458   1.4204566797e+02   4.3772873718e+01    0.1641755    0.0858956 -62.74  0.000396637    1.520    0.342
        39  -8.5490     17.4356    148.6321   1.4222811128e+02   4.2404190498e+01    0.1768865     0.141091  32.27 0.0007303873    1.610    0.379
        40 -10.1882    172.2076    196.7301   1.1478239708e+02   7.5373195226e+00    0.4583054    0.3321079 -73.23  0.001166227    1.880    0.468
        41  -8.4672    186.8673    139.5718   9.9631505833e+01   1.5946207435e+01    0.2481743    0.2059643 -31.41 0.0004284279    1.255    0.203
        42 -10.1179    232.9072    132.1938   8.9034060046e+01   7.2190653089e+00    0.2700562    0.2421263  58.70 0.0004687945    1.214    0.177
        43  -9.2964    153.0287    201.5097   1.1963971127e+02   1.0336369522e+01    0.4706607    0.2615568 -65.20  0.001599585    2.478    0.596
        44  -9.6398    121.7500    128.1480   1.1215924115e+02   3.2645453073e+01     0.261702    0.2326218  16.91 0.0009708271    1.311    0.237
        45  -9.6091    110.6335    123.7610   1.1401381253e+02   3.5794337957e+01     0.377884    0.2633334 -45.58  0.000494403    1.400    0.285
        46 -10.1201    156.3915    192.0372   1.1725942362e+02   1.1573572016e+01    0.7520723    0.4210231 -74.55  0.002485496    3.671    0.728
        47  -8.7501    175.6068    232.7394   1.2019378814e+02   5.1827769940e-01    0.1598495    0.1260516 -61.94 0.0006552614    1.592    0.372
        48  -8.9068    128.5554    190.4022   1.2299628705e+02   1.7263380828e+01    0.3199311    0.2307849  75.58  0.001130665    1.571    0.364
        49  -8.5681    114.9745    118.4456   1.1158550693e+02   3.6175494230e+01    0.2394867    0.1970327 -50.92 0.0005650983    1.166    0.142
        50  -9.7682    139.9280    229.2677   1.2661485206e+02   7.4903660219e+00    0.3781968    0.3013799 -66.94  0.002293558    1.414    0.293
        51  -9.7203    175.7970    187.1793   1.1223185490e+02   8.6698858729e+00    0.3447709    0.2427614 -75.79  0.001142164    2.091    0.522
        52  -9.1958     10.0513    222.7274   1.4985797074e+02   2.7330119863e+01    0.2268867    0.1129721 -80.33 0.0008280692    1.601    0.375
        53  -7.9020    128.2786    114.6387   1.0715710406e+02   3.4348898692e+01    0.1576159    0.1205922 -81.21 0.0007011459    1.668    0.401
        54  -8.6073    250.5866    113.1835   8.1824030283e+01   6.9050692247e+00    0.2020709    0.1256207 -38.43 0.0003599334    1.452    0.311
        55  -8.6665    236.4327    113.1502   8.4041990615e+01   9.9077352472e+00    0.2291151    0.1787907  65.34 0.0006416381    1.423    0.297
        56  -9.0792    100.9182    112.8713   1.1400631123e+02   4.0045245050e+01    0.2276842     0.196149 -30.14 0.0007922178    1.230    0.187
        57 -10.3436    111.3156    107.8304   1.0988547954e+02   3.9245429987e+01    0.3639987    0.2478024  50.47  0.001132538    1.580    0.367
        58 -10.5457    111.2690    185.3256   1.2596758526e+02   2.1505206963e+01    0.6842888    0.3876352  66.97  0.002808554    2.260    0.557
        59 -11.4416     11.7287    207.0077   1.4854998463e+02   3.0299638960e+01    0.5237002    0.3575726  44.86  0.003668731    1.625    0.385
        60  -8.2565     52.0218    104.9804   1.2620164488e+02   4.8977639256e+01     0.151302    0.1405803 -50.63 0.0004062706    1.094    0.086
        61  -9.4257    215.6511    186.7556   1.0409618485e+02   8.5382606251e-01    0.2656777    0.1602584  33.22 0.0009519623    1.695    0.410
        62  -8.2562     66.4777    100.5028   1.2089484940e+02   4.8186909236e+01    0.1362901    0.1196087 -48.37 8.369506e-05    1.005    0.005
        63  -9.6889    195.6889    183.1057   1.0731335515e+02   5.4393632562e+00    0.3241175    0.2688064 -19.30  0.001737087    1.308    0.235
        64 -10.7937    114.4645    179.1876   1.2423383113e+02   2.2303918347e+01     0.503975    0.2950658  73.19  0.002043683    2.472    0.596
        65  -7.9912    103.8063     80.7662   1.0445650520e+02   4.6322147943e+01    0.1899933    0.1696279 -73.68 0.0004403657    1.331    0.249
        66  -8.9411    151.0491     72.4947   8.9781562105e+01   3.7648856570e+01    0.2266564    0.2020988 -37.92 0.0003476775    1.145    0.126
        67  -7.9439     37.9762     71.2206   1.2264657783e+02   5.7626609194e+01    0.1399729   0.09967253  21.52 0.0003540562    1.619    0.382
        68  -8.6416    188.1423     69.6236   8.1425427442e+01   2.9023697905e+01    0.2255035    0.1940231 -57.59 0.0003380344    1.159    0.137
        69 -11.5493    150.3896     61.6006   8.6679800485e+01   3.9640309164e+01    0.7901338    0.6300297  -4.34  0.001990691    1.515    0.340
        70  -9.7273    243.7086     57.2235   7.0056419431e+01   1.7605454874e+01    0.2542491    0.2196179  78.02 0.0004421653    1.173    0.147
        71  -8.6049    129.0927     56.9762   9.0220612248e+01   4.5318721454e+01    0.2109082     0.199505  33.16 0.0003298521    1.018    0.018
        72  -8.9819    164.8757    180.9653   1.1335048740e+02   1.2125657601e+01    0.3561592    0.2380796 -60.56  0.001176908    1.742    0.426
        73 -10.7247    166.0459     37.9862   7.6513997940e+01   3.9261816723e+01    0.4650292    0.4017424  56.68  0.001026135    1.083    0.077
        74  -7.5718    185.6003     42.7836   7.4560312995e+01   3.3744149611e+01    0.1462203   0.09704479  44.32 0.0006847838    1.636    0.389
        75 -10.2242    139.7031     33.6493   8.0287695588e+01   4.6184249027e+01    0.2435054    0.2148661  36.14  0.000278923    1.089    0.082
        76  -8.5269    247.9089     52.8385   6.8580575815e+01   1.7314333392e+01    0.1880751    0.1819733  79.98 0.0002566461    1.242    0.195
        77 -10.2294    169.9221    241.3791   1.2258282584e+02   1.3494719349e-01    0.3890765    0.2469519  32.12  0.000781245    1.546    0.353
        78 -10.1131      6.2512    233.7481   1.5110524062e+02   2.5600826015e+01    0.2993458    0.1838021  68.49   0.00185517    1.205    0.170
        79  -8.1883    151.1516    239.5515   1.2588535040e+02   3.7190706622e+00    0.2164994    0.1637368  27.46  0.001181232    1.483    0.326
        80  -9.7398    140.9419    181.4481   1.1869047960e+02   1.6818213660e+01    0.4210151     0.301562  85.53 0.0008677072    1.804    0.446
