#   1 NUMBER                 Running object number                                     
#   2 MAG_AUTO               Kron-like elliptical aperture magnitude                    [mag]
#   3 X_IMAGE                Object position along x                                    [pixel]
#   4 Y_IMAGE                Object position along y                                    [pixel]
#   5 X_WORLD                Barycenter position along world x axis                     [deg]
#   6 Y_WORLD                Barycenter position along world y axis                     [deg]
#   7 A_WORLD                Profile RMS along major axis (world units)                 [deg]
#   8 B_WORLD                Profile RMS along minor axis (world units)                 [deg]
#   9 THETA_WORLD            Position angle (CCW/world-x)                               [deg]
#  10 FWHM_WORLD             FWHM assuming a gaussian core                              [deg]
#  11 ELONGATION             A_IMAGE/B_IMAGE                                           
#  12 ELLIPTICITY            1 - B_IMAGE/A_IMAGE                                       
         1 -12.4806    119.8909     37.6780   4.2531795804e+01   4.9347307196e+01    0.8224416    0.5474471 -56.43  0.003414409    1.917    0.478
         2 -11.8590    240.2481     32.3672   2.5105708281e+01   2.4168189915e+01    0.2935195    0.2053205 -40.35   0.00201233    1.525    0.344
         3 -11.6259    106.1388     20.7257   4.0175538677e+01   5.4245155789e+01    0.4766548    0.3783473 -73.02  0.002260365    1.620    0.383
         4 -12.1835     48.3698     12.9780   5.4469727503e+01   6.6372455609e+01     0.610944    0.2429285  46.19  0.002953411    2.269    0.559
         5 -12.3246     20.0565     21.9842   7.1594597993e+01   6.9290464455e+01    0.4855342     0.251287 -30.66  0.002072833    1.789    0.441
         6 -12.0056     27.0658     27.8782   7.0553207280e+01   6.7638262476e+01    0.5017101    0.3588821  11.71  0.001128457    1.163    0.140
         7 -11.6868     35.8135     18.9037   6.2474280821e+01   6.7668029872e+01    0.6691044    0.3733978 -25.01   0.00387887    1.798    0.444
         8 -11.9281    135.7886     22.4897   3.4968231451e+01   4.7437060036e+01    0.7206922    0.3212232  55.04  0.003468657    1.889    0.471
         9 -10.2821    121.5004     11.6735   3.4279338906e+01   5.1673566896e+01     1.027907     0.127211  62.07   0.00303733    5.084    0.803
        10 -11.4822    127.9436     16.1561   3.4485475627e+01   4.9825840357e+01    0.3947269    0.2929612  39.98  0.001579905    1.403    0.287
        11 -11.2511    134.6315     14.9338   3.3028683188e+01   4.8431639450e+01    0.4743281    0.2317599  59.77  0.002450295    1.668    0.400
        12 -11.1190    178.8514     20.8675   2.8589250466e+01   3.7952837022e+01    0.4339609     0.221411  42.33  0.002053077    2.922    0.658
        13 -10.7921     90.8776     21.7329   4.4210472580e+01   5.7415303601e+01    0.3693149    0.2434525 -20.24  0.002128009    1.754    0.430
        14  -9.1472     88.8120      7.4960   3.9631196044e+01   5.9132356569e+01     0.541577    0.2105903  55.14  0.002447663    1.985    0.496
        15 -11.1777     86.1435     13.5826   4.2507740672e+01   5.9173583904e+01    0.3594289    0.2891402 -34.15  0.002362004    1.515    0.340
        16 -12.3984    246.0589     19.6621   2.2440053322e+01   2.4620050931e+01    0.4485167     0.192556 -70.95  0.002395338    2.418    0.587
        17 -13.2886    163.9145     19.0211   2.9942425896e+01   4.1443870759e+01    0.3972837    0.2584952  48.68  0.001024269    1.669    0.401
        18 -11.8029     67.7421     17.8990   4.9556837415e+01   6.2418890986e+01    0.4738653    0.3728621  50.00  0.003070013    1.295    0.228
        19 -11.9179     22.6825     11.3387   6.5363476920e+01   7.0351419035e+01    0.4356707    0.2551662  10.26  0.002061989    1.563    0.360
        20 -11.9592    228.5440     15.9569   2.3024022644e+01   2.8282176637e+01    0.2909127    0.1906004  80.56 0.0004025497    1.369    0.270
        21 -11.1886    225.4716     12.9922   2.2707302496e+01   2.9194700727e+01    0.2547909    0.1463556 -55.34   0.00072991    1.461    0.315
        22 -10.7273    147.8972     16.1737   3.1369230221e+01   4.5321031003e+01    0.3747789    0.1623665  46.06  0.001710289    2.570    0.611
        23 -12.0438    244.0846     13.8736   2.1578342398e+01   2.5628197121e+01    0.2595565    0.1340081 -52.47  0.001295165    1.545    0.353
        24 -12.3048    104.6537     13.0318   3.7963181161e+01   5.5280203228e+01     0.412726    0.3411101 -16.75  0.002748095    1.435    0.303
        25 -11.8312    192.3352      8.3540   2.4487069169e+01   3.6349206251e+01    0.4723943    0.3176637  -1.24  0.002681479    2.909    0.656
        26 -11.2728     13.8420      8.9743   6.8957880591e+01   7.1693831814e+01    0.3347596    0.2074289  -9.29  0.001563567    1.402    0.287
        27 -10.3631      4.9892     11.0587   7.5056100875e+01   7.2330384524e+01    0.3585913    0.1857862 -32.52  0.002218133    1.708    0.415
        28 -11.8350    211.9946      9.3771   2.3046793610e+01   3.2218633008e+01    0.4357458     0.301155  -8.16  0.002612403    2.792    0.642
        29 -10.6706    169.4507      9.4104   2.6994061169e+01   4.1162641836e+01    0.3598935    0.1476597  56.69  0.001228429    2.239    0.553
        30 -11.0196    145.4743      9.5125   2.9954286084e+01   4.6481083903e+01      0.22376    0.1744216  50.36 0.0005728708    1.309    0.236
        31 -10.0132     65.4417     10.3556   4.7247853650e+01   6.3571690667e+01    0.2281325    0.1254322  51.69 0.0007615828    1.606    0.377
        32 -11.9038    245.4385      4.7014   1.9945670909e+01   2.6374441081e+01    0.5323171    0.2349637 -69.09  0.003160354    2.019    0.505
        33 -11.1560    232.7849      7.4044   2.1194198940e+01   2.8404069822e+01    0.2190794    0.1262949  85.18  0.001340688    1.495    0.331
        34 -12.6535    234.3708      3.2512   2.0367155858e+01   2.8540370259e+01    0.6563053      0.25279 -73.31  0.003274708    2.850    0.649
        35  -9.6931      1.0000      8.2506   7.6143715995e+01   7.3064865555e+01    0.2152368   0.05392811 -43.11  0.000923939    3.848    0.740
        36 -11.6594    184.1729      5.8109   2.4694371630e+01   3.8319570831e+01     0.394813    0.2264888 -77.59  0.002317326    1.685    0.406
        37  -9.5475     77.9638      7.4749   4.2398011518e+01   6.1366160304e+01    0.1847515    0.1445542  70.60 0.0006628224    1.490    0.329
        38 -11.0104     74.4853      3.5629   4.1834050906e+01   6.2372886243e+01    0.4555735    0.2029424  55.11  0.002359017    1.823    0.451
        39  -9.9105     62.8303      6.6897   4.6572715961e+01   6.4383009308e+01    0.2025298    0.1434662  10.74  0.001302591    1.420    0.296
        40 -11.1862    176.9467      5.8341   2.5395193228e+01   3.9866024136e+01    0.3144588    0.1588215  82.47 0.0007570289    1.788    0.441
        41 -10.4264    141.8235      3.1734   2.8771630012e+01   4.7834990336e+01    0.2463135     0.178696  58.70  0.001056875    1.227    0.185
        42 -10.5237    137.5531      4.4876   2.9704287943e+01   4.8682078220e+01    0.2208949     0.154307  52.95 6.607609e-05    1.328    0.247
        43 -11.8382    132.7802      2.7372   2.9899752955e+01   4.9888001828e+01    0.4571469    0.2196051  63.71  0.002452187    1.638    0.390
        44 -10.2907     41.7388      3.8161   5.2972041231e+01   6.8350602208e+01    0.2825281     0.149586  14.39  0.001212333    2.118    0.528
        45 -10.2853     21.9782      3.9832   6.2131413060e+01   7.1269466864e+01    0.1856177    0.1526309 -22.62 0.0006081433    1.550    0.355
        46 -11.1623    219.0002      3.7108   2.1461694076e+01   3.1414614790e+01    0.2639103    0.1794917  81.21   0.00114039    1.279    0.218
        47 -11.5138    223.6810      2.4941   2.0920808694e+01   3.0632766777e+01    0.2114552      0.16898 -83.82   0.00079647    1.137    0.120
        48 -11.5702    206.6515      2.9720   2.2220018877e+01   3.3932761896e+01    0.4251682    0.2124046 -89.19  0.002461775    1.825    0.452
        49  -9.5160     57.8414      4.1820   4.7154984677e+01   6.5518624039e+01    0.1513436    0.1025222  28.07 0.0009660805    1.238    0.192
        50 -10.5390    163.8702      6.8624   2.7012821131e+01   4.2623864899e+01    0.4345644    0.2174497 -10.80  0.001994062    3.843    0.740
        51 -10.5992    157.9466      2.6864   2.6675247444e+01   4.4295156794e+01    0.3039939    0.1360121  53.32  0.001566151    2.144    0.534
        52 -11.3777    114.1567      2.5155   3.2776420274e+01   5.4042073347e+01    0.6528652    0.1849656  66.50    0.0025838    3.025    0.669
        53 -10.9497    105.4153      2.0918   3.4228728629e+01   5.5989389995e+01    0.2654827    0.2003289  88.59  0.001337375    1.487    0.328
        54 -11.1031      2.7435      1.8624   7.1914100302e+01   7.3723014323e+01     0.322089    0.1469863  15.32  0.001803012    2.014    0.503
        55 -11.3254    122.3372      5.4168   3.2272349678e+01   5.2005867020e+01    0.2189859     0.210395 -44.66 0.0005358711    1.257    0.204
        56  -9.8552    152.4766      1.3185   2.6968561446e+01   4.5617886270e+01    0.2041613   0.09008921  71.70 0.0006429268    1.860    0.462
        57 -10.1785     82.0770      1.3126   3.9002258589e+01   6.1000422453e+01    0.1726238   0.08993573  57.84 0.0003567828    1.568    0.362
        58 -12.4399     16.2201     14.1280   7.0099240621e+01   7.0777356911e+01    0.9006814    0.4268582  -0.74  0.004074146    3.097    0.677
        59  -9.5555     47.3802    135.1610   9.2714534070e+01   4.2656007822e+01    0.2099222    0.1345183 -73.57  0.000915824    1.682    0.405
        60 -10.0228    249.5796    250.2024   6.4362073353e+01  -1.2101506953e+01    0.1637512   0.08250256 -26.44 0.0009389091    1.634    0.388
        61  -9.6522     90.3179    250.3169   9.7726143732e+01   8.6422941604e+00    0.1273785   0.09965092 -13.07 0.0006384419    1.655    0.396
        62  -9.9204     73.4069    133.7754   8.3886112796e+01   3.9592711614e+01    0.2321781    0.1309408 -46.18 0.0009571012    1.678    0.404
        63 -10.0969     39.3761    133.2512   9.5018714683e+01   4.4019162996e+01    0.2243885    0.1850498  -3.76 0.0005194851    1.343    0.255
        64  -9.8100     93.2781    129.8185   7.6659799226e+01   3.7380918960e+01    0.2501979    0.2059707 -77.02  0.001191044    1.457    0.314
        65 -10.7414     10.9686    126.6416   1.0340525023e+02   4.8093734629e+01      0.37062    0.1710145 -68.26  0.001167601    1.836    0.455
        66 -10.4927     22.8627    126.9789   9.9480276069e+01   4.7146915623e+01     0.205644     0.187216 -33.10 0.0002704024    1.121    0.108
        67 -10.0149      2.1306    125.9347   1.0620909655e+02   4.8795852471e+01    0.2011463    0.1620978  87.74 0.0007399571    1.293    0.226
        68 -12.6653    103.9398    122.4492   7.1584263589e+01   3.7240168204e+01    0.3477075    0.3224325   8.05 0.0004299711    1.086    0.079
        69  -9.4420     84.8576    123.3259   7.7766542491e+01   4.0404950708e+01    0.2111439    0.1422486  18.39 0.0003853131    1.703    0.413
        70  -9.2827     56.2764    122.0088   8.7039090899e+01   4.4949805879e+01    0.1884991     0.122644 -55.39 0.0004724309    1.424    0.298
        71  -9.9945     44.9742    120.2527   9.0597945245e+01   4.6745631629e+01    0.1996267    0.1864643 -21.35 0.0007344182    1.080    0.074
        72 -10.2479     43.6140    116.7472   9.0344098365e+01   4.7775650579e+01    0.3151348    0.2257396 -69.11 0.0008869671    1.475    0.322
        73 -10.5089      7.0237    114.6980   1.0297017188e+02   5.1332756250e+01    0.4181008    0.1872304 -63.14   0.00159577    1.775    0.437
        74 -12.3415      2.4394    111.8888   1.0414904218e+02   5.2275950525e+01    0.4847747    0.2439164 -68.09 0.0006026632    1.670    0.401
        75 -11.2057      4.1238    104.9891   1.0246845586e+02   5.3873764261e+01    0.3938929    0.3317185   9.70  0.001913318    1.376    0.273
        76  -9.6280     79.1526    114.8227   7.7537603699e+01   4.3398547665e+01     0.218062    0.1728315 -21.92  0.001062999    1.320    0.242
        77  -9.3965     67.5092    114.9835   8.1533844043e+01   4.5152047038e+01    0.2068857    0.1357988 -83.28 0.0008097657    2.534    0.605
        78 -11.7834      9.4003     97.4773   9.9173200799e+01   5.5383050638e+01    0.5018812    0.4382588   4.43 0.0004976077    1.287    0.223
        79 -12.5743      7.2725     89.4105   9.8451660174e+01   5.7399358772e+01    0.6234677    0.3881361  18.06 0.0002680832    1.802    0.445
        80 -11.5295     35.0641     92.1763   8.7938138703e+01   5.4578331422e+01     1.093682    0.4670601 -57.01  0.004574311    2.169    0.539
        81 -11.8737     27.1528     85.9258   8.9579894781e+01   5.6752169374e+01    0.8617913    0.6780502   6.08  0.003904716    1.302    0.232
        82 -11.7096     42.1043     85.4577   8.3384226329e+01   5.5328622026e+01    0.8473892    0.2972696  23.26  0.003114914    3.143    0.682
        83 -12.4445     24.8636    107.2492   9.5214969938e+01   5.1929157890e+01     1.165478    0.7919393 -32.18   0.00619819    1.404    0.288
        84 -11.3750     21.5429    114.4915   9.7797736583e+01   5.0405760654e+01    0.4663889    0.2639947  -6.22  0.001498579    2.199    0.545
        85 -11.3168     28.1828    113.1287   9.5153045368e+01   5.0198557396e+01    0.4260655    0.2923213  -5.35 0.0009476879    1.650    0.394
        86 -11.8569     22.4604     94.4666   9.3463188536e+01   5.5185936415e+01    0.3605037    0.2622374 -33.25 0.0007033279    1.219    0.180
        87 -11.8892     18.1523     90.6276   9.4335873969e+01   5.6410419025e+01    0.3510953    0.2700455 -59.56 0.0004860273    1.247    0.198
        88  -9.6816     93.6618    112.3323   7.2163893051e+01   4.1497660857e+01    0.2336714    0.1890008  81.03 0.0009046273    1.708    0.414
        89 -10.0214     48.8750    112.1804   8.7457652467e+01   4.8304947481e+01    0.2120513    0.2013695  73.76 0.0008308987    1.246    0.197
        90  -9.6989    170.5942    110.2055   5.1511466672e+01   2.6137500076e+01    0.2063715    0.1372331 -32.65 0.0004478835    1.614    0.380
        91  -9.6849     65.9907    110.7470   8.1021228841e+01   4.6395542127e+01    0.1873771    0.1275156  26.99 0.0005513539    1.526    0.345
        92 -10.8394     15.5047    109.2282   9.9034785450e+01   5.2150028498e+01    0.3328919    0.2112569  47.88  0.001685131    2.026    0.506
        93 -10.0368    102.2235    108.4924   6.8472112734e+01   4.0779983900e+01    0.3947244    0.1992325 -32.17  0.001405228    2.529    0.605
        94 -11.3208     79.7960    108.1652   7.5607430034e+01   4.4863478485e+01    0.5116157    0.3098457  23.99 0.0006647495    1.819    0.450
        95  -9.1894    175.6641    106.6950   4.9644227857e+01   2.5745693478e+01    0.1443944    0.1165916   5.79 0.0007039512    1.669    0.401
        96  -9.7389    143.2154    106.1534   5.6610310297e+01   3.2832251893e+01    0.2122373     0.180747 -76.52 0.0007528659    1.358    0.263
        97  -9.7290     85.6862    103.6935   7.2439697506e+01   4.4886106518e+01    0.2326325    0.1968396 -38.58 0.0009493882    1.145    0.127
        98 -10.6420     51.8241     99.1250   8.3224306331e+01   5.1064173644e+01    0.6444517    0.2023912 -41.78    0.0020949    3.258    0.693
        99 -11.9357     17.5906    101.1667   9.6746747209e+01   5.3963978439e+01    0.4131565    0.3631716 -43.44  0.001383731    1.057    0.054
       100  -9.5500     80.7758     98.2026   7.2573088350e+01   4.6956337700e+01    0.2102516    0.1666184 -12.30 0.0006552561    1.346    0.257
       101 -10.7583     83.0290     93.0921   7.0357413629e+01   4.7675134618e+01     0.254572     0.206448  34.20 0.0003226251    1.239    0.193
       102 -10.8943     78.2904     92.6478   7.1851253123e+01   4.8586694417e+01    0.5231755     0.408964 -35.58  0.002696056    1.236    0.191
       103 -11.3140     69.1264     95.6215   7.5924949055e+01   4.9422976011e+01    0.3490461    0.2479147  26.50 0.0005926914    1.424    0.298
       104 -10.5219     42.7437     94.7354   8.5569242813e+01   5.3167712528e+01    0.3222976    0.2917041 -40.85  0.001203762    1.109    0.099
       105 -11.2105    125.7863     94.7245   5.7947424988e+01   3.8888509954e+01    0.2661855    0.2532731  -3.45 0.0002258012    1.069    0.065
       106  -9.7979    121.7840     93.9497   5.8801172725e+01   3.9895626773e+01    0.2847747    0.2060018 -30.43  0.001340001    1.488    0.328
       107 -11.1945     98.4748     91.1053   6.4761278946e+01   4.5228386899e+01    0.2770287    0.2321131  33.34 -3.397928e-05    1.168    0.144
       108 -11.8893     89.1972     89.8457   6.7357128185e+01   4.7245645754e+01     0.393647    0.2991775 -25.90 0.0004410958    1.362    0.266
       109 -10.2964     49.2647     91.2145   8.2124303048e+01   5.3191221655e+01    0.2834344    0.1915241  35.20  0.001425372    1.614    0.380
       110 -10.0828    104.1007     88.2762   6.2215381865e+01   4.4684555325e+01    0.2639149     0.197853 -27.98 0.0007517435    1.412    0.292
       111 -10.0564     65.9655     88.8815   7.5162388539e+01   5.1381095310e+01    0.3254034    0.1987349 -12.19  0.001351155    2.274    0.560
       112 -10.6167    143.2621     84.4780   5.0834535852e+01   3.6996303992e+01    0.2488962    0.2397642 -45.64 0.0003820756    1.059    0.056
       113 -10.5578    113.4993     83.2786   5.8023411949e+01   4.3712112627e+01    0.4267252    0.3210154 -73.93  0.001990452    1.904    0.475
       114 -10.6745     80.1940     83.9282   6.8620238493e+01   5.0074568528e+01    0.3797815    0.3005032 -37.72  0.001997655    1.252    0.201
       115 -11.4587     74.6655     79.0481   6.9062800280e+01   5.2003568178e+01    0.5859527    0.4073199  50.24   0.00285433    1.741    0.426
       116 -11.4531     53.4052     76.5285   7.6285095338e+01   5.5791238631e+01    0.5197713    0.3876234 -42.46  0.002836772    1.306    0.234
       117 -11.2970     58.2769     77.8100   7.4770201310e+01   5.4840473875e+01    0.3077468     0.247137 -19.64 0.0007594359    1.156    0.135
       118 -11.6745     13.9952     74.5271   9.2313684306e+01   6.0316005847e+01    0.5590282      0.31535 -64.89  0.002839695    1.908    0.476
       119 -10.5045     13.9541     67.3819   9.0485163860e+01   6.1837112980e+01    0.2808355    0.1832081  13.92  0.001440282    1.586    0.370
       120 -10.3229    233.8032     77.6011   3.4302844917e+01   1.9091090699e+01    0.1676467    0.1099684  83.10 0.0009532577    1.738    0.425
       121 -10.6223     95.1396     76.4486   6.1398933396e+01   4.8732777211e+01    0.4293544    0.2294131  48.03  0.001470929    1.933    0.483
       122 -11.3436     79.3999     68.0177   6.3884836111e+01   5.3244025551e+01     1.162696    0.7728912  79.64  0.004029661    4.563    0.781
       123  -9.4381     92.0088     72.0000   6.0992881263e+01   5.0155696979e+01     0.189851    0.1747689  71.83 0.0005022482    1.336    0.252
       124 -11.0829     82.7380     73.6656   6.4565673856e+01   5.1607192458e+01    0.7533402    0.2688957  46.36  0.002045617    3.099    0.677
       125 -10.5021     88.0114     72.7674   6.2524923161e+01   5.0787226412e+01     0.322543     0.179534  47.65  0.001417038    1.885    0.470
       126 -11.3970    248.1650     75.7645   3.2373349225e+01   1.6793163873e+01    0.2930645    0.1400148  81.78  0.001302846    3.436    0.709
       127  -9.2608    126.9658     76.7807   5.2566242314e+01   4.1981590041e+01    0.1908326    0.1141887  48.94 0.0003166124    1.602    0.376
       128  -9.7242    103.8992     74.8794   5.8256240831e+01   4.7253860237e+01    0.2314643     0.192297  19.43  0.001230294    1.232    0.188
       129 -10.4934     24.5855     73.8330   8.7519449129e+01   5.9625308068e+01    0.4433103    0.2613246  -0.76   0.00225668    1.835    0.455
       130 -11.3168     40.8265     71.8833   8.0002332236e+01   5.8348442847e+01    0.4940036    0.3054207 -53.96  0.002169186    1.743    0.426
       131 -11.6168     34.8145     71.6987   8.2497251603e+01   5.9066293619e+01    0.7493392    0.2268687  26.78  0.002800267    3.290    0.696
       132 -11.4473    187.0760     70.9468   3.9119887612e+01   2.9539450114e+01    0.5654629    0.3141812 -42.10  0.002378702    1.732    0.422
       133 -11.0558      2.0650     71.6286   9.6861455207e+01   6.1661668344e+01    0.3664945    0.1823549 -56.38  0.001423246    1.636    0.389
       134 -12.5661      6.2004     62.1736   9.2661776410e+01   6.3427736657e+01    0.6898135    0.3829651  -7.50  0.002352345    1.830    0.454
       135 -11.2039    123.0295     68.9045   5.1250748457e+01   4.4187218779e+01    0.4401895    0.2824222  41.90  0.001493232    1.522    0.343
       136  -9.2320     46.6908     70.2917   7.7068515783e+01   5.7940300663e+01    0.1216804    0.1091504  60.43 0.0006998286    1.583    0.368
       137 -10.9307    220.0520     66.7018   3.3719517840e+01   2.3367316044e+01    0.4007776    0.2120659  68.26  0.002077916    2.016    0.504
       138 -10.8403     58.9067     64.3040   7.0197711701e+01   5.7351870314e+01    0.5117744    0.2058708 -45.00  0.002082873    2.534    0.605
       139 -10.1497     67.1458     81.5366   7.2553547601e+01   5.2736808943e+01    0.3464437    0.2222378   4.07   0.00155181    1.983    0.496
       140 -10.0502     87.6914     56.6151   5.7335572765e+01   5.3586977455e+01    0.3687523    0.1737137 -38.16  0.001481155    2.256    0.557
       141 -10.1090     91.6435     57.1474   5.6276466228e+01   5.2720025743e+01    0.2340579    0.1815799  53.39  0.000608827    1.372    0.271
       142 -10.8041     91.4484     62.6792   5.8165819129e+01   5.1870521833e+01    0.3921729    0.2673573  65.16  0.001574523    2.101    0.524
       143  -9.8406     51.1837     56.4668   7.0619991618e+01   5.9900177299e+01    0.2676823    0.1761224  20.85 0.0009281515    1.444    0.307
       144 -11.4955     40.8262     57.0182   7.5206117892e+01   6.1206048115e+01    0.4104396    0.2244639  38.50  0.001924912    2.073    0.518
       145 -10.7489     51.6954     61.6567   7.2194214128e+01   5.8901210961e+01    0.3228548    0.2346945  39.68  0.001519399    1.560    0.359
       146 -11.4030     43.4866     62.3700   7.5860145626e+01   5.9880264377e+01    0.2926941    0.2141479 -36.51 0.0004752009    1.288    0.223
       147 -11.1124     46.4907     59.1156   7.3493565086e+01   6.0085694767e+01     0.301169    0.2882242 -35.44 0.0009660571    1.354    0.262
       148  -9.9173    158.2848     62.9055   4.1980738417e+01   3.7179399786e+01    0.4597196    0.1306099  47.20  0.001443408    3.995    0.750
       149 -11.6095    234.8647     60.9238   3.0931302452e+01   2.1373019919e+01    0.3081933    0.2662187  82.50  0.001788586    1.244    0.196
       150 -12.1501     74.9453     53.2530   6.0424578465e+01   5.6528617736e+01     0.804085    0.3832209 -44.33  0.001720604    2.447    0.591
       151 -11.1078     72.6035     47.7511   5.9287183003e+01   5.7794568785e+01    0.2367627    0.2162249 -25.29 0.0008428337    1.246    0.197
       152 -11.3754    117.2700     55.5260   4.8649067347e+01   4.7544039348e+01     1.039341    0.5942884 -64.37  0.003980663    3.368    0.703
       153 -10.3313    109.4870     41.8960   4.6287711464e+01   5.1126913516e+01    0.5170048    0.3766407 -24.57  0.002888698    1.553    0.356
       154 -10.5099    112.0555     50.5005   4.8388449256e+01   4.9410934346e+01    0.4160039    0.2584498  43.14  0.001872619    1.492    0.330
       155 -11.9709    117.7768     44.0126   4.4967942923e+01   4.9024990974e+01    0.5199041    0.4989912  51.98  0.002380629    1.074    0.069
       156  -9.2745    113.3245    249.3329   9.2408218365e+01   5.6289264863e+00    0.1348532   0.09918216 -10.25 0.0007050833    1.708    0.415
       157 -10.3766     81.5457     59.9457   6.0469448459e+01   5.4232351039e+01    0.4809242    0.2607155  60.16  0.001822585    3.279    0.695
       158 -11.7924     25.3230     57.5954   8.2379274566e+01   6.2833796974e+01    0.6765911      0.51871  24.99  0.003990209    1.434    0.303
       159 -10.3436     33.8813     52.2559   7.6654227729e+01   6.2904475894e+01    0.3385148    0.1859283   3.95   0.00161654    2.147    0.534
       160 -10.0955    156.9582     54.1980   3.9941124309e+01   3.8754558940e+01    0.5574301    0.3133135 -81.43  0.002170336    3.180    0.686
       161  -9.3651    125.3344     56.3130   4.6952263745e+01   4.5634868483e+01    0.1432866    0.1027472  25.47 0.0003843888    1.684    0.406
       162  -9.9927    106.3664     58.6398   5.2472160984e+01   4.9442075282e+01    0.2044414    0.1686155 -86.32  0.001088763    1.637    0.389
       163  -9.7681     67.1525     54.9051   6.3810861777e+01   5.7640641929e+01    0.1921416     0.180577  12.48  0.001077334    1.187    0.157
       164  -9.7825      7.6948     54.3026   8.9757035414e+01   6.4911325613e+01    0.2112226    0.1463641 -42.50  0.001313725    1.217    0.178
       165 -11.5396     60.6897     47.9625   6.3758521490e+01   5.9829017992e+01    0.7163082    0.3146812 -33.42  0.003159193    2.401    0.583
       166 -10.4415     51.8110     48.3257   6.7436751025e+01   6.1172018321e+01    0.2665315     0.206839  15.08 0.0007367634    1.130    0.115
       167 -11.6453     45.4950     48.5468   7.0176074306e+01   6.2052502354e+01    0.5142562    0.3387269 -28.83  0.002893096    1.441    0.306
       168 -11.3377     43.8981     43.9942   6.9170026310e+01   6.3011925780e+01    0.3823783    0.2151942  34.05 0.0007401773    1.712    0.416
       169 -10.7846     39.0461     44.2302   7.1404477118e+01   6.3631208605e+01    0.2870102     0.198552   2.95 0.0009392633    1.347    0.258
       170 -10.4768    145.9623     48.3126   4.0355556655e+01   4.2073186513e+01    0.5045999    0.2214645 -22.11   0.00182602    3.886    0.743
       171 -10.5722    240.2019     50.8253   2.8495753361e+01   2.1790876562e+01    0.1452379    0.1339899 -52.15  0.001076615    1.358    0.264
       172 -10.4229    201.5050     48.9466   3.2187591239e+01   2.9671167316e+01    0.1794555    0.1150158 -41.47 0.0005456358    1.541    0.351
       173 -11.5520     20.7738     46.1657   8.0719830303e+01   6.5376252212e+01    0.3462567    0.2361951 -32.76  0.001239996    1.256    0.204
       174 -10.6856     26.4847     43.0229   7.6810448597e+01   6.5337188356e+01    0.2000917     0.183075  -0.31  0.000992861    1.327    0.246
       175 -10.7866     22.2399     37.1678   7.6696083472e+01   6.6759040188e+01    0.4823523    0.2251833  39.86  0.002267688    2.973    0.664
       176 -10.2844    173.2588     48.4221   3.5838059822e+01   3.5871545614e+01    0.4637347    0.1571352  66.27  0.001731416    3.109    0.678
       177 -10.4095     13.0681     47.3491   8.4937918748e+01   6.5838606086e+01    0.3304009    0.1451359 -31.05  0.001598955    2.096    0.523
       178  -9.2101     89.9934     47.0109   5.3345847983e+01   5.4555795774e+01    0.1592646    0.1400703  28.06 0.0009567857    1.004    0.004
       179 -10.0487    133.8510     45.8101   4.2009081850e+01   4.5168166222e+01    0.2316942    0.1584413  51.76 0.0003362144    1.331    0.248
       180 -10.1920    138.3911     44.4749   4.0724671132e+01   4.4307978780e+01    0.3440492    0.1825538  33.65  0.001328229    2.746    0.636
       181 -10.0097    199.7641     45.0949   3.1560046805e+01   3.0551863405e+01    0.3226838    0.1496563  85.74  0.001336668    3.075    0.675
       182  -9.8678      2.2090     48.9845   9.0907797841e+01   6.6281995396e+01    0.1964484    0.1380392  21.69 0.0009882783    1.621    0.383
       183 -10.6579    155.7284     42.2548   3.7020734664e+01   4.0635713411e+01     0.244982    0.2240523  66.54 0.0009339982    1.086    0.079
       184 -10.4179     92.4054     41.4196   5.0703715884e+01   5.4822047012e+01    0.3803722    0.1978888  50.14  0.001581084    1.737    0.424
       185  -9.7708     17.4786     41.8215   8.0818367903e+01   6.6445851008e+01     0.240754    0.1204182 -16.68   0.00116779    2.216    0.549
       186 -11.0444      4.6776     35.9571   8.5402652091e+01   6.8502689823e+01    0.4721823    0.3092832 -46.90  0.002258898    1.503    0.335
       187 -10.3448     11.0482     30.7415   8.0028202050e+01   6.8872308459e+01    0.2798101    0.1834393  -8.12  0.001160651    1.277    0.217
       188  -9.9979      7.0181     30.4851   8.2121171338e+01   6.9249665902e+01     0.241099    0.1235686   0.24  0.001312968    1.949    0.487
       189 -11.1402     78.1887     37.1492   5.3533121863e+01   5.8215765116e+01    0.5040414    0.3558452 -75.26  0.002049743    3.175    0.685
       190 -10.9964     79.9771     32.7303   5.1337418679e+01   5.8417994185e+01     0.429143     0.253707  26.16  0.002174242    1.818    0.450
       191 -10.1517    231.3401     38.6940   2.7022835429e+01   2.5044013216e+01    0.2246122    0.1323649 -41.76  0.001366653    1.614    0.380
       192  -9.8402     67.6719     32.2029   5.5214555209e+01   6.0818716941e+01    0.4305329    0.3486136  47.02  0.002214989    1.330    0.248
       193 -11.5854     48.5089     30.6078   6.1921337114e+01   6.4279520915e+01    0.5880959    0.2163727  36.17  0.002590111    2.442    0.591
       194 -10.4924     43.0011     28.0650   6.3216263747e+01   6.5456703243e+01    0.1842676    0.1445612  10.09 0.0002848315    1.013    0.013
       195 -11.3379     60.7362     36.4619   5.9395302072e+01   6.1492275964e+01    0.3668525    0.2594496 -15.35  0.001318389    1.442    0.306
       196 -12.1086     57.7405     30.4573   5.8169738571e+01   6.2791355661e+01    0.4219129    0.3015885  -4.73  0.001480651    1.408    0.290
       197 -10.7946    183.4142     38.0095   3.1974597353e+01   3.4972791193e+01    0.2148174    0.1600415  79.48 0.0001775767    1.209    0.173
       198  -9.8243    133.3713     37.4766   3.9693773848e+01   4.6325725013e+01    0.2711319    0.1721797 -85.96  0.001283204    2.231    0.552
       199  -8.8708    206.3383     37.3042   2.9169552591e+01   3.0182809741e+01    0.1111052    0.0909044  43.40 0.0007039629    1.673    0.402
       200 -10.1489    176.6155     35.7703   3.2329229953e+01   3.6743579184e+01    0.2394564    0.1561165 -66.14 0.0008584664    1.589    0.371
       201 -10.2159    153.0527     36.0935   3.5837384973e+01   4.2004379325e+01    0.1952382    0.1697623  74.03 0.0005120017    1.015    0.014
       202  -9.5615     93.8935     35.6306   4.8279370142e+01   5.5243271811e+01     0.181008    0.1152458  60.86  0.000614933    1.677    0.404
       203 -10.8112     49.8742    249.1589   1.0652245199e+02   1.4078866143e+01    0.3529858    0.0934468  49.54  0.001225533    3.835    0.739
       204 -11.5915    164.3328     27.6594   3.2010978647e+01   4.0427075817e+01    0.2345458    0.2032522  79.68 0.0004912146    1.038    0.036
       205 -10.1339    174.7247    246.7198   7.8375681439e+01  -2.5957571606e+00    0.2451245    0.1480206  23.42  0.001288078    1.503    0.335
       206 -11.7396    106.8569     31.9371   4.3692383321e+01   5.2904423235e+01    0.6887707     0.364593  16.81  0.002630325    3.799    0.737
       207 -11.7367    114.3314     24.9890   3.9772263093e+01   5.2010370983e+01    0.5617797     0.231268  56.57   0.00155257    2.000    0.500
       208  -9.6370    169.9630     33.2044   3.2603663471e+01   3.8530120740e+01    0.2066662    0.1248048  45.38  0.001079233    1.946    0.486
       209 -11.9880    126.8303    242.1060   8.8342769829e+01   5.1214988321e+00    0.4012407    0.3034232 -69.14  0.001930734    1.684    0.406
       210 -10.8730    131.1107    241.1130   8.7216933698e+01   4.6925720283e+00    0.3040133    0.1819578  21.21  0.001206364    1.692    0.409
       211 -10.9247     72.7172    237.9689   1.0035649596e+02   1.3628533089e+01    0.5533386    0.2360776  41.08  0.002434576    2.055    0.513
       212  -9.8217    167.6049    238.2424   7.8554515949e+01  -7.6416860919e-02    0.1847873    0.1168873 -32.73 0.0009025472    1.602    0.376
       213  -9.3226    229.9822     30.7664   2.5649386026e+01   2.6289006709e+01    0.1368151   0.08325852  77.13 0.0003583157    1.548    0.354
       214 -10.3518    197.8929     29.2632   2.8363548542e+01   3.2921302147e+01    0.2747398    0.1664112  67.61  0.001620392    1.527    0.345
       215 -10.9838    189.0456     27.7891   2.8999562925e+01   3.4974968080e+01    0.2919966    0.2714112   4.62  0.001834697    1.520    0.342
       216 -11.9580    125.6198     28.2278   3.8478095061e+01   4.9138643244e+01    0.4926879     0.355417  66.13  0.002877403    1.251    0.201
       217  -9.8782     99.0885     30.2180   4.5037507059e+01   5.4776801510e+01    0.2065158    0.1485747  85.73  0.001084547    2.007    0.502
       218 -10.5332    230.6121     26.4992   2.4803167230e+01   2.6680754185e+01    0.1748916   0.09438297 -41.95 0.0007366044    1.737    0.424
       219 -11.5221    182.9737     25.6285   2.9201546286e+01   3.6532948621e+01    0.3403346    0.2267497  61.31  0.001362742    1.444    0.308
       220  -9.7985    150.0486     27.4481   3.4026527391e+01   4.3676464476e+01    0.1938567    0.1093455  65.51 0.0003811881    1.541    0.351
       221 -12.1629    160.0091     29.7881   3.3149090458e+01   4.1160882553e+01    0.4652284    0.4018324  60.26   0.00043328    1.167    0.143
       222 -11.6535    143.9405     25.0015   3.4327823885e+01   4.5326454903e+01    0.3816537    0.1804407  60.36  0.001871858    1.779    0.438
       223 -10.2247    119.5049     15.9754   3.5943058333e+01   5.1735782806e+01     0.519563    0.1132607  48.54    0.0017621    3.982    0.749
       224  -9.7644    233.3006    235.3400   6.4778207400e+01  -8.1451387321e+00    0.1303385   0.07623491 -13.05 0.0007036601    1.669    0.401
       225  -9.6461    199.6629    234.7032   7.1172354324e+01  -3.8759190051e+00    0.1373065   0.08722351  -6.84 0.0003889142    1.653    0.395
       226  -9.3293     15.3828    233.7822   1.1269616294e+02   2.1170836811e+01    0.1682148   0.09772146 -67.15 0.0009432883    1.681    0.405
       227 -10.4910    196.9990    232.2511   7.1295984394e+01  -3.0953105588e+00    0.1693613    0.1028094  26.49 0.0008864251    1.575    0.365
       228  -9.9496     59.6513     23.9078   5.4803386473e+01   6.3251092838e+01    0.1649546    0.1395254  -0.79 0.0004545502    1.173    0.147
       229 -10.3490     13.8838     23.3839   7.5494613043e+01   6.9742694925e+01    0.1961822    0.1332799 -19.81 0.0004452009    1.210    0.174
       230 -11.4426     67.6830    240.9179   1.0181888624e+02   1.3640355841e+01    0.3637937    0.2336995  16.55  0.001350527    1.910    0.476
       231 -10.9342    247.3367    230.7723   6.1492792676e+01  -9.0110962658e+00    0.2265765     0.136222  21.52  0.001373868    1.702    0.413
       232 -10.3636    233.4014    227.2237   6.3357248871e+01  -6.8713124534e+00    0.1668609    0.1048837 -43.10 0.0008221291    1.666    0.400
       233 -10.1831     89.5082     16.5289   4.2705791035e+01   5.8205394781e+01    0.2547923    0.1812143  29.40  0.001355676    1.364    0.267
       234 -10.1230     85.2493     17.7793   4.4282966415e+01   5.8970354794e+01    0.2688611    0.1360594  45.74  0.001212903    1.614    0.380
       235 -11.4982    146.9562    237.8984   8.3112232652e+01   2.9928383506e+00    0.5010418    0.3580723  37.78  0.002714039    1.368    0.269
       236 -10.1802    164.7115    212.0217   7.4710548444e+01   5.4743118030e+00    0.2409266    0.1974783  22.88 0.0006252801    1.171    0.146
       237 -10.2375    152.8679    207.2757   7.6598106676e+01   8.3626975365e+00    0.3175602    0.2172685 -65.75  0.001449446    1.999    0.500
       238 -11.4938    157.0585     20.4902   3.1208054768e+01   4.2828657799e+01    0.3349514     0.124412  64.53  0.001502157    2.242    0.554
       239  -9.1626     61.4838    206.5170   9.9436700588e+01   2.2430120168e+01    0.1393479    0.1292462  75.03  0.000810206    1.009    0.009
       240  -9.6045    238.3200    204.3133   5.8383912591e+01  -3.6826217928e+00    0.1324535   0.08279067 -14.05 0.0007038219    1.651    0.394
       241  -9.5838    216.5139     20.5318   2.4834197091e+01   3.0113779886e+01    0.1142943   0.09054636 -78.40 0.0001266787    1.026    0.025
       242  -9.7979     74.3887     19.7122   4.8155591043e+01   6.0958741924e+01    0.2068955    0.1432293  41.47  0.000564607    1.190    0.159
       243 -10.1128     46.9759     19.4041   5.7841840069e+01   6.5906165571e+01    0.2251277    0.1810569  13.98  0.001527736    1.047    0.045
       244  -9.4635    194.7749     19.4010   2.6584271455e+01   3.4693023820e+01    0.1559115   0.09450629  65.58 0.0004288182    1.534    0.348
       245 -10.1511    139.4882    198.9929   7.8313994803e+01   1.2393079126e+01    0.1999397    0.1371494 -81.59  0.000809519    2.461    0.594
       246  -9.7892    233.8245    196.5679   5.7747411564e+01  -1.7660741694e+00    0.2238737    0.1320591 -41.07  0.001196549    1.483    0.326
       247  -9.8366    171.1896    190.8286   6.9243681101e+01   8.8540282931e+00    0.3743675    0.2030382   9.88  0.001274093    3.401    0.706
       248 -12.0568      4.3947    184.4584   1.1159138404e+02   3.3810874892e+01    0.6125985    0.3917146  86.05  0.002814517    1.425    0.298
       249 -10.6024    186.6709     15.0522   2.6456030372e+01   3.6873888717e+01     0.217896    0.1461612  70.75 0.0006008952    1.317    0.241
       250  -9.2962     86.2064    185.5952   8.9888615418e+01   2.4258565575e+01    0.2103764    0.1465497  16.39 0.0009518808    1.666    0.400
       251  -9.3313    175.5276    180.4649   6.6197582162e+01   1.0323289785e+01    0.1492083    0.1351983 -18.64 0.0003014097    1.002    0.002
       252  -9.5936     28.2005    175.6064   1.0451706416e+02   3.4035953185e+01    0.1733006    0.1343483   0.20  0.000679014    1.618    0.382
       253  -9.6380     51.9799    173.5308   9.7603989295e+01   3.2028338582e+01    0.2086288    0.1436153  28.56 0.0005035407    1.549    0.354
       254  -9.4772     35.6443    169.3099   1.0167391872e+02   3.4942066293e+01    0.1498483    0.0981793  63.89 0.0007043245    1.729    0.422
       255  -9.2153    198.2551    167.9762   5.8822167366e+01   9.0185736716e+00    0.1860042    0.1128394 -42.70 0.0005032934    1.487    0.328
       256 -11.8655      9.4456    167.1832   1.0872285547e+02   3.7794377252e+01    0.3355215    0.2919397 -38.60  0.001413435    1.290    0.225
       257 -11.2593     14.1017    159.3037   1.0659487402e+02   3.9469737522e+01    0.3179661    0.2053105 -65.22 0.0004150044    1.311    0.237
       258 -10.0619     19.0604    164.7926   1.0581256375e+02   3.7652928599e+01    0.2475916    0.1847906 -27.19  0.001357063    1.597    0.374
       259 -10.1235    204.9676    163.1841   5.6517873301e+01   8.8408505527e+00    0.2468872    0.1850822 -39.25 0.0006050392    1.179    0.152
       260 -10.4341     28.1452    161.4167   1.0280902275e+02   3.7735564144e+01    0.3669468    0.1361392 -64.04  0.001439473    2.227    0.551
       261  -9.5898     38.0009    161.0053   9.9867350911e+01   3.6880878346e+01    0.1757232    0.1595363 -69.47 0.0007672533    1.008    0.008
       262 -10.6692      9.4216    155.7171   1.0753307514e+02   4.0739146786e+01    0.2561491    0.1163495 -76.74  0.001119428    1.978    0.494
       263 -10.4348    104.7380    154.4287   7.8767988015e+01   2.9220371769e+01     0.329859    0.2614806 -34.03  0.001560158    1.297    0.229
       264  -9.2589     53.3099    155.3394   9.4391264637e+01   3.6663743510e+01    0.1577864    0.1038166 -34.99 0.0007044539    1.689    0.408
       265 -12.1795     22.5720    149.3326   1.0287863148e+02   4.1383869601e+01      0.70998    0.3301753 -31.93  0.002782868    2.911    0.657
       266 -10.9085     16.0256    147.8957   1.0467230404e+02   4.2277963857e+01    0.2741762     0.267375  85.69 0.0007659671    1.144    0.126
       267 -10.4890      3.3609    152.7251   1.0894617580e+02   4.1912492585e+01    0.3012277    0.1867237  65.46  0.001556467    1.803    0.445
       268  -9.8573    141.4596    152.4886   6.8331585078e+01   2.2890952941e+01    0.3226609    0.1551863  40.11  0.001122825    2.134    0.531
       269 -10.3456     30.5212    152.0016   1.0083253250e+02   3.9983235839e+01    0.2623276    0.1954117 -18.07  0.001371825    1.598    0.374
       270 -10.1238     63.5847    150.4855   9.0371167871e+01   3.6637913709e+01    0.2677574    0.1508893   9.95  0.001030769    2.480    0.597
       271 -11.5176     47.8939    146.6593   9.4606402541e+01   3.9589437197e+01    0.5922009    0.4216774 -28.70  0.002891873    1.572    0.364
       272 -10.2550      3.1424    147.3905   1.0844320350e+02   4.3289049796e+01    0.2312527    0.1505907 -63.27 0.0006990281    1.267    0.211
       273  -9.7052     74.0532    146.0114   8.6244999249e+01   3.6342541868e+01    0.2461114    0.1746126 -27.17 0.0005992636    1.617    0.382
       274 -11.1364     33.1679    144.4228   9.8890586545e+01   4.1721011570e+01     0.293386    0.2608434 -83.52 0.0007818214    1.130    0.115
       275 -11.5295      5.8607    142.1448   1.0704176856e+02   4.4461984715e+01    0.3075839    0.2136796  87.96 0.0002965227    1.448    0.309
       276 -11.6532      1.8093    141.1092   1.0814473499e+02   4.4970485655e+01    0.4258012     0.213728 -74.86  0.001361697    1.703    0.413
       277  -9.6750    217.0460    138.7070   4.9237712922e+01   1.1523481608e+01    0.1837165    0.1719988 -33.24 0.0004857616    1.091    0.083
       278 -11.8966     12.6689    136.4600   1.0421984388e+02   4.5472752970e+01    0.6052573    0.3069347 -56.55  0.002895446    1.612    0.380
       279  -9.5015     79.3733    138.1796   8.2934446651e+01   3.7561877863e+01    0.2249243    0.1458887 -67.42 0.0009482292    1.744    0.427
       280  -9.8993     40.7894    138.1075   9.5409481461e+01   4.2609561347e+01     0.221963    0.1888116  83.16  0.001057056    1.307    0.235
       281 -10.1512     31.8563    137.6826   9.8244051837e+01   4.3604811039e+01    0.2729707    0.2431348  39.50  0.001080459    1.259    0.206
       282 -11.4521     22.4052    136.0945   1.0105571958e+02   4.4838714548e+01    0.5157659    0.3874361  37.41  0.002751478    1.507    0.336
       283 -11.1595     30.1479    132.8998   9.8020440804e+01   4.5002500967e+01    0.4189114    0.2413772 -36.89  0.001032299    1.799    0.444
