#   1 NUMBER                 Running object number                                     
#   2 MAG_AUTO               Kron-like elliptical aperture magnitude                    [mag]
#   3 X_IMAGE                Object position along x                                    [pixel]
#   4 Y_IMAGE                Object position along y                                    [pixel]
#   5 X_WORLD                Barycenter position along world x axis                     [deg]
#   6 Y_WORLD                Barycenter position along world y axis                     [deg]
#   7 A_WORLD                Profile RMS along major axis (world units)                 [deg]
#   8 B_WORLD                Profile RMS along minor axis (world units)                 [deg]
#   9 THETA_WORLD            Position angle (CCW/world-x)                               [deg]
#  10 FWHM_WORLD             FWHM assuming a gaussian core                              [deg]
#  11 ELONGATION             A_IMAGE/B_IMAGE                                           
#  12 ELLIPTICITY            1 - B_IMAGE/A_IMAGE                                       
         1 -14.6556      7.6993     20.2004   1.1528160797e+02   6.9326455882e+01     1.193027    0.6391916 -26.34  0.007822889    1.508    0.337
         2 -12.9313     19.5878     13.7188   1.0727637132e+02   6.9214101689e+01    0.3913064    0.2691931  -8.15  0.002277185    1.150    0.130
         3 -13.0862     95.9684      3.3742   7.6712728384e+01   5.8523339292e+01      0.42322      0.18576  47.75  0.001444831    1.829    0.453
         4 -12.3846     75.3756     13.4356   8.6212277316e+01   6.1533238759e+01    0.2993005    0.1907673  39.77  0.001299685    1.377    0.274
         5 -13.8476     87.4948      2.3994   7.8436899535e+01   6.0273511480e+01    0.9506935    0.3360696  41.40  0.004346501    2.391    0.582
         6 -12.8284     87.0867     11.3986   8.2042276741e+01   5.9576095798e+01    0.4864316    0.3237562  70.71  0.001912017    2.202    0.546
         7 -11.3368    123.9902     10.0468   7.2994529845e+01   5.1995411778e+01    0.1951354    0.1698533  46.98 0.0004693224    1.020    0.020
         8 -11.4577    137.7014      5.7787   6.9129129254e+01   4.9239163926e+01    0.2351154    0.1658566  65.14  0.001373212    1.239    0.193
         9 -11.9662     32.8964      4.4483   9.7406807341e+01   6.8854353045e+01    0.2377887    0.1452288  16.27  0.001071232    1.436    0.303
        10 -11.0988    110.3301      4.6607   7.3946185853e+01   5.5437510062e+01    0.1187754   0.09392101 -70.99  0.000397688    1.739    0.425
        11 -12.1607     73.2175      1.5818   8.2005636401e+01   6.2993306049e+01    0.2201496    0.1344416  47.03 0.0005169623    1.462    0.316
        12 -12.3237     82.4150     13.6971   8.4243097327e+01   6.0234390855e+01    0.3107338    0.1921133  37.83 0.0007815348    1.393    0.282
        13 -11.6911    177.8109    212.4083   1.1385002435e+02   3.1642134255e+00    0.2036476    0.1221652  32.19 0.0009480493    1.705    0.414
        14 -11.4625    248.7153    208.9775   9.9607593998e+01  -8.7110705819e+00    0.3481427    0.1387312  27.66  0.001312361    3.515    0.716
        15 -11.0604    199.1350    203.0836   1.0781649959e+02   8.4755506660e-01    0.2217363    0.1805751   8.14  0.001198116    1.302    0.232
        16 -11.4765     53.4991    201.5042   1.3842245975e+02   2.6539336383e+01    0.1287564    0.1029441  83.58 0.0008106757    1.006    0.006
        17 -11.3545     41.4901    199.5161   1.4064863255e+02   2.8479961277e+01    0.1251143   0.09898407  86.55 0.0001070589    1.018    0.018
        18 -12.9083    192.8192    197.5842   1.0803312681e+02   3.0409441480e+00    0.5116914    0.2424184  49.32  0.002082225    2.235    0.553
        19 -11.3637    219.9708    198.0000   1.0275723345e+02  -2.1021242784e+00    0.2232881    0.0744404  42.66 0.0008033347    2.949    0.661
        20 -12.8825    238.1770    191.0672   9.7988300627e+01  -4.1645914312e+00    0.7068124    0.4524963 -46.59   0.00362489    1.745    0.427
        21 -12.0942    200.9992    193.8276   1.0564594759e+02   2.1632588614e+00    0.3442764    0.2921824  37.48  0.001727667    1.143    0.125
        22 -12.3754    229.3801    191.2013   9.9630365194e+01  -2.6397949968e+00    0.2916725    0.2162504 -32.92  0.001605834    1.301    0.231
        23 -10.6626    211.8536    189.1785   1.0256629416e+02   9.3876366617e-01     0.198765    0.1585526  11.78 0.0008226119    1.328    0.247
        24 -11.9301    245.0457    192.0123   9.6946121866e+01  -5.4897970487e+00    0.3133719    0.1996581  42.16  0.001405897    1.668    0.400
        25 -12.7522     33.8973    177.3180   1.3989557010e+02   3.4350135990e+01    0.2523162    0.2382765 -30.72  0.001763488    1.491    0.329
        26 -12.2413    216.6444    174.6053   9.8620981147e+01   2.6700198569e+00    0.4715184    0.3669506  41.09   0.00250214    1.310    0.237
        27 -11.8979    197.9796    168.4910   1.0101630727e+02   7.5843864784e+00    0.3112617    0.2180223  49.24  0.001258388    1.476    0.323
        28 -11.1176    193.9900    167.7520   1.0167563035e+02   8.5573238556e+00    0.2883476    0.2063305  55.37  0.001206671    1.531    0.347
        29 -11.8868    212.1072    165.2151   9.7486961312e+01   5.3293105889e+00    0.4624838    0.3372748   1.34    0.0021696    1.799    0.444
        30 -13.0963    200.4463    155.1105   9.7564582539e+01   9.7200409476e+00    0.8073262    0.4500387 -40.34  0.003406294    1.758    0.431
        31 -13.1391    194.3259    148.2293   9.7245254188e+01   1.2425403746e+01    0.5044637    0.4083116 -45.27  0.002518669    1.214    0.176
        32 -12.8761    190.6301    156.8822   9.9978111569e+01   1.1461747719e+01    0.4947725    0.4691917 -52.20  0.002688062    1.070    0.065
        33 -11.3625    179.6252    158.7630   1.0273613739e+02   1.3440290787e+01     0.223046    0.1425275 -53.08 0.0009539162    1.674    0.403
        34 -12.9238     58.6345    145.2310   1.2957960104e+02   3.8997144436e+01    0.6989844    0.4533378  71.40   0.00346948    1.885    0.470
        35 -13.7843     51.0526    143.1691   1.3119595947e+02   4.0426274501e+01    0.8502738    0.4649518  56.55  0.004005345    2.230    0.552
        36 -12.3367    196.9094    137.6475   9.4249759071e+01   1.4002131305e+01    0.3254917    0.2296806 -49.05  0.001496781    1.412    0.292
        37 -15.2855    148.6943    128.0789   1.0256622312e+02   2.6924831653e+01     1.865179     1.503221 -67.96  0.008863248    1.366    0.268
        38 -12.0665    198.7346    127.3761   9.1430217259e+01   1.5655628199e+01    0.3084987    0.1855975 -51.10  0.001289626    1.719    0.418
        39 -11.3050    121.5338    127.3545   1.0918822672e+02   3.2858639806e+01    0.3064359    0.1994074  39.64  0.001346159    1.621    0.383
        40 -10.4255     82.3241    115.7117   1.1711918817e+02   4.2620323899e+01    0.1411334    0.1109524  81.65 0.0004360928    1.607    0.378
        41 -12.2549    132.6196    103.2706   1.0007729764e+02   3.5842459230e+01    0.3108146    0.2556818  11.66 0.0004313168    1.477    0.323
        42 -13.2901     16.7696    100.9881   1.3349247104e+02   5.3441858882e+01      0.40123    0.3219825 -61.30  0.002075522    1.043    0.041
        43 -11.2945     54.9802     94.5679   1.2024116917e+02   5.1175650567e+01    0.2680449    0.1575064 -40.19  0.001349872    1.585    0.369
        44 -14.3315    143.6653    118.0924   1.0125736486e+02   3.0233135647e+01     1.028257    0.6211504 -76.53  0.003369118    3.355    0.702
        45 -10.8533     21.8150     86.1528   1.2897316955e+02   5.6270367943e+01    0.1712787    0.1134637 -40.56 0.0003529356    1.314    0.239
        46 -10.6890     49.9299     84.3155   1.1926597516e+02   5.3956442685e+01      0.17136    0.1538611 -22.75  0.000440255    1.103    0.094
        47 -10.5015    129.2988     83.2828   9.5234442217e+01   4.0573348930e+01    0.1481913    0.1173032   9.88 0.0002510599    1.546    0.353
        48 -10.1335     66.3106     76.6715   1.1173646173e+02   5.3410726741e+01    0.1257544    0.1067803 -86.08 0.0006466323    1.665    0.399
        49 -11.5792    250.1164     74.2436   7.0663389648e+01   1.3727129829e+01    0.2143665    0.1698326 -48.42 0.0004196376    1.133    0.117
        50 -10.4058     32.7342     75.6771   1.2282122821e+02   5.7518678899e+01    0.1276822   0.07613242 -34.00 0.0001836173    1.562    0.360
        51 -12.9115     96.4319     72.1686   1.0090529691e+02   4.9345890708e+01    0.5052077        0.322  27.63 0.0007699329    1.767    0.434
        52 -11.7168     90.1579     73.1518   1.0309943871e+02   5.0298394063e+01    0.2136577    0.2012642  -8.83 0.0003638945    1.045    0.043
        53 -10.8711     18.9259     72.2898   1.2677409045e+02   5.9350949008e+01    0.1579653    0.1312583 -26.76 0.0006780359    1.168    0.144
        54 -11.3684     76.8618     70.8694   1.0654548343e+02   5.2949423798e+01    0.2113482    0.1679011 -13.81 0.0006919132    1.264    0.209
        55 -10.4571     83.4385     68.4877   1.0370485717e+02   5.2316332503e+01    0.1366364    0.1231867 -15.78 8.326959e-05    1.010    0.010
        56 -12.6913    125.5968     57.4185   8.8209237579e+01   4.5875168091e+01    0.3256117    0.2438299  48.77 0.0006302558    1.284    0.221
        57 -10.2704     25.4822     58.5663   1.2075726959e+02   6.1494940533e+01    0.1186816   0.09439635 -34.00  0.000179281    1.019    0.019
        58 -12.1376     67.2065     53.5149   1.0404990921e+02   5.7504907041e+01    0.3645863    0.2797014 -61.29  0.002048665    1.906    0.475
        59 -10.8956    210.8104     54.2248   7.1198710775e+01   2.5805954750e+01    0.1713659    0.1615645  40.88 0.0003637818    1.279    0.218
        60 -10.8092    132.8390     53.8210   8.5323278025e+01   4.4791605357e+01    0.2109101    0.1789217  27.59  0.000462779    1.202    0.168
        61 -11.2821    145.3876     50.9237   8.1624685783e+01   4.2287980997e+01    0.2288583    0.1908229  68.09 0.0004030817    1.212    0.175
        62 -11.1888     95.2057     49.2219   9.3676494911e+01   5.3416862058e+01    0.1956965    0.1658669  11.93 0.0004373592    1.113    0.101
        63 -12.5057     42.3063     47.6908   1.1097114537e+02   6.1757871341e+01    0.2888004    0.2464147   8.12 0.0007079096    1.215    0.177
        64 -12.0421     41.4628     42.6781   1.0954343467e+02   6.2679900472e+01    0.3384624    0.2248007   1.71  0.001867389    1.565    0.361
        65 -11.5703      2.6217     46.8934   1.2626143965e+02   6.5253894286e+01    0.1822599    0.1508062   1.81 0.0008202872    1.383    0.277
        66 -11.0267    156.8672     43.8638   7.7200372886e+01   4.0512160478e+01    0.2041344    0.1778801  38.37 0.0004371494    1.185    0.156
        67 -11.1301     82.0295     34.7555   9.2445466370e+01   5.7881940116e+01    0.1847371    0.1529753  21.88  0.001158022    1.083    0.076
        68 -10.7992    176.4364     33.4548   7.0892775945e+01   3.7060436227e+01    0.1374229    0.1234032  79.41 2.754981e-05    1.008    0.008
        69 -12.8401    225.6755    248.1768   1.1076928441e+02  -1.0653541523e+01    0.2707829    0.2177165 -21.40  0.001830434    1.312    0.238
        70 -12.7679    194.0018    248.8541   1.1673559406e+02  -5.6834307744e+00    0.3038279    0.2113242  60.57   0.00169213    1.940    0.485
        71 -10.4124     36.9960     27.4657   1.0558839037e+02   6.5498231791e+01    0.1522406    0.1017261  21.99 1.706155e-05    1.464    0.317
        72 -11.7318     83.5343     22.5845   8.7375893918e+01   5.9094861158e+01    0.2600781    0.2182525  15.21  0.001025825    1.021    0.020
        73 -11.9242     64.3214     17.6497   9.1459589345e+01   6.2953764150e+01    0.3710984    0.1851936  41.07  0.001824609    1.856    0.461
        74 -12.7200    233.7677    246.8696   1.0909262239e+02  -1.1707682700e+01    0.1991561    0.1743006 -44.28  0.001370598    1.608    0.378
        75 -13.1173    244.5936    246.7569   1.0715117321e+02  -1.3282510273e+01    0.3833411    0.2245598   8.20  0.002124699    1.920    0.479
        76 -13.0660    232.2200    237.6563   1.0780133355e+02  -1.0241681750e+01     0.272549    0.1914607  20.57  0.001506328    1.262    0.207
        77 -12.1728    244.9799    235.9690   1.0521993669e+02  -1.1944143217e+01     0.166712    0.1570082  71.28  0.001145171    1.726    0.421
        78 -13.1633    188.0399    232.7874   1.1529878414e+02  -2.1951931687e+00    0.3493427    0.2020763  45.71  0.001781249    1.605    0.377
        79 -12.5471    194.2041    229.3787   1.1352828842e+02  -2.7230171391e+00    0.3077839    0.2164923 -72.01  0.001516981    2.524    0.604
        80 -11.5923    216.0122    229.4917   1.0937260636e+02  -6.4678870765e+00    0.2028523    0.1134368  38.40  0.001042087    1.618    0.382
        81 -11.7814    236.7817    227.1814   1.0512417230e+02  -9.4873647468e+00    0.1843341    0.1453092  87.40 0.0009559147    2.853    0.650
        82 -11.5084    191.4908    217.4719   1.1199274518e+02  -2.5772369906e-01    0.1354518    0.1220296  28.53  0.000138593    1.017    0.017
