#   1 NUMBER                 Running object number                                     
#   2 MAG_AUTO               Kron-like elliptical aperture magnitude                    [mag]
#   3 X_IMAGE                Object position along x                                    [pixel]
#   4 Y_IMAGE                Object position along y                                    [pixel]
#   5 X_WORLD                Barycenter position along world x axis                     [deg]
#   6 Y_WORLD                Barycenter position along world y axis                     [deg]
#   7 A_WORLD                Profile RMS along major axis (world units)                 [deg]
#   8 B_WORLD                Profile RMS along minor axis (world units)                 [deg]
#   9 THETA_WORLD            Position angle (CCW/world-x)                               [deg]
#  10 FWHM_WORLD             FWHM assuming a gaussian core                              [deg]
#  11 ELONGATION             A_IMAGE/B_IMAGE                                           
#  12 ELLIPTICITY            1 - B_IMAGE/A_IMAGE                                       
         1 -13.6296    224.7386     29.3286   3.7301675131e+01   2.6264714269e+01     1.009782    0.7719405  44.88  0.006076437    1.712    0.416
         2 -11.9623    249.4957      8.5003   3.0962886654e+01   2.3509057336e+01    0.3865209     0.279665 -38.39  0.001791851    1.428    0.300
         3 -12.1668    248.8323      4.7037   3.0265175677e+01   2.4053543427e+01    0.4223337    0.3463493  69.59  0.001886301    1.439    0.305
         4 -11.3127      3.0519      3.4962   8.7096530307e+01   7.4040344170e+01    0.2899235    0.2011669   1.69  0.002113662    1.238    0.192
         5 -12.5295     76.2865    157.6763   1.0150732500e+02   3.2929708365e+01    0.7527238    0.5772621  63.52  0.001581689    1.383    0.277
         6 -15.3755     88.6396    247.6228   1.1020956336e+02   1.1274928811e+01     10.04367     2.291627  36.24   0.03614772    3.736    0.732
         7 -15.8026      4.4564    241.6366   1.2557926101e+02   2.2411519294e+01     13.53162    0.5816856 -76.16   0.03517462   10.841    0.908
         8 -12.7734     68.1175    144.1878   1.0145547251e+02   3.7466875532e+01     0.739549     0.522709  68.41  0.002974804    1.661    0.398
         9 -10.8334     92.5377    144.4892   9.4566419100e+01   3.3679317987e+01     0.295987     0.277394 -64.08 0.0009433657    1.021    0.021
        10 -11.5797     80.1171    142.6865   9.7736995357e+01   3.6102477886e+01    0.3249703    0.2705143 -57.52 0.0003424494    1.132    0.117
        11 -12.8962     57.5466    132.1410   1.0239064039e+02   4.1893718263e+01     1.378972    0.5016614 -73.75  0.003754318    5.087    0.803
        12 -12.9635     18.0750    209.5991   1.2125652859e+02   2.7621428389e+01    0.5893086     0.390984 -63.41 0.0008059168    1.600    0.375
        13 -13.4989     10.0564    206.9208   1.2270200998e+02   2.8961679081e+01    0.8076978    0.6407325  35.47  0.004154804    1.491    0.329
        14 -10.5696    106.0269    131.6564   8.7972460265e+01   3.4469535166e+01    0.3806189    0.3250625 -28.21 0.0009861989    1.260    0.207
        15  -9.9077     92.5796    128.5858   9.1157368184e+01   3.7596179848e+01    0.2804788    0.2454303  -5.43 0.0007667487    1.312    0.238
        16  -9.5325    104.1396    120.1849   8.5773564172e+01   3.7570332364e+01    0.2249426    0.2030356 -15.98  0.000343083    1.186    0.157
        17 -15.5289     26.4566    201.9646   1.1896215206e+02   2.8454627252e+01     2.930161     1.964254  89.06   0.01198708    1.279    0.218
        18 -10.2070     52.8966     89.6816   9.4676464803e+01   5.2813759647e+01    0.1902065    0.1793585 -14.06 0.0008987322    1.105    0.095
        19  -8.4476     63.3029     83.6610   8.9274280695e+01   5.2794742288e+01    0.1364799    0.1130267  86.00 0.0005686035    1.671    0.402
        20  -9.8190     59.6904     76.6775   8.8550561075e+01   5.4825222363e+01    0.2273946    0.1026054 -33.15 0.0003506147    2.703    0.630
        21  -9.4808    107.3529    173.3143   9.6049676947e+01   2.4184615199e+01    0.1496677    0.1165109 -14.60 0.0007045864    1.733    0.423
        22 -10.6918     68.3792    165.1838   1.0482172809e+02   3.2187430750e+01    0.2614341    0.2354423 -60.28 0.0004008628    1.133    0.117
        23 -12.8619     54.2792    161.6628   1.0803855101e+02   3.4889788830e+01    0.5249718    0.3391435 -41.13  0.001577803    1.851    0.460
        24 -11.6824     49.4240    181.8605   1.1182093195e+02   3.0556731565e+01    0.4186231    0.3064429 -23.41  0.001296967    2.080    0.519
        25 -11.2939     56.7124    175.2794   1.0922948879e+02   3.1247245451e+01    0.2831089    0.2682807 -21.66 0.0006306205    1.313    0.238
