#   1 NUMBER                 Running object number                                     
#   2 MAG_AUTO               Kron-like elliptical aperture magnitude                    [mag]
#   3 X_IMAGE                Object position along x                                    [pixel]
#   4 Y_IMAGE                Object position along y                                    [pixel]
#   5 X_WORLD                Barycenter position along world x axis                     [deg]
#   6 Y_WORLD                Barycenter position along world y axis                     [deg]
#   7 A_WORLD                Profile RMS along major axis (world units)                 [deg]
#   8 B_WORLD                Profile RMS along minor axis (world units)                 [deg]
#   9 THETA_WORLD            Position angle (CCW/world-x)                               [deg]
#  10 FWHM_WORLD             FWHM assuming a gaussian core                              [deg]
#  11 ELONGATION             A_IMAGE/B_IMAGE                                           
#  12 ELLIPTICITY            1 - B_IMAGE/A_IMAGE                                       
         1 -15.0206    247.5570     39.0476   3.5967291095e+02   2.0417666709e+01     2.090207    0.4677915 -33.46  0.007878753    3.566    0.720
         2 -10.2349    159.2836     54.9534   1.3386265888e+01   3.7727153361e+01    0.2115951     0.187292 -51.48 0.0009712944    1.084    0.078
         3  -9.9020    236.0000    229.9892   3.9147989771e+01  -5.5424882902e+00    0.1725162   0.05343949 -36.10 0.0008023061    2.942    0.660
         4 -10.3846    249.6458    215.4429   3.4587605631e+01  -5.1952150722e+00    0.2001029   0.08454066 -44.04 0.0009493736    3.303    0.697
         5 -10.1691    198.5768    214.2362   4.3140971569e+01   1.1780641110e+00    0.1802432    0.1013673 -25.93 0.0009589999    1.743    0.426
         6 -10.1754    192.0000    208.9574   4.3499623096e+01   2.9008870943e+00    0.1982138   0.06725455 -41.48 0.0008018784    2.939    0.660
         7 -10.2886    236.6488    207.8161   3.5358445632e+01  -2.7201822031e+00      0.21939    0.1371542 -52.07  0.001147705    3.001    0.667
         8 -10.9895     98.6765    203.4889   6.3424971633e+01   1.8064285029e+01    0.3748776    0.1239236 -57.80  0.001366226    3.210    0.688
         9 -10.3137    197.3912    203.6822   4.1551466295e+01   2.9838849742e+00    0.2323427     0.114253 -43.28  0.001060315    2.142    0.533
        10 -10.1690    183.7500    202.9870   4.4087757479e+01   5.0604339969e+00    0.1695647    0.1043381 -37.59 0.0008941554    1.607    0.378
        11 -10.0005    210.6266    200.2209   3.8486448017e+01   1.6919942617e+00    0.1823966    0.1000998 -27.71  0.000956671    1.688    0.407
        12 -10.3801    140.0000    197.9814   5.2660887436e+01   1.2758133329e+01    0.2203106   0.07956532 -50.31 0.0008073829    2.977    0.664
        13 -10.6850    123.5765    197.3111   5.6429348260e+01   1.5527098467e+01    0.2596599    0.1424811 -59.04  0.001146919    2.137    0.532
        14 -10.8734    111.5176    196.5124   5.9250588395e+01   1.7611412079e+01    0.1416586    0.1300071  35.68 9.653747e-05    1.003    0.003
        15  -9.9520    215.6394    194.8938   3.6631932623e+01   1.8263100955e+00    0.1734257    0.1049906 -43.28 0.0009406385    1.803    0.445
        16 -10.9419    245.8475    192.6105   3.1225179895e+01  -1.7297992816e+00    0.3170361    0.2045197 -49.04  0.001827456    2.294    0.564
        17 -10.5275    224.5412    192.8317   3.4715429051e+01   9.3979859590e-01    0.2943085    0.1048926 -40.12  0.001289151    2.612    0.617
        18 -10.5381    185.0000    193.5200   4.2146689223e+01   6.4862054492e+00    0.2802028   0.07124335 -43.01 0.0009277636    3.879    0.742
        19 -10.8655    129.2405    186.0085   5.3181045391e+01   1.7002500745e+01    0.3483333    0.1520737 -39.69  0.001288974    2.750    0.636
        20  -9.7157    164.6714    184.6660   4.4747950019e+01   1.1334701199e+01    0.1479083    0.1028711  -6.05 0.0007051908    1.722    0.419
        21 -11.0424    120.0000    183.5362   5.5043478138e+01   1.9091002189e+01    0.3053067   0.08381093 -54.01 0.0009247641    3.855    0.741
        22 -11.3467     94.3952    182.9992   6.1583845903e+01   2.3382115882e+01    0.7430406    0.2210941 -57.42  0.002443842    3.363    0.703
        23 -10.3621     59.0000    175.0565   7.0197136101e+01   3.0498310396e+01    0.2362055   0.07946987 -67.92 0.0008059771    2.967    0.663
        24 -10.6818    120.8158    169.4146   5.2301564828e+01   2.2156014006e+01    0.2875414    0.1185424 -55.88  0.001009549    2.650    0.623
        25 -10.1887    149.7560    168.2492   4.4926437890e+01   1.7223979199e+01    0.2445932    0.1114074 -37.33 0.0009030178    2.449    0.592
        26 -10.9760    212.5758    161.8616   3.0803881843e+01   7.6241650772e+00    0.4100508      0.11441 -38.20  0.001442154    3.178    0.685
        27  -9.8182    227.0000    158.0126   2.7614498639e+01   6.0250944162e+00    0.2149152   0.06265193 -38.09 0.0007953145    2.893    0.654
        28  -9.7966    204.3244    153.3405   3.0492285998e+01   1.0449005984e+01    0.1436862   0.09901543  -6.87 0.0007051096    1.728    0.421
        29 -11.0265    249.2993    149.8799   2.2656131381e+01   4.0357622017e+00    0.2564788    0.0848337 -40.93  0.001087239    2.540    0.606
        30 -10.3222    189.3834    149.1697   3.2376374273e+01   1.3825246197e+01    0.2102647    0.1239445 -47.83 0.0009547882    1.733    0.423
        31  -9.8005    191.3150    185.9943   3.9499689832e+01   6.8186155476e+00    0.2002059    0.1063802 -59.15  0.000704012    4.200    0.762
        32 -10.1542    148.0131    144.5099   4.0255103014e+01   2.2684340589e+01     0.212549     0.134204  65.16 0.0008095051    2.457    0.593
        33 -10.7094    105.1954    142.8260   5.1226024814e+01   3.1425428761e+01    0.2798847    0.1721996  75.48 0.0009547333    2.933    0.659
        34  -9.9792    207.4755    136.9875   2.6403883333e+01   1.2797132251e+01     0.199346    0.1071337 -55.35 0.0008098636    2.547    0.607
        35 -10.5115    197.6777    133.6602   2.7371160456e+01   1.5183250182e+01    0.2493382    0.1335247 -35.79  0.001106324    1.693    0.409
        36 -10.6313     69.0329    135.8549   6.1013635669e+01   3.9434104189e+01    0.2610223    0.2134606 -64.19 0.0003988844    1.175    0.149
        37 -10.5331    179.3372    132.8875   3.0663663212e+01   1.8860825142e+01    0.3078243     0.122743 -47.44  0.001087888    2.553    0.608
        38 -10.4016    143.0000    131.0008   3.8285069031e+01   2.6700869475e+01    0.2656739   0.08734386 -45.67 0.0008035986    2.951    0.661
        39  -9.9469    204.6480    130.3098   2.5393954574e+01   1.4496777683e+01    0.1384389    0.1068895 -68.57 0.0007044216    1.720    0.419
        40 -10.7816    152.4930    128.5337   3.5407486987e+01   2.5253940335e+01    0.2918201    0.1417643 -53.67  0.001039142    2.365    0.577
        41 -10.1562     38.9919    128.7217   7.0038617625e+01   4.5369173941e+01    0.2812621     0.131852  69.99 0.0009045237    3.460    0.711
        42 -11.2709     11.4316    127.7588   7.9601269955e+01   4.8142075306e+01    0.2841904    0.1227375 -83.45  0.001145363    2.166    0.538
        43 -10.8396     97.8666    126.4572   4.9706649416e+01   3.6946771254e+01    0.3697769    0.1915998 -68.60  0.001219642    2.786    0.641
        44 -11.3886     58.1936    122.0165   6.1996833657e+01   4.4782026397e+01    0.4234349    0.1324742 -70.41   0.00102687    5.123    0.805
        45 -11.1853     82.9902    120.7314   5.3123315577e+01   4.1161191283e+01    0.3093404    0.2280665 -57.11 0.0006557833    1.316    0.240
        46 -10.4466     70.0000    117.0198   5.6714902563e+01   4.4340717711e+01    0.2674733   0.08650554 -58.51 0.0008049971    2.960    0.662
        47 -11.0496      2.0000    115.9920   8.1789885055e+01   5.1921848853e+01    0.2353304   0.06712914 -77.80 0.0008043849    2.956    0.662
        48 -10.5328    185.5099    115.4986   2.5299270802e+01   2.0966563348e+01    0.1485103     0.133932 -42.29 0.0008104911    1.024    0.024
        49 -11.0345    108.3489    112.8502   4.3044765180e+01   3.8243614096e+01    0.3338862    0.1493127 -56.82  0.001087698    2.586    0.613
        50 -10.9797     91.9179    112.2705   4.8051303873e+01   4.1687241649e+01    0.4143648    0.2155002 -69.10  0.001330938    2.979    0.664
        51 -11.2729     78.2104    111.7713   5.2562750315e+01   4.4341223539e+01    0.5063839    0.2650267 -77.59  0.001501953    3.750    0.733
        52 -10.8667     13.3909    108.3372   7.6584929628e+01   5.3292490933e+01    0.4221461     0.158572 -73.69  0.001623742    2.308    0.567
        53 -10.0719     65.3516    109.6740   5.6661477690e+01   4.7033370048e+01    0.1656111    0.1185327  70.66 0.0007048014    1.761    0.432
        54  -9.8443    139.3283    104.6319   3.2299315508e+01   3.3315250615e+01    0.1691788    0.1249011 -79.12 0.0007034324    1.815    0.449
        55 -11.0563    127.9654    100.3191   3.3974870594e+01   3.6845215571e+01    0.4895202     0.219522 -47.64  0.001713758    2.219    0.549
        56 -10.8784      6.0000    101.9746   7.8703871452e+01   5.5477377724e+01    0.2380978   0.06837711 -75.15 0.0008058391    2.966    0.663
        57 -10.4516    246.3320    101.3108   1.3055102047e+01   1.1908283812e+01    0.1207004   0.09170184  -7.08  0.000704304    1.673    0.402
        58 -10.8105     43.3355    100.6630   6.3105158430e+01   5.2526379694e+01    0.1576618    0.1109557  68.43 0.0007051789    1.747    0.428
        59 -11.1290     19.7040     98.2845   7.2477040726e+01   5.5546683746e+01    0.3969758     0.163733  88.19  0.001215953    4.105    0.756
        60 -10.7209    107.4013     98.2212   3.9201659868e+01   4.1916490015e+01    0.2338169    0.1506734 -57.63 0.0007479686    1.684    0.406
        61 -11.0903     94.4497     93.2042   4.1807991062e+01   4.5844710737e+01    0.5825737    0.2695868 -36.17  0.001922551    2.718    0.632
        62 -11.3304     62.8130     95.8091   5.4070789610e+01   5.1056925096e+01    0.3713378    0.2017327 -83.66  0.001077456    4.253    0.765
        63 -11.2626    124.2889     90.6309   3.2078663970e+01   3.9788897492e+01    0.3486417    0.2633016 -80.30  0.001136525    1.714    0.417
        64 -11.0674     34.2555     85.5010   6.3434236147e+01   5.7577877210e+01    0.6297865    0.1608288 -50.36  0.001989209    3.240    0.691
        65 -11.3618    104.2635     83.1792   3.5487530222e+01   4.5989270679e+01    0.3910128    0.2407632 -65.66  0.001466193    2.306    0.566
        66 -10.9778     47.8160     84.0026   5.6994125463e+01   5.6293604128e+01    0.2491869    0.1744068  83.87  0.001088047    2.043    0.511
        67 -10.8293     23.5982     77.5576   6.6480138328e+01   6.0681597833e+01    0.4246253    0.1245242 -65.15  0.001419963    3.074    0.675
        68 -14.0469    238.1201     70.0464   7.1609141843e+00   1.8009594143e+01    0.4751807    0.3652107 -52.23  0.003023073    1.078    0.073
        69 -11.1443     81.7074     72.7187   3.9518846214e+01   5.3121019131e+01    0.3082608    0.1886062 -66.07  0.001168882    2.428    0.588
        70 -10.3910     12.0374     74.0000   7.1371314985e+01   6.2484550891e+01    0.2029771   0.07862002  15.19 0.0007990393    2.919    0.657
        71 -10.4531     95.0445     71.5986   3.4487227580e+01   5.0504392179e+01    0.3457772    0.1890459 -58.21  0.001260863    2.440    0.590
        72  -9.9957    105.5140     71.5105   3.1169737189e+01   4.8135111565e+01    0.1555814    0.1509244 -83.55 7.498367e-05    1.048    0.046
        73 -10.8408     50.8731     68.8600   5.0879737030e+01   5.9534046210e+01    0.5392723    0.2235347 -67.40   0.00125931    6.979    0.857
        74 -10.7426    118.8554     69.8195   2.6824206438e+01   4.5284180584e+01    0.2175447    0.2074293  12.84  0.000256235    1.138    0.121
        75  -9.7188    154.5571     67.8135   1.8130581631e+01   3.6817280333e+01    0.2058093    0.1331803 -49.16 0.0003656646    1.506    0.336
        76 -11.2683     85.8507     86.5495   4.2676063444e+01   4.9163079705e+01    0.3033077    0.2122478 -88.63  0.001192144    2.293    0.564
        77 -10.7964    127.7720     74.5243   2.6097907902e+01   4.2216344145e+01    0.4593564    0.1824299 -50.88  0.001436339    3.077    0.675
        78  -9.9183    131.0101     57.5014   1.9664926309e+01   4.4452157708e+01     0.206087    0.1307138 -88.51 0.0005394075    2.274    0.560
        79 -10.0241    187.6927    231.6564   4.8016950814e+01   9.6173474145e-03    0.1275243   0.07957079  -3.77 0.0007043196    1.693    0.409
        80 -10.4076     86.5277     53.8021   3.0621962096e+01   5.5860191524e+01    0.2954036    0.1483346 -32.54  0.001147144    2.194    0.544
        81 -10.5782     62.4215     53.4050   3.9784431312e+01   6.0913138530e+01    0.3302948     0.137762 -42.30  0.001245337    2.374    0.579
        82 -10.8794    226.6545     53.7000   4.5869902959e+00   2.2543298297e+01     0.115506   0.09979101  17.27 0.0007037161    1.680    0.405
        83 -11.0016     28.1569     43.7207   5.3117535102e+01   6.8188028406e+01     0.416365    0.1492481 -48.23  0.001655077    2.459    0.593
        84 -11.7405    238.3264     42.3226   1.0457058641e+00   2.1751697650e+01    0.1904575    0.1705241 -45.45 0.0006023896    1.243    0.195
        85 -10.7202     69.4051     41.2007   3.1523159389e+01   6.1763070918e+01    0.1996659    0.1323173 -47.20 0.0007776794    1.693    0.409
        86 -10.6320     36.7897     40.3235   4.6649093090e+01   6.7740660261e+01      0.35465    0.1861231 -56.21   0.00153521    2.380    0.580
        87 -10.7508    122.0912     36.8257   1.4255794480e+01   4.9836375233e+01    0.2858941    0.2292383  66.68  0.001046208    1.179    0.152
        88 -10.5420    176.8238     33.2105   4.5483635273e+00   3.6416273388e+01    0.2058099    0.1639563 -69.05  0.000396404    1.124    0.110
        89  -9.8571     89.0000     32.9843   2.0989608302e+01   5.8610332187e+01    0.2310271   0.08217724 -30.80 0.0008074392    2.977    0.664
