#   1 NUMBER                 Running object number                                     
#   2 MAG_AUTO               Kron-like elliptical aperture magnitude                    [mag]
#   3 X_IMAGE                Object position along x                                    [pixel]
#   4 Y_IMAGE                Object position along y                                    [pixel]
#   5 X_WORLD                Barycenter position along world x axis                     [deg]
#   6 Y_WORLD                Barycenter position along world y axis                     [deg]
#   7 A_WORLD                Profile RMS along major axis (world units)                 [deg]
#   8 B_WORLD                Profile RMS along minor axis (world units)                 [deg]
#   9 THETA_WORLD            Position angle (CCW/world-x)                               [deg]
#  10 FWHM_WORLD             FWHM assuming a gaussian core                              [deg]
#  11 ELONGATION             A_IMAGE/B_IMAGE                                           
#  12 ELLIPTICITY            1 - B_IMAGE/A_IMAGE                                       
         1 -12.3756     42.8594     20.2828   9.3180582709e+01   6.7651405351e+01    0.5912068    0.3525363  27.81  0.002084407    1.952    0.488
         2 -12.0331    216.0714     15.2466   5.0202813498e+01   2.8783835464e+01    0.5987196    0.4661997   2.87  0.002432982    1.503    0.335
         3 -13.1443    189.0111      8.5825   5.1127423732e+01   3.6583088476e+01    0.6345159    0.3573531 -80.77  0.002633589    2.193    0.544
         4 -10.9521     56.4775      9.5190   8.2023578195e+01   6.7476615420e+01    0.3136782    0.1871181 -35.11  0.001028615    1.496    0.331
         5 -11.8566     59.6013      7.1813   7.9526931336e+01   6.7307631365e+01    0.2882227    0.2496212   1.51  0.001402089    1.082    0.076
         6 -10.2891    109.4788      8.5356   6.4619710201e+01   5.7127459937e+01      0.13875    0.1290444  11.74 0.0002746221    1.021    0.021
         7 -11.9276    167.3842      1.8446   5.1525718038e+01   4.3021696210e+01    0.6172915    0.1476175  71.12  0.001771379    4.145    0.759
         8 -11.6734     44.2170      8.6130   8.6832990841e+01   6.9417199849e+01    0.2552633    0.1934375 -32.24 0.0008628194    1.152    0.132
         9 -10.3243    185.2217    223.1611   1.0343533092e+02   5.3970084792e+00    0.1555162    0.1165019  52.38  0.001070433    1.337    0.252
        10 -10.7579    149.3670    222.0561   1.0937186252e+02   1.1232674438e+01    0.3124364     0.111118 -50.42  0.001509198    3.586    0.721
        11 -10.1750    173.6755    221.5071   1.0515322676e+02   7.4446414636e+00    0.1737991    0.1084443 -44.01  0.001099002    2.046    0.511
        12 -10.6569    226.3715    221.2102   9.6480042613e+01  -8.3531984849e-01    0.1313351    0.1020643 -34.77 0.0009452831    1.695    0.410
        13 -10.6820    238.1386    211.9780   9.3212103600e+01  -1.6996489118e+00    0.3122791    0.2432853 -72.31  0.001815963    3.245    0.692
        14 -11.5662    223.2238    213.7011   9.5839842645e+01   4.3806545282e-01    0.3011619    0.1350633  27.78  0.001492335    2.396    0.583
        15 -10.8297    115.8915    209.3112   1.1381301172e+02   1.8336885444e+01    0.2465621    0.1487799 -74.61   0.00146627    2.066    0.516
        16 -10.2369    185.5226    204.0320   1.0066282504e+02   7.7677868555e+00    0.1466386    0.1052655 -74.55 0.0008098051    2.521    0.603
        17 -10.5095     48.8389    201.6852   1.2526637279e+02   2.8703504489e+01    0.2403272   0.09395178  80.84  0.001092471    3.445    0.710
        18 -11.0605      4.8750    199.4595   1.3280063805e+02   3.3583794977e+01    0.2716751    0.0964871  55.35  0.001127554    2.018    0.504
        19 -10.5560    148.5100    194.5037   1.0593988566e+02   1.5450688880e+01    0.1236479    0.1038744  47.92 0.0008105229    1.019    0.019
        20 -12.3311    160.1797    192.2695   1.0344541315e+02   1.3795855909e+01    0.5717527    0.3987695  74.76  0.002929613    1.997    0.499
        21  -9.7256    133.2989    195.6646   1.0894794027e+02   1.7804491174e+01    0.1231297   0.08437292  71.09 0.0003467345    1.654    0.395
        22 -10.0253    215.2005    193.8098   9.3950604363e+01   4.0297420503e+00    0.2389221   0.08668581 -41.60  0.001031489    3.486    0.713
        23 -10.1556     94.6859    187.0257   1.1530345491e+02   2.5357014191e+01    0.1879148   0.08786283 -87.76 0.0007047237    4.286    0.767
        24 -10.5970    183.2681    183.1082   9.7735422904e+01   1.1077753676e+01    0.2887366    0.1759924 -36.17  0.001571958    1.900    0.474
        25 -10.5424    224.3111    183.6645   9.0667060194e+01   3.7111616235e+00    0.1091645    0.0992581  84.92 0.0007044489    1.682    0.406
        26 -10.2012     77.0615    176.0367   1.1759243300e+02   2.9945584666e+01    0.2023066    0.1181533  69.43   0.00112879    1.703    0.413
        27  -9.5392     28.6572    176.6883   1.2729649664e+02   3.5570390801e+01   0.09591699   0.07899614 -56.30 0.0005862778    1.701    0.412
        28 -12.1174     35.8946    173.9342   1.2568345500e+02   3.5361191891e+01    0.4342009    0.1615233  55.61  0.002240208    2.356    0.576
        29 -12.0420    121.2272    167.7546   1.0737903894e+02   2.4745173175e+01    0.5399773    0.1688456 -53.24  0.002077309    3.430    0.708
        30 -10.8780     55.5542    167.6976   1.2115264043e+02   3.4378675886e+01    0.3657474    0.1758955  81.78   0.00179245    2.440    0.590
        31 -10.1040    138.4081    164.2102   1.0325593079e+02   2.2388154650e+01    0.1823438     0.124069 -67.55 0.0009533213    1.760    0.432
        32 -11.6239    106.3963    158.0257   1.0904988065e+02   2.9110915203e+01     0.569742    0.3252443  73.50  0.002574342    2.446    0.591
        33 -10.2654     92.9804    160.6647   1.1234736342e+02   3.0697590056e+01    0.2180139    0.0724889  56.03 0.0007047412    4.312    0.768
        34 -11.0979    167.6406    157.0921   9.6053448900e+01   1.8142099343e+01    0.3442714    0.2554874  87.95  0.001738738    1.988    0.497
        35 -11.3113    121.3642    157.7100   1.0576356197e+02   2.6645818028e+01    0.2445247    0.1671868  56.70 0.0008361874    1.385    0.278
        36 -10.7756    218.4824    156.4968   8.6483714051e+01   8.3255170636e+00    0.2327189    0.1157679 -43.74  0.001041621    2.430    0.588
        37  -9.7998     88.2486    168.2532   1.1436035396e+02   2.9886864021e+01    0.1910643   0.09600142 -78.06 0.0008902497    2.431    0.589
        38  -9.2874     23.3113    153.6698   1.2671792929e+02   4.0714157361e+01    0.1209195   0.06394669  69.45 0.0004017528    1.670    0.401
        39 -10.4310    189.8558    150.7447   9.0487429646e+01   1.4795535797e+01    0.2559564    0.1836607 -67.36  0.001248952    2.118    0.528
        40 -10.8899    106.8880    145.0196   1.0685173908e+02   3.1677964951e+01     0.401423    0.2190426  87.81  0.001444444    3.802    0.737
        41 -10.4556    148.7410    145.1453   9.7623458668e+01   2.3984347128e+01    0.2386624    0.1528497  85.84 0.0009260939    2.867    0.651
        42 -10.3420    181.7107    141.7141   9.0172698430e+01   1.7935859291e+01    0.2800765    0.1677738 -60.53  0.001174404    2.561    0.610
        43 -10.6648     83.6478    132.5507   1.1024536608e+02   3.8038814650e+01    0.3828412    0.1812219  65.28  0.001441367    3.352    0.702
        44 -12.0854     98.5682    127.8811   1.0576886268e+02   3.6706460533e+01    0.6808513    0.3684385 -84.52  0.002511741    3.413    0.707
        45 -10.6445     59.2458    124.6303   1.1508578877e+02   4.3140359641e+01    0.3575479    0.1689062  84.13  0.001311251    3.799    0.737
        46 -11.0570     43.3881    122.9997   1.1890137176e+02   4.5340763897e+01    0.4578027    0.1953323  84.51  0.001665965    4.049    0.753
        47 -11.2744     27.2402    121.1607   1.2278716638e+02   4.7346378953e+01    0.6026019    0.2252471  81.60  0.002042426    4.968    0.799
        48 -11.7340    193.7446    118.9447   8.2675829477e+01   1.9200905186e+01    0.4950527    0.3937892  71.35  0.001820102    1.534    0.348
        49 -10.4615     71.0303    120.0489   1.1132095472e+02   4.2626945235e+01    0.2225345    0.1443448  78.64  0.001138492    1.769    0.435
        50 -11.6099    140.7549    116.3299   9.3191800119e+01   3.1223020404e+01    0.5367525    0.1787999 -50.17  0.001735102    3.302    0.697
        51 -10.7129    108.0857    112.3122   1.0020442807e+02   3.8443323792e+01     0.553539    0.1916191 -59.65  0.001707597    3.907    0.744
        52 -10.6144      2.3871    115.2044   1.2848770367e+02   5.0595224273e+01     0.163876   0.08123876 -89.34 0.0006928178    1.629    0.386
        53 -10.7051     78.3419    112.2717   1.0798071516e+02   4.3338074571e+01     0.415571    0.2173513 -83.84  0.001579018    3.179    0.685
        54 -11.8222    159.7660    111.0169   8.7637345692e+01   2.8178781524e+01    0.5287154    0.3063816 -51.60   0.00224135    1.905    0.475
        55 -10.9271    121.8785    111.7948   9.6630665377e+01   3.5962739753e+01    0.3790615    0.1892224 -63.28   0.00139592    2.763    0.638
        56 -10.5738     91.8714    111.4077   1.0421224185e+02   4.1432682138e+01    0.4271344    0.1800919 -69.43   0.00135457    4.060    0.754
        57 -10.5918    174.3259    111.2289   8.4612966287e+01   2.4884351771e+01    0.3404303    0.2194605 -49.68 0.0009921985    1.686    0.407
        58  -9.6306     98.8586    112.1715   1.0254624061e+02   4.0096689217e+01    0.1722049     0.161641 -25.18  0.001009711    1.275    0.216
        59 -11.5496     14.1282    109.6806   1.2494208625e+02   5.0985704034e+01    0.5944663    0.2497021 -81.35  0.003029433    2.013    0.503
        60 -11.9890     44.4085    100.9091   1.1535631991e+02   5.0241068032e+01    0.6027611    0.3126699  86.61  0.002686271    2.626    0.619
        61 -11.8686    150.4831    103.0949   8.7684548409e+01   3.1759672782e+01    0.3910915     0.205518 -56.38  0.001473006    2.424    0.588
        62 -11.7044    127.8608    101.3305   9.2595985610e+01   3.6957945763e+01    0.4288834    0.2119408 -53.71   0.00168318    2.172    0.540
        63 -12.4854    107.1193     98.1165   9.7112978089e+01   4.1701930930e+01    0.7131256    0.4617042  75.58  0.003049244    2.318    0.569
        64 -10.9955     81.9017    100.5295   1.0458568971e+02   4.5450376959e+01    0.2268758    0.1823355 -86.96    0.0007742    1.282    0.220
        65  -9.6198     89.7501     97.6349   1.0173400926e+02   4.4849536394e+01    0.1388306    0.1031919 -33.41  0.000695241    1.619    0.382
        66 -10.8486     62.5154     95.5273   1.0908211124e+02   4.9335806822e+01      0.29922     0.116968 -75.16 0.0008104739    5.855    0.829
        67 -12.8753    170.3690     90.9792   8.0086073611e+01   2.9460290945e+01    0.4080507    0.3655754 -77.57 0.0008419945    1.248    0.198
        68 -12.1047    140.5012    104.5137   9.0357322990e+01   3.3653650722e+01    0.4337188    0.3158569 -70.93  0.002014443    1.711    0.415
        69 -11.9156     42.1599     88.0026   1.1373401531e+02   5.3430408524e+01    0.3292284    0.2269267 -15.93   0.00126476    2.284    0.562
        70 -11.1307    104.6089     83.7038   9.3991592400e+01   4.5270629985e+01     0.370885    0.2358253 -80.61  0.001464106    2.697    0.629
        71 -10.7304      6.8201     85.1427   1.2420126821e+02   5.6968875263e+01    0.1597348     0.107309 -58.59 0.0004398962    1.337    0.252
        72 -11.2153     86.5275     86.7832   9.9990609781e+01   4.7788545947e+01    0.3450154    0.2369805  74.50  0.001382247    1.991    0.498
        73 -10.4681    140.5880     82.3459   8.4257515011e+01   3.8026871701e+01     0.306816    0.1403773 -44.36  0.001141583    2.151    0.535
        74 -11.3032     82.4136     73.2883   9.7564929438e+01   5.1412235830e+01     0.420783    0.2451639 -75.28  0.001636841    2.954    0.662
        75 -10.8517     62.3354     70.9326   1.0335301968e+02   5.4905039720e+01    0.4309852   0.09097395 -51.72  0.001360888    3.761    0.734
        76 -12.2626    223.6637     70.5624   6.4971865277e+01   1.9838662533e+01    0.2888978    0.2722898  68.52 0.0002329337    1.148    0.129
        77 -10.0995     94.5294     71.4961   9.3345930884e+01   4.9713979068e+01    0.2692946    0.1282841 -56.74  0.001034815    2.384    0.580
        78 -10.5463     51.9124     70.5349   1.0674048165e+02   5.6307729393e+01    0.2109221    0.1689881 -77.13  0.001271749    1.256    0.204
        79 -10.4264    195.0215     67.9806   6.8778561430e+01   2.7263139867e+01     0.189029     0.180975 -27.19  0.001015981    1.012    0.012
        80 -10.9264     39.4760     53.0223   1.0650981092e+02   6.1528995583e+01    0.2681561    0.1215755 -51.90 0.0008206313    1.759    0.432
        81 -13.5639     30.8736     59.8874   1.1155085933e+02   6.0856479032e+01     1.024751    0.7443833  38.99  0.004212439    1.666    0.400
        82 -11.1399    237.8152     63.9947   6.1256634645e+01   1.7415445825e+01    0.2520739    0.1400144 -50.00  0.001084656    1.983    0.496
        83 -10.0650    100.3388     60.6773   8.8157215398e+01   5.0832615198e+01    0.1466305    0.1140006 -79.97 0.0005591285    1.719    0.418
        84 -10.2257     72.6207     58.8066   9.6332164588e+01   5.6039192424e+01    0.2036488    0.1187315 -57.31 0.0009553113    1.726    0.421
        85 -11.3214      8.3823     56.2951   1.1918764262e+02   6.3299588282e+01    0.4898617    0.2412441 -82.96  0.002556327    2.107    0.525
        86 -10.0913    119.3379     56.6541   8.1421725614e+01   4.7661844322e+01    0.1555652    0.1168529 -72.52 0.0007048154    1.778    0.438
        87 -11.6792     19.5594     59.3617   1.1562478729e+02   6.1889872519e+01    0.2751418    0.2132844 -54.34 0.0009714797    1.123    0.110
        88 -11.6214     20.8283     50.8980   1.1319912936e+02   6.3653018911e+01    0.5671601    0.1997188 -60.67  0.002652652    2.113    0.527
        89 -12.6179    149.4015     51.9449   7.2513797776e+01   4.1381607421e+01    0.3661882    0.2981123  48.04 0.0004188581    1.242    0.195
        90  -9.6080     87.0027     50.0230   8.8562704941e+01   5.5404575818e+01    0.1650544     0.151877 -31.90 0.0009627891    1.016    0.015
        91 -10.4926     82.2696     47.1483   8.9059905180e+01   5.6794479507e+01    0.2399253    0.1834588  80.34 0.0007611027    1.981    0.495
        92 -10.6299    157.0096     44.9954   6.8535439479e+01   4.0545630147e+01    0.2281423    0.2219533  42.50 0.0004182838    1.035    0.034
        93 -11.6050     70.0158     42.1528   9.1418054282e+01   5.9784557411e+01    0.4391769    0.3000536  70.92  0.002058991    2.595    0.615
        94 -11.6269      6.8137     43.0034   1.1702105074e+02   6.6276867175e+01    0.3942608     0.256294  53.26  0.002271283    2.045    0.511
        95 -11.7987     41.8062     37.7865   1.0070490443e+02   6.4456338177e+01    0.5608382    0.3275513  -1.03  0.002622034    2.955    0.662
        96 -11.7216     46.6523     35.8879   9.8012829899e+01   6.4265750432e+01    0.5320174    0.3330706   9.66  0.001606137    2.272    0.560
        97 -10.6415     82.7392     38.1004   8.5416592699e+01   5.8385861746e+01    0.4050898     0.220168  59.69  0.001675849    2.850    0.649
        98 -11.1660    120.1608     34.3234   7.2907206363e+01   5.1235672351e+01    0.3013615      0.28106 -70.71 0.0006363004    1.215    0.177
        99 -10.9700    105.6583     30.6632   7.5292663311e+01   5.5055700779e+01    0.5252914    0.2226452  64.21  0.001698393    4.000    0.750
       100  -9.9247     59.2392     24.4370   8.8169267707e+01   6.4669886832e+01    0.1581667    0.1262651  50.44 0.0007812094    1.599    0.375
       101 -10.9367    220.8127    249.6120   1.0127721925e+02  -2.7454656613e+00    0.1526129   0.07630433  45.86 0.0009592564    1.758    0.431
       102 -10.9630    239.9747     20.5665   4.9373331148e+01   2.2252731231e+01    0.2568822     0.238034  61.87 0.0004845507    1.181    0.153
       103  -9.9083     32.6904    242.3228   1.3018728994e+02   2.3779713798e+01    0.1037444   0.04610174  63.43 0.0004340797    1.649    0.394
       104 -10.1688    134.2984     17.9795   6.3121207961e+01   5.0020994852e+01    0.2007991    0.1885733  -8.92 0.0005220599    1.053    0.051
       105 -10.8482      8.0040    240.7032   1.3377707129e+02   2.6493960699e+01    0.1347338   0.08477484  60.15  0.001011669    1.112    0.100
       106 -11.3844     22.5589    239.1056   1.3157358099e+02   2.5319777478e+01    0.3474921   0.08386473  64.77  0.001594195    4.159    0.760
       107 -10.7592     12.8872    227.3363   1.3258887598e+02   2.8126836435e+01    0.1621204    0.1057843  84.74 0.0005046563    1.277    0.217
       108 -10.1644    104.3650    225.1921   1.1744828743e+02   1.7538697520e+01    0.1405433   0.09362863 -87.05 0.0009492632    1.716    0.417
       109 -10.7487     95.7695    225.1849   1.1891528717e+02   1.8744015191e+01    0.1929111   0.08606156  66.14 0.0009550301    2.814    0.645
