#   1 NUMBER                 Running object number                                     
#   2 MAG_AUTO               Kron-like elliptical aperture magnitude                    [mag]
#   3 X_IMAGE                Object position along x                                    [pixel]
#   4 Y_IMAGE                Object position along y                                    [pixel]
#   5 X_WORLD                Barycenter position along world x axis                     [deg]
#   6 Y_WORLD                Barycenter position along world y axis                     [deg]
#   7 A_WORLD                Profile RMS along major axis (world units)                 [deg]
#   8 B_WORLD                Profile RMS along minor axis (world units)                 [deg]
#   9 THETA_WORLD            Position angle (CCW/world-x)                               [deg]
#  10 FWHM_WORLD             FWHM assuming a gaussian core                              [deg]
#  11 ELONGATION             A_IMAGE/B_IMAGE                                           
#  12 ELLIPTICITY            1 - B_IMAGE/A_IMAGE                                       
         1  -8.5287     38.6114     17.0061   7.8484917859e+01   6.8435532902e+01    0.3612012    0.1320319 -41.32  0.001602647    2.886    0.653
         2  -8.4636     97.0352     14.7800   5.5578334053e+01   5.8234278705e+01    0.2239636    0.1612358 -39.29 0.0006988341    1.675    0.403
         3  -8.3097     83.4407     11.1794   5.8017147549e+01   6.1481969291e+01     0.268216    0.1016055 -34.72  0.001123722    2.971    0.663
         4  -8.5570     55.8293     10.1402   6.7418413500e+01   6.6749613529e+01    0.1728026    0.1588359   4.04 0.0007055665    1.319    0.242
         5  -7.9214     47.4571     10.2106   7.1045040293e+01   6.8077063277e+01    0.1574064    0.1070103 -35.12 0.0009407006    1.700    0.412
         6  -8.1634     90.9967      9.0183   5.4863425773e+01   6.0104718536e+01    0.1835519    0.1576583 -68.49 0.0005831184    1.641    0.390
         7  -7.7441      5.6792      8.2961   9.2382022052e+01   7.3073686325e+01   0.09113133   0.08600022   7.97  0.000359196    1.616    0.381
         8  -8.5905     33.2817      5.0068   7.5139895587e+01   7.0724491439e+01    0.2567567    0.1715329 -45.80  0.001486031    2.341    0.573
         9  -8.4353     79.1427      4.3773   5.6324617684e+01   6.3003046103e+01    0.2230902     0.152655 -38.70  0.001032817    1.867    0.464
        10  -7.7842     44.6767      3.3344   6.8789029131e+01   6.9295995267e+01    0.1010371   0.09743749 -39.79 0.0005272699    1.709    0.415
        11  -7.8086    115.3021      2.5926   4.6473599154e+01   5.5156197580e+01    0.1315232   0.09470903 -63.15 0.0006985611    1.852    0.460
        12  -8.3854     62.3651      1.6125   6.0675886767e+01   6.6491250331e+01    0.1927473      0.13902  53.49 0.0005205063    1.586    0.369
        13  -7.6811     39.4193      1.5038   7.0256620626e+01   7.0284598972e+01    0.1184404   0.09223036   5.85 0.0001325826    1.051    0.049
        14  -9.9815    223.8609    244.1659   8.4987475850e+01  -7.8073223865e+00    0.4139313    0.2297889 -43.74  0.002277011    2.479    0.597
        15  -8.3069    191.3653    249.9676   9.2039987009e+01  -3.8902022424e+00    0.2030794    0.1503632  46.55  0.001265288    1.580    0.367
        16  -8.2873    183.9915    250.4564   9.3542711634e+01  -2.8558247443e+00    0.1931933   0.09890693  34.95 0.0005485124    1.573    0.364
        17  -8.4892     94.1170    249.5998   1.1128894288e+02   1.0872368480e+01     0.264566    0.1284184  58.92  0.001291324    2.221    0.550
        18  -9.1532    210.9290    246.5259   8.7776076555e+01  -6.2871170698e+00    0.1877534    0.1683488 -38.12 0.0008490828    1.607    0.378
        19  -9.1000    147.0217    245.8251   1.0025615241e+02   3.5405150611e+00    0.2890276    0.1992781  76.73  0.001477499    2.449    0.592
        20  -8.7252    146.5955    240.3651   9.9616558141e+01   4.4979939119e+00    0.3612396    0.2263383  69.42   0.00160791    2.823    0.646
        21  -9.1171    120.3668    245.5630   1.0562310546e+02   7.7050434812e+00    0.3652172    0.2257602  75.23  0.001844085    2.487    0.598
        22  -8.6605     67.7204    245.2346   1.1603295364e+02   1.5264627236e+01    0.2990024     0.142393  87.98  0.001427855    2.906    0.656
        23  -8.5965    139.4933    244.5078   1.0161217455e+02   4.9307408467e+00    0.1906804    0.1248183 -71.60 0.0009439582    2.309    0.567
        24  -8.3890     50.2310    245.1880   1.1934416149e+02   1.7470150442e+01    0.1744515   0.08028942  89.85 0.0008854763    2.542    0.607
        25  -8.3960    201.8585    243.2918   8.8999284324e+01  -4.5293960967e+00     0.179667    0.1620367 -20.45 0.0005756134    1.370    0.270
        26  -8.6431    169.0232    243.4888   9.5496875879e+01   4.6281774247e-01    0.1969896    0.1789413 -83.64 0.0006513787    1.574    0.365
        27  -8.6890     77.9802    243.6023   1.1389932580e+02   1.4198954698e+01     0.282237    0.1233373  61.44   0.00127933    2.683    0.627
        28  -7.9843     58.2971    244.6250   1.1778568785e+02   1.6582256256e+01    0.1264637   0.06778096  64.73 0.0007026312    1.746    0.427
        29  -7.4599     34.6532    244.3061   1.2215213570e+02   1.9445205969e+01    0.1226172   0.06008748  61.12 0.0004298128    1.697    0.411
        30  -8.6085      9.7815    243.8087   1.2650657022e+02   2.2136877244e+01    0.2617745   0.07843686  74.73  0.001067644    4.212    0.763
        31  -8.5322    213.8532    242.4547   8.6580528326e+01  -6.1695187326e+00    0.2064072    0.1937352  24.00  0.001475683    1.475    0.322
        32  -8.8571    194.4550    240.8311   9.0052399018e+01  -3.0733118290e+00     0.343235    0.2135606 -58.09  0.001287984    3.000    0.667
        33  -9.6543    160.3808    240.8537   9.6866984779e+01   2.2332998199e+00    0.3561238    0.2677881 -89.95  0.001844277    2.317    0.568
        34  -9.4186    183.2243    240.3356   9.2191625612e+01  -1.2759890601e+00      0.39411    0.2471438  58.73   0.00190885    2.725    0.633
        35  -8.1669    153.4664    242.0332   9.8438887172e+01   3.1383587411e+00    0.1639104    0.1291207 -51.94 0.0009609255    1.587    0.370
        36  -8.1297     88.1905    242.2152   1.1174724622e+02   1.3038924410e+01    0.1700968     0.119023  67.53 0.0007943907    1.390    0.281
        37  -7.9595    240.5613    240.2689   8.1318680247e+01  -9.5841272630e+00    0.1563754   0.09472448 -15.93 0.0008772519    1.557    0.358
        38  -8.9676    135.9655    239.1604   1.0164563294e+02   6.3826762523e+00     0.253226    0.1490947  51.36  0.001327229    1.683    0.406
        39  -8.5017    129.1586    238.7195   1.0299600204e+02   7.5295479528e+00    0.2090846    0.1335133  51.92 0.0007546077    1.499    0.333
        40  -9.2885    231.0789    237.2462   8.2528347988e+01  -7.9213959776e+00    0.2539949    0.2397725  83.63  0.001215465    2.045    0.511
        41  -8.6470    209.0078    238.3563   8.6842903018e+01  -4.9083859842e+00     0.175208    0.1334349  22.16 0.0005592064    1.085    0.078
        42  -7.8774    105.3063    238.3294   1.0787247039e+02   1.1260692324e+01    0.1159865   0.09662324  -0.24 0.0007037856    1.657    0.397
        43  -8.0579     25.3427    237.0107   1.2342016008e+02   2.1832753720e+01     0.187625   0.06262497  77.92 0.0007050918    4.453    0.775
        44  -9.8730    214.9048    233.3313   8.4894090723e+01  -5.0858404885e+00    0.4686454      0.37056 -88.19  0.002380618    3.443    0.710
        45  -8.9870    203.2760    235.0595   8.7414898462e+01  -3.5882918658e+00    0.2663879    0.2090671 -57.41  0.001062714    2.068    0.517
        46  -9.8116    175.8767    233.6191   9.2642060539e+01   9.0768943424e-01    0.4298818    0.2518177 -57.36   0.00211155    2.667    0.625
        47  -8.2287    170.0777    235.9999   9.4184683136e+01   1.4597501679e+00    0.1886606    0.1471248  59.00  0.000539488    1.658    0.397
        48  -9.3249    109.3021    234.7178   1.0663486977e+02   1.1320304445e+01    0.5190498    0.2091072  50.77  0.001345146    2.479    0.597
        49  -7.8518     57.9998    237.0000   1.1725522722e+02   1.8057716157e+01    0.1932907   0.05766656  35.44 0.0008077744    2.980    0.664
        50  -8.3760    123.1406    234.3437   1.0369755184e+02   9.2480558920e+00    0.2492217    0.1629523  59.21 0.0007303901    1.653    0.395
        51  -8.3643     99.8041    234.4957   1.0858384291e+02   1.2789249345e+01    0.2368356    0.1536217  82.11  0.001097584    1.954    0.488
        52  -9.0872     78.8748    234.4526   1.1287688866e+02   1.5795954571e+01    0.2846233    0.1595723  78.18  0.001169279    2.223    0.550
        53  -8.7779     92.4169    232.1306   1.0986057791e+02   1.4322017219e+01    0.3383902    0.1961847  83.63  0.001665134    2.399    0.583
        54  -9.2817     68.4162    232.4823   1.1481135912e+02   1.7588790614e+01    0.4801745    0.1826144  63.56  0.001762132    4.091    0.756
        55  -8.3271    194.4388    232.8909   8.8798247628e+01  -1.9148090978e+00    0.1946357    0.1892822 -52.12 0.0008083785    1.471    0.320
        56  -8.6799    144.9997    233.5130   9.9007685577e+01   5.9081101266e+00    0.2882378     0.137799  53.85  0.001207532    2.703    0.630
        57  -8.7409    140.0813    230.2507   9.9587663252e+01   7.2720913760e+00    0.2845043    0.1774566  58.99 0.0008788377    1.968    0.492
        58  -8.6398    132.5912    232.8825   1.0152483747e+02   8.0122714451e+00    0.2204832    0.1643504 -81.22 0.0008869779    1.828    0.453
        59  -7.8220     37.6879    233.3427   1.2089972786e+02   2.1189777643e+01    0.1257307   0.06495137  64.11 0.0007046345    1.702    0.412
        60  -9.3656    186.4128    230.7635   9.0059719467e+01  -3.2984859080e-01    0.3056329    0.2425339  87.91  0.001275822    2.437    0.590
        61  -8.6020    157.9248    232.0276   9.6097667030e+01   4.0647526480e+00     0.198268    0.1475992  60.76 0.0007235617    1.695    0.410
        62  -7.3463     43.6505    232.3246   1.1968857247e+02   2.0703206119e+01    0.1293709   0.06593176  62.29  0.000704893    1.752    0.429
        63  -8.9859    235.9521    230.3757   8.0480472660e+01  -7.7044870126e+00    0.2773672    0.1500271 -33.37    0.0013086    1.888    0.470
        64  -8.5176      1.8222    231.0905   1.2732979926e+02   2.5273418437e+01    0.1722381    0.1029992  67.85  0.000679862    1.256    0.204
        65  -9.3483    151.4876    229.0022   9.7001388773e+01   5.6290203023e+00    0.2735261     0.213104  85.84  0.001167127    1.915    0.478
        66  -9.4152    148.6785    224.6827   9.6960558986e+01   6.8470937962e+00    0.3519381    0.2585579  76.35  0.001184262    2.045    0.511
        67  -7.7498    229.9980    229.4918   8.1417907597e+01  -6.7513229519e+00    0.1473157    0.1018212  50.87 0.0008063198    2.313    0.568
        68  -8.8421    162.2206    227.7900   9.4565854679e+01   4.0725517411e+00    0.3059244     0.204245  60.58  0.001387191    2.098    0.523
        69  -8.8422    128.0066    227.5224   1.0178219674e+02   9.7159272719e+00    0.2946601    0.1879902  60.05  0.001266029    1.812    0.448
        70  -8.3708    120.0569    227.9673   1.0353904091e+02   1.0902525672e+01    0.2079459    0.1414925  65.15 0.0008864748    1.703    0.413
        71  -9.2538    246.4963    229.0663   7.8368465276e+01  -8.9708181862e+00    0.2978705     0.175246 -31.59  0.001090584    1.700    0.412
        72  -7.9753    223.4509    227.0400   8.2215011107e+01  -5.4721371659e+00    0.1749145    0.1131397 -30.08 0.0004697381    1.577    0.366
        73  -8.5933    206.0083    226.1360   8.5403395192e+01  -2.7124346403e+00    0.2217012    0.1802915 -45.51 0.0007407585    1.646    0.393
        74  -8.1971     49.3059    226.6461   1.1815665605e+02   2.1156262928e+01    0.2465588    0.1315073  64.88  0.001232981    1.760    0.432
        75  -8.1743    200.1900    226.2466   8.6566468322e+01  -1.8216949049e+00    0.1600002    0.1465475  35.16 0.0005498804    1.350    0.259
        76  -7.6038     78.6966    226.3534   1.1212158939e+02   1.7400812296e+01    0.1342105   0.08037275  65.47 0.0007040026    1.707    0.414
        77  -8.7903    180.5861    224.4336   9.0222801863e+01   1.6087029678e+00    0.2373012    0.1923153  45.76  0.000589242    1.355    0.262
        78  -8.9380    104.7509    223.6645   1.0628510052e+02   1.4113884370e+01    0.3245261    0.2088928  77.94  0.001622767    2.034    0.508
        79  -8.9859     94.0895    224.2184   1.0863886327e+02   1.5613658048e+01    0.3671558    0.1849082  62.28  0.001634751    2.467    0.595
        80  -9.0524    216.6819    223.5133   8.2889303913e+01  -3.9654519550e+00    0.2071672    0.1922499 -61.12 0.0008223467    1.729    0.422
        81  -8.7071    173.1548    223.3785   9.1589925351e+01   3.0051141421e+00    0.2184392     0.177243 -70.74 0.0005777213    1.843    0.457
        82  -8.0846    113.9583    224.0178   1.0434247690e+02   1.2613094599e+01    0.2103917    0.1411734  64.69 0.0008278887    1.681    0.405
        83  -8.0565     59.5824    223.8145   1.1584373361e+02   2.0455087963e+01    0.1641199    0.1013619  85.42 0.0005707118    1.657    0.396
        84  -7.9690     38.2673    224.6465   1.2019257665e+02   2.2844353776e+01    0.1241944   0.06869809  67.54 0.0005139904    1.628    0.386
        85  -9.2778    192.4117    221.4301   8.7311274854e+01   1.6070591371e-01    0.2844115    0.2503821 -87.95  0.001043494    1.839    0.456
        86  -9.0239    238.8816    220.9576   7.8309677367e+01  -6.8610877003e+00    0.3180448    0.2052524 -18.04  0.001545825    1.425    0.298
        87  -9.0952    225.4641    221.7206   8.0913594465e+01  -5.0254246434e+00    0.2126773    0.1925799 -11.82 0.0006701747    1.335    0.251
        88  -9.0252    159.9647    221.0443   9.3997562523e+01   5.6036478051e+00    0.4767184    0.2210569  52.40  0.001874546    2.914    0.657
        89  -9.2741    120.3738    219.4484   1.0234529589e+02   1.2470617394e+01    0.4100899    0.2415542  68.68  0.001815319    2.561    0.609
        90  -8.6515     82.4791    220.2370   1.1068552665e+02   1.8097121179e+01    0.2627044    0.1503683  63.11 0.0009357645    1.843    0.457
        91  -8.1573     73.0366    220.9276   1.1276906280e+02   1.9270644217e+01    0.2100507    0.1235879  64.74 0.0007275931    1.713    0.416
        92  -7.9962     27.6002    221.2149   1.2204484075e+02   2.4700601396e+01    0.1536394   0.09246013 -69.46 0.0009485405    1.666    0.400
        93  -8.3113    210.1764    219.3316   8.3418441386e+01  -2.3494484544e+00    0.2136146    0.1892712  52.50 0.0004955707    1.600    0.375
        94  -8.1398    202.6929    220.0199   8.5010292895e+01  -1.2724230771e+00    0.1768547     0.149938  -5.95 0.0004562006    1.132    0.117
        95  -8.2406    249.5783    218.7748   7.6019092772e+01  -8.0525307636e+00    0.1547282    0.1044739 -35.74 0.0009399022    1.664    0.399
        96  -9.5205    133.0835    216.2882   9.9104930144e+01   1.0990480610e+01    0.5167159    0.3129233  73.31   0.00213452    3.057    0.673
        97  -8.6797    142.9139    216.7438   9.7014216716e+01   9.2542227401e+00    0.2773741    0.1909111 -80.04  0.001101034    2.309    0.567
        98  -8.3545     61.9364    217.3012   1.1476574131e+02   2.1487716367e+01    0.2350738    0.1406522  70.85 0.0009612919    1.689    0.408
        99  -8.9037     51.3973    217.2530   1.1696726915e+02   2.2817310875e+01    0.2754585    0.1640453  73.74 0.0009590471    1.638    0.390
       100  -8.5476    169.3828    216.3850   9.1243170280e+01   4.8242855560e+00    0.2765453    0.2184896 -78.34 0.0009892867    1.989    0.497
       101  -7.8830    111.9977    217.5062   1.0392656519e+02   1.4192996713e+01    0.1963435   0.09227552  54.51 0.0005648465    2.419    0.587
       102  -8.5044     18.5790    216.3094   1.2349061221e+02   2.6617652263e+01     0.208868   0.09377455 -85.07  0.001122918    2.033    0.508
       103 -10.0118    231.2125    213.4812   7.8372752049e+01  -4.7080924358e+00    0.2730324    0.2592133 -30.84 0.0006008558    1.525    0.344
       104  -8.2301    154.2239    215.1864   9.4305699583e+01   7.6202805067e+00    0.1808614    0.1545601  63.58 0.0005860662    1.380    0.275
       105  -9.0050     93.1842    214.2393   1.0767063955e+02   1.7761206168e+01    0.3953534    0.1888055  56.19  0.001532323    2.297    0.565
       106  -9.4571    213.8773    212.1511   8.1421568118e+01  -1.8457660442e+00    0.3262461    0.2609708  55.20  0.001679245    1.835    0.455
       107  -9.5756     73.2717    212.1495   1.1181632656e+02   2.1057441385e+01    0.6630202    0.2566056  60.21  0.002367916    3.785    0.736
       108  -8.5594    161.8696    212.4526   9.2204089637e+01   6.8041094602e+00    0.2297174     0.196081 -79.48 0.0007278154    1.603    0.376
       109  -8.0655    106.4740    212.9898   1.0455848798e+02   1.5973785288e+01    0.1817382    0.1321386 -69.53 0.0007618946    1.538    0.350
       110  -8.4360    185.6781    214.3551   8.7480376330e+01   2.4163156931e+00    0.2128392    0.1675221 -51.00 0.0006650188    1.621    0.383
       111  -9.3889    204.3445    210.8985   8.3073015205e+01  -1.1694115906e-01    0.3182708    0.2110097 -40.30 0.0009604745    1.676    0.403
       112  -9.3602    175.4427    210.1614   8.8903893497e+01   4.8713085942e+00    0.3824208    0.2758388  69.84  0.001492599    2.353    0.575
       113  -9.2476      8.1430    211.7604   1.2524424909e+02   2.8534126721e+01    0.2374096    0.1032548  67.99  0.001271596    2.068    0.516
       114  -8.3475    192.4314    210.6816   8.5444781924e+01   1.8913570525e+00    0.2232183    0.1305099 -46.20 0.0008373217    2.025    0.506
       115  -8.9458    148.1844    210.6481   9.4904170808e+01   9.4976107993e+00    0.2802096     0.213001  69.80  0.001204459    1.740    0.425
       116  -9.2926    116.3007    210.3695   1.0199639735e+02   1.4929636610e+01    0.3512755    0.2299198  71.45  0.001149818    2.020    0.505
       117  -9.2484    236.6107    208.5266   7.6475633594e+01  -4.7996000603e+00    0.2666325    0.2458069 -51.50  0.001315832    1.701    0.412
       118  -8.6111     85.4298    209.2869   1.0880510698e+02   1.9941543158e+01    0.3228318    0.1858249  76.35  0.001487347    2.298    0.565
       119  -8.1544     46.5646    209.9678   1.1735971694e+02   2.4925698373e+01    0.2309252    0.1235376  57.54  0.001237188    1.694    0.410
       120  -7.9037     32.2199    210.2576   1.2037050410e+02   2.6475175635e+01    0.1833756   0.08073986 -89.74 0.0007517844    2.391    0.582
       121  -9.1478    124.6827    206.6327   9.9555439608e+01   1.4297293090e+01     0.409275    0.2511574  71.35 4.556624e-05    2.572    0.611
       122  -9.4386    246.3768    207.2778   7.4493515608e+01  -6.0448961010e+00    0.2495335    0.1864117 -26.29 0.0006580795    1.303    0.233
       123  -9.5869    250.0728    202.3880   7.2936241469e+01  -5.8880410821e+00    0.5527066    0.2027858 -39.85   0.00240343    2.830    0.647
       124  -9.2901    245.1340    193.2975   7.2075865729e+01  -3.8541230060e+00    0.2974439    0.2507216 -63.77  0.001587316    2.074    0.518
       125  -8.3892    139.0771    207.7425   9.6471503460e+01   1.1624990854e+01    0.2226771    0.1913223 -82.46 0.0006536302    1.415    0.293
       126  -9.2424     99.3933    206.2514   1.0526995378e+02   1.8478763155e+01    0.3936929    0.2436029  81.06  0.001340608    2.242    0.554
       127  -8.4871     11.7988    206.7991   1.2425515424e+02   2.9229736372e+01    0.1674729    0.1034145  67.86   0.00084441    1.327    0.247
       128  -8.3272    109.0148    205.4637   1.0296380673e+02   1.7120470265e+01    0.2446722    0.1828944  89.49 0.0006634693    1.586    0.370
       129  -8.4680     56.3376    205.4459   1.1484499944e+02   2.4711467635e+01    0.3230172    0.1468033  57.18  0.001489789    2.224    0.550
       130  -9.4651    194.9054    203.4399   8.3628794793e+01   2.6798483505e+00    0.3821009    0.2901735 -42.78  0.001191265    1.506    0.336
       131  -9.2657    192.3405    197.3868   8.3034852785e+01   4.1593969183e+00    0.2896352    0.2363904 -46.17 0.0008920974    1.449    0.310
       132  -8.8476    183.8675    204.1297   8.6053955041e+01   4.4655108187e+00    0.3186455    0.2331466  64.44 0.0009643768    2.115    0.527
       133  -7.9818     25.2942    205.6243   1.2146016747e+02   2.8177999910e+01    0.1300725   0.06843687  67.47 0.0007023849    1.740    0.425
       134  -9.5856    163.6736    202.9729   9.0200979535e+01   8.2258065567e+00    0.3925341     0.281281  61.62  0.001024685    1.858    0.462
       135  -8.6411    131.1434    204.0368   9.7685932808e+01   1.3724080701e+01    0.2611822    0.1628514  59.73 0.0007121612    1.952    0.488
       136  -8.3830    211.1629    202.2311   8.0129634893e+01   1.4515013203e-01    0.2153097    0.1770653 -65.14 0.0005229244    1.974    0.493
       137  -8.7438     80.3629    201.7226   1.0905125747e+02   2.2298984390e+01    0.3948115     0.191964  64.84  0.001589766    2.824    0.646
       138  -8.3789     17.3719    203.1831   1.2291583730e+02   2.9473611421e+01    0.1737691   0.08745628  85.86 0.0008514303    1.809    0.447
       139  -9.1383    243.0982    200.8619   7.3877261429e+01  -4.6558462427e+00    0.3081158    0.1810202 -38.06 0.0009733313    1.764    0.433
       140  -8.2333    222.0052    201.7273   7.7932141950e+01  -1.5365616622e+00    0.2166597      0.16513 -44.38 0.0008579438    1.635    0.388
       141  -8.9949    140.7270    201.2168   9.5046267843e+01   1.2625054475e+01    0.3768748    0.2549619  71.62  0.001172925    2.235    0.552
       142  -7.7127     73.1795    202.4115   1.1076935419e+02   2.3158992992e+01    0.1844624    0.1035871  48.53 0.0005158696    1.607    0.378
       143  -8.3193     48.2239    202.0421   1.1630162345e+02   2.6438553353e+01     0.216876    0.1163349  74.23  0.001073228    2.012    0.503
       144  -8.3896     10.3293    202.5688   1.2429895239e+02   3.0252743099e+01    0.2036906   0.09163902  37.91  0.001136024    2.080    0.519
       145  -9.1522    237.0396    198.6597   7.4550245591e+01  -3.4217570859e+00    0.2983058    0.1708452 -39.71   0.00129577    1.850    0.460
       146  -9.4253    149.5292    198.6664   9.2614794638e+01   1.1570311792e+01    0.3869373    0.2830417  88.17  0.001230825    2.182    0.542
       147  -8.9714    123.9150    199.3150   9.8613042190e+01   1.5928943910e+01    0.3313648    0.2266825  81.51  0.001493599    2.131    0.531
       148  -9.5257    112.9571    198.5683   1.0105516452e+02   1.7929876979e+01     0.471605    0.2770656  66.66  0.001781516    2.398    0.583
       149  -9.3065     88.7460    198.6762   1.0673322926e+02   2.1735179730e+01    0.3976188    0.2466007  84.93  0.001611441    2.077    0.519
       150  -8.6351    202.3907    197.9846   8.1083129670e+01   2.3158729459e+00     0.256188    0.2226539 -76.18 0.0009186695    1.807    0.446
       151  -8.4636    176.9309    199.0994   8.6620259520e+01   6.5806558878e+00    0.2046962    0.1869119  56.60 0.0005595908    1.314    0.239
       152  -7.4774    132.5098    199.5132   9.6653542617e+01   1.4406022970e+01    0.1415587    0.1283985  38.87 0.0008104463    1.010    0.010
       153  -9.2114     61.5421    197.2431   1.1284690293e+02   2.5851618627e+01    0.3840354    0.1994999  65.30  0.001385219    2.179    0.541
       154  -8.5951     12.7163    197.7382   1.2351984426e+02   3.1068742442e+01    0.2532579    0.1034193  76.08  0.001181297    2.571    0.611
       155  -8.0078     36.4753    196.9948   1.1842606230e+02   2.8878730317e+01    0.1814804   0.08427133  77.20 0.0008093584    2.508    0.601
       156  -7.7252     29.4831    197.5036   1.1998093153e+02   2.9504798825e+01    0.1251599   0.09502362  73.03 6.363723e-06    1.090    0.083
       157  -8.6082    215.8516    195.5953   7.7952318596e+01   4.3631257071e-01    0.2412326    0.1720915 -51.08  0.000836945    1.898    0.473
       158  -8.9733    185.3446    195.0033   8.4058175614e+01   5.8181548980e+00    0.2900582     0.227456 -71.36 0.0007864511    1.997    0.499
       159  -8.0824    132.9889    196.0078   9.5969927966e+01   1.5042586061e+01     0.217339    0.1648088  69.91 0.0005712684    1.616    0.381
       160  -8.1019     53.3734    196.2514   1.1459948173e+02   2.7097606580e+01    0.1768786    0.1074258 -88.46 0.0005510139    1.658    0.397
       161  -8.7503    224.6633    194.3829   7.6026417410e+01  -8.1782931813e-01    0.2834967    0.1634607 -43.57 0.0009963877    1.971    0.493
       162  -7.3098    209.2681    195.6397   7.9256350951e+01   1.5344348763e+00    0.1215029     0.110924 -74.17 0.0006993058    1.644    0.392
       163  -9.2954    160.9321    194.3652   8.9280415315e+01   1.0352698808e+01    0.3321581     0.251018  72.84 0.0009248744    1.940    0.485
       164  -8.9135     43.7977    193.5304   1.1649506081e+02   2.8835387840e+01    0.4140685    0.1872287  72.34  0.001742293    2.854    0.650
       165  -7.9540    230.7547    194.5581   7.4918779583e+01  -1.8222139419e+00    0.1626681    0.1205542  40.44 0.0004152177    1.526    0.345
       166  -8.7108     76.8639    194.1053   1.0893493981e+02   2.4481194051e+01    0.2111848    0.1609794  67.98 0.0006206342    1.256    0.204
       167  -8.1606    198.9322    191.9434   8.0633183692e+01   3.9457597039e+00    0.1955765    0.1760077  86.58 0.0006607027    1.647    0.393
       168  -8.0189    179.1351    191.8572   8.4796099441e+01   7.5102265140e+00    0.2057585    0.1916144  58.74  0.000603461    1.297    0.229
       169  -8.5104    172.5964    192.1161   8.6272384819e+01   8.6540826952e+00    0.2406333     0.186972  46.53  0.000877386    1.333    0.250
       170  -9.1631    139.4955    190.5587   9.3524118684e+01   1.5011783366e+01    0.3560285    0.2655016  80.23   0.00112708    1.889    0.471
       171  -7.9682    156.3885    208.1479   9.2686138194e+01   8.5430362691e+00    0.1763173    0.1349581 -63.82 0.0009329974    1.688    0.408
       172  -7.6692    205.2640    191.6412   7.9286306756e+01   2.8906616652e+00    0.1242022    0.1121814 -74.53 0.0003125614    1.633    0.387
       173 -10.5058     92.1909    188.8384   1.0457866998e+02   2.3397315190e+01    0.9940383    0.2853256  47.41  0.003171238    3.716    0.731
       174  -8.6239    148.6214    189.4840   9.1206402038e+01   1.3572096558e+01     0.238319    0.1804344 -77.55  0.001057851    1.841    0.457
       175  -8.8593    129.4385    188.8805   9.5611178785e+01   1.7165996208e+01    0.3067673    0.2258749  73.04 0.0009901333    1.747    0.428
       176  -8.6737    237.1294    188.4221   7.2558159649e+01  -1.8856001791e+00    0.2694194    0.1513797 -37.77 0.0009405914    1.748    0.428
       177  -9.0008    216.5445    187.8601   7.6311091879e+01   1.5842195533e+00    0.2658107    0.2136729 -41.99 0.0008096934    1.433    0.302
       178  -7.7012    210.2764    189.6429   7.7893639768e+01   2.3609578810e+00    0.1242643    0.1121723 -74.16 0.0003013135    1.654    0.395
       179  -9.1810    155.9365    187.5011   8.9156050128e+01   1.2623867686e+01    0.3705072    0.2458162 -62.93   0.00106863    2.010    0.502
       180  -9.7830    120.8984    186.6031   9.7276059513e+01   1.9160414806e+01    0.5667276    0.3141399 -74.83  0.002153429    2.983    0.665
       181  -8.8606     34.1672    187.9382   1.1815614349e+02   3.1146488073e+01    0.3075605    0.1532801  76.07  0.001389625    2.199    0.545
       182  -8.9479    191.2427    187.0755   8.1284878663e+01   6.1816184170e+00    0.3851739    0.2424323 -60.80  0.001648517    2.617    0.618
       183  -9.2352     54.5758    187.0242   1.1335733413e+02   2.9035706318e+01    0.4109727    0.2358728  78.78  0.001577159    1.958    0.489
       184  -8.0395    230.3893    187.2378   7.3559206838e+01  -6.2055894284e-01    0.1785014    0.1172875 -41.85 0.0007115459    1.667    0.400
       185  -8.6837    164.7953    186.7932   8.7006478560e+01   1.1117277231e+01    0.2597091    0.2049433 -59.66 0.0007166176    1.548    0.354
       186  -9.1592    109.6510    186.1753   9.9935725584e+01   2.1179403388e+01    0.3856998    0.2502658  68.33  0.001094533    1.975    0.494
       187  -8.9083    249.3075    185.7748   6.9888842212e+01  -3.3675871092e+00    0.2183963    0.1818627 -42.73 0.0009526557    1.531    0.347
       188  -8.6604    210.1357    184.3540   7.6875073548e+01   3.2812319274e+00     0.242474    0.1894927 -38.17 0.0004855032    1.357    0.263
       189  -8.6796    202.8040    184.5773   7.8394873303e+01   4.5413492043e+00    0.2537017    0.1850188 -55.04 0.0007412171    1.841    0.457
       190  -8.5238    182.9238    185.0957   8.2671619830e+01   8.0704221494e+00    0.2075434    0.1977452  68.64 0.0007116225    1.302    0.232
       191  -9.2111     66.7250    184.6034   1.1017963270e+02   2.8038227666e+01    0.4199449    0.2219194  56.92  0.001257307    1.995    0.499
       192  -7.7490     12.3067    185.6137   1.2280604206e+02   3.3753915512e+01    0.1316368   0.06793475  67.77 0.0007017989    1.804    0.446
       193  -8.5080    224.0970    183.6524   7.4025784203e+01   9.9683736056e-01    0.2203182     0.170629 -34.56 0.0005819629    1.317    0.241
       194  -9.1227    174.1795    182.7261   8.4120776997e+01   1.0151842716e+01     0.480378    0.2320832 -47.16  0.001187017    2.262    0.558
       195  -8.1410    242.6726    183.3284   7.0564613060e+01  -1.9749791765e+00    0.1170171    0.1056213 -62.77 0.0007050732    1.704    0.413
       196  -8.3583    240.4754    180.5238   7.0396023762e+01  -1.1931858033e+00    0.2243396     0.116796 -35.23 0.0006685175    1.773    0.436
       197  -8.1668    196.9872    183.2370   7.9323185521e+01   5.8274966511e+00    0.1919714    0.1565014 -57.27 0.0006010932    1.605    0.377
       198  -9.2409     44.5031    182.5184   1.1525434526e+02   3.1258743272e+01     0.336068    0.1897519  62.84 0.0009413304    1.798    0.444
       199  -8.3463     19.4015    182.5927   1.2102754958e+02   3.3800372334e+01    0.2526919   0.09023365  87.85 0.0009560512    3.533    0.717
       200  -7.9884      1.7933    183.6236   1.2492492719e+02   3.5054135482e+01    0.1584941   0.08498655  46.53 0.0009432769    1.743    0.426
       201  -9.1928    147.4485    180.7016   8.9860973667e+01   1.5602514262e+01    0.3378167     0.269713  72.86  0.001052262    1.598    0.374
       202  -9.4508     25.5144    178.8851   1.1933974066e+02   3.4072975203e+01    0.6350619    0.2391606  75.06  0.002234429    4.237    0.764
       203  -8.6035    137.8257    179.5126   9.1936360954e+01   1.7650461760e+01    0.3278191    0.2333858  73.95  0.001381055    2.004    0.501
       204  -9.2527    191.4428    178.4694   7.9524575868e+01   7.7167432798e+00    0.2654998    0.2460594  71.53 0.0005989793    1.395    0.283
       205  -9.0611     35.8885    176.7113   1.1671175253e+02   3.3540027611e+01    0.5246994    0.2124347  80.85  0.001830141    4.081    0.755
       206  -9.6821    248.3124    176.4268   6.8209894877e+01  -1.7993037140e+00    0.4138067    0.2569555 -46.21  0.002149879    1.932    0.482
       207  -8.7969    231.1318    177.1265   7.1399162882e+01   8.7719424519e-01    0.2796686    0.1713759 -38.41 0.0006937989    1.600    0.375
       208  -8.4934    217.6605    177.3055   7.3974719355e+01   3.1605526444e+00     0.237038    0.1589641 -44.26 0.0006574048    1.640    0.390
       209  -8.5764    205.0058    177.5476   7.6528123991e+01   5.3818559035e+00    0.2609447    0.1936979 -51.12 0.0007899395    1.651    0.394
       210  -8.0545    169.3645    178.2890   8.4320653129e+01   1.1932536046e+01    0.1970841    0.1398714 -53.92 0.0004863134    1.646    0.392
       211  -8.9610    129.1501    177.4286   9.3664058366e+01   1.9700352811e+01    0.3098319    0.2204969  77.83  0.001170357    1.991    0.498
       212  -8.5608     97.3491    177.6703   1.0163088640e+02   2.5134716488e+01    0.2728752    0.2013253 -17.50   0.00103278    2.006    0.502
       213  -8.9650    183.1448    176.1970   8.0842624571e+01   9.7085824541e+00    0.2811944    0.2318499 -52.17 0.0005911856    1.413    0.292
       214  -9.7095    104.4527    175.0164   9.9406767610e+01   2.4581281006e+01    0.5703447    0.3168598  66.59  0.001949779    2.838    0.648
       215  -9.1919     88.9749    176.9132   1.0362274805e+02   2.6630035475e+01     0.288939    0.2073549  76.24 0.0009555014    1.582    0.368
       216 -10.1048     56.9726    173.4352   1.1120103337e+02   3.1908390610e+01    0.8029491    0.4074523  77.66  0.003239769    2.831    0.647
       217  -8.2019     56.4806    164.2301   1.1015108703e+02   3.4170896703e+01    0.3593786    0.2270956  -5.25  0.001560468    2.946    0.661
       218  -8.6091     12.7085    176.6168   1.2207327282e+02   3.5736937556e+01    0.2733422    0.1200712  68.32  0.001226939    2.404    0.584
       219  -7.8640    211.5372    176.4873   7.5004326921e+01   4.3878845132e+00    0.1405215    0.1253933  -1.58 0.0001294897    1.031    0.030
       220  -9.1492    158.8312    175.0295   8.6087248797e+01   1.4614326887e+01    0.3654715    0.2812349  87.02  0.001056414    1.967    0.492
       221  -9.0202     78.3260    147.3060   1.0160796948e+02   3.5365441297e+01    0.5524946    0.3076708  78.48  0.001935813    3.386    0.705
       222 -10.8874     75.9400    169.4660   1.0583723643e+02   3.0326251599e+01     1.447037    0.5333005 -69.51  0.004987638    3.308    0.698
       223  -9.5794     81.8613    155.2200   1.0200318249e+02   3.2900670289e+01    0.4861968    0.3141244  70.96  0.001401001    1.988    0.497
       224  -8.5431    224.3605    174.4365   7.2108694515e+01   2.4748933072e+00    0.2528214    0.1564753 -38.59 0.0007686705    1.586    0.370
       225  -8.5955    250.5197    172.8847   6.7123489290e+01  -1.6007583653e+00     0.209777    0.1647691 -34.39 0.0004594545    1.286    0.222
       226  -9.2767    175.9079    172.3527   8.1647939813e+01   1.1845784145e+01    0.3354607    0.2531325 -52.49 0.0009324965    1.519    0.342
       227  -8.3544    143.0128    172.5400   8.9356399479e+01   1.8177762723e+01    0.3241808    0.1917596 -56.31  0.001198917    1.928    0.481
       228  -8.7915    134.9334    171.9469   9.1216387054e+01   1.9836983223e+01    0.2923901    0.2249486  75.92 0.0009914581    1.684    0.406
       229  -9.5988    121.4865    170.5860   9.4315010752e+01   2.2624927934e+01    0.4100085    0.2867152 -89.09   0.00118116    2.056    0.514
       230  -9.1072     45.1297    171.2122   1.1388763774e+02   3.3832335255e+01    0.3651432     0.198154  83.92  0.001230786    2.121    0.529
       231  -8.3122    205.8871    170.6154   7.4914648101e+01   6.4561641013e+00    0.2574548    0.1831706 -54.30 0.0006671635    1.809    0.447
       232  -8.6610    244.7001    169.7722   6.7485450530e+01  -1.8616674650e-01    0.2343725    0.1678768 -45.08 0.0009292219    1.594    0.373
       233  -8.4344    237.1144    169.7157   6.8802222876e+01   1.0757015537e+00    0.2248062    0.1687994 -37.83 0.0006156971    1.345    0.256
       234  -8.7211    230.3470    169.0381   6.9882910007e+01   2.3386018984e+00     0.394918    0.1856778 -44.73  0.001682337    2.323    0.570
       235  -8.2398    198.6490    170.1905   7.6304013927e+01   7.8898186491e+00    0.2126705    0.1785755 -50.72 0.0005715311    1.398    0.285
       236  -9.1050    167.1240    168.6942   8.2878337069e+01   1.4297113423e+01    0.3333545      0.25774  77.14 0.0009220952    1.902    0.474
       237  -8.5075    149.8389    169.5619   8.7118515226e+01   1.7503001937e+01    0.2757949    0.2032059 -71.14  0.000728566    1.816    0.449
       238  -8.7397    111.8072    167.7450   9.6261593723e+01   2.5003764022e+01    0.4053422    0.2340553  68.68  0.001479075    2.912    0.657
       239  -8.3667     88.6976    168.8733   1.0243995906e+02   2.8566450014e+01    0.2663809    0.1893099 -87.56 0.0009574433    1.622    0.383
       240  -8.2635    218.8542    168.2437   7.1868083136e+01   4.5008309187e+00    0.1970229    0.1866685 -29.33 0.0006656374    1.221    0.181
       241  -7.9871    211.3858    168.1929   7.3308878196e+01   5.8709468485e+00    0.1988838    0.1276417 -47.24  0.000527479    1.754    0.430
       242  -8.8749    191.9086    166.6414   7.6965905835e+01   9.8433476997e+00    0.2708987    0.2071019 -45.26 0.0005834008    1.401    0.286
       243  -8.7043    185.0093    166.5530   7.8428265967e+01   1.1204643581e+01    0.2676483    0.2042905 -58.26 0.0007111101    1.640    0.390
       244  -9.2818     20.4796    166.1500   1.1940784973e+02   3.7480842140e+01    0.3482749    0.1664839  66.09  0.001293946    2.285    0.562
       245  -9.8652    136.8034    164.5095   8.9291640264e+01   2.1128637777e+01    0.6607875    0.3175203  55.67  0.002014166    2.960    0.662
       246 -10.0541     94.8937    162.4312   9.9737028730e+01   2.9118405174e+01    0.8764515    0.5341277  89.14  0.003108401    2.552    0.608
       247  -8.2631    233.9424    164.9571   6.8381963628e+01   2.3943249668e+00    0.1949714    0.1663845 -61.53 0.0006118792    1.636    0.389
       248  -8.6349    159.3983    164.4867   8.3797313793e+01   1.6698022302e+01    0.2603789    0.2362357 -53.60 0.0006109463    1.200    0.167
       249  -9.4986     33.5490    163.6007   1.1594252750e+02   3.6864216985e+01    0.5188397    0.2017043  53.65  0.002031805    2.911    0.657
       250  -9.4900    246.1580    162.9765   6.5840525744e+01   6.5389380193e-01    0.2905198    0.1698624 -33.73 0.0006667789    1.518    0.341
       251  -8.2850    239.9995    164.0459   6.7120947829e+01   1.5098865400e+00    0.1954206    0.1675478 -66.62 0.0009178066    1.720    0.419
       252  -8.6253    212.9018    163.6785   7.2053139952e+01   6.3914946325e+00    0.2659047    0.1940492 -42.52 0.0005773889    1.424    0.298
       253  -8.5763    204.8848    162.8573   7.3469575229e+01   8.0510404146e+00    0.2417111    0.2076462 -46.53 0.0004523301    1.305    0.234
       254  -9.3873      3.3249    162.3802   1.2317396121e+02   3.9712428389e+01    0.3742415    0.1619327  56.09  0.001850649    2.327    0.570
       255  -8.9125    151.6130    161.1404   8.4952997943e+01   1.8962212626e+01     0.318139    0.2533092 -85.71 0.0008722132    1.718    0.418
       256  -9.0966    177.4129    160.4810   7.8797635958e+01   1.3910397028e+01     0.315389    0.2545497 -65.34 0.0008440447    1.582    0.368
       257  -8.8553     60.8890    160.4396   1.0847552855e+02   3.4537787770e+01     0.402683    0.2168848  65.45  0.001703246    2.409    0.585
       258  -8.9179    242.2171    159.9488   6.5883039149e+01   1.8002799879e+00    0.1884902    0.1413463 -10.19 0.0003782898    1.291    0.226
       259  -9.9771    250.1624    157.8520   6.4109828201e+01   8.0933736368e-01    0.3729586    0.1930933 -38.17 0.0008091145    1.738    0.425
       260  -9.2917    246.7256    155.6754   6.4225850943e+01   1.7302222217e+00    0.2608321    0.1455172 -33.18 0.0005524981    1.583    0.368
       261  -8.6408    227.4385    159.1722   6.8338387780e+01   4.5130491263e+00    0.3006521     0.211036 -57.08  0.001261382    1.987    0.497
       262  -9.7147    106.0058    157.7172   9.5922542967e+01   2.8373385219e+01    0.5997287    0.4231341 -80.94  0.001370319    1.776    0.437
       263  -8.7284    237.1050    158.8707   6.6543010250e+01   2.8540131598e+00    0.2026316    0.1782217 -41.08 0.0006346281    1.279    0.218
       264  -8.4652    128.0032    159.0043   9.0407103154e+01   2.4055525536e+01    0.2432368    0.1862133  77.16 0.0006784027    1.692    0.409
       265  -8.2853    196.3546    157.9541   7.4153136355e+01   1.0620788257e+01    0.2080583    0.1785322 -33.80 0.0007067454    1.158    0.136
       266  -8.1389    188.1721    158.1003   7.5917228435e+01   1.2220389391e+01    0.1998299    0.1781786 -63.15 0.0005797824    1.357    0.263
       267  -9.1139    167.5895    157.3999   8.0360509007e+01   1.6528407105e+01     0.336119    0.2789063 -89.75 0.0009983131    1.644    0.392
       268  -8.4360    217.9165    156.5965   6.9560382281e+01   6.7109154897e+00    0.2753572    0.1743073 -51.38 0.0008595592    1.925    0.481
       269  -9.1174    157.7647    156.4669   8.2468942906e+01   1.8725963835e+01    0.2817186    0.2375557 -82.71 0.0008711531    1.521    0.342
       270  -9.3912    119.5413    155.2686   9.1851167840e+01   2.6511677559e+01    0.4344803    0.2998008 -85.75  0.001510679    2.135    0.532
       271  -9.3788     49.7869    155.3631   1.1073696476e+02   3.7117816201e+01    0.4400905    0.2381823  66.52  0.001530087    2.324    0.570
       272  -9.3785    243.0954    150.1475   6.3665796679e+01   3.2516381027e+00    0.3156306    0.2844289  63.88  0.001921021    1.479    0.324
       273  -7.8073    237.4418    150.4713   6.4696322824e+01   4.1928726178e+00    0.1377063    0.1199714 -19.74 3.319684e-05    1.024    0.023
       274  -8.8391    242.6336    155.1736   6.4808877163e+01   2.5075031341e+00    0.1982008    0.1533335 -24.87 0.0003962626    1.130    0.115
       275  -8.1706    239.9901    153.0211   6.4803478708e+01   3.3193292653e+00    0.2099184    0.1801421 -22.49 0.0004836886    1.047    0.044
       276  -7.9003    204.7682    155.5710   7.1907332435e+01   9.4142729177e+00    0.1859552     0.140317  53.25 0.0004338775    1.553    0.356
       277  -8.6149    144.5153    154.8452   8.5351999901e+01   2.1759182508e+01     0.293422    0.2378391  72.98  0.001068874    1.531    0.347
       278  -9.7073    132.7383    152.9093   8.7920632418e+01   2.4532423749e+01    0.4970335    0.3581302  74.07  0.001236403    1.948    0.487
       279  -9.3231    133.7820    148.1741   8.6627277204e+01   2.5405839680e+01    0.3375911    0.2468158 -35.74  0.001040075    1.473    0.321
       280  -9.6557     67.7434    153.6775   1.0561749759e+02   3.5291595012e+01    0.4583613    0.2701013  86.43  0.001432539    2.310    0.567
       281  -8.2887    151.5972    152.8416   8.3166255916e+01   2.0765173075e+01    0.2162072    0.1482828 -58.59 0.0005826589    1.702    0.413
       282  -8.7184     19.9011    152.7693   1.1828666787e+02   4.0688374630e+01    0.1757903    0.1251018  69.60 0.0009021933    1.360    0.264
       283  -7.6296      8.3396    153.3105   1.2125070124e+02   4.1455650553e+01    0.1216095   0.07865699 -49.19 0.0007044966    1.691    0.408
       284  -8.9056     98.4825    151.0014   9.6678080373e+01   3.1272356311e+01    0.3603426    0.2487227  85.98  0.001163265    1.987    0.497
       285  -9.5642     29.4509    150.7762   1.1558766338e+02   4.0332413978e+01    0.4560892    0.2207592  71.77   0.00195257    2.694    0.629
       286  -9.7565    248.7368    149.3629   6.2566853173e+01   2.4086740559e+00    0.3518829    0.2002306 -35.50 0.0007958366    1.541    0.351
       287  -9.0270    247.0166    143.8484   6.1675625046e+01   3.6010401657e+00    0.2778683    0.1686176 -38.73 0.0004966835    1.482    0.325
       288  -8.7495    189.4816    150.4358   7.3929190670e+01   1.3450238436e+01    0.2997449    0.2316283 -63.34 0.0009585277    1.682    0.405
       289  -8.3704    182.0630    151.0492   7.5675848369e+01   1.4852732556e+01    0.2300922     0.190892 -84.61 0.0006957057    1.678    0.404
       290  -8.2709    162.6498    150.5734   8.0000773056e+01   1.8975458343e+01    0.2522588    0.1884166 -65.71 0.0006759739    1.718    0.418
       291  -8.2256    212.7463    149.9362   6.9088413911e+01   8.8917367032e+00    0.2025435    0.1723663 -27.46 0.0004605963    1.101    0.091
       292  -8.6782      2.8466    150.0461   1.2234041328e+02   4.2597848159e+01    0.2056723    0.1044468  73.20 0.0008144704    2.005    0.501
       293  -8.4289    198.8677    149.0947   7.1661981842e+01   1.1800222488e+01    0.2178141    0.2009839 -67.19 0.0005535941    1.307    0.235
       294 -10.0937     89.1284    146.3264   9.8385329233e+01   3.3946138585e+01    0.6712354    0.3923144  89.53  0.002421133    3.074    0.675
       295  -9.8497     39.6641    147.6245   1.1245557162e+02   4.0107005655e+01    0.5475308    0.2772454  66.82  0.001817313    2.628    0.619
       296  -9.0487    233.3600    147.6339   6.4792017316e+01   5.4069778913e+00    0.2627914    0.1940407 -34.02  0.000751182    1.232    0.188
       297 -10.3952    106.6114    144.0139   9.3033340695e+01   3.1541498263e+01    0.8083116    0.5188186 -87.09   0.00209111    2.565    0.610
       298 -10.4037     54.9905    145.0523   1.0782827578e+02   3.9039567975e+01    0.7662626    0.3814995  67.55  0.002512378    3.284    0.695
       299  -8.0893     53.3357    137.3329   1.0709151696e+02   4.1144621803e+01    0.2235364    0.1441723   9.68 0.0007113651    2.132    0.531
       300  -9.0661     57.5183    135.4841   1.0555855735e+02   4.1101783783e+01    0.3274295    0.1466085  24.87  0.001316014    2.687    0.628
       301  -8.6614    223.3891    146.7729   6.6386430000e+01   7.4115025516e+00      0.25131    0.1656765 -28.41 0.0006436132    1.448    0.309
       302 -10.1851    149.0792    145.0731   8.2044706993e+01   2.2985819289e+01    0.5850646    0.4005919  83.21  0.001641289    2.645    0.622
       303 -10.1442    139.0892    144.9911   8.4550381257e+01   2.5059822851e+01    0.6042671    0.3819536 -74.88  0.001297154    2.737    0.635
       304  -9.2545     13.1565    146.1473   1.1937668047e+02   4.2793939695e+01    0.3549065    0.1647277  58.91  0.001350445    2.437    0.590
       305  -7.9197    206.7976    146.5637   6.9494704828e+01   1.0682562941e+01    0.1879295    0.1425004  56.70 0.0007066962    1.582    0.368
       306  -8.3377    175.4601    146.1784   7.6037138630e+01   1.7212376588e+01    0.2363251    0.2113786  71.99 0.0005651115    1.331    0.248
       307  -8.8218    240.1872    145.1895   6.3091778380e+01   4.5854620842e+00    0.2168451    0.2013586   9.68 0.0005450434    1.138    0.121
       308  -9.6933    242.6964    143.3224   6.2270487743e+01   4.4483711598e+00    0.5379928    0.2096751 -28.09  0.001936114    3.057    0.673
       309  -9.8478    125.2002    142.7736   8.7694425860e+01   2.8344623893e+01     0.587036    0.3991285  88.85  0.001625656    2.481    0.597
       310 -11.1710     69.3981    139.9469   1.0285498288e+02   3.8453203543e+01      1.06546    0.5334371 -66.65  0.003515875    2.025    0.506
       311 -10.1696     73.3260    128.8274   9.9593822068e+01   4.0652780965e+01    0.7443165    0.3176621 -57.63  0.001973796    2.167    0.539
       312  -9.6248     71.1672    119.9052   9.8425322055e+01   4.3154235780e+01    0.4859052    0.2598329 -66.76  0.001675729    2.054    0.513
       313  -8.8658    165.4096    144.0784   7.7865986225e+01   1.9769468989e+01    0.2767189    0.2232207  52.32 0.0006062592    1.315    0.240
       314  -7.6091    194.2891    143.7010   7.1378992873e+01   1.3769777833e+01    0.1424389     0.121261 -78.59 0.0002368722    1.558    0.358
       315  -9.7240      2.6086    141.3679   1.2167252865e+02   4.4643929866e+01    0.4554851    0.1948622  84.87  0.002074935    2.495    0.599
       316  -7.8966    235.4656    142.4930   6.3307235320e+01   5.8947240811e+00    0.1394579    0.1227069 -21.51 7.081839e-05    1.013    0.013
       317  -8.2875    182.1323    141.8786   7.3555019685e+01   1.6676037691e+01    0.2289779    0.2070162 -77.96 0.0005533554    1.338    0.253
       318  -8.1488    250.4985    141.0062   6.0511536597e+01   3.4586498576e+00    0.2044253    0.1160798 -35.46 0.0004478988    1.529    0.346
       319  -9.7525     23.3090    138.0165   1.1577125596e+02   4.3955131968e+01    0.5459103       0.2759  74.85  0.002295507    2.521    0.603
       320  -7.7923    218.5907    138.7876   6.5481607457e+01   9.7581310958e+00    0.1995456    0.1279448 -45.66 0.0003434246    1.587    0.370
       321  -8.3242    207.5986    137.9290   6.7367333180e+01   1.2123301227e+01    0.2821527    0.1717153 -50.65 0.0009389423    1.857    0.462
       322  -8.6293    197.4934    137.4968   6.9278773530e+01   1.4296354412e+01    0.2674068    0.1992604 -46.92 0.0006422852    1.388    0.280
       323  -8.5701    172.0108    138.1429   7.4941813796e+01   1.9599508881e+01    0.2352379    0.2109682 -89.48 0.0005834767    1.349    0.259
       324  -8.1781     88.4498    138.4626   9.7043671351e+01   3.5979738313e+01    0.1476667    0.1398862 -42.83 0.0008060625    1.080    0.074
       325  -8.9466    241.2041    136.8354   6.1109205032e+01   5.7968926464e+00    0.3375038    0.1600638 -17.82  0.001082882    4.170    0.760
       326  -8.1960    162.6623    136.5538   7.6742173021e+01   2.1948734005e+01      0.25793    0.1893952 -64.05 0.0008247806    1.714    0.417
       327  -8.8461    150.8343    136.2053   7.9536272010e+01   2.4564451331e+01    0.4173335     0.243341  22.16  0.001493175    2.568    0.611
       328  -9.6408    139.7446    137.1929   8.2585147885e+01   2.6682933512e+01    0.4246159     0.209696  37.61  0.001528881    2.086    0.521
       329  -9.3997     39.0508    136.1373   1.1106033721e+02   4.2987382170e+01    0.3001012    0.1930602  86.80 0.0008042547    1.700    0.412
       330  -9.1358    250.7114    130.2216   5.8165562176e+01   5.1726893647e+00    0.4297726    0.1149184 -37.21  0.001385265    3.220    0.689
       331  -9.2359    248.5090    135.2960   5.9601818945e+01   4.7368411231e+00     0.307835    0.1980395 -42.15 0.0008462328    1.447    0.309
       332  -8.6174    246.9558    130.4961   5.8806085166e+01   5.8025431274e+00     0.261734    0.1734485 -40.80 0.0007481841    1.368    0.269
       333  -7.8843    188.0189    135.9675   7.0891620483e+01   1.6599424480e+01    0.2344872    0.1883447 -75.27 0.0006074839    1.685    0.406
       334  -7.9913    125.3173    136.3202   8.6200962497e+01   2.9821067311e+01    0.1599112    0.1241563  -8.38 0.0007041593    1.661    0.398
       335  -8.4827    179.6430    134.1803   7.2279845656e+01   1.8760086826e+01    0.2805444      0.22631 -66.62  0.001018925    1.534    0.348
       336 -10.3734     83.4010    132.8215   9.7379502910e+01   3.8162717568e+01    0.6408211    0.3426864 -68.39  0.001350227    2.212    0.548
       337  -8.8149     84.6565    122.9631   9.4901861889e+01   4.0377204118e+01      0.42333    0.2674618   7.39  0.001702991    2.479    0.597
       338  -8.1110    237.5240    133.5639   6.0997192712e+01   7.0264912090e+00    0.2471042    0.1142082 -45.68 0.0009672739    2.206    0.547
       339  -8.1955    231.5018    133.9503   6.2096968042e+01   8.0989060666e+00    0.2152955    0.1269089 -36.53  0.000531081    1.535    0.349
       340 -10.1301    132.0084    131.0172   8.3149180612e+01   2.9685894591e+01    0.6637858    0.4205502 -68.92  0.001295818    2.308    0.567
       341  -9.1572    112.9009    133.4273   8.8963402441e+01   3.2910849375e+01    0.3513077    0.2502111  67.26   0.00085313    1.831    0.454
       342 -10.5878     98.4153    128.8698   9.2095106712e+01   3.6642286338e+01     1.244357    0.3672407 -49.31  0.003835514    3.212    0.689
       343  -9.0878    142.9501    131.6668   8.0437474371e+01   2.7246199739e+01    0.3221979    0.2667225 -87.28 0.0008927842    1.537    0.350
       344  -8.1533    204.9478    130.9161   6.6248107508e+01   1.3978687754e+01    0.2337579    0.1836441 -73.46      0.00109    1.750    0.429
       345 -10.1342     12.7681    129.2578   1.1771627582e+02   4.6859613764e+01    0.4849761     0.252294  73.02  0.002289858    2.306    0.566
       346  -8.1566    220.5146    130.0235   6.3131241318e+01   1.0941870579e+01    0.2162844    0.1326333 -37.95 0.0006284905    1.509    0.337
       347  -8.2260    192.7040    130.1698   6.8525490024e+01   1.6726820180e+01    0.2359207    0.1812453 -50.94 0.0005151728    1.389    0.280
       348  -9.0230    168.3127    129.4036   7.3680222025e+01   2.2218331915e+01      0.33482    0.2490739 -59.11 0.0007451066    1.574    0.365
       349  -8.0392      1.9722    130.4690   1.2084749047e+02   4.7249757911e+01    0.1664054   0.07496789  50.45 0.0008093716    2.506    0.601
       350  -8.0207    211.4558    129.2259   6.4607804763e+01   1.2934667045e+01    0.2096484    0.1308672 -48.83 0.0006388079    1.699    0.412
       351 -10.4031     60.0423    125.2041   1.0295822448e+02   4.3334815233e+01    0.7640342     0.442929  80.03  0.002458302    2.920    0.658
       352  -8.7977     58.3917    115.9944   1.0168000278e+02   4.5807475231e+01    0.4061044    0.2385292 -23.71  0.001703038    2.505    0.601
       353 -10.7781     44.8370    123.5201   1.0736121175e+02   4.5505677236e+01     1.108183    0.5626039  77.31  0.003819084    3.949    0.747
       354  -9.3445    153.1187    129.1691   7.7260665904e+01   2.5604171453e+01    0.4266646    0.2623621 -59.02 0.0008570398    2.049    0.512
       355 -10.0254    118.0692    125.4939   8.5639035951e+01   3.3777687393e+01    0.5322366    0.3607433  73.24  0.001534716    2.303    0.566
       356  -8.7859    179.2974    124.7599   7.0057210260e+01   2.0732912352e+01    0.2749337    0.2391025 -85.40 0.0006571747    1.410    0.291
       357 -10.2975     28.3436    122.3643   1.1224575305e+02   4.7348228637e+01    0.7595443    0.3640493  77.28  0.002857632    3.587    0.721
       358  -9.5055     26.8722    113.8130   1.1141494233e+02   4.9549748916e+01    0.4442612    0.1655342  22.35  0.001877516    3.118    0.679
       359  -7.6224    244.2508    124.6159   5.7940753265e+01   7.2701068262e+00    0.1384521    0.0963075 -55.18 0.0006954925    1.661    0.398
       360  -7.8361    188.7817    124.2106   6.7893499222e+01   1.8741011944e+01    0.2460986    0.1674503 -79.63  0.000934678    2.677    0.626
       361  -9.0678    158.7772    121.7304   7.4013153603e+01   2.5945305233e+01    0.3909833    0.2873526 -66.76  0.001307047    1.758    0.431
       362  -7.8846    195.3191    122.1863   6.6058458034e+01   1.7694615448e+01    0.2219968    0.1303183 -47.16  0.000549054    1.753    0.430
       363  -8.3637    171.9941    121.5598   7.0882659215e+01   2.3013369041e+01    0.2802948    0.2147715 -57.26  0.000553394    1.470    0.320
       364  -9.7926    141.4720    118.2523   7.7455536009e+01   3.0529603825e+01    0.5555748    0.3124592 -55.11   0.00181349    2.085    0.520
       365 -10.0486    130.8540    118.6925   8.0394161371e+01   3.2718111251e+01    0.4843334     0.350243 -89.38  0.001078432    2.186    0.542
       366  -8.2719    228.4066    125.2445   6.0658907187e+01   1.0207976058e+01    0.2029058    0.1220253 -45.14 0.0006943712    1.621    0.383
       367  -9.8928      3.1435    117.2318   1.1915290642e+02   5.0315395736e+01    0.5324986    0.2422383  73.33  0.002339859    2.976    0.664
       368  -8.1160    231.4739    117.5252   5.8384285420e+01   1.0929334902e+01    0.1412729    0.1271146 -36.97 0.0008092478    1.040    0.038
       369  -8.4220    219.4538    116.5154   6.0174063662e+01   1.3559853958e+01    0.1447613    0.1332191 -33.08 0.0001170673    1.013    0.013
       370  -8.2507    185.5649    116.0210   6.6529209985e+01   2.1053836761e+01    0.2328087    0.1475029 -39.62 0.0004717188    1.540    0.351
       371  -7.8142    203.0000    122.0598   6.4514537053e+01   1.6048126263e+01    0.2433842   0.08192699 -38.67 0.0005330485    2.834    0.647
       372 -10.0697    109.2512    114.1490   8.5355197849e+01   3.8137705289e+01    0.5876045    0.3864467 -71.26  0.001279374    2.163    0.538
       373  -8.8662    109.0124    107.7456   8.3754530866e+01   3.9655063218e+01    0.3620981    0.2410787  10.00  0.001335847    2.245    0.555
       374  -9.3358    249.7132    114.4830   5.4889555855e+01   7.9140434753e+00    0.3693494    0.2035113 -52.70  0.001695275    2.074    0.518
       375 -11.3466    248.5808    106.3244   5.3256421840e+01   9.4474240441e+00    0.8762749    0.2971195 -36.44  0.003354846    2.574    0.612
       376  -8.7084     92.6961    105.7239   8.8242061805e+01   4.3146753268e+01    0.4284743    0.2628027 -15.64  0.001570835    2.789    0.641
       377 -10.0678     78.9050    112.4812   9.4311012297e+01   4.3815527826e+01    0.6288091    0.4140177  88.45  0.001685568    2.524    0.604
       378  -8.7503     77.8847    105.8993   9.3059867100e+01   4.5544474863e+01    0.2929252    0.2223292 -26.60 0.0009807135    1.441    0.306
       379  -7.8704    167.4655    114.5388   7.0118513081e+01   2.5470095602e+01     0.154703    0.1535589 -32.45 0.0004184656    1.033    0.032
       380 -10.1163    121.8886    112.3425   8.1227872727e+01   3.6022337277e+01    0.4363624    0.3198965 -65.23  0.000907146    1.654    0.395
       381  -8.0209    193.0218    115.2654   6.4811995218e+01   1.9522284929e+01    0.2066272    0.1960011 -45.81 0.0004718277    1.063    0.059
       382  -9.9960     13.9264    111.1061   1.1511154018e+02   5.1137818794e+01    0.3825366    0.2153728  80.17  0.001367168    2.172    0.540
       383  -8.5944    174.8200    111.9611   6.7796888363e+01   2.4300900325e+01    0.2815476    0.2113013 -59.63 0.0005579873    1.546    0.353
       384  -8.6414    159.0614    111.8355   7.1378935123e+01   2.7947941349e+01    0.2789907    0.2229434 -43.22 0.0006325726    1.255    0.203
       385 -10.2333     66.3757    109.8122   9.7762427733e+01   4.6275684066e+01    0.6168543    0.3458307 -59.29  0.002192268    1.697    0.411
       386  -7.7203    183.0111    109.9881   6.5528487570e+01   2.2804302624e+01    0.1875397    0.1732668 -34.85 0.0006240663    1.060    0.057
       387  -9.9978    133.5990    109.2234   7.7155518275e+01   3.4222400365e+01    0.6463997    0.3452988 -53.53   0.00206606    2.150    0.535
       388  -8.1414    189.2305    108.1749   6.3786096966e+01   2.1725122031e+01    0.2111478    0.1737513 -60.13 0.0005790966    1.337    0.252
       389  -9.5166    139.8384    104.4592   7.4196399960e+01   3.3862338151e+01    0.4701155    0.3135701 -59.46  0.000889189    1.841    0.457
       390 -10.0087    119.2413    105.7341   8.0210659833e+01   3.8047774877e+01    0.3556098    0.2971733 -46.93 0.0009862265    1.201    0.167
       391 -10.7118    109.0507     99.0440   8.1363175928e+01   4.1600164354e+01    0.8309914    0.4822575  65.57  0.001477278    3.256    0.693
       392  -9.1396    108.1924     92.5291   7.9759676002e+01   4.3192029276e+01    0.4943875    0.3010738  22.37  0.001959149    2.175    0.540
       393 -10.7516     45.7475    101.3126   1.0285805694e+02   5.0820125999e+01     1.079274    0.6046394 -72.91  0.003852725    2.029    0.507
       394 -10.7471     22.8619    102.6047   1.1091612085e+02   5.2557596026e+01    0.7450428    0.3994013  75.98  0.002842235    2.980    0.664
       395  -8.5743    166.8615    104.4241   6.7588363123e+01   2.7641171098e+01    0.2965478    0.2113709 -55.40 0.0007988226    1.572    0.364
       396  -9.5080    150.5891    103.1504   7.1098715122e+01   3.1684696491e+01    0.4928312    0.3079114 -62.06  0.001371293    2.226    0.551
       397  -9.4738     82.5812    100.6686   9.0189078755e+01   4.6029288712e+01    0.4844323    0.3294381 -84.81  0.001803877    2.439    0.590
       398  -9.0922      6.7157    103.1183   1.1632037113e+02   5.3459886892e+01    0.2424434    0.1547631  45.19 0.0009629434    1.876    0.467
       399  -7.8430    175.4508    102.2102   6.5100470328e+01   2.6060413683e+01    0.2135096    0.1443117 -50.65 0.0003410327    1.571    0.364
       400  -8.2370    159.8132    101.1429   6.8325180644e+01   2.9943627251e+01     0.236215    0.2115901 -68.28 0.0004679351    1.232    0.188
       401 -10.1495     92.7982    112.7217   8.9984947487e+01   4.1486523407e+01    0.5459903    0.3711692 -71.71  0.001241209    1.889    0.471
       402  -9.5976     95.0307     96.8598   8.5113200873e+01   4.4757395995e+01    0.4279755    0.2594702 -56.64 0.0007421733    1.819    0.450
       403 -10.2426     63.7317     95.7413   9.5319286701e+01   4.9979396850e+01    0.5737936    0.3747522 -84.99  0.001655521    2.497    0.600
       404  -9.0624     64.0024     88.4870   9.3346752135e+01   5.1615067076e+01    0.8318511    0.3966497   8.99  0.002479257    5.085    0.803
       405  -8.3218    130.3050     97.4052   7.4770719327e+01   3.7475216135e+01    0.3142395    0.1484496  40.44  0.001134462    2.175    0.540
       406  -9.4358    128.3877    102.1600   7.6640906679e+01   3.6885555349e+01    0.3500252    0.2834145 -70.38 0.0008881062    1.514    0.340
       407  -8.1756    164.8226     94.1645   6.5253346443e+01   3.0122067252e+01    0.2385651    0.2082132 -71.16 0.0005021894    1.287    0.223
       408  -9.3041    139.0542     92.3088   7.0965892630e+01   3.6548792014e+01    0.3987943    0.2958945 -73.65  0.001058535    1.890    0.471
       409 -10.3451    123.9745     91.4242   7.4798197715e+01   4.0113769874e+01    0.6260749    0.4399462  31.83  0.001130032    1.514    0.340
       410  -9.6938      5.0764     92.0156   1.1528864555e+02   5.6142006848e+01    0.3244455      0.19718  82.97  0.001306508    1.956    0.489
       411  -7.8978    157.6454     91.8717   6.6254891019e+01   3.2273190979e+01    0.2208278    0.1414409 -49.04 0.0004544597    1.663    0.399
       412  -9.6017     34.7998     89.7794   1.0427883591e+02   5.4620851090e+01    0.4332657      0.26083 -86.63  0.001804461    2.422    0.587
       413  -9.2461     22.5898     90.3632   1.0882902007e+02   5.5471892053e+01    0.3144485    0.1908471 -34.89  0.001200569    1.648    0.393
       414  -8.0266    151.1266     89.1836   6.7034635524e+01   3.4341545330e+01    0.2156049     0.186049 -71.71 0.0004590104    1.338    0.253
       415 -10.2500     86.5873     85.8134   8.4719296744e+01   4.8698835644e+01    0.7296137     0.436275 -51.67  0.001983829    1.716    0.417
       416  -9.9669     48.6117     83.8599   9.7768917051e+01   5.4589177608e+01    0.6477133    0.4037563 -72.64  0.002233861    2.066    0.516
       417  -8.3247    197.7870     84.4405   5.6043137581e+01   2.4018554558e+01    0.2774811    0.1938341 -16.27 0.0009236454    1.809    0.447
       418 -10.1091    103.7483     83.5199   7.8441194213e+01   4.5983220652e+01    0.5368797    0.3904648  40.29  0.002574232    1.382    0.276
       419  -8.2020    176.3322     93.0617   6.2458690247e+01   2.7582113281e+01    0.2207464    0.1882413 -45.34 0.0004965699    1.170    0.146
       420  -8.9334    140.7027     82.6205   6.7686355624e+01   3.8063189575e+01    0.3407302    0.2290443 -46.37 0.0009342248    1.561    0.359
       421  -9.4644     10.2458     81.2769   1.1166409409e+02   5.8348852845e+01    0.3759839    0.2073289  55.60  0.001466735    2.697    0.629
       422  -8.3316     35.3031     82.3444   1.0241673638e+02   5.6292334432e+01    0.1431373   0.08328738 -35.04            0    1.685    0.406
       423  -9.7569     24.5135     80.5402   1.0612291025e+02   5.7599874769e+01    0.4094724     0.266522  83.88  0.001362911    2.273    0.560
       424  -8.3939    150.1628     80.3102   6.4674029457e+01   3.6245110501e+01    0.2948171    0.1946099 -62.67 0.0008265065    2.054    0.513
       425  -8.6922    119.0856     80.4531   7.2877890411e+01   4.3398321203e+01    0.2757893     0.216523 -58.44 0.0006257366    1.498    0.332
       426  -8.9639     74.5107     80.3317   8.7278109382e+01   5.1882141578e+01    0.3212084    0.2298188 -67.56 0.0009317539    1.848    0.459
       427  -8.3683    166.8417     79.6579   6.0734787077e+01   3.2312785756e+01    0.2600236    0.2004655 -26.58 0.0005894266    1.394    0.282
       428  -8.3514    184.2044     78.9256   5.7055531350e+01   2.8208829437e+01     0.204009    0.1171686 -37.80   0.00079596    1.719    0.418
       429  -8.3279    157.9141     84.0934   6.3973435722e+01   3.3678167640e+01    0.2358056    0.2070313 -69.14 0.0004201399    1.266    0.210
       430  -9.8705     63.5838     74.1462   8.9419850974e+01   5.4835952301e+01    0.5967785    0.2968063 -62.60  0.002109403    3.000    0.667
       431  -9.3006    128.2352     75.5492   6.8788417956e+01   4.2292312115e+01    0.3903629    0.2543711 -56.96 0.0006219676    1.959    0.489
       432  -7.7326    157.2565     76.6291   6.1950234271e+01   3.5191411191e+01    0.1568871     0.117836 -66.39 0.0006969608    1.644    0.392
       433  -8.3725    140.4740     75.5029   6.5587783778e+01   3.9443136136e+01    0.2633783    0.2061388 -72.70 0.0006222479    1.661    0.398
       434  -8.1691    163.4412     73.6151   5.9719190642e+01   3.4202791887e+01    0.2742573    0.1433532 -41.26  0.001091573    1.934    0.483
       435  -9.6770     82.3537     72.7744   8.2158410392e+01   5.2174896037e+01    0.3929385    0.3087614 -74.88  0.001243618    1.867    0.464
       436  -8.4738     42.5180     73.0969   9.7267694255e+01   5.7655280721e+01    0.1949023    0.1857105  79.48  0.000637478    1.323    0.244
       437  -7.9107    175.2778     72.6102   5.7022062249e+01   3.1459328885e+01    0.2071112    0.1366041  47.44  0.000441131    1.527    0.345
       438  -9.4114    105.9137     71.7146   7.4028411800e+01   4.7897761078e+01    0.2785761    0.2145169 -48.11 0.0004916333    1.407    0.289
       439  -9.1641     95.1143     71.1270   7.7283366033e+01   5.0170442936e+01    0.3415511      0.22435 -53.47 0.0008190558    1.801    0.445
       440  -9.4806     51.4634     69.7274   9.2763284981e+01   5.7368635860e+01    0.4434082     0.275813 -72.52  0.001475927    2.608    0.617
       441  -9.4371     29.4164     70.4904   1.0183283107e+02   5.9463856676e+01    0.4717289    0.2167405 -18.25  0.001861294    3.415    0.707
       442  -9.2518     16.5982     69.6911   1.0684337004e+02   6.0581372568e+01    0.4052025    0.1970651 -73.35  0.001860127    2.397    0.583
       443  -7.6031    157.0000     70.0141   6.0050311861e+01   3.6403941496e+01    0.2410146   0.08732096 -35.46 0.0004747929    2.839    0.648
       444  -8.7248    147.0035     68.2515   6.1780601629e+01   3.9152125515e+01     0.320044    0.2020278 -45.95 0.0005927896    1.696    0.410
       445  -8.7007    138.5204     66.1702   6.3169230848e+01   4.1557789232e+01    0.2807646    0.2324003 -79.03  0.000774361    1.508    0.337
       446  -8.8099    121.7452     66.1464   6.7552727346e+01   4.5482467676e+01    0.3287766     0.226897 -58.85 0.0008121156    1.915    0.478
       447  -8.9198    115.7453     72.8285   7.1435209286e+01   4.5596393641e+01    0.2928345    0.2033771 -46.17  0.000658169    1.534    0.348
       448  -8.9017     95.4531     64.7042   7.5023603291e+01   5.1329368147e+01    0.2611653    0.1713453  21.02  0.001173213    1.782    0.439
       449  -8.8785     63.8889     63.9459   8.6077312346e+01   5.6900889133e+01    0.4505587    0.2508513 -20.97   0.00189096    2.403    0.584
       450  -9.3141     37.2030     64.4268   9.6987075082e+01   6.0064169649e+01    0.2745775    0.2141549 -88.61 0.0009991528    1.926    0.481
       451  -9.0576    110.1795     63.7419   7.0080860871e+01   4.8468989391e+01    0.2824603     0.250176 -70.39 0.0007487698    1.413    0.293
       452  -8.0519    158.1530     62.1121   5.7437515738e+01   3.7424092077e+01    0.2018724    0.1718735 -64.76 0.0003461773    1.291    0.226
       453  -9.5726     97.7004     60.4161   7.2815098595e+01   5.1664636567e+01    0.3647506    0.3165644 -28.61  0.001349004    1.154    0.133
       454  -9.5866     73.3431     59.7324   8.1052987498e+01   5.6255995408e+01    0.3580978    0.2429097 -54.42  0.001064422    1.805    0.446
       455  -8.0769     88.8553     59.8075   7.5538834115e+01   5.3500198569e+01    0.1822281    0.1757519 -71.94 0.0005708004    1.297    0.229
       456  -7.9439    146.7963     59.0639   5.8976761682e+01   4.0719324006e+01    0.1977419    0.1197382 -34.98 0.0005809823    1.717    0.418
       457  -9.9128     23.5601     56.6515   1.0059608332e+02   6.2895859985e+01     0.429084    0.2832826 -87.00   0.00214941    2.664    0.625
       458  -8.3874    130.8320     58.0678   6.2480046575e+01   4.4741621630e+01    0.2252847    0.2007264 -67.48 0.0004868536    1.308    0.235
       459  -9.6812      7.5053     57.1058   1.0775940538e+02   6.3824139995e+01    0.3081003    0.2167077 -81.30  0.001107965    1.737    0.424
       460  -7.5283    194.0000     56.9741   4.9451393486e+01   2.9327921789e+01    0.2226929   0.08032873 -33.22 0.0006067051    2.802    0.643
       461  -9.3170    119.0785     55.4502   6.4705085166e+01   4.7903092589e+01    0.4576647    0.2266476 -44.38  0.001519188    2.276    0.561
       462  -8.1278    139.9866     56.0488   5.9587461426e+01   4.2861869333e+01    0.2276737    0.1786479 -72.83 0.0005120422    1.626    0.385
       463  -9.3249     54.1649     55.2094   8.6999901258e+01   5.9974632492e+01    0.2961544    0.2203521 -60.88 0.0009389763    1.761    0.432
       464  -8.9139     44.2391     55.2680   9.1178559356e+01   6.1193596237e+01    0.3602282    0.2195724 -60.26  0.001460996    2.046    0.511
       465  -8.4763    105.8929     53.4027   6.7787038369e+01   5.1160585351e+01    0.2664204    0.2003022 -51.27 0.0008013874    1.609    0.378
       466  -9.5117     92.3583     50.6413   7.1064121648e+01   5.4414952107e+01    0.4040088    0.2362184 -46.19  0.001232364    1.989    0.497
       467  -8.3113     74.9380     51.5770   7.7531916771e+01   5.7480667942e+01    0.2886819     0.165488  21.52   0.00128244    2.061    0.515
       468  -8.4270    129.9033     49.2915   5.9789554561e+01   4.6330352540e+01    0.2462855    0.1987113 -46.12 0.0005832709    1.373    0.272
       469  -7.9879    144.8121     49.0566   5.6248806900e+01   4.2734795808e+01    0.1953086    0.1143105 -32.65  0.000562797    1.805    0.446
       470  -8.5928    120.8615     47.6447   6.1530929215e+01   4.8708584097e+01    0.2317373    0.1939033  -9.10 0.0005322075    1.271    0.213
       471  -8.5128    112.1654     46.7748   6.3592834555e+01   5.0826029660e+01    0.2376247     0.191665 -41.67 0.0006141675    1.374    0.272
       472  -8.9977     82.1027     46.6649   7.3087506783e+01   5.7039284914e+01    0.2502696    0.2381476 -63.08 0.0006344351    1.384    0.277
       473  -8.6616     45.1084     44.5205   8.7029598467e+01   6.3138638313e+01    0.2597564     0.156471 -47.57 0.0008537809    1.674    0.403
       474  -9.1722     16.5247     44.5498   1.0023727622e+02   6.5866219475e+01    0.2513155    0.1792359 -62.08   0.00105719    1.540    0.351
       475  -8.7885    132.8636     43.5579   5.7146440176e+01   4.6447890522e+01    0.2647557    0.2094215 -42.59  0.000701152    1.384    0.277
       476  -8.7370     92.8446     43.0433   6.8061009307e+01   5.5526857424e+01    0.2692949    0.1889461  -2.89  0.001157464    1.635    0.388
       477  -9.3174     69.6952     41.7013   7.5746251900e+01   6.0045104924e+01    0.3785732     0.265885 -58.72  0.001373587    2.276    0.561
       478  -8.9342     58.0505     42.4477   8.0695748259e+01   6.1759097112e+01    0.2742181    0.1832323 -52.71  0.001294027    1.961    0.490
       479  -9.6357      5.2028     42.1019   1.0494473007e+02   6.7028312778e+01    0.2989027    0.1945495 -77.88  0.001510299    2.089    0.521
       480  -8.6980    105.9843     41.4561   6.3424604829e+01   5.2983952344e+01    0.2498581     0.193125 -46.06 0.0005343484    1.524    0.344
       481  -7.6508    140.4630     41.5277   5.4757506943e+01   4.4869337645e+01    0.1441422    0.1352093  62.16 6.825355e-05    1.054    0.051
       482  -8.6180     36.7830     40.8688   8.9431837030e+01   6.4767813469e+01    0.2108086    0.1698529 -55.94  0.000679668    1.577    0.366
       483  -8.3098     95.3679     38.0444   6.5338824371e+01   5.5747059349e+01    0.2284531    0.1981013  82.48 0.0007487872    1.601    0.375
       484  -8.2162     80.6819     36.9335   6.9789949120e+01   5.8825978228e+01    0.1903361    0.1624778 -15.91 0.0004827957    1.149    0.130
       485  -9.5774     26.2419     35.3256   9.2385688943e+01   6.6834834612e+01    0.3553387    0.2088753 -51.72  0.001052224    1.745    0.427
       486  -8.2698    133.3760     36.1452   5.4524035988e+01   4.7320312175e+01    0.1960116    0.1279728 -42.25 0.0005781396    1.703    0.413
       487  -7.9778    125.9768     35.7067   5.6078779198e+01   4.9165281649e+01    0.1965925    0.1686434  47.97 0.0004665365    1.062    0.059
       488  -8.7190    111.9039     34.3757   5.9150554725e+01   5.2631454178e+01     0.311571     0.175495 -39.47  0.001050624    1.983    0.496
       489  -7.9106     88.7959     34.5924   6.6092838089e+01   5.7581334276e+01    0.1828327    0.1275573  55.31 0.0005235606    1.631    0.387
       490  -9.0160     48.4923     33.3909   8.1157231566e+01   6.4626528837e+01    0.2464473    0.2076855 -38.84 0.0007122312    1.395    0.283
       491  -8.3023    119.2050     33.2104   5.6840742185e+01   5.1090940080e+01    0.1842319    0.1650362 -63.42 0.0004389074    1.344    0.256
       492  -8.8710     60.7454     32.7808   7.5668034973e+01   6.2916678863e+01    0.2101698    0.2013835 -24.34 0.0005644051    1.376    0.273
       493  -9.1090     72.1303     31.3517   7.0607577971e+01   6.1208286874e+01    0.2570291    0.2097044 -51.95  0.000873945    1.718    0.418
       494  -7.8309    139.3369     31.6678   5.1743255746e+01   4.6416371877e+01    0.1458159    0.1074823 -72.49 0.0007052074    1.738    0.425
       495  -8.8341     12.9144     30.5336   9.7371282155e+01   6.8784099564e+01    0.2449355    0.1594981 -58.53   0.00118964    1.734    0.423
       496  -8.1139     42.0254     30.0015   8.2678830183e+01   6.6024790409e+01    0.1544593    0.1226489 -14.31 0.0004632634    1.040    0.039
       497  -8.5090    101.4775     29.1001   6.0034664956e+01   5.5638181666e+01    0.1954355    0.1339985 -26.33 0.0005473917    1.545    0.353
       498  -8.8097     81.3888     27.4037   6.5638879691e+01   6.0020457330e+01    0.2719099    0.2148365 -46.70  0.000850264    1.655    0.396
       499  -8.8140      3.7415     27.8252   1.0127162175e+02   6.9846538232e+01    0.1888096    0.1465729 -63.83 0.0007867468    1.576    0.366
       500  -9.0591     91.8219     26.4237   6.1842944917e+01   5.8038594006e+01    0.2760733    0.1866189 -38.13 0.0008856039    1.698    0.411
       501  -8.6589    128.8958     25.9384   5.2005031857e+01   4.9649531119e+01    0.2490421     0.200046  79.32  0.001304609    1.377    0.274
       502  -7.4796    145.5239     25.5422   4.8527309229e+01   4.5595507514e+01    0.1401773    0.1261656  63.03 6.865639e-05    1.021    0.020
       503  -8.6989    103.7760     22.9649   5.7003970840e+01   5.5861697387e+01    0.1931593    0.1693799  26.65  0.000757548    1.040    0.038
       504  -8.1094     34.6377     23.2889   8.3313123668e+01   6.7991564543e+01    0.1541422    0.1507621  88.19 0.0009117945    1.732    0.423
       505  -8.9145     63.5700     20.9920   6.9390323225e+01   6.4118596737e+01     0.299259    0.2056145 -46.41  0.001342387    2.046    0.511
       506  -9.0681     48.5821     21.7934   7.6064998280e+01   6.6383981916e+01    0.2190064    0.2060045   2.72  0.000659785    1.393    0.282
       507  -7.8571    120.6000     20.8113   5.2024069897e+01   5.2209242472e+01    0.1855731    0.1228966 -39.65 0.0009400945    1.731    0.422
       508  -8.2675     19.4290     21.2913   9.0291715203e+01   6.9880896469e+01    0.1501213    0.1022398 -47.23 0.0009405751    1.584    0.369
       509  -8.9456     73.8598     19.4525   6.4846196252e+01   6.2459194890e+01    0.2328687    0.2078246 -59.93 0.0007833855    1.669    0.401
       510  -8.3922     87.9692     17.5371   5.9352033907e+01   5.9880102455e+01    0.1950771    0.1660438  -5.15 0.0005090224    1.189    0.159
       511  -9.2992    247.9839    234.7111   7.9073126027e+01  -9.8744257031e+00    0.2802727     0.148685 -29.56 0.0008483919    1.818    0.450
       512  -8.1117    113.0004     16.9456   5.2355908602e+01   5.4401934024e+01    0.1612592     0.143558  35.19 0.0003614798    1.045    0.043
       513  -8.2708     30.1750     16.1876   8.2318976844e+01   6.9587459864e+01    0.1486587    0.1293046 -17.12 0.0005653614    1.320    0.242
       514  -7.9794      7.7910     15.7932   9.4444241010e+01   7.1713378706e+01    0.1368326    0.1221475 -19.93 0.0004244935    1.353    0.261
       515 -10.0405    248.6110    242.4258   8.0255794335e+01  -1.0888596253e+01    0.5005412    0.1819898 -37.55  0.002426759    3.041    0.671
       516  -8.0563     17.1983     14.1797   8.8370732651e+01   7.1222086861e+01    0.1434662    0.1238424 -24.49 0.0005424818    1.349    0.259
       517  -8.7856    232.8810    247.4521   8.3869370161e+01  -9.4433444208e+00    0.2434478    0.1561367 -42.29  0.001142833    2.202    0.546
       518  -7.3829    119.6993     11.3328   4.8775757266e+01   5.3366379826e+01    0.1301207    0.1011682 -69.29  0.000703376    1.652    0.395
       519  -9.0511    175.6523    247.8553   9.4803779400e+01  -1.2164020328e+00    0.2720987    0.2242445  72.55  0.001360144    1.896    0.473
       520  -8.9098    156.2298    248.2180   9.8720450598e+01   1.7289919281e+00    0.2901497    0.1957566  59.86  0.001577877    1.956    0.489
       521  -8.2105    113.2546    248.6712   1.0740300218e+02   8.2437218180e+00    0.1975544    0.1426949 -84.27  0.000864249    1.762    0.433
       522  -9.4966    103.3396    246.0809   1.0910771208e+02   1.0160841319e+01    0.5150245     0.277984  89.05  0.002318975    3.351    0.702
       523  -9.2081    242.7386    246.9207   8.2023484898e+01  -1.0669959953e+01    0.3114902    0.1752875 -18.85  0.001537052    1.715    0.417
       524  -8.2744    218.6005    247.9387   8.6561899006e+01  -7.5551720144e+00    0.1908109    0.1435369 -40.84 0.0008809905    1.821    0.451
       525  -8.8120    132.1776    247.8201   1.0350611735e+02   5.5173499064e+00    0.2197467    0.1606387  59.73 0.0005288534    1.475    0.322
       526  -7.8245     63.5021    248.4902   1.1709452236e+02   1.5213157638e+01    0.1163503   0.09165956  58.59 0.0008103693    1.034    0.033
       527  -7.7669     40.4740    248.4936   1.2135317560e+02   1.8011998165e+01    0.1146264   0.08286051  63.21 0.0008097449    1.041    0.039
