#   1 NUMBER                 Running object number                                     
#   2 MAG_AUTO               Kron-like elliptical aperture magnitude                    [mag]
#   3 X_IMAGE                Object position along x                                    [pixel]
#   4 Y_IMAGE                Object position along y                                    [pixel]
#   5 X_WORLD                Barycenter position along world x axis                     [deg]
#   6 Y_WORLD                Barycenter position along world y axis                     [deg]
#   7 A_WORLD                Profile RMS along major axis (world units)                 [deg]
#   8 B_WORLD                Profile RMS along minor axis (world units)                 [deg]
#   9 THETA_WORLD            Position angle (CCW/world-x)                               [deg]
#  10 FWHM_WORLD             FWHM assuming a gaussian core                              [deg]
#  11 ELONGATION             A_IMAGE/B_IMAGE                                           
#  12 ELLIPTICITY            1 - B_IMAGE/A_IMAGE                                       
         1 -14.8009    156.7943     51.9295   8.0246429057e+01   3.9657061144e+01     1.105613     1.060528 -81.99  0.003411774    1.065    0.061
         2 -15.1043    168.0717     23.1291   6.9944000768e+01   4.0633678360e+01     0.986122    0.8628582  72.46  0.003416103    1.004    0.004
         3 -13.7929    189.8349     14.1951   6.4559717031e+01   3.6287273119e+01    0.4413758    0.3077989 -73.02  0.002131625    1.443    0.307
         4 -12.0911    196.9794      6.9704   6.1954920613e+01   3.5319529324e+01     0.217967    0.1320987 -70.43 0.0007412403    1.704    0.413
         5 -11.9179    211.9620    236.7101   1.1158670587e+02  -6.9035450532e+00    0.2261849    0.1632519  -1.24 0.0009857393    1.569    0.362
         6 -13.5118    190.2885    249.2123   1.1766768124e+02  -5.1343279257e+00    0.6319285    0.3300377  36.79 0.0009347014    1.634    0.388
         7 -13.7441    198.4732    246.4321   1.1569814668e+02  -6.0902416332e+00     1.954286     1.097547  68.18  0.005394754    8.926    0.888
         8 -14.0751    187.3188    241.1971   1.1699715610e+02  -3.4158870099e+00    0.7167879    0.3254138  46.32  0.002413062    2.016    0.504
         9 -13.5002    186.6982    236.9588   1.1644803182e+02  -2.6420842269e+00    0.4874722    0.3160252  63.12  0.002285581    2.175    0.540
        10 -11.1053    140.4958    249.8446   1.2722456546e+02   3.2517792805e+00    0.3792629    0.1928256  43.67  0.001933187    1.625    0.384
        11 -20.5390     85.1448    179.3307   1.2899793072e+02   2.7154184124e+01     15.74651     7.064402 -63.76   0.06633462    2.154    0.536
        12 -12.2162    196.1158    227.9191   1.1313687052e+02  -2.8417309282e+00    0.1939035    0.1735758  52.82 0.0003837511    1.237    0.192
        13 -11.9535    207.8716    226.3871   1.1060545197e+02  -4.6460745448e+00    0.1977248    0.1813497 -39.64 0.0004401563    1.286    0.222
        14 -12.9474    188.7535    154.1190   1.0017396942e+02   1.2446563427e+01    0.6591914    0.5064691  40.62  0.002186694    1.326    0.246
        15 -11.3363     27.2637    225.9210   1.4586451686e+02   2.4655020695e+01    0.1669423    0.1098733  79.91 0.0004180394    1.155    0.134
        16 -11.9466     23.2952    155.7831   1.4027557334e+02   4.0475267806e+01    0.3055904    0.2105456 -46.17 0.0009748298    1.697    0.411
        17 -12.9922    165.7777    154.2774   1.0522701293e+02   1.7435006200e+01    0.4296449    0.3304417  74.01  0.001280188    1.556    0.357
        18 -10.5264    177.8877    156.1262   1.0295066715e+02   1.4395733843e+01    0.2257477    0.2035849  87.26 0.0003118069    1.205    0.170
        19 -12.5781    174.1063    148.5908   1.0208518682e+02   1.6834735168e+01    0.4929046    0.3527452 -60.05  0.001154324    1.546    0.353
        20 -12.2537      6.2430    222.0838   1.4923407843e+02   2.7668079060e+01    0.3224576    0.1131242 -76.64  0.001694792    2.292    0.564
        21  -9.9395     13.4806    142.4712   1.4105940878e+02   4.4382624011e+01    0.1220528   0.09426862 -76.13 9.643503e-05    1.015    0.015
        22 -11.9195    207.6634    220.2391   1.0956750625e+02  -3.6329269130e+00    0.2076538    0.1975387  44.76 0.0004963692    1.212    0.175
        23 -11.2758    168.9745    135.4872   1.0016964449e+02   2.0814382433e+01    0.2371401    0.1551875  50.38 0.0005489141    1.539    0.350
        24 -11.0521     14.5278    133.1770   1.3966623347e+02   4.6425364129e+01    0.3390057    0.1695492 -38.79  0.001692665    2.603    0.616
        25 -12.5739    197.8917    218.6049   1.1118215348e+02  -1.6261719760e+00    0.2399388    0.2008356 -46.39 0.0006579552    1.367    0.269
        26 -13.2615    160.4368    128.0570   1.0031823690e+02   2.4373387142e+01    0.5306561    0.4063978 -61.70   0.00158815    1.398    0.285
        27 -11.0993     20.9839    215.5182   1.4622754141e+02   2.7485506864e+01    0.1503608    0.1125674  82.00  0.001064655    1.048    0.046
        28 -10.6266    217.0000    214.9445   1.0682220260e+02  -4.4141771135e+00    0.2046229   0.07376521 -40.36 0.0007997705    2.924    0.658
        29 -11.1079      9.5264    213.1659   1.4810530139e+02   2.9156120602e+01    0.1513245     0.111099 -88.63 0.0003623368    1.134    0.118
        30 -12.9781     38.8885    116.0039   1.3042157069e+02   4.8231704393e+01     0.481016    0.2984299 -19.59  0.001571875    2.429    0.588
        31 -11.3629    231.3487    113.7636   8.2775447024e+01   1.0989069919e+01     0.265635    0.2544963 -74.64 0.0007962365    1.064    0.060
        32 -11.6693    167.6234    112.7987   9.4836328758e+01   2.5958717078e+01    0.4103062    0.3071428 -85.77  0.001144124    1.731    0.422
        33 -11.3073    205.1473    110.6316   8.6616802643e+01   1.7506140960e+01    0.3716475    0.2927213  22.42  0.001282578    1.661    0.398
        34 -12.7115     12.3382    206.3466   1.4713349509e+02   3.0297407109e+01     0.572558    0.3334232  40.48  0.003666882    1.875    0.467
        35 -11.6593     37.8073    102.3896   1.2812311027e+02   5.1428899756e+01    0.2506989     0.187125  -8.07 0.0009759166    1.688    0.408
        36 -10.9290    150.6646    240.6838   1.2403175539e+02   3.0647418519e+00    0.2836172    0.2024561 -54.23  0.001645529    1.647    0.393
        37 -11.9963     16.5308    193.0448   1.4533037685e+02   3.2730562970e+01    0.1925524    0.1451831 -70.14 0.0008651562    1.333    0.250
        38 -10.4348     24.0636    190.1413   1.4359381095e+02   3.2605370763e+01    0.1637663    0.1271657 -74.61 0.0003159374    1.233    0.189
        39 -11.6888    141.9924     83.7249   9.2882072795e+01   3.7813434587e+01    0.4134296    0.2262474 -27.71   0.00154722    2.350    0.574
        40 -11.7033     17.6333    184.4264   1.4438366468e+02   3.4516148038e+01    0.3669027    0.1675356 -55.95  0.001316059    2.313    0.568
        41 -14.4372    236.8787    174.3537   9.5147562994e+01  -1.1645159007e+00    0.9124292     0.566848  38.48  0.004548343    1.672    0.402
        42 -10.6894     22.7067    184.8107   1.4338623785e+02   3.3928043936e+01    0.1667985    0.1284919 -83.25 0.0008349973    1.092    0.085
        43 -14.6743    146.6468     66.1392   8.6627373850e+01   3.9864804628e+01     1.201102     1.051411  34.55  0.001227296    1.183    0.155
        44 -12.3624    203.9176    174.6475   1.0149631306e+02   5.1622661289e+00    0.6181031    0.3385587 -65.29  0.002030188    3.954    0.747
        45 -13.6230    160.9191     43.0341   7.6847146905e+01   3.9912923780e+01    0.5338296    0.4955905  85.21 0.0007821024    1.059    0.055
        46 -11.6250     13.4486     59.9563   1.2669861700e+02   6.2244161970e+01    0.1877869     0.159589 -10.78 0.0004219215    1.260    0.207
        47 -13.5975    199.3186    239.9811   1.1451278098e+02  -5.2750603391e+00    0.4184888    0.2841227  57.49   0.00228744    1.854    0.460
        48 -11.3566    152.8646    237.2198   1.2310725450e+02   3.2799495164e+00    0.2324378    0.1848224  36.63 0.0004418859    1.189    0.159
