#   1 NUMBER                 Running object number                                     
#   2 MAG_AUTO               Kron-like elliptical aperture magnitude                    [mag]
#   3 X_IMAGE                Object position along x                                    [pixel]
#   4 Y_IMAGE                Object position along y                                    [pixel]
#   5 X_WORLD                Barycenter position along world x axis                     [deg]
#   6 Y_WORLD                Barycenter position along world y axis                     [deg]
#   7 A_WORLD                Profile RMS along major axis (world units)                 [deg]
#   8 B_WORLD                Profile RMS along minor axis (world units)                 [deg]
#   9 THETA_WORLD            Position angle (CCW/world-x)                               [deg]
#  10 FWHM_WORLD             FWHM assuming a gaussian core                              [deg]
#  11 ELONGATION             A_IMAGE/B_IMAGE                                           
#  12 ELLIPTICITY            1 - B_IMAGE/A_IMAGE                                       
         1 -10.0750    142.0041     28.6259   4.7055478748e+01   4.5962191385e+01    0.5188335    0.2666535 -70.48  0.001901171    3.568    0.720
         2 -11.4461      2.1648     22.2951   9.4222474075e+01   7.1322937697e+01    0.4298094    0.1910583 -53.22  0.002265059    2.137    0.532
         3 -11.7610     13.4100     15.9054   8.5239219890e+01   7.1438561773e+01    0.3077954    0.2298973   8.49  0.002203473    1.227    0.185
         4 -10.9192     14.7911      8.6912   8.1082322332e+01   7.2341606539e+01    0.3312105    0.2107271 -23.10  0.001418999    1.343    0.255
         5 -11.5205     71.8820     14.7960   5.9001407873e+01   6.2993358956e+01     0.436257    0.2915975 -22.55  0.001310294    1.588    0.370
         6 -11.7742    234.8909     15.1080   3.2737641275e+01   2.6189709948e+01    0.2490537    0.1723747 -66.29 0.0003159648    1.156    0.135
         7 -11.3171     84.1624     14.6702   5.5209068878e+01   6.0569871837e+01    0.4698593    0.2481693  26.16  0.001403694    2.356    0.576
         8 -10.0151     89.5107     13.4761   5.3257800039e+01   5.9579072948e+01    0.2338733    0.1540731  31.07 0.0009499213    1.510    0.338
         9 -10.5286     66.0276     15.5595   6.1297886306e+01   6.4007434647e+01    0.2890554    0.1427252 -44.95  0.001091541    2.908    0.656
        10 -11.2232    207.8719     13.4618   3.4605397665e+01   3.2180098089e+01     0.216571    0.1594156 -45.14 0.0007230972    1.354    0.261
        11  -9.5132     42.6302      4.8355   6.5323765083e+01   6.9158619493e+01    0.1603289    0.1298659   0.02 0.0004349487    1.118    0.105
        12  -9.5517     22.5283      9.4826   7.7259944239e+01   7.1378117219e+01    0.3948697    0.1982287  12.05    0.0020343    2.454    0.593
        13 -10.9578     38.4779      6.7794   6.8112058098e+01   6.9578858657e+01     0.328881     0.263114  40.56  0.001583972    1.450    0.310
        14 -11.3924     34.4992     12.5074   7.2750559778e+01   6.9459652088e+01    0.3406399    0.2654398   1.52  0.002044629    1.053    0.050
        15 -11.8476     30.5129      7.5331   7.2230197069e+01   7.0617279863e+01    0.3862847    0.2596387  26.19  0.001716717    1.322    0.243
        16 -10.1648     28.0000      2.0417   7.0655820468e+01   7.1597551697e+01    0.2240212    0.1389426 -19.61  0.001071873    1.510    0.338
        17 -10.4032    171.9852     11.9712   3.7941805836e+01   4.0615895699e+01    0.1990492    0.1291554 -69.29 0.0003341469    1.555    0.357
        18 -10.2846     44.7979     10.5873   6.7199538273e+01   6.8182041077e+01    0.3302621    0.1769543  16.46  0.001672449    2.287    0.563
        19 -10.9119    134.2048     11.0436   4.2958508278e+01   4.9702990257e+01    0.2804023    0.1769308  80.77   0.00135121    1.599    0.375
        20 -10.0778     57.3094      9.0354   6.1497589485e+01   6.6277891221e+01    0.3333773     0.208951 -48.73  0.001645421    2.510    0.602
        21 -11.2639     57.5801      2.8109   5.8495612209e+01   6.6845281639e+01    0.4051103    0.2439591  24.11 0.0009122301    1.614    0.380
        22 -11.4558    125.3186     10.1435   4.4196410481e+01   5.1877872051e+01    0.4199817    0.2240924 -57.30 0.0008322108    2.553    0.608
        23 -11.0652    187.8617      7.4131   3.5083207569e+01   3.7368817800e+01     0.256809    0.1753527  37.91  0.001189113    2.074    0.518
        24 -10.9246    218.0627      7.2899   3.2409138667e+01   3.0622512909e+01    0.1730901    0.1320692 -81.60 0.0007820074    1.060    0.056
        25 -10.2680      2.4292      6.8541   8.7464356239e+01   7.3738417897e+01    0.2067712    0.1371653   8.81 0.0008188045    1.369    0.270
        26 -11.0180    119.6701      3.7471   4.3078774055e+01   5.3754986017e+01    0.2946658    0.2213337  67.04  0.000992398    1.154    0.133
        27  -9.5335    119.2943      9.6559   4.5141198976e+01   5.3323787858e+01    0.1271703   0.09272751 -69.28 0.0004690146    1.664    0.399
        28 -10.2512    103.5927      2.8007   4.5844279561e+01   5.7484218763e+01    0.3293741    0.2642165 -82.11  0.002061886    1.486    0.327
        29  -9.3998     74.9764      3.9217   5.3381760606e+01   6.3451436227e+01    0.1944678    0.1182602  28.64 0.0006626581    1.619    0.382
        30 -11.1013     20.8842      2.1531   7.4395023048e+01   7.2496566021e+01     0.299349    0.1641901  22.71  0.001493818    1.669    0.401
        31  -9.7377    176.0497      2.5165   3.5066325908e+01   4.0592047519e+01    0.1928589    0.1052948  74.79  0.000519687    1.563    0.360
        32 -10.2346    162.6513      2.1906   3.6441738247e+01   4.3769107351e+01    0.1820149    0.1381441  89.05  0.001124804    1.147    0.128
        33 -11.1169     80.2630      1.6638   5.0939261005e+01   6.2576455084e+01    0.2566957    0.1451014  55.72  0.001116051    1.534    0.348
        34 -10.5583     11.2982      1.6803   7.9526442575e+01   7.3634613210e+01    0.1854492    0.1310732  34.40 0.0004976466    1.755    0.430
        35 -10.9500    151.0325      5.9923   3.8939648105e+01   4.6177200197e+01    0.1961528    0.1625885  86.21  0.000387469    1.072    0.067
        36 -10.5147      5.8998    192.1040   1.2074742591e+02   3.2753709745e+01    0.2178961     0.176394 -70.46  0.001476418    1.300    0.231
        37 -11.0185     27.4851    250.4786   1.2000414267e+02   1.8104257618e+01    0.2264582    0.1147017  42.52  0.001260643    1.639    0.390
        38 -12.0516     18.3016    248.7034   1.2159667035e+02   1.9453170318e+01    0.3104217    0.2604573 -35.78  0.002210694    2.000    0.500
        39 -10.8313      2.0919    247.2487   1.2444242431e+02   2.1390001782e+01     0.377616    0.1709625 -85.65  0.002040173    1.950    0.487
        40 -12.6923      9.6787    245.0630   1.2298387683e+02   2.1062516551e+01    0.5097963     0.333144  59.31  0.003547996    1.163    0.140
        41 -11.9206      5.1456    240.7279   1.2360250598e+02   2.2371690042e+01    0.5317482    0.1791814  44.82  0.002816546    2.206    0.547
        42 -11.3834      9.1853    237.6215   1.2270794234e+02   2.2593501522e+01    0.2173766    0.1839617  26.79  0.001108265    1.627    0.385
        43  -9.3456     22.0366    180.0109   1.1609677324e+02   3.4106197873e+01     0.154392    0.1292725  79.74 0.0005323576    1.043    0.042
        44 -10.4399      4.9221    167.9531   1.1922788855e+02   3.8508346117e+01    0.2838136    0.1173924  44.05  0.001376485    2.329    0.571
        45  -9.5704    226.4431    164.0526   6.5508923350e+01   4.0761277536e+00    0.2045836     0.119007 -38.01 0.0006872549    1.540    0.351
        46  -9.8611     14.6405    163.6873   1.1644011821e+02   3.8739676372e+01    0.1286253   0.08609082 -45.94  0.000704262    1.746    0.427
        47  -9.2505     22.0151    160.4928   1.1421942525e+02   3.8865482374e+01    0.1609768    0.1047045 -26.90 0.0008056156    2.292    0.564
        48  -9.4176     41.3309    158.5185   1.0881731785e+02   3.7382281630e+01    0.1366887    0.1133892 -77.01 -0.0001177604    1.068    0.064
        49  -9.2541    247.4869    155.4633   6.0335400163e+01   2.1215822056e+00     0.129813    0.1094742 -31.46 0.0003230976    1.017    0.016
        50 -11.0394      3.1739    153.5674   1.1847533991e+02   4.2109030610e+01    0.4481764     0.127151  25.71  0.001840407    3.713    0.731
        51  -9.2204     27.2905    147.6541   1.1132861639e+02   4.1566930359e+01    0.1397821   0.08954626  72.27 0.0003446867    1.659    0.397
        52 -10.7801     22.4595    146.8984   1.1259153915e+02   4.2201053452e+01    0.2253342    0.1949044  -3.44 0.0009670712    1.487    0.327
        53  -9.5371     22.6716    143.2844   1.1209861268e+02   4.3084104148e+01    0.1345689   0.08855041  66.89 0.0002382513    1.608    0.378
        54  -9.4094    236.3478    139.3010   5.8804379631e+01   6.7506247598e+00    0.1332785    0.1005977  -4.04 0.0005338234    1.688    0.408
        55  -9.4605     24.5959    139.1731   1.1102864941e+02   4.3939881110e+01    0.1965436   0.09996946 -59.71  0.000938925    1.680    0.405
        56 -10.4696      1.6067    137.0909   1.1737234616e+02   4.6223372265e+01     0.306787    0.1057162 -86.15  0.001152207    3.189    0.686
        57  -9.3208      9.2852    135.3450   1.1500660331e+02   4.6127915482e+01    0.1330337   0.07932258 -50.05 0.0007018763    1.646    0.392
        58 -10.8888      3.5242    133.2171   1.1643403193e+02   4.7043724540e+01    0.4897905     0.176654  27.88  0.002223559    2.982    0.665
        59 -10.1059    212.5147    133.9465   6.1627028478e+01   1.2118082228e+01    0.2396067    0.1999081  78.65 0.0006435197    1.472    0.321
        60  -9.4314     95.7551    134.0178   8.8963672220e+01   3.5749583981e+01     0.200101     0.126173 -56.03 0.0005052553    1.538    0.350
        61  -9.8829     24.1798    130.5913   1.1000247633e+02   4.6121859710e+01    0.1638488    0.1270092  -8.85 0.0004014295    1.657    0.397
        62 -10.5659     11.9466    129.5847   1.1355542322e+02   4.7353803301e+01    0.2387331    0.1811411  72.51  0.001437348    1.351    0.260
        63 -10.3733     28.3828    128.1497   1.0836463419e+02   4.6353421013e+01     0.196194    0.1793386 -31.42 0.0004101464    1.240    0.194
        64 -10.2585      2.0000    122.4368   1.1570416096e+02   4.9763066811e+01    0.2881554   0.05918181 -73.21 0.0009352338    3.939    0.746
        65 -10.8984     24.1980    122.0064   1.0875448707e+02   4.8256132660e+01    0.2294391    0.1976801  23.86  0.000362881    1.359    0.264
        66 -10.8732     17.8348    121.9106   1.1074775200e+02   4.8802015009e+01    0.1981846    0.1878836  45.39 0.0003811837    1.224    0.183
        67 -11.2320     10.2163    120.6760   1.1296464077e+02   4.9664260364e+01    0.2863419    0.1392363 -61.42  0.001429608    1.645    0.392
        68 -10.6794     69.2037    116.7343   9.3244338976e+01   4.4332440734e+01    0.2863165    0.2146669 -38.78 0.0006863774    1.381    0.276
        69 -11.1815     18.7548    116.4273   1.0965901717e+02   5.0079328882e+01    0.2292661    0.1219909  27.93  0.001149656    2.120    0.528
        70  -9.8813      1.8408    114.1769   1.1477342703e+02   5.1769018953e+01    0.1741752    0.1178074 -54.46 0.0003548329    1.296    0.228
        71 -10.8514     65.1048    110.5699   9.3190406547e+01   4.6432104374e+01    0.4117129     0.203723 -61.57   0.00111383    2.032    0.508
        72  -9.2654    139.4616    112.3995   7.1828129889e+01   3.2074667212e+01    0.1538569     0.148446  87.04 -3.088777e-05    1.036    0.035
        73  -9.9915     44.9926    110.7009   9.9941852267e+01   4.8982050937e+01    0.1831724    0.1769622  26.84 0.0006394438    1.152    0.132
        74 -11.0572     13.4551    109.0000   1.1028159321e+02   5.2282004535e+01    0.2076579    0.1958437  11.46 0.0004416189    1.262    0.208
        75 -10.1606      2.0228    108.9791   1.1405473432e+02   5.3006710091e+01    0.1941715    0.1318908  73.56 0.0006883715    1.637    0.389
        76 -10.7102     57.7894    107.7659   9.4994467703e+01   4.8119999789e+01    0.2369234     0.180326  23.46  0.000730356    1.461    0.315
        77 -10.5357     27.3171    107.6463   1.0536996744e+02   5.1513741316e+01    0.2092945    0.1481258  72.14  0.001114419    1.723    0.419
        78 -10.3851      1.4092    104.3656   1.1364284520e+02   5.4140929604e+01    0.2466138   0.08871733 -65.46 0.0009229465    2.072    0.517
        79 -10.2864     55.7723    104.4622   9.4930844244e+01   4.9181080332e+01    0.1925371    0.1375744   6.47 0.0009482792    1.752    0.429
        80  -9.5977    246.6658    101.7022   4.9487426397e+01   1.1337121708e+01    0.1217341    0.1009288  -3.10  0.000318389    1.649    0.394
        81  -9.0914     91.7710     99.9631   8.1913244604e+01   4.4579624322e+01     0.179731    0.1207284 -48.23 0.0008178125    1.442    0.307
        82  -9.6765     84.0594    100.2293   8.4433003705e+01   4.5887675220e+01     0.195112    0.1873309  31.24 0.0003478171    1.081    0.075
        83 -11.0160     20.0872    100.1550   1.0654272536e+02   5.3919702281e+01    0.2455526    0.1747911 -14.44  0.001012143    1.667    0.400
        84  -9.2118    100.7303     96.4152   7.8186894611e+01   4.3681020468e+01    0.1557783    0.1184225 -82.44  0.000696089    1.779    0.438
        85 -10.1098      6.9716     85.0672   1.0862562296e+02   5.8342193752e+01    0.2162193    0.2114617 -31.39 0.0009645018    1.196    0.164
        86 -11.2381     10.6712     86.2550   1.0744302207e+02   5.7843932268e+01    0.3316016    0.2177719 -88.02  0.001832247    1.781    0.438
        87 -11.4861      3.1579     95.3114   1.1173267340e+02   5.6182951191e+01    0.2356371    0.1788786 -65.92 0.0002314597    1.084    0.077
        88 -11.5381      7.3037     91.1373   1.0956595138e+02   5.6921610216e+01    0.4205878    0.2294728   4.29 0.0004024645    2.303    0.566
        89 -12.1508     20.4366     92.9028   1.0506640844e+02   5.5608819508e+01    0.3792337    0.2553859 -41.68 0.0004851428    1.370    0.270
        90 -12.0126    125.2153     93.3034   7.0361527110e+01   3.9263457943e+01    0.2722571    0.2614439  61.77 0.0002288433    1.042    0.040
        91 -11.7163     58.0850     91.5998   9.0993439165e+01   5.1889646469e+01    0.3111501    0.2374317 -34.82 0.0003760908    1.289    0.224
        92 -10.2249     66.7011     92.0506   8.8073969829e+01   5.0553696228e+01    0.2804576    0.1895388  49.40  0.001275717    1.724    0.420
        93  -9.7824     29.0269     91.9836   1.0170891459e+02   5.5099566483e+01    0.1933886    0.1498823  61.22 0.0008019611    1.606    0.377
        94 -10.6546     43.4856     89.2471   9.5718410349e+01   5.4256618328e+01    0.3378738    0.2445488  67.29 0.0004142714    1.927    0.481
        95 -10.2087     24.1326     88.0387   1.0270360182e+02   5.6442988611e+01    0.3642897    0.1620974 -58.73  0.001693828    1.852    0.460
        96 -11.0277     63.4382     87.0166   8.7862260837e+01   5.2167404373e+01    0.2537844    0.1965774   5.30 0.0006864927    1.484    0.326
        97  -9.4021    124.4738     86.5041   6.8621186348e+01   4.0809321042e+01    0.1487799    0.1479384  67.30 0.0002509658    1.011    0.010
        98 -11.0000     55.3058     85.7330   9.0455058852e+01   5.3591710220e+01    0.2336434    0.2245031 -60.13  0.000282255    1.124    0.110
        99  -9.8621    145.7934     83.4110   6.2483581605e+01   3.6561798119e+01    0.2697676    0.1457431  56.93 0.0009830096    1.915    0.478
       100  -9.3994     76.5825     83.1911   8.2177073234e+01   5.0938920848e+01     0.199916     0.127513 -37.10 0.0006748791    1.588    0.370
       101 -10.5330      3.2596     82.2541   1.0953559723e+02   5.9190185906e+01    0.3659869    0.1316542 -62.71  0.001685976    2.097    0.523
       102  -9.2387    250.3301     80.7112   4.4702165633e+01   1.4034075404e+01    0.1314567   0.08397745 -66.20  0.000650743    1.621    0.383
       103  -9.4335    141.9600     79.9940   6.2401444660e+01   3.8093907884e+01    0.1798411    0.1717242  70.08 0.0003831135    1.024    0.024
       104  -9.7551    124.5604     79.6366   6.6589764155e+01   4.2133580772e+01    0.1897393    0.1429221 -53.07 0.0006204454    1.400    0.286
       105  -9.6179     88.3694     79.6805   7.7196270274e+01   4.9590909331e+01    0.3716403    0.2338481  84.61  0.001164645    4.693    0.787
       106  -9.4741     80.6571     79.7736   7.9776772706e+01   5.0961848716e+01    0.1941414     0.131018 -55.11 0.0002180351    1.595    0.373
       107  -9.5677     47.8975     79.1652   9.1447801231e+01   5.5996410523e+01    0.1829788    0.1409837 -27.05  0.000318134    1.284    0.221
       108  -9.5131     24.5336     78.9601   1.0052954317e+02   5.8474373065e+01    0.2254319    0.1219213 -37.35  0.001125513    1.780    0.438
       109  -9.6941     22.2918     76.6318   1.0087842855e+02   5.9180264756e+01    0.1230163   0.09587272  78.38 0.0005759723    1.715    0.417
       110 -11.1132      6.6547     76.2972   1.0708292787e+02   6.0342918294e+01    0.2158955    0.1605939  71.57  0.001013236    1.759    0.432
       111 -10.0487    176.4752     76.9561   5.4457104413e+01   3.0517209012e+01    0.2330988    0.1935097  65.39  0.001239245    1.198    0.165
       112 -11.3628     55.0244     75.2561   8.7622499962e+01   5.5912408038e+01    0.3053629    0.2358889 -20.57            0    1.336    0.251
       113 -11.3872     15.9126     75.4357   1.0317561138e+02   5.9935603063e+01    0.3450743    0.2281577   1.22  0.001997051    1.736    0.424
       114 -10.5938     37.0417     74.9939   9.4554395026e+01   5.8153638097e+01    0.5191284    0.1929792 -50.34 0.0004457989    2.253    0.556
       115 -10.1397     33.8970     73.2053   9.5336722764e+01   5.8868562117e+01    0.2810284    0.1891676  21.68 0.0008955419    1.614    0.380
       116  -9.8495     41.4918     74.5088   9.2655901339e+01   5.7768029466e+01    0.1892072    0.1246966   6.18 0.0009059289    1.795    0.443
       117  -9.2699    217.0000     72.0872   4.6935450277e+01   2.2142435749e+01     0.209064   0.07099262 -38.07 0.0003508239    2.724    0.633
       118 -12.6541    105.8541     70.8292   6.9052780404e+01   4.7857274988e+01    0.3008866    0.2853993 -81.47 0.0004997721    1.159    0.138
       119  -9.9520     91.5090     70.5626   7.3340977138e+01   5.0802868059e+01    0.3786821     0.224126 -72.91  0.001200905    4.552    0.780
       120  -9.2718    100.2571     70.6119   7.0642403071e+01   4.9055817413e+01     0.144591    0.1138355 -73.68  0.000696716    1.683    0.406
       121 -10.3225     77.4082     67.7719   7.7131155883e+01   5.3937709636e+01    0.3837593    0.2378587 -22.78  0.001541772    2.039    0.510
       122 -10.6455     80.5391     67.4457   7.5949292114e+01   5.3445365167e+01    0.4673156    0.2868663 -56.13   0.00213214    1.993    0.498
       123 -10.8787     45.6898     69.4684   8.9544048810e+01   5.8339242800e+01     0.244463    0.2396247   4.85 0.0008076165    1.174    0.148
       124 -11.0354     10.2172     69.7255   1.0423507363e+02   6.1575400661e+01    0.3122324    0.1714295 -44.78   0.00138526    1.500    0.333
       125 -10.2477      4.9985     68.2489   1.0609442853e+02   6.2206993472e+01     0.267579    0.1608764  67.00    0.0013435    2.770    0.639
       126  -9.7222      1.4475     66.4695   1.0721148655e+02   6.2779992673e+01    0.1201769   0.09655803 -50.01  6.74059e-05    1.020    0.019
       127 -10.3281     51.5231     66.3487   8.6281485306e+01   5.8230174018e+01    0.2799833    0.1901355 -19.50 0.0007616229    1.641    0.391
       128 -10.9043     15.1499     63.7620   1.0071179434e+02   6.2519721238e+01    0.3380015    0.2601607 -18.22  0.001290245    1.274    0.215
       129 -11.2923     97.5135     63.7251   6.9246806193e+01   5.0877965326e+01    0.4701033    0.2460313  30.93  0.001864925    2.435    0.589
       130 -10.6969     62.4646     61.5575   8.0497660258e+01   5.7592773910e+01    0.4194768    0.2186093 -51.60  0.001893351    2.092    0.522
       131  -9.6883    130.9798     62.7594   5.9887641910e+01   4.3700297241e+01    0.1954771    0.1792369  69.06 0.0004063566    1.075    0.070
       132 -10.2824     38.6907     61.3965   8.9958118899e+01   6.0819520385e+01     0.236203    0.1635637  -5.76 0.0009718244    1.601    0.375
       133 -12.8563     20.7021     57.6420   9.6620721102e+01   6.3356050394e+01    0.3938809    0.2692281 -51.81 0.0009455935    1.303    0.233
       134  -9.9705     85.3085     59.3093   7.1634589742e+01   5.4063430572e+01     0.217793    0.1636229  22.03 0.0006454004    1.423    0.297
       135 -12.0437     86.2561     54.5062   6.9667162684e+01   5.4713731846e+01    0.5527445    0.3490411  18.18  0.001611451    2.134    0.531
       136  -9.4588    193.8376     58.6710   4.6967241003e+01   2.9437772333e+01    0.2029578    0.1220751  76.47 0.0009496086    1.789    0.441
       137  -9.8130    109.5747     58.0503   6.3875659447e+01   4.9315259260e+01    0.2141478    0.1780802  47.23 6.192651e-05    1.154    0.134
       138 -10.6671     10.7111     59.5690   1.0158899256e+02   6.3706809553e+01    0.2539653     0.111764  19.94  0.001003322    2.495    0.599
       139  -9.5643     48.4663     58.4539   8.4967623662e+01   6.0195724195e+01    0.1309386    0.1155623 -18.27 -4.740237e-05    1.007    0.007
       140  -9.9101     71.6193     56.7315   7.5465182958e+01   5.6994315551e+01     0.179341    0.1257741 -49.32  0.000569473    1.570    0.363
       141 -10.1510     32.6356     56.0840   9.0884598317e+01   6.2539922905e+01    0.2809939    0.1494863 -29.95 0.0009332123    1.970    0.492
       142 -10.5487     37.3221     49.5108   8.6656281462e+01   6.3276330774e+01    0.4202294    0.2439709 -19.44   0.00210508    2.025    0.506
       143 -10.2753      5.9708     56.8748   1.0302933180e+02   6.4561859655e+01    0.3101569    0.1572731 -17.92  0.001030894    2.244    0.554
       144 -10.8376     95.9539     55.5492   6.6978073774e+01   5.2610745080e+01    0.3911258    0.2881903  79.43  0.001529377    2.045    0.511
       145 -10.9388    114.3751     53.5868   6.1116991283e+01   4.8980833636e+01    0.2831936    0.2520348  -6.20 0.0007016139    1.225    0.183
       146 -12.0596     66.6988     52.7566   7.5866085347e+01   5.8526579866e+01    0.3926116    0.2132922  34.24 0.0007737169    1.849    0.459
       147 -10.2482    149.2119     52.0587   5.2716733892e+01   4.1075321320e+01    0.2513106    0.1913734  59.39  0.000562887    1.239    0.193
       148 -11.0576    105.9541     50.6998   6.2418908669e+01   5.1286996445e+01    0.2965052    0.2013358 -30.03 0.0006933231    1.579    0.367
       149 -10.5392      9.2778     47.9662   9.9088092580e+01   6.6151526936e+01    0.2852062    0.1835497   0.54  0.001756356    1.637    0.389
       150  -9.4913     76.4603     49.5046   7.1182203285e+01   5.7385353392e+01    0.1338693    0.1238057   7.34   0.00047967    1.028    0.027
       151 -10.2388      4.0514     50.9517   1.0238788321e+02   6.5881713115e+01    0.2510369    0.1230246 -35.87 0.0009145269    1.768    0.434
       152  -9.8598     52.9817     48.0396   7.9498802294e+01   6.1485406652e+01    0.2399834     0.169684  20.30  0.001355969    1.418    0.295
       153 -10.4374    152.8152     45.4283   5.0097452292e+01   4.1171742141e+01    0.4096033    0.2325159 -68.21  0.001392433    2.563    0.610
       154  -9.8678    136.5754     46.8088   5.3709627884e+01   4.4869210740e+01    0.2669922    0.1852278  58.43 0.0009051969    1.344    0.256
       155  -9.5004     31.0008     45.9976   8.8266570421e+01   6.4634839165e+01    0.1493893    0.1246731 -20.74 0.0003868654    1.000    0.000
       156 -11.0948     18.1523     44.5613   9.3791866958e+01   6.6135736143e+01    0.3605744    0.2431252  25.00  0.002210097    1.619    0.382
       157  -9.3012     79.2808     45.6966   6.8823714078e+01   5.7480423727e+01    0.1227383    0.1084111 -81.93 0.0002289625    1.551    0.355
       158  -9.1602     36.4776     45.4913   8.5616012290e+01   6.4110755502e+01    0.1286329    0.1038997 -17.00 0.0008089616    1.079    0.073
       159 -10.3544     25.8231     44.0257   8.9976287068e+01   6.5531926331e+01     0.222052    0.1693967 -65.97 0.0009353335    1.768    0.434
       160 -10.5674    120.2052     49.0257   5.8143966912e+01   4.8366089786e+01    0.4068805    0.2335405 -61.59  0.001632042    2.743    0.635
       161  -9.7109     69.2459     41.9800   7.0950799606e+01   5.9881480757e+01    0.1776064    0.1584234  -8.53  0.001106174    1.067    0.063
       162 -10.1556     59.4815     41.8760   7.4594601333e+01   6.1531068862e+01    0.2281164    0.1683543  48.52 0.0006401302    1.606    0.377
       163 -10.2830     35.3599     41.6856   8.4733225196e+01   6.4918896646e+01     0.275509    0.1839114   3.90  0.001583662    1.582    0.368
       164 -10.5641    170.7238     40.2278   4.5638988968e+01   3.7567590029e+01    0.3829339     0.240799  87.75  0.001845801    1.770    0.435
       165  -9.6503    183.3812     40.2310   4.3800814972e+01   3.4546231954e+01    0.1787867    0.1155659 -48.83 0.0004555357    1.498    0.332
       166  -9.4772     42.8254     40.6633   8.1024157818e+01   6.4162583555e+01    0.1626026    0.1087527  36.67 0.0004936433    1.610    0.379
       167  -9.7032    152.1652     39.1356   4.8382727082e+01   4.2190865905e+01    0.2049023     0.180402  46.39 0.0006153566    1.208    0.172
       168 -11.8169    121.1877     37.4120   5.4083673097e+01   4.9780026819e+01     0.387597    0.3389699  39.19  0.001209237    1.128    0.113
       169 -10.4752     22.0661     38.2272   8.9720965992e+01   6.6946705918e+01    0.2005235    0.1507135 -38.16  0.000621356    1.189    0.159
       170 -10.2390     97.2778     37.4720   6.0205687305e+01   5.5089180179e+01    0.2525282    0.1800557  19.08 0.0009112355    1.631    0.387
       171 -12.5063     39.8414     32.3817   7.9081888224e+01   6.5909727339e+01    0.3646844    0.2590219 -24.33 0.0004669972    1.285    0.222
       172  -9.4457     35.2247     28.7861   7.9715691753e+01   6.7066888087e+01    0.1673537    0.1172279  -9.62 0.0004116398    1.360    0.265
       173  -9.8173    139.2189     40.5697   5.1242606916e+01   4.5111125973e+01    0.2794531    0.1317764  66.07  0.001140473    2.193    0.544
       174 -11.3524     27.2034     34.4676   8.5821858228e+01   6.7080420752e+01    0.2881943    0.2047921 -14.06 0.0008121919    1.287    0.223
       175 -10.0106    133.6974     34.6244   5.0494721488e+01   4.7207281626e+01    0.1969998    0.1358054  35.90 0.0008392468    1.640    0.390
       176 -10.6793     90.9986     33.2010   6.0443862001e+01   5.6979466979e+01    0.4323333    0.3179222 -29.07  0.002445161    1.444    0.307
       177 -10.9465     48.4347     33.1028   7.5619244289e+01   6.4601326645e+01     0.426717    0.2376716  36.88  0.001662151    1.771    0.435
       178 -10.5206      7.0566     34.0474   9.5814065853e+01   6.8933013920e+01    0.2163598    0.1575275  26.79 0.0009919986    1.620    0.383
       179  -9.3328    241.8425     33.1511   3.5822210119e+01   2.2548761604e+01    0.1437843    0.1318203 -73.98 0.0003277529    1.265    0.209
       180  -9.7135     55.3449     33.0630   7.2750270711e+01   6.3555249030e+01    0.1682716    0.1385717 -15.34 0.0002695202    1.132    0.117
       181 -10.2398     17.4707     32.6144   8.9939581536e+01   6.8357620695e+01    0.2996068    0.1561852  -0.29  0.001336972    2.369    0.578
       182 -10.9662     71.2151     29.0044   6.5142332151e+01   6.1407299931e+01     0.447442    0.3025865 -58.32  0.002103459    2.431    0.589
       183 -11.0205    128.2794     39.0652   5.3043818516e+01   4.7906916444e+01    0.3540978    0.2096343 -48.79  0.001004679    1.922    0.480
       184  -9.3174    162.6290     31.7010   4.4539305984e+01   4.0619532140e+01     0.139439   0.09609941  40.15 0.0007030131    1.741    0.426
       185  -9.9053    229.8076    247.8986   7.9968426940e+01  -9.5672358448e+00    0.1693109     0.125919  -0.71 0.0004920735    1.107    0.097
       186  -9.8034    151.1057     29.6334   4.5787221960e+01   4.3652211417e+01    0.1862721    0.1519835  66.83 0.0004233089    1.107    0.096
       187  -9.9544    127.2082     30.2767   5.0424347483e+01   4.9280795834e+01    0.2388545    0.1732284  61.36 0.0006377033    1.252    0.202
       188  -9.0906    123.6071     27.7453   5.0344067833e+01   5.0426806393e+01    0.1427656   0.08968057  38.93  0.000331357    1.689    0.408
       189 -10.2779    113.9400     26.5878   5.2071118920e+01   5.2793346988e+01    0.2373341    0.1890486 -40.33 0.0007131855    1.393    0.282
       190  -9.6490     59.6111     25.7670   6.8039028318e+01   6.3888006055e+01    0.2068718    0.1531339 -37.80 0.0007474085    1.515    0.340
       191  -9.8925     52.8450     26.0938   7.0852836035e+01   6.4951066887e+01    0.1676723    0.1530848   7.21 0.0003181942    1.168    0.144
       192 -10.6476     45.4842     26.1227   7.3959450266e+01   6.6067217082e+01    0.3338371    0.1795107  26.08  0.001725001    1.887    0.470
       193 -10.2961    225.1192    247.3533   8.0714663803e+01  -8.9045134158e+00    0.2107631    0.1555822 -29.22  0.001434871    1.393    0.282
       194  -8.9099      7.3106     19.5223   9.0213926629e+01   7.1403986763e+01    0.3149155    0.1302381 -23.05  0.001445875    3.019    0.669
       195  -9.4256    170.6270    247.1629   9.0997817318e+01  -1.3175452193e+00    0.1610566    0.1103862 -28.86 0.0007744997    1.667    0.400
       196  -9.2359    116.0009    246.8935   1.0209055599e+02   6.9712617934e+00    0.1462591    0.1334247  56.41 0.0009768332    1.102    0.092
       197 -10.4364     74.6005     21.8033   6.1052084425e+01   6.1678425471e+01    0.2419285    0.1776713 -42.65 0.0007538724    1.650    0.394
       198 -10.3445      6.0014    250.0136   1.2387210006e+02   2.0470260351e+01    0.2149143    0.1742729  40.17  0.001591514    1.470    0.320
       199  -9.6617     35.7985     22.6294   7.6801119349e+01   6.7913301165e+01    0.2365519    0.1353247  29.66  0.001356301    1.665    0.399
       200 -11.1209     37.9795     19.4517   7.4365488349e+01   6.8065636860e+01    0.2870494    0.2390082  50.85  0.001641834    1.747    0.428
       201  -9.3424     20.2317     17.5757   8.2295358651e+01   7.0504176813e+01    0.3062285    0.1491179 -27.98  0.001661708    1.989    0.497
       202 -10.5161    229.9198     21.5642   3.4449469601e+01   2.6459556397e+01    0.3186015    0.1685121 -78.39    0.0016745    1.905    0.475
       203 -10.0217     97.1339     22.0781   5.4552781699e+01   5.7041848548e+01    0.1904489    0.1640213  37.36  0.001186434    1.047    0.044
       204  -9.3090    100.8480     21.1525   5.3257367232e+01   5.6337380685e+01    0.2468245    0.1347827  40.23 0.0009877278    1.777    0.437
       205 -10.3764     54.5924     21.9900   6.8374894661e+01   6.5219900608e+01    0.2100685    0.1439717  23.32 0.0004309382    1.358    0.263
       206 -10.6874     29.9910     21.2099   7.8954720730e+01   6.8855501866e+01    0.2930388    0.1621076  28.03 0.0008745926    1.736    0.424
       207 -10.0957    181.4263     20.7998   3.9093917278e+01   3.7426210498e+01    0.1587114    0.1289837 -16.22 0.0006140196    1.615    0.381
       208 -11.5407     10.3413     29.8151   9.2588729255e+01   6.9441979685e+01    0.3247438    0.1874907  34.21  0.001929374    2.131    0.531
       209  -9.1376    114.4772     21.5396   5.0200932941e+01   5.3240802507e+01    0.1315724    0.1170805  55.77 0.0008088576    1.015    0.015
       210 -11.3073     14.9574     21.8203   8.6963434577e+01   7.0378483350e+01    0.4372607    0.2035627  27.03  0.002434972    2.167    0.539
       211  -9.3500    214.3456     20.2796   3.5531450205e+01   2.9963847941e+01    0.1152644   0.09036752  50.65 0.0007009993    1.635    0.389
       212 -10.9605    208.9733     18.1934   3.5564475867e+01   3.1397243632e+01    0.1962623    0.1390893 -73.68 0.0005027987    1.221    0.181
       213  -9.4980    140.9704     17.9948   4.3990446435e+01   4.7399621783e+01       0.1598    0.1378805  71.13 0.0006321425    1.015    0.015
       214  -9.2166     61.5404     18.5040   6.4187642487e+01   6.4473961889e+01    0.1242021    0.1046632  17.53 -2.172891e-05    1.004    0.004
       215  -9.4074     39.6596    243.3455   1.1724035009e+02   1.8105673432e+01    0.1332523   0.06657598  62.70  0.000704731    1.784    0.440
       216  -9.4127     49.3555     16.8780   6.8219820983e+01   6.6712251580e+01    0.1624722    0.1013824 -16.50 0.0008831401    1.654    0.395
       217 -10.4953    202.4646     16.0122   3.5685723698e+01   3.3106972802e+01    0.1762463    0.1144792 -40.14 0.0004762576    1.550    0.355
       218  -9.4265    202.4836    240.4577   8.3793859983e+01  -4.8990787723e+00    0.1233426    0.1006746   9.39   0.00018979    1.021    0.020
       219  -9.7920     35.9679    240.4743   1.1776413545e+02   1.9116429111e+01    0.1742972   0.09899384  40.98 0.0006225225    1.560    0.359
       220 -11.0745     14.9576    239.7031   1.2173822493e+02   2.1585968104e+01    0.1668695    0.1195968  59.70 0.0007186493    1.109    0.098
       221  -9.4318     26.8031     16.6650   7.8481245206e+01   6.9892250744e+01    0.1466922   0.09635341  33.08 0.0004347979    1.597    0.374
       222 -10.8065    217.3074     15.0092   3.4120958584e+01   2.9928449802e+01    0.1703491    0.1387658 -65.78 0.0008156659    1.093    0.085
       223  -9.6851    168.8274     14.7922   3.9069199531e+01   4.1071219972e+01    0.1765684     0.130951 -76.46 0.0002394691    1.290    0.225
       224  -9.3592     98.9779     14.7818   5.1345290813e+01   5.7416296503e+01    0.1810121    0.1290709  17.74  0.001018705    1.593    0.372
       225 -10.4115    222.1588     13.8306   3.3466841324e+01   2.9015271426e+01    0.1516868    0.1349688  75.44 0.0004303114    1.324    0.245
       226  -9.8171    117.9885    239.7330   1.0081446104e+02   7.9955909576e+00    0.1737017   0.09882005  37.52 0.0008876816    1.518    0.341
       227  -9.8963     91.0742    237.3162   1.0622049983e+02   1.2492296199e+01     0.190969    0.1684078 -59.15 0.0004957785    1.339    0.253
       228 -11.6646     25.5911    236.0910   1.1950101831e+02   2.1183013603e+01    0.2461479    0.1837245  44.42  0.001004035    1.319    0.242
       229 -12.0113      3.9938    232.7245   1.2343482562e+02   2.4096552901e+01    0.2837274    0.2021334  75.25  0.002011552    1.060    0.056
       230 -12.3395      2.6996    223.5695   1.2322796172e+02   2.6115652410e+01    0.6928361    0.2684462  86.62  0.003394914    2.420    0.587
       231 -12.1209      9.7214    227.6102   1.2208386602e+02   2.4594916106e+01    0.4260651    0.2086945 -72.74  0.002442206    1.897    0.473
       232  -9.2244    243.2062    230.3788   7.4799006777e+01  -8.8799031681e+00    0.1456013    0.1001827  33.68 0.0007191841    1.576    0.366
       233  -9.6616      7.7368     14.1413   8.7660290375e+01   7.2213789418e+01    0.1485975   0.09573371 -17.13 0.0002208659    1.316    0.240
       234  -9.4610     47.7911    229.8369   1.1459601531e+02   1.9893779121e+01    0.1733092    0.1135826  64.46            0    1.314    0.239
       235 -10.7815     15.4941    230.5204   1.2112832839e+02   2.3406967151e+01    0.1188893    0.0888639  70.51 -9.746932e-06    1.009    0.009
       236  -9.7765    209.4964    229.5146   8.0705450775e+01  -4.2417567231e+00    0.1245627     0.104238   5.03 -5.331667e-05    1.006    0.005
       237  -9.4708     96.9806     10.3179   5.0141243980e+01   5.8284002052e+01    0.2002853     0.102151  83.06 0.0007048911    4.301    0.767
       238 -10.9556    140.5446    228.0782   9.4450930338e+01   6.6503136745e+00     0.302886    0.2376106 -72.54  0.001736026    1.595    0.373
       239  -9.9160    223.2496    226.9598   7.7738714168e+01  -5.7805847396e+00    0.1704844    0.1358431 -10.67 0.0003359371    1.092    0.084
       240  -9.5126      3.6148     10.5493   8.8465375038e+01   7.3096025223e+01    0.1081307   0.08266585 -18.58 0.0001328462    1.049    0.047
       241 -10.5752      8.5129    218.0719   1.2179221995e+02   2.6733642072e+01    0.2289609     0.188132  40.79  0.001629595    1.401    0.286
       242  -9.2770    233.3160    218.7147   7.4532426583e+01  -5.9298759504e+00    0.1014162   0.09920204  66.40 0.0003130815    1.584    0.369
       243  -9.8295    205.5653    212.6370   7.8579279325e+01  -9.7194381302e-01     0.223928     0.117166 -36.39 0.0007665853    1.898    0.473
       244  -9.9268     15.2446    213.2230   1.2013057895e+02   2.7128604104e+01    0.1724342    0.1077678  66.82 0.0003959906    1.329    0.248
       245  -8.9548    249.3437    211.3195   7.0497747068e+01  -6.9678996546e+00    0.1262259   0.07873442  -4.94  0.000704958    1.723    0.420
       246  -9.5697    209.4753    211.4667   7.7626634563e+01  -1.3741174177e+00    0.1290022    0.1115807  -0.43 0.0001397957    1.005    0.004
       247  -9.7953     20.2047    209.8681   1.1886735025e+02   2.7368837933e+01    0.1963996    0.1273456  65.74 0.0007376561    1.298    0.230
       248  -9.6749    249.3373    233.8804   7.4343291147e+01  -1.0102373303e+01    0.1576364    0.1169279 -11.47 0.0004839833    1.086    0.079
       249  -9.4551    193.5103    202.4633   7.9130186179e+01   2.6899380006e+00    0.1336301    0.1214594   3.58 0.0001928668    1.022    0.022
       250  -9.3169     10.6766    203.7004   1.2047406636e+02   2.9686128731e+01    0.1104324   0.08593255 -52.92 0.0006053731    1.629    0.386
       251 -10.2923     23.6308    196.7286   1.1713699236e+02   3.0002368011e+01    0.3342238    0.1880087 -43.01  0.001636367    2.648    0.622
       252 -10.2174     13.8628    192.4233   1.1900097376e+02   3.1959219005e+01    0.2027131    0.1342033  79.93 0.0004903056    1.274    0.215
       253 -10.3060      1.4262    191.6842   1.2170004578e+02   3.3232483367e+01    0.2633979    0.1086057  84.87 0.0008152244    2.305    0.566
