#   1 NUMBER                 Running object number                                     
#   2 MAG_AUTO               Kron-like elliptical aperture magnitude                    [mag]
#   3 X_IMAGE                Object position along x                                    [pixel]
#   4 Y_IMAGE                Object position along y                                    [pixel]
#   5 X_WORLD                Barycenter position along world x axis                     [deg]
#   6 Y_WORLD                Barycenter position along world y axis                     [deg]
#   7 A_WORLD                Profile RMS along major axis (world units)                 [deg]
#   8 B_WORLD                Profile RMS along minor axis (world units)                 [deg]
#   9 THETA_WORLD            Position angle (CCW/world-x)                               [deg]
#  10 FWHM_WORLD             FWHM assuming a gaussian core                              [deg]
#  11 ELONGATION             A_IMAGE/B_IMAGE                                           
#  12 ELLIPTICITY            1 - B_IMAGE/A_IMAGE                                       
         1 -11.6898     20.7509     29.1941   1.1187303380e+02   6.6839755261e+01     1.389303    0.8381826  27.97  0.009074802    1.835    0.455
         2 -10.7272     13.6153     26.7279   1.1409783336e+02   6.7816247416e+01    0.7033659    0.3209703  -3.84  0.003441684    3.144    0.682
         3 -11.1294     40.1377      3.1332   9.2909798905e+01   6.7987878230e+01    0.6942977    0.3992252   6.05   0.00366804    1.734    0.423
         4 -11.8689      9.0554      3.3619   1.0678861084e+02   7.1418417367e+01     0.806478    0.2719515  28.00  0.004411851    2.920    0.658
         5 -10.9463     26.7812     15.6635   1.0394478208e+02   6.8158737339e+01      0.51231    0.3563388 -32.35  0.002727322    1.429    0.300
         6 -11.3289     20.1042     14.7830   1.0653382943e+02   6.8951373536e+01    0.6940573    0.3739221  -8.76  0.003408447    1.939    0.484
         7 -11.7943     25.8578      5.4530   9.9931611616e+01   6.9501515915e+01    0.7884678    0.6153129  45.06  0.005347142    2.173    0.540
         8 -12.0279      8.6987     13.1842   1.1114757506e+02   7.0169881102e+01     1.596361    0.4808894 -29.65  0.006904295    3.752    0.734
         9 -10.7415     16.8386      9.9470   1.0598249010e+02   6.9890266219e+01    0.3112042    0.1997128  -7.31 0.0003817135    1.280    0.218
        10  -9.4358     45.8602     33.2155   1.0306538392e+02   6.3538609825e+01    0.2700543    0.1857354 -29.79 0.0009203292    1.316    0.240
        11 -12.1649     68.8120     11.6394   8.6289826145e+01   6.2770146327e+01    0.3055276    0.2153432  31.55 0.0002722885    1.192    0.161
        12  -9.5666    161.8756      9.8974   6.5209516570e+01   4.3174588495e+01    0.4200471    0.1956396  45.83  0.001932124    2.246    0.555
        13  -9.0078     48.8841      9.9818   9.2534423319e+01   6.6061560770e+01    0.1866872    0.1362326  20.05 0.0003855338    1.135    0.119
        14 -10.3783     80.7041      6.4465   8.0638045966e+01   6.1145926253e+01    0.3694687    0.2807446  57.75  0.001070219    1.480    0.324
        15  -9.0020    144.6252      4.4640   6.6294456791e+01   4.7715553404e+01    0.2791378    0.1860588  35.46  0.001586999    1.640    0.390
        16  -9.5252    158.0992      1.4108   6.3448018716e+01   4.4831332225e+01    0.3878738    0.1079737  68.91  0.001164293    3.137    0.681
        17  -7.7573     55.6787      1.3214   8.6354760931e+01   6.5888716780e+01   0.09385116   0.09148466 -54.52  0.000583754    1.673    0.402
        18 -10.2007     94.7756    244.9907   1.3332440784e+02   1.0997259925e+01    0.2475733    0.2084276  50.80 0.0004011933    1.188    0.158
        19  -9.0157    250.0108    250.4126   1.0425293345e+02  -1.4810534386e+01    0.1600241    0.1161071  20.49 0.0004024084    1.168    0.143
        20  -8.7439    232.2368    250.7065   1.0748982420e+02  -1.2359904771e+01    0.2106481   0.09313437  38.22 0.0007464616    2.046    0.511
        21  -9.2518    202.8092    249.8965   1.1285183408e+02  -7.7634503290e+00    0.3075952    0.1898496  31.09 0.0004750968    1.404    0.288
        22  -9.0095    197.9954    250.5682   1.1387769954e+02  -7.0925152491e+00    0.2083723    0.1046479  40.41 0.0003258471    1.729    0.422
        23  -8.7759    189.4222    249.7785   1.1540380212e+02  -5.5826108705e+00     0.315201    0.1838332  25.22  0.001630451    1.773    0.436
        24  -8.7364    183.1651    250.6283   1.1674598352e+02  -4.6835409246e+00    0.1820323    0.1040142  37.64 0.0003584933    1.482    0.325
        25  -8.8851    166.4584    250.0587   1.1992039361e+02  -1.8023471870e+00    0.2326043     0.157532  53.65  0.001302045    1.506    0.336
        26  -8.6258    150.0538    249.6954   1.2309159837e+02   1.0325303889e+00    0.2781985    0.1461305  45.55  0.001020433    1.617    0.382
        27  -8.9898    147.8326    245.2446   1.2291247268e+02   2.1785533319e+00    0.4160168    0.2667794 -81.83  0.002006686    2.581    0.613
        28 -10.2784    156.9121    246.1660   1.2123940848e+02   4.6642906400e-01    0.4500923    0.3020155  14.15 0.0005668278    2.122    0.529
        29  -8.6259    136.4217    250.4451   1.2586871483e+02   3.2024466679e+00    0.2753679    0.1550842  38.63 0.0007971284    1.574    0.365
        30  -9.7385    140.7289    247.0566   1.2457134560e+02   3.0709483379e+00    0.2636711    0.2311078  65.58  0.000460903    1.141    0.123
        31 -10.3156    124.9239    248.4608   1.2786734440e+02   5.4764425715e+00    0.2908373    0.2294667 -75.63 0.0005173637    1.435    0.303
        32  -7.7763    104.0000    249.9633   1.3210225441e+02   8.6051109070e+00    0.1849498   0.07031955 -60.86 0.0008053688    2.963    0.662
        33  -8.9001     89.7012    249.3768   1.3475792333e+02   1.0942751989e+01     0.365034    0.1530133  48.94  0.001703793    1.972    0.493
        34  -9.9714     71.6439    249.9817   1.3817307735e+02   1.3498677848e+01    0.3396321    0.1813993  57.81 0.0005927178    1.584    0.369
        35 -10.4053     61.8297    248.9212   1.3986182856e+02   1.5080144642e+01    0.2291754    0.2104582  64.68 0.0004153447    1.369    0.269
        36 -10.5775     47.4188    250.2413   1.4252541007e+02   1.6746510994e+01    0.3585511    0.1498311  39.46  0.001753835    2.327    0.570
        37 -10.2015     16.2998    249.1105   1.4769229257e+02   2.0682902096e+01    0.2390959    0.2158496  38.96  0.001153314    1.725    0.420
        38  -8.3472      1.8642    250.5764   1.5006615285e+02   2.1934359571e+01    0.1420472   0.08729788  47.21  0.001015956    1.589    0.371
        39  -8.8590     90.6794    245.3089   1.3414522466e+02   1.1570287367e+01    0.1968348    0.1374469  75.00 0.0008829497    1.359    0.264
        40  -8.0538    248.9730    245.4744   1.0359994023e+02  -1.4036817102e+01    0.1608871   0.09973493  28.79 -4.71271e-05    1.435    0.303
        41 -10.9895    234.2497    243.1793   1.0585848526e+02  -1.1636362802e+01    0.3379577    0.2317103  -6.79 0.0005528595    1.471    0.320
        42  -9.0832    240.7174    239.0304   1.0396946238e+02  -1.2009949472e+01     0.202281    0.1456867  19.71 0.0003923056    1.206    0.171
        43  -8.8429    163.3565    244.4271   1.1970591047e+02  -3.4176185823e-01    0.2098885      0.19549  24.43 0.0006796321    1.118    0.106
        44  -8.8084    133.7756    245.0048   1.2567534975e+02   4.6161952679e+00    0.1759158    0.1654142  35.71 0.0004110406    1.191    0.160
        45  -9.6559    113.9042    244.0625   1.2948872490e+02   8.1095294056e+00    0.2194069    0.1920962 -54.60 0.0003608943    1.396    0.284
        46 -10.0302     81.0967    244.4417   1.3587979820e+02   1.3189266881e+01    0.2315367     0.197274  51.41 0.0004309033    1.250    0.200
        47  -8.0952     66.8244    245.6403   1.3866082092e+02   1.5022511915e+01    0.1658667   0.08993226  51.71 0.0003731755    1.524    0.344
        48  -9.9189     41.2230    244.4023   1.4316500982e+02   1.8668215675e+01    0.2133276    0.1742807  63.49  0.000565725    1.226    0.184
        49  -8.6847    219.7908    243.9945   1.0867429625e+02  -9.5728847551e+00    0.2191584    0.1588439  51.41  0.001284689    1.772    0.436
        50  -8.3938     48.1685    244.0063   1.4190481705e+02   1.7863067175e+01    0.1711088    0.1217184 -54.32  0.001080743    1.930    0.482
        51  -8.5855     19.6723    243.9084   1.4682166725e+02   2.1311130293e+01    0.1655129    0.1306856  59.48  0.000543661    1.302    0.232
        52  -8.3222    177.0449    242.7585   1.1673658120e+02  -2.4039925292e+00    0.1887845    0.1460664  35.55  0.000612253    1.111    0.100
        53 -10.0492    170.2722    240.0445   1.1766406708e+02  -7.9071460809e-01    0.3674073     0.302002  24.20  0.001738811    1.186    0.157
        54  -8.6654    176.8550    232.9215   1.1521385637e+02  -7.2019813811e-01    0.1932948    0.1650511  11.79  0.000360221    1.215    0.177
        55  -8.2781    175.6917    238.3414   1.1631464359e+02  -1.4391118489e+00    0.1866353    0.1184382  51.52 0.0003741196    1.627    0.385
        56 -10.2000    171.8068    233.5601   1.1633704530e+02   5.4183269039e-02    0.3521103    0.3000288  56.16  0.002133438    1.237    0.192
        57  -8.4930    210.4102    241.8579   1.1009245833e+02  -7.7891033008e+00    0.1890373    0.1523739  34.70 0.0003439393    1.183    0.155
        58 -10.4098    104.2791    240.9945   1.3101800731e+02   1.0261315527e+01    0.2970705    0.2494629 -85.35 0.0006288573    1.220    0.180
        59  -9.7405    214.7866    238.7563   1.0873765063e+02  -8.0243224659e+00    0.2785833    0.1960319 -39.59  0.000465252    1.596    0.373
        60 -10.4737    201.7784    238.9885   1.1127613619e+02  -5.9537571197e+00    0.6014311    0.3931952 -67.21  0.001455812    3.107    0.678
        61 -11.4937    207.6290    232.4004   1.0902728758e+02  -5.8904170693e+00    0.9833577    0.5470188  21.95  0.001491423    2.082    0.520
        62 -10.3379    221.7734    225.6604   1.0512720736e+02  -7.1509502345e+00    0.7798942    0.4267414  11.84  0.002507968    2.853    0.649
        63  -8.8208    216.8163    220.8864   1.0521632672e+02  -5.5826127100e+00    0.2421491    0.2147161  -4.61 0.0003600444    1.072    0.067
        64 -10.3909    239.1558    217.6092   1.0041829440e+02  -8.6681190387e+00    0.4056141     0.229644  35.17 0.0006014133    1.709    0.415
        65 -10.3489    233.3680    202.9572   9.8721097732e+01  -5.4151506788e+00    0.5905381    0.4267865  12.64  0.003284333    1.449    0.310
        66 -11.1470    203.5959    216.7524   1.0705312475e+02  -2.6390528966e+00      0.62998    0.3278291 -46.29  0.001980695    2.148    0.534
        67 -11.2779    211.5923    217.3370   1.0558418850e+02  -4.1204333577e+00    0.7848978    0.5531312  32.39  0.002596063    1.318    0.241
        68 -11.3189    226.9733    216.3537   1.0244918770e+02  -6.5320625717e+00    0.7501303    0.5957966  20.55  0.003483483    1.155    0.134
        69 -10.5851    233.6639    210.4853   1.0010058796e+02  -6.6845201044e+00    0.4640557     0.343538   7.31  0.001032043    1.364    0.267
        70  -9.4802    151.8538    244.4370   1.2199749753e+02   1.6302883313e+00    0.2242949    0.2178953  74.59 0.0003687947    1.161    0.139
        71  -8.2025    155.4472    240.9943   1.2078002824e+02   1.6116277366e+00     0.166962    0.1319093 -54.02 0.0003764067    1.476    0.323
        72  -9.8155    126.5360    240.3601   1.2650647044e+02   6.6973909753e+00    0.2469361    0.2266998  87.12  0.001606953    1.162    0.139
        73  -9.0650     97.9335    238.9758   1.3203379593e+02   1.1669734508e+01    0.4531907     0.172979 -70.71  0.001724674    3.745    0.733
        74  -8.5831     88.8011    240.6187   1.3400341985e+02   1.2772744360e+01    0.3264704    0.1391832  60.49  0.001368465    2.713    0.631
        75  -9.9976     69.1458    240.0104   1.3770239324e+02   1.5805830631e+01     0.229602    0.1877654  63.03 0.0004065312    1.119    0.106
        76  -9.3151     35.4800    240.0239   1.4384711555e+02   2.0240051349e+01    0.2067913    0.1571349  72.92 0.0004327052    1.055    0.052
        77  -9.4548     32.4221    237.5097   1.4420078002e+02   2.1108567746e+01    0.1622511    0.1344218  64.54 0.0004594135    1.254    0.203
        78 -10.6414     35.6169    231.9570   1.4321074285e+02   2.1851209109e+01    0.4616221    0.1836782 -69.87  0.001364474    2.264    0.558
        79 -10.3415     25.3018    239.4507   1.4557739549e+02   2.1551176345e+01    0.2149443    0.1813432 -80.93 0.0006186633    1.392    0.282
        80  -9.6891    135.6865    239.1912   1.2450608759e+02   5.3528776950e+00     0.393859    0.2307582  58.11  0.001949837    1.792    0.442
        81  -9.4346    118.4177    239.2578   1.2799206683e+02   8.2724856077e+00    0.2274766    0.1882586  54.40 0.0003564158    1.033    0.032
        82  -9.4877     61.9218    239.6432   1.3902228036e+02   1.6892096545e+01    0.2053533    0.1667652  87.76 0.0004474331    1.151    0.131
        83  -8.7515     18.8510    240.1914   1.4672507425e+02   2.2129345720e+01    0.1389803    0.1205265  86.80  0.001078106    1.368    0.269
        84 -10.0510    247.8053    238.5450   1.0261293355e+02  -1.2956774381e+01    0.2717911    0.1773504  29.33  0.001674616    1.397    0.284
        85  -9.2604    243.3498    234.5643   1.0271434929e+02  -1.1773383215e+01    0.2692535    0.2336035 -88.92 0.0007891051    2.232    0.552
        86  -8.3595    238.8689    234.3141   1.0348194502e+02  -1.1081331031e+01    0.2068693    0.1732142 -49.77  0.001277595    1.694    0.410
        87  -9.7330    149.4542    238.1478   1.2157203006e+02   3.1586168691e+00     0.264103    0.2293637 -54.74  0.001062544    1.326    0.246
        88  -8.4745    148.9486    232.4853   1.2083683147e+02   4.2816817588e+00    0.2179827    0.1795719  67.35  0.001273873    1.287    0.223
        89  -9.7624     41.8001    236.7939   1.4247267513e+02   2.0110751630e+01    0.2684947    0.1736432 -89.34  0.001234602    1.322    0.243
        90  -9.5269    220.5419    237.9658   1.0751333829e+02  -8.8153034408e+00    0.2379953    0.1595072  33.76 0.0004782912    1.340    0.253
        91  -8.1710    225.0476    236.2913   1.0637910524e+02  -9.2714662433e+00    0.1707263    0.1421164  13.00 0.0003618809    1.012    0.012
        92  -9.6364    112.3793    237.3021   1.2895607737e+02   9.6540545669e+00    0.3339308    0.1959048 -64.96  0.001025156    1.903    0.475
        93  -9.1855    108.5264    233.1863   1.2921585116e+02   1.1100152145e+01    0.2237392    0.1832715  44.28 0.0003724963    1.203    0.169
        94  -7.9451     48.4665    238.5231   1.4140412804e+02   1.8915372645e+01    0.1201116   0.09290705  74.79 8.391455e-05    1.030    0.029
        95  -8.4315    183.6962    237.0766   1.1451626351e+02  -2.6056469944e+00    0.1720338    0.1592513  14.59 0.0004546591    1.089    0.082
        96 -10.1387     91.4706    236.3013   1.3300377078e+02   1.3216443876e+01    0.2382281     0.214329 -85.84 0.0003478293    1.212    0.175
        97 -11.2115     93.3924    228.2579   1.3168355085e+02   1.4548034944e+01    0.4456264    0.4009139  77.98  0.001543592    1.125    0.111
        98  -9.8718     78.7356    236.0932   1.3547500040e+02   1.5197229283e+01    0.2575433    0.1927486  65.82 0.0003882012    1.106    0.096
        99  -9.6365    140.4188    234.8937   1.2293914137e+02   5.3316733633e+00    0.2408837    0.2197001  34.26 0.0004397706    1.150    0.130
       100  -8.7485    129.8892    235.4168   1.2516249468e+02   7.0582850489e+00    0.1973476    0.1814569 -79.87 0.0001455042    1.191    0.160
       101  -9.4262      3.4988    235.5312   1.4900573357e+02   2.4659590301e+01    0.1883729    0.1508839 -83.89  0.000844342    1.347    0.258
       102  -8.5936    119.9211    234.4688   1.2706542281e+02   8.9423791555e+00    0.2804066    0.1618878 -80.66  0.001269782    2.532    0.605
       103 -10.4343     10.5193    239.0649   1.4804945696e+02   2.3247008154e+01    0.2363397    0.1890316  75.54 0.0004762835    1.213    0.176
       104 -10.2675    192.2771    233.2212   1.1217769417e+02  -3.4398178240e+00    0.2531694    0.2258977   1.44 0.0004214549    1.121    0.108
       105  -8.6513     64.9312    234.1468   1.3793883232e+02   1.7585708254e+01    0.1805502    0.1475637  72.76 0.0003956321    1.060    0.056
       106  -8.8315    230.9222    232.9008   1.0469369173e+02  -9.6813519234e+00    0.2017181     0.164389  33.07 0.0006965664    1.264    0.209
       107  -8.1796    166.2226    232.7768   1.1734642072e+02   1.1746108033e+00    0.1739026    0.1456229  15.50 0.0003588996    1.285    0.222
       108  -9.0076    153.2212    233.0851   1.2005073741e+02   3.4166285929e+00    0.2168646    0.1693621  44.36 0.0004032893    1.121    0.108
       109 -10.1116     10.4043    231.7106   1.4762519457e+02   2.4717182314e+01    0.2214943    0.1843188 -85.37  0.000737073    1.342    0.255
       110 -10.2035      7.6056    226.1898   1.4776267335e+02   2.6116284212e+01    0.3400948    0.2313141 -63.81   0.00135771    1.685    0.407
       111 -10.1544      1.8556    226.8126   1.4878172661e+02   2.6556669076e+01    0.5678948    0.1192939 -71.78  0.001164429    3.562    0.719
       112 -10.0818    250.3383    231.5629   1.0093395705e+02  -1.2360480456e+01    0.2073256    0.1498767 -28.39  0.001318303    1.346    0.257
       113  -9.8681    100.5972    231.2540   1.3058386094e+02   1.2783218107e+01    0.2370477    0.2334649  -6.46 0.0003682876    1.365    0.267
       114  -9.3060     85.2305    231.2766   1.3367598391e+02   1.5197924279e+01    0.2314423    0.2222545  -8.77 0.0004900353    1.509    0.337
       115  -9.4023     55.4634    231.0792   1.3945316631e+02   1.9512408906e+01    0.2023183    0.1777136 -67.94  0.000502914    1.424    0.298
       116  -9.5158    133.1015    230.1839   1.2376804167e+02   7.5054240758e+00    0.3392549    0.2084788  51.75  0.001105618    1.491    0.329
       117  -9.6192    123.4054    230.9813   1.2588224505e+02   9.0299382234e+00    0.2784358    0.1734192  45.13 0.0004110283    1.406    0.289
       118  -8.9751    245.1381    229.8345   1.0155426778e+02  -1.1368675704e+01    0.2026111     0.153446  -7.26 0.0003299054    1.179    0.152
       119  -8.2680    226.3074    230.0719   1.0505572214e+02  -8.5467674154e+00    0.1663957    0.1447147   2.04 0.0004688953    1.062    0.059
       120  -9.2479    158.9676    229.5881   1.1832982266e+02   3.0363556251e+00    0.2253665    0.2005818 -42.76 0.0003270567    1.272    0.214
       121  -9.9529    113.9205    229.0243   1.2757373364e+02   1.1032338295e+01    0.3326506    0.2364037  55.11 0.0009323405    1.243    0.196
       122  -9.9971     45.2321    229.1844   1.4121311311e+02   2.1236313512e+01    0.2455984    0.2176795  40.45 0.0005633491    1.506    0.336
       123 -10.4177    236.3375    226.5723   1.0256896176e+02  -9.5804340462e+00    0.2859417     0.246778   3.22  0.001276397    1.063    0.059
       124  -8.5523    144.6368    229.3555   1.2125656426e+02   5.6314496305e+00    0.2644762    0.1561054  38.44  0.001265932    1.554    0.356
       125  -9.1944     79.2551    228.7287   1.3458403224e+02   1.6628001225e+01    0.2101853    0.1882408  76.65 0.0003348239    1.162    0.139
       126  -9.2934     29.6385    228.9596   1.4406298117e+02   2.3171244163e+01    0.1701152     0.157666  54.40 0.0004056167    1.484    0.326
       127  -8.4193    107.5337    228.3125   1.2879671025e+02   1.2243898410e+01    0.1745144    0.1283421 -66.10 0.0005403794    1.446    0.308
       128  -8.7585    109.9896    224.5144   1.2778873694e+02   1.2610166742e+01    0.1947951    0.1845167 -73.47 0.0003997929    1.217    0.179
       129 -10.1512     19.5785    226.8262   1.4571018658e+02   2.4737111027e+01    0.2378929    0.1859526 -82.42 0.0005711451    1.259    0.206
       130  -8.8659    175.5657    227.1513   1.1452867176e+02   5.1401895439e-01    0.2216296    0.1687499  36.34 0.0003086455    1.175    0.149
       131  -7.7968    139.0210    227.4561   1.2213996250e+02   6.9912518075e+00    0.1935753    0.1211596  41.35 9.164795e-05    1.432    0.302
       132  -8.7479     58.6487    227.0820   1.3846651566e+02   1.9915032390e+01    0.2988696    0.1100361  53.08  0.001312973    2.499    0.600
       133  -9.6530    229.4602    225.6898   1.0368442620e+02  -8.3814406492e+00    0.2282947    0.1871073   1.24 0.0002377493    1.085    0.078
       134  -9.8110    200.1619    225.1857   1.0923874632e+02  -3.4643460298e+00    0.2213794    0.1981824 -29.80 0.0003431562    1.211    0.175
       135  -8.4175    185.0055    226.1852   1.1244696693e+02  -9.9072418376e-01    0.1904401    0.1678971  53.75 0.0004184335    1.239    0.193
       136  -8.8013    152.9911    228.0336   1.1932201196e+02   4.3916118282e+00    0.2003435    0.1828066  47.19 0.0003466976    1.032    0.031
       137  -9.1213    191.5000    224.2281   1.1080065034e+02  -1.7970104817e+00    0.2161888     0.184374  22.78 0.0003694775    1.070    0.066
       138  -9.8686    162.4163    224.2695   1.1676487476e+02   3.3979144293e+00    0.4957021    0.3248128  68.04   0.00181704    2.180    0.541
       139  -9.2403    160.4328    218.5155   1.1623220150e+02   4.8437266253e+00    0.3404927    0.2628842  89.32 0.0009376142    1.749    0.428
       140  -9.7253    129.6460    223.7131   1.2355196069e+02   9.3853259839e+00    0.2575177    0.2229817 -22.33  0.001115277    1.520    0.342
       141  -8.9736    120.9310    224.9552   1.2556096351e+02   1.0656016772e+01    0.1968422    0.1769023  57.27 0.0003076404    1.061    0.058
       142 -10.4911    248.9862    223.1150   9.9654251012e+01  -1.0969414288e+01     0.262105    0.2224837 -21.34   0.00044477    1.206    0.171
       143  -8.0812    171.0002    223.9673   1.1493644724e+02   1.9034030794e+00    0.1551646     0.146241  30.14            0    1.054    0.051
       144  -8.4921    155.9083    223.8395   1.1805227399e+02   4.6556909923e+00    0.1915358    0.1737112  27.84 0.0002809861    1.117    0.105
       145  -8.5863    104.7212    223.8506   1.2879957124e+02   1.3625587126e+01    0.1849672    0.1733176  54.57 0.0005807906    1.193    0.161
       146  -8.4909    136.1155    223.2305   1.2211674333e+02   8.3348296592e+00    0.2002193    0.1757754  29.40 0.0005642729    1.230    0.187
       147  -8.9226     83.0350    223.0267   1.3317673821e+02   1.7252296682e+01    0.1917952    0.1637715  71.18 0.0003659383    1.051    0.049
       148  -8.6933     75.4322    222.6546   1.3468100575e+02   1.8472399006e+01    0.2134842    0.1670579  63.75 0.0004167095    1.091    0.083
       149 -10.2209     50.5509    221.5144   1.3950915599e+02   2.2167447885e+01    0.3332144    0.3112194 -53.11  0.001337116    1.525    0.344
       150 -10.1395     48.4936    217.7080   1.3955237443e+02   2.3247978650e+01    0.4802534    0.3179704 -75.50  0.002909906    1.365    0.268
       151  -8.6159    175.0994    221.5783   1.1368786491e+02   1.5973282703e+00    0.2185607    0.1917511 -76.04  0.000607495    1.409    0.290
       152  -8.4625    115.5684    221.8170   1.2624976054e+02   1.2219080144e+01     0.212636    0.1717016  38.83 0.0004357019    1.267    0.211
       153  -8.8769     97.9237    221.9061   1.2996528860e+02   1.5145093934e+01    0.2041871    0.1871631 -67.73  0.000370695    1.259    0.206
       154  -8.1334     92.7506    222.0079   1.3105383720e+02   1.5953963130e+01    0.1758052    0.1509978  87.46 0.0003880966    1.102    0.093
       155  -9.5827     40.3029    220.8872   1.4142809260e+02   2.3591472372e+01     0.222292    0.1747034 -72.68 0.0004140343    1.328    0.247
       156  -9.6187     15.9421    221.3432   1.4597748459e+02   2.6257430197e+01    0.2212239     0.170462 -59.97 0.0006439539    1.650    0.394
       157  -9.1607    186.0477    220.2120   1.1120532159e+02  -1.2986212046e-01    0.2069047    0.1936454 -21.83 0.0003818345    1.141    0.123
       158  -8.4773    180.9387    220.9192   1.1237317189e+02   6.6213510021e-01    0.2030354    0.1732381   9.35 0.0004331639    1.223    0.182
       159  -9.0658    141.2183    220.4329   1.2060888844e+02   7.9738171906e+00    0.2037709    0.1905404 -37.70  0.001227477    1.236    0.191
       160  -8.3085     68.3640    221.0533   1.3593360619e+02   1.9839660199e+01    0.1727276    0.1388975 -87.48 0.0004873029    1.131    0.116
       161  -9.4691     59.8115    220.8319   1.3762145315e+02   2.1080715456e+01    0.2058331    0.1875159 -72.87 0.0004203892    1.346    0.257
       162  -9.0244    109.1047    219.5473   1.2730271757e+02   1.3790565456e+01     0.190171    0.1692363 -89.85 0.0003826158    1.114    0.102
       163  -8.0517     87.8487    220.3515   1.3186713217e+02   1.7077534271e+01    0.1693623     0.118378  35.41 0.0003735686    1.588    0.370
       164  -8.3788    129.8344    219.1886   1.2284083602e+02   1.0265308469e+01    0.1831919    0.1588109  24.53 0.0004230358    1.327    0.247
       165  -8.1274    104.4615    219.0469   1.2821772905e+02   1.4674073080e+01    0.1829502    0.1292466 -65.72 0.0004850847    1.471    0.320
       166  -8.6657    136.9522    218.2698   1.2118109056e+02   9.1763004021e+00     0.192171    0.1630441  44.89 0.0002927389    1.091    0.083
       167  -8.3692    120.0869    217.4930   1.2467289988e+02   1.2333494139e+01    0.1927646    0.1745382  77.28  0.000394575    1.065    0.061
       168 -10.3869    194.3991    216.4642   1.0884450955e+02  -9.6325784526e-01     0.361286    0.2853308  29.83 0.0007033442    1.169    0.144
       169  -8.1040     72.5128    216.9978   1.3464244832e+02   2.0114965068e+01    0.1821657     0.116928 -68.62 0.0004124459    1.512    0.339
       170  -9.2227     56.1515    216.6875   1.3793246481e+02   2.2467629493e+01    0.2366192    0.1449694 -74.28 0.0006686269    1.499    0.333
       171  -8.7012     21.8685    216.8244   1.4456742823e+02   2.6574889250e+01    0.1628397    0.1342734 -80.55 0.0005206909    1.278    0.218
       172 -10.1513      7.9250    216.1573   1.4706183191e+02   2.8150600119e+01    0.2218139    0.1907932 -64.43  0.000631218    1.542    0.352
       173  -9.5150    180.1787    216.1445   1.1169742926e+02   1.6653240384e+00    0.2060974    0.1768609  13.19 0.0005175976    1.196    0.164
       174  -8.0556    124.8306    215.8283   1.2340829904e+02   1.1845418572e+01    0.1892277    0.1467992  68.89 0.0002586005    1.304    0.233
       175  -8.0061     91.0223    216.3290   1.3070268658e+02   1.7440592176e+01     0.183795     0.154908  65.57 0.0004567826    1.041    0.039
       176  -9.0135     83.0553    215.8811   1.3232228802e+02   1.8780602852e+01    0.1933003    0.1684983  74.60  0.000375289    1.063    0.059
       177  -9.0006    171.9545    214.3651   1.1309947806e+02   3.5085713829e+00     0.230322    0.2008272 -30.99 0.0006281544    1.249    0.199
       178  -8.4897    144.0862    214.9658   1.1912905842e+02   8.5443396994e+00    0.2063968    0.1861086  47.70 0.0004343553    1.028    0.028
       179  -9.8600    248.7681    212.8310   9.7795180200e+01  -9.4159371304e+00    0.3083431    0.2046621 -14.53  0.001336277    1.509    0.337
       180  -8.9674    132.9090    213.6190   1.2132532390e+02   1.0856862998e+01    0.2234022    0.1915481 -38.71 0.0003804805    1.380    0.276
       181 -10.4019    186.9196    212.7349   1.0969804591e+02   1.0560555502e+00    0.2845985    0.2072864 -45.14  0.000269769    1.489    0.328
       182 -10.5942    193.8175    208.4918   1.0750684203e+02   5.6606672029e-01     0.320978    0.3115168 -65.91 0.0006634498    1.208    0.172
       183  -7.6689    155.3205    213.3048   1.1644474136e+02   6.8009183944e+00    0.1387235    0.1101664   4.48 0.0002653944    1.634    0.388
       184  -8.4532    118.0412    212.9622   1.2444758917e+02   1.3643996492e+01    0.2053042    0.1851269  64.42 0.0003363838    1.026    0.026
       185  -8.1524    111.7747    213.2288   1.2584372187e+02   1.4674203940e+01    0.1674873    0.1625527 -13.66   0.00034383    1.303    0.233
       186  -8.2256     74.8788    212.8405   1.3367111551e+02   2.0675069404e+01    0.1771197    0.1679768  89.98 0.0002826649    1.257    0.204
       187  -8.8467     41.8739    212.8318   1.4039926775e+02   2.5132113361e+01    0.1700451    0.1465203 -87.34  0.000387212    1.202    0.168
       188  -8.1550     33.8505    213.6423   1.4203989869e+02   2.5912802581e+01     0.305332   0.05217021  43.89  0.001118182    4.122    0.757
       189  -9.3517     98.6905    211.6812   1.2845409829e+02   1.7209610499e+01    0.2415205    0.2166175  -1.92 0.0007447043    1.578    0.366
       190  -9.0493     25.1871    211.3221   1.4351065047e+02   2.7389980803e+01     0.200341    0.1589494 -82.11 0.0005547596    1.194    0.162
       191  -9.8262     17.2351    210.5837   1.4495862249e+02   2.8392939232e+01    0.4078413    0.1891848 -87.73  0.001091771    1.920    0.479
       192  -8.7214    125.1729    211.1385   1.2262045770e+02   1.2768078397e+01    0.1963019    0.1805224  36.28 0.0003342097    1.182    0.154
       193  -8.9462    200.9334    209.5556   1.0626226850e+02  -9.1548670138e-01    0.2004878    0.1730122 -25.82 0.0002668628    1.179    0.152
       194 -10.8696    199.5375    202.0979   1.0513817743e+02   6.8084122832e-01    0.4849899     0.314766 -33.55 0.0007802336    1.620    0.383
       195 -10.9419    211.6348    198.9822   1.0211501845e+02  -9.6433928046e-01    0.5268137    0.3053434  39.87  0.001856649    1.688    0.408
       196 -10.3475    207.0019    205.9800   1.0437677328e+02  -1.3723452593e+00    0.3657823     0.268405  -4.59  0.001303929    1.591    0.372
       197 -13.2166    206.4745    195.4382   1.0244858967e+02   6.1907466120e-01     1.389855     1.158604  -7.94  0.007781134    1.238    0.192
       198  -7.9515    162.4330    209.4888   1.1426619591e+02   6.2250893689e+00    0.1407685    0.1309469  45.39 9.336827e-05    1.020    0.020
       199  -8.7968     93.7008    209.0248   1.2917303151e+02   1.8605314746e+01    0.1861706    0.1629855 -82.70 0.0004100095    1.122    0.108
       200 -10.0757     67.3691    208.1059   1.3469629360e+02   2.2809990575e+01    0.2916424    0.2150732 -74.20  0.001056774    1.267    0.210
       201  -8.0306    149.5682    207.8853   1.1676736790e+02   8.9637872552e+00    0.1892946    0.1410232 -51.34 0.0004005276    1.447    0.309
       202  -8.8768     78.8148    207.9622   1.3224537926e+02   2.1166922161e+01    0.2245349    0.1926451  87.91 0.0006511277    1.065    0.061
       203  -8.3115     72.5848    208.2204   1.3360610930e+02   2.2033800229e+01    0.1688447    0.1145186 -60.11 0.0003509056    1.525    0.344
       204 -10.3608    184.2427    206.6637   1.0914418771e+02   2.6745394808e+00     0.317019     0.214899  30.64  0.001445444    1.474    0.322
       205  -8.4730    120.1884    206.8706   1.2305432700e+02   1.4570157352e+01    0.2071782    0.1755076  69.40 0.0003822898    1.119    0.106
       206  -8.2307    115.0612    207.3875   1.2426433485e+02   1.5363402684e+01    0.1968687    0.1642465  55.57 0.0005605152    1.093    0.085
       207  -8.1677    127.2671    206.3191   1.2140386650e+02   1.3416639564e+01    0.2100905    0.1708484  47.67  0.000254822    1.144    0.126
       208  -9.3569    124.0132    206.0326   1.2207781678e+02   1.4066331626e+01    0.2037524    0.1834527  62.50            0    1.009    0.009
       209  -8.4787     47.9354    206.3180   1.3854576811e+02   2.5813275064e+01     0.167593    0.1406318  67.48 0.0003783802    1.145    0.127
       210  -8.2239     39.4943    205.9438   1.4022616271e+02   2.6931927313e+01    0.1747697    0.1037178 -73.90  0.000420488    1.468    0.319
       211  -9.4693    247.1554    204.6626   9.6538431575e+01  -7.9099764250e+00    0.2261098    0.1772481 -27.53 0.0003680529    1.185    0.156
       212  -9.7687    223.9872    200.6818   1.0004756804e+02  -3.4442576164e+00    0.2584881    0.2219921 -41.27 0.0007366281    1.273    0.215
       213  -9.5236    224.1165    204.7187   1.0080092353e+02  -4.1505432883e+00    0.5840095    0.2360314  46.80  0.002329845    2.806    0.644
       214  -9.7869    219.3344    202.3204   1.0125780312e+02  -2.9166921133e+00    0.2678108     0.202653  21.67  0.001133185    1.308    0.235
       215 -10.0552      7.3863    203.6532   1.4629574128e+02   3.0851251310e+01    0.2162096    0.1883175 -58.07   0.00071028    1.549    0.355
       216  -8.0954    141.1633    203.8199   1.1791888484e+02   1.1383580303e+01    0.1834458     0.166068  10.19 0.0002485336    1.293    0.226
       217  -8.8948     93.8174    203.3876   1.2837315911e+02   1.9840712086e+01    0.3046737    0.1912072  54.79  0.001524144    1.509    0.338
       218  -8.6401     98.5831    202.0504   1.2712589437e+02   1.9358341665e+01    0.2377745      0.19201  29.96  0.000611893    1.470    0.320
       219  -8.3022     56.9257    202.6964   1.3628687076e+02   2.5459721848e+01    0.1743003    0.1455082  68.05 0.0005159306    1.111    0.100
       220  -7.7186     43.2958    203.3347   1.3919709924e+02   2.7053909237e+01     0.117106   0.09029486 -50.95 0.0007028811    1.646    0.392
       221  -8.6967     21.4220    202.4815   1.4351202639e+02   2.9714716935e+01    0.1906391    0.1612509  81.57  0.001361265    1.168    0.144
       222  -8.1938     16.7179    201.1997   1.4432548584e+02   3.0476548085e+01    0.2075989    0.1094093  28.09  0.001133696    2.547    0.607
       223  -9.1019    187.2797    201.2847   1.0750572404e+02   3.1206478587e+00    0.2326049    0.1723469 -38.52 0.0006468317    1.409    0.290
       224  -8.0728    110.5186    202.4770   1.2452646729e+02   1.7234244769e+01    0.1416333    0.1278485  70.63 0.0008098961    1.016    0.016
       225 -10.0322     81.4604    200.8560   1.3075635856e+02   2.2363631832e+01    0.3527121    0.2466282  67.76 0.0009054203    1.384    0.277
       226  -9.7026     69.4547    201.2349   1.3343104107e+02   2.4058463776e+01    0.3713795    0.2761826  69.66   0.00130734    1.223    0.182
       227 -11.1097     64.1934    195.5325   1.3387891863e+02   2.6104941851e+01    0.5234233    0.3345017  63.23 0.0009898734    1.524    0.344
       228  -9.1104    132.5032    199.9580   1.1919347046e+02   1.3826117488e+01     0.366251    0.2324538 -28.30 0.0008179815    2.533    0.605
       229  -7.8474     34.5184    201.5032   1.4081225499e+02   2.8499845660e+01    0.1241765   0.09907794  87.83  0.000810029    1.043    0.041
       230  -9.5012    250.3390    199.1685   9.4918919674e+01  -7.5412243890e+00    0.1974737    0.1596714 -28.18 0.0006312451    1.157    0.135
       231  -9.3266    243.3723    198.3482   9.5999660103e+01  -6.3012292375e+00     0.214942    0.1923575  -6.42 0.0004500052    1.066    0.061
       232  -8.0797     42.1774    199.5669   1.3904800901e+02   2.8034930310e+01     0.140719    0.1233726  27.13 0.0003684656    1.561    0.359
       233  -8.7014    230.9772    197.7284   9.8152305211e+01  -4.1416446004e+00    0.2172464    0.1648644 -20.71 0.0003218664    1.270    0.212
       234  -8.5514    140.1084    197.9085   1.1713572191e+02   1.2841242495e+01    0.3585336    0.2392842   7.09  0.001422946    2.827    0.646
       235  -9.9885    179.3001    202.1312   1.0934072139e+02   4.4708474598e+00    0.3398011    0.2738225 -78.02  0.001759718    1.648    0.393
       236  -8.4550     21.7838    197.6514   1.4303071680e+02   3.0742419149e+01    0.1528029    0.1417139 -71.53  0.001111474    1.391    0.281
       237  -8.2646     89.7618    197.2663   1.2841412756e+02   2.1881729783e+01    0.1703075    0.1621147 -41.15 0.0004461799    1.324    0.245
       238  -9.2008    238.0581    196.0158   9.6508294948e+01  -5.0462827016e+00    0.1964596     0.171378  -6.28 0.0003582217    1.014    0.014
       239  -8.6675    114.1080    194.8660   1.2251835932e+02   1.8306719023e+01    0.2192909     0.179217  74.25 0.0004082134    1.215    0.177
       240  -9.4565    186.6935    193.9585   1.0622183419e+02   4.6423178910e+00     0.216223    0.1891054   1.87 0.0003134397    1.210    0.173
       241 -10.6749    190.7354    191.6005   1.0491272101e+02   4.3207256331e+00    0.3319985    0.2761641 -58.04  0.001656692    1.372    0.271
       242  -8.6995     74.7671    194.0232   1.3133649766e+02   2.4938370523e+01     0.189638    0.1587118 -86.72 0.0003800743    1.065    0.061
       243  -8.4562     27.4086    192.5733   1.4142791188e+02   3.1288339071e+01    0.2349881    0.1055621  60.04 0.0005142262    2.316    0.568
       244 -10.0326    226.6318    190.9495   9.7631615040e+01  -2.2235076626e+00    0.4672091    0.2229017 -25.58  0.001318496    2.842    0.648
       245  -9.7798    154.3470    188.2294   1.1216641333e+02   1.2167737303e+01    0.4698434    0.3307351  77.55  0.002076463    2.002    0.501
       246  -8.7880     94.9038    188.9382   1.2600635664e+02   2.2968036504e+01    0.2238265    0.1932443  73.52 0.0007148802    1.063    0.059
       247  -7.5289     14.5049    189.4024   1.4378793341e+02   3.3300510339e+01    0.1188611   0.09211954  89.24 0.0001425961    1.029    0.029
       248 -10.1071    222.4658    187.8925   9.7812177204e+01  -9.3955621898e-01    0.2960359    0.2023399  44.66 0.0006152433    1.546    0.353
       249  -8.3019      1.3800    187.8589   1.4628672612e+02   3.4820363985e+01    0.1585644   0.08099714 -68.84 0.0004020127    1.606    0.377
       250 -10.4564    233.0606    181.3194   9.4491087774e+01  -1.6683111631e+00    0.4158516    0.3351301  51.60  0.001486158    1.464    0.317
       251 -10.6808    231.4960    185.4898   9.5625297682e+01  -2.1249566037e+00     0.349892    0.3067756 -11.99  0.001283497    1.047    0.045
       252  -9.9993    229.5129    182.5141   9.5391835853e+01  -1.2477959985e+00    0.2623153    0.2202375 -24.10 0.0007989299    1.108    0.098
       253  -8.4366     29.0465    201.7233   1.4193600001e+02   2.9065011260e+01    0.1672179    0.1333226  80.28 0.0004778192    1.058    0.055
       254 -10.0743    224.2943    182.7110   9.6414354025e+01  -3.4058248016e-01      0.25309     0.162604 -48.67  0.000791988    1.687    0.407
       255  -9.9330    194.3084    200.9553   1.0598792404e+02   1.8621745513e+00    0.2497646     0.184698  14.29 0.0004331075    1.548    0.354
       256 -10.0171     29.6988    180.6215   1.3975245827e+02   3.3774339695e+01    0.5260543    0.2726296  58.85  0.002717358    1.991    0.498
       257  -9.0874      8.0872    182.7332   1.4453157507e+02   3.5377842895e+01    0.1620001    0.1294217  83.58 0.0006075953    1.094    0.086
       258  -7.9526    141.2949    210.3094   1.1897380097e+02   1.0006611320e+01    0.1351231    0.1125533  -1.56 0.0004879892    1.590    0.371
       259 -10.0360    117.0096    178.7617   1.1908780990e+02   2.1481675766e+01    0.5269204    0.3440247  54.68  0.001904921    1.560    0.359
       260  -8.2841    107.1734    210.1150   1.2639509813e+02   1.6131939040e+01    0.1925833    0.1795809  46.10 0.0007058251    1.193    0.162
       261  -7.5944     56.2593    181.3069   1.3387141342e+02   3.0491154759e+01    0.1241878   0.09533878 -48.59 0.0003111231    1.521    0.343
       262  -7.9131     43.2490    179.9856   1.3667069355e+02   3.2412822810e+01    0.1743288    0.0954313 -71.29 0.0008843229    1.577    0.366
       263  -9.8612      9.4989    176.3665   1.4368610317e+02   3.6685819310e+01    0.3007615     0.289091 -65.10  0.002296492    1.392    0.282
       264  -7.8439    100.9667    175.9866   1.2246042406e+02   2.4995324515e+01    0.1683008    0.1540858  75.10 0.0009360577    1.034    0.033
       265  -8.7260    199.4620    175.5249   9.9833958022e+01   5.7582255371e+00    0.1444997     0.140316  -7.18 0.0001204158    1.023    0.022
       266  -9.6726     40.9825    171.5007   1.3616820334e+02   3.4672673390e+01    0.2371734    0.1547677 -58.30 0.0004632196    1.457    0.314
       267 -10.5183    185.8951    166.2497   1.0070841225e+02   1.0401587018e+01    0.4597985     0.334333  38.84  0.001587755    1.395    0.283
       268  -8.0925    148.9883    167.4935   1.0928002165e+02   1.7823919712e+01     0.224823    0.1290735  64.15 0.0008103008    2.527    0.604
       269 -10.4394      6.6839    163.2286   1.4308048290e+02   3.9904622420e+01    0.3782677    0.2477974 -62.53  0.001581981    1.364    0.267
       270  -9.5888    193.3450    163.6794   9.8576036235e+01   9.3827680668e+00     0.404216    0.2844091  -8.46  0.001742528    2.049    0.512
       271 -10.5712    217.4495    161.3336   9.3236756367e+01   4.9493245176e+00    0.7068115    0.3953633  51.17  0.003019707    1.995    0.499
       272 -10.0342    216.9584    156.8470   9.2357897609e+01   5.9118453922e+00    0.3062377    0.2487601 -26.34  0.001209644    1.235    0.190
       273  -9.1757     40.2146    162.5810   1.3521848882e+02   3.6876732169e+01    0.3582818    0.2142622  -1.38  0.001527009    3.688    0.729
       274  -8.3164    171.3169    157.6562   1.0202642236e+02   1.5311192282e+01     0.160089    0.1237125 -88.43 0.0007048664    1.717    0.418
       275  -7.6925    100.3466    157.3033   1.1921601538e+02   2.9590836599e+01    0.1475773    0.1185754 -18.39 0.0005966356    1.690    0.408
       276  -8.0792    228.8964    156.1296   8.9977099226e+01   3.6959945285e+00    0.1880405    0.1610626  -5.93  0.000408154    1.250    0.200
       277  -8.7174    123.5526    155.5274   1.1296343972e+02   2.5719060397e+01    0.2731695    0.2606921  70.35 0.0008313336    1.035    0.034
       278  -8.9849     84.1298    154.5370   1.2288054528e+02   3.2954623099e+01    0.2983323    0.1703222 -45.60  0.001199277    1.868    0.465
       279  -9.4024    245.3070    149.9811   8.5794923300e+01   1.7205604446e+00    0.3090012    0.2062651  41.37  0.001022531    1.669    0.401
       280 -11.2009     84.4505    146.0620   1.2120122364e+02   3.4966691573e+01    0.5487111    0.5276172  86.24  0.001734967    1.072    0.067
       281  -8.0852     58.4797    150.4617   1.2885435126e+02   3.7615116489e+01    0.1380845    0.1201726 -76.31 -2.30008e-05    1.007    0.007
       282  -9.7082     26.6669    148.5194   1.3670849917e+02   4.1598690941e+01     0.267344    0.1737772 -52.57 0.0009390058    1.477    0.323
       283  -9.2534     11.9802    146.1497   1.4004459543e+02   4.3413636157e+01    0.2097365    0.1883566  77.34  0.001023761    1.213    0.176
       284  -7.8110    236.2625    145.6696   8.6410839764e+01   4.2180253034e+00    0.1395602    0.1059237 -64.04 0.0006962143    1.571    0.364
       285  -9.7982     48.4529    143.5675   1.3037150298e+02   4.0505919151e+01     0.392402     0.273694  22.09  0.001609913    1.816    0.449
       286  -8.9725    225.5013    138.3389   8.6692429864e+01   7.7390641244e+00    0.4454494    0.2425497 -29.30  0.001821989    2.137    0.532
       287  -9.6045     98.9505    137.6628   1.1557408443e+02   3.4577572635e+01    0.3629618    0.3008705  89.01  0.001090642    1.335    0.251
       288 -10.0552     42.2223    134.1114   1.3050693552e+02   4.3465407150e+01    0.3484217    0.2507902 -71.20 0.0009297667    1.225    0.184
       289  -8.7134    248.9245    134.5323   8.1915198810e+01   3.8239957128e+00     0.247501    0.1355351  45.14  0.001146571    2.080    0.519
       290  -8.9346    244.2742    133.4163   8.2419580234e+01   4.9150494071e+00    0.1771166     0.137019  66.84 0.0009418846    1.560    0.359
       291  -8.4024    173.6541    129.4984   9.4965731178e+01   2.0887353873e+01    0.2652163    0.1906952 -22.05 0.0006398882    1.774    0.436
       292  -8.7601    242.3018    125.8807   8.1101201362e+01   6.6717901395e+00    0.2055254    0.1613501 -38.92 0.0005896144    1.160    0.138
       293  -8.2686    222.5713    126.4878   8.4545672786e+01   1.0612121372e+01    0.1470821    0.1349802 -48.14 2.941802e-05    1.010    0.010
       294 -10.5026    100.6777    117.1934   1.1037109843e+02   3.9088831827e+01    0.3942986    0.3402756 -68.86 0.0005197934    1.211    0.174
       295  -7.9651    102.4959    112.5301   1.0869294291e+02   3.9818882559e+01    0.1489567    0.1425588 -40.37 0.0003388485    1.018    0.017
       296 -10.8903     18.1591    115.1522   1.3417243517e+02   5.0086634913e+01    0.4172815    0.2710212 -76.47  0.001155384    1.430    0.301
       297  -8.5168    231.3480    116.4164   8.0775423433e+01   1.0648359377e+01    0.3332571    0.1440381  56.37  0.001287206    2.629    0.620
       298  -9.4173     34.0001    109.6069   1.2851666103e+02   5.0012938617e+01    0.3498708    0.2046751 -51.51  0.001147435    1.421    0.296
       299  -8.1740    129.6818    110.3307   1.0069499199e+02   3.4878559795e+01    0.1592461    0.1237621 -87.78 0.0004751081    1.688    0.407
       300  -7.8968    250.7689    102.9994   7.4874153300e+01   9.0558770212e+00    0.1861432    0.1020119 -41.39 0.0007786046    1.610    0.379
       301 -10.5607      7.9124     99.4001   1.3462736702e+02   5.4308065113e+01     0.323281    0.2954162 -36.64  0.001131208    1.218    0.179
       302  -9.5688      2.0938     94.4157   1.3558356639e+02   5.5726554776e+01    0.2833586    0.1841042 -62.37  0.001487285    1.185    0.156
       303  -7.8185    141.9798     98.2236   9.4312864385e+01   3.4717036407e+01    0.2060504    0.1262765  49.02 0.0004988713    1.628    0.386
       304  -7.8124     72.4064     97.8351   1.1391499119e+02   4.8078492072e+01    0.2000057     0.117078 -41.22 0.0004120801    1.619    0.382
       305  -8.1607    237.4000     95.1894   7.5082937381e+01   1.3184603666e+01    0.2009919    0.1164399 -50.14 0.0003923445    1.588    0.370
       306  -7.8219    114.4913     95.5643   1.0078651683e+02   4.1183121582e+01    0.1483209    0.1434753  -5.97 0.0003628716    1.030    0.029
       307  -8.4025     54.1930     95.2289   1.1905563161e+02   5.1078267192e+01    0.1742259    0.1558243 -85.50 0.0007657676    1.329    0.248
       308  -7.7100    222.3188     92.6678   7.6797104228e+01   1.6933983320e+01    0.1533102     0.104639 -70.86 0.0006403347    1.693    0.409
       309  -8.9541    158.3151     91.1550   8.8529989346e+01   3.2321953627e+01    0.2796886    0.2185494  57.83 0.0005485357    1.277    0.217
       310  -9.5925     17.0241     89.8479   1.2999371292e+02   5.5779196226e+01    0.4048847    0.2284638 -36.81  0.002296061    1.687    0.407
       311  -9.2429     16.4019     85.7435   1.2936530296e+02   5.6697527163e+01    0.4488955    0.2416289  21.10  0.002544688    2.219    0.549
       312  -8.6592     33.9668     88.9545   1.2420819106e+02   5.4589574971e+01    0.1910479    0.1587314 -46.16 0.0004105114    1.012    0.012
       313  -8.5251    244.3022     83.2859   7.1506629635e+01   1.3750320974e+01    0.1223364    0.1092804  10.04  0.000188018    1.559    0.358
       314  -9.7656    154.6133     82.2422   8.6907452313e+01   3.4871957111e+01    0.3734789    0.3077968  46.14 0.0008344369    1.208    0.172
       315 -10.0772    156.9284     78.0170   8.5216188245e+01   3.5083946813e+01    0.4127134    0.3181754  13.02  0.001305583    1.753    0.430
       316 -10.3206    220.7609     79.8323   7.4052612257e+01   1.9515696089e+01    0.4282094    0.2656563  68.45 0.0005746103    1.703    0.413
       317 -12.7948     79.9846     76.0144   1.0541894596e+02   5.1411471818e+01    0.3597043    0.3395156 -25.08  0.000447693    1.089    0.082
       318  -8.5835    184.0693     77.9769   7.9727541587e+01   2.8528873885e+01     0.233069    0.1860295  19.92 0.0009793015    1.688    0.407
       319 -12.2548     22.0992     74.4144   1.2487535273e+02   5.8628272924e+01     0.420879    0.3987065 -23.33  0.002868891    1.215    0.177
       320 -11.0318    115.7902     74.2436   9.4210408116e+01   4.5067088348e+01    0.4727287    0.3964216  68.49  0.001642013    1.405    0.288
       321  -9.8404     45.1805     75.0924   1.1689059773e+02   5.6331597662e+01    0.3212793    0.2699865 -81.40  0.001144314    1.628    0.386
       322  -9.7071    247.6655     74.3518   6.9155552382e+01   1.4505637297e+01    0.2749383    0.1616286  56.13  0.001387179    1.872    0.466
       323  -9.8595    238.9351     72.7477   6.9916753459e+01   1.6632886320e+01    0.3096773    0.1745965  44.51  0.001405227    2.395    0.582
       324  -8.2658    101.5278     73.0742   9.7894495167e+01   4.8142235736e+01    0.2120865    0.1366106 -40.40 0.0005236383    1.544    0.353
       325  -8.5643    244.2841     76.9237   7.0133531996e+01   1.4804106652e+01    0.2338967   0.07180387 -53.11  0.000701937    4.174    0.760
       326 -10.6999    227.4146     70.7759   7.1015501752e+01   1.9505202771e+01    0.4088069    0.2946703 -63.15 0.0005509658    1.321    0.243
       327  -7.7670     47.2861     69.2963   1.1451542425e+02   5.7233861675e+01    0.1289175   0.08484756 -23.01 0.0002181665    1.548    0.354
       328 -10.8183    143.8438     63.9526   8.4096774307e+01   4.0581082442e+01    0.5091029    0.3786549 -18.04  0.001527698    1.612    0.380
       329  -8.5825     51.6966     64.9021   1.1163838090e+02   5.7544856848e+01    0.1991572    0.1614828  43.14 0.0007415649    1.550    0.355
       330  -9.3425     58.9935     60.6690   1.0772498199e+02   5.7378390918e+01    0.4433443    0.2625492  -8.07  0.001532099    2.374    0.579
       331 -10.8500     79.9500     54.4397   9.8546276001e+01   5.5258597620e+01    0.8070828    0.4496748  16.70  0.001202468    2.619    0.618
       332  -9.7993     14.8635     56.5167   1.2297900286e+02   6.2647226228e+01    0.4615267    0.2120271 -19.58   0.00224278    2.800    0.643
       333  -8.9277     27.8059     55.3950   1.1765140104e+02   6.1824388608e+01    0.2048947    0.1197561 -42.84  0.001209537    1.397    0.284
       334  -8.8870     33.4890     54.9959   1.1534514910e+02   6.1365258756e+01    0.1861412   0.07412878 -33.28 0.0008104002    2.618    0.618
       335  -7.8926    171.9822     49.9670   7.4475572433e+01   3.5943736466e+01     0.164965    0.1488001  74.11            0    1.015    0.015
       336 -10.1997    225.3113    247.9489   1.0830471233e+02  -1.0966681194e+01    0.2300323    0.2103674  -3.12 0.0004109842    1.242    0.195
       337  -7.9369    221.4831    248.4277   1.0909423598e+02  -1.0456605001e+01    0.1628673    0.1055061  41.95 6.000123e-05    1.558    0.358
       338  -7.9916    174.9232    249.7554   1.1821904242e+02  -3.1756821889e+00     0.177263   0.09352767  38.31 0.0008856761    1.611    0.379
       339  -9.1458    119.8722    248.7089   1.2888553827e+02   6.2670597629e+00    0.3422262    0.2097575 -45.95  0.001836955    2.114    0.527
       340  -8.8966    116.1969    248.9121   1.2962588124e+02   6.8329665179e+00    0.2386648    0.1803472  24.26  0.001386149    1.696    0.410
       341  -8.3608    108.6993    249.2905   1.3112248629e+02   7.9790283277e+00     0.151926    0.1373784  36.63 0.0004455519    1.315    0.239
       342 -10.4245     33.0785    248.1930   1.4484524587e+02   1.8928131788e+01    0.2240164    0.1869099  71.37 0.0004507774    1.254    0.202
       343  -9.1407     24.8382    248.8295   1.4627227789e+02   1.9775161759e+01     0.206731    0.1777588  14.40  0.001322895    2.135    0.532
       344  -9.8615      8.9818    248.4932   1.4883562119e+02   2.1589372691e+01    0.2000023    0.1603409  71.84 0.0004784782    1.261    0.207
       345 -12.6492     19.5140     41.1782   1.1653908471e+02   6.5023076786e+01    0.6865408    0.3437157  -9.57  0.002393284    2.567    0.610
       346 -12.5368     13.1994     38.9245   1.1844873826e+02   6.5890399883e+01    0.6064335    0.3832982   4.12  0.001815374    1.616    0.381
       347  -8.8219     32.0222     40.5123   1.1119770308e+02   6.3990282578e+01    0.1799389     0.131986 -29.02 0.0005321862    1.126    0.112
       348 -11.1028    211.5135    246.8069   1.1069939335e+02  -8.6897474580e+00    0.3383194    0.2235233  34.44 0.0004779045    1.315    0.240
       349  -9.2084     76.5043     31.7555   9.1610319301e+01   5.9156546506e+01    0.4764143     0.160807  38.90  0.001792446    2.850    0.649
       350  -8.6234    205.8308     31.1702   6.4705816219e+01   3.0297011559e+01    0.2081776    0.1608362 -75.80   0.00100728    1.191    0.161
       351  -8.8628     66.6765     30.3147   9.4339180069e+01   6.0967558677e+01      0.18933    0.1730556   0.61 0.0005914068    1.215    0.177
       352  -9.1873     53.6415     36.2221   1.0123527560e+02   6.2078398511e+01    0.3021058    0.1787448  12.42  0.001054027    1.906    0.475
       353  -9.7565    145.6831     34.6285   7.4993913738e+01   4.4335197028e+01    0.3959265    0.2527007  46.19  0.001301154    1.483    0.326
       354  -8.8492    243.5284     24.5053   5.9272343081e+01   2.2603743759e+01    0.1253906    0.1000788 -76.75 0.0001383971    1.016    0.016
       355  -7.8920    128.6322     22.8048   7.4790962557e+01   4.9641993597e+01    0.1653311    0.1194714 -39.90 0.0004753014    1.583    0.368
       356  -8.6994     83.7499     19.4511   8.4749840401e+01   5.9314358914e+01    0.2144191    0.1607955 -15.76 0.0006814311    1.362    0.266
       357  -9.0054     75.4085     17.8038   8.6642899129e+01   6.0994506143e+01     0.275113    0.1130774 -25.20   0.00124348    2.599    0.615
       358  -9.1738     58.4201     18.3130   9.2515197868e+01   6.3726974969e+01    0.2447055    0.1597611  16.91  0.000721231    1.416    0.294
       359  -8.2194    171.1333    246.6443   1.1849712098e+02  -2.0356067031e+00    0.1790102    0.1385283  37.28 0.0003773649    1.099    0.090
       360  -9.0097     75.8898    246.7489   1.3708528642e+02   1.3508162533e+01    0.1797153    0.1535379 -80.59 0.0005151002    1.287    0.223
       361  -9.9425    243.2169    245.2598   1.0458904150e+02  -1.3207364591e+01    0.2344069    0.1699243 -15.22 0.0003389863    1.283    0.221
       362  -9.1043    187.3203    245.1927   1.1509640611e+02  -4.5257811171e+00    0.3126648    0.2259424  31.26  0.001259936    1.203    0.169
       363  -9.4118    194.1413    244.2087   1.1361127720e+02  -5.5033493183e+00    0.1954281      0.16833 -16.57 0.0004094786    1.244    0.196
       364  -9.0748    191.4999    241.5198   1.1369404511e+02  -4.6446627574e+00     0.315917    0.2287612  35.46  0.001270179    1.197    0.164
