#   1 NUMBER                 Running object number                                     
#   2 MAG_AUTO               Kron-like elliptical aperture magnitude                    [mag]
#   3 X_IMAGE                Object position along x                                    [pixel]
#   4 Y_IMAGE                Object position along y                                    [pixel]
#   5 X_WORLD                Barycenter position along world x axis                     [deg]
#   6 Y_WORLD                Barycenter position along world y axis                     [deg]
#   7 A_WORLD                Profile RMS along major axis (world units)                 [deg]
#   8 B_WORLD                Profile RMS along minor axis (world units)                 [deg]
#   9 THETA_WORLD            Position angle (CCW/world-x)                               [deg]
#  10 FWHM_WORLD             FWHM assuming a gaussian core                              [deg]
#  11 ELONGATION             A_IMAGE/B_IMAGE                                           
#  12 ELLIPTICITY            1 - B_IMAGE/A_IMAGE                                       
         1 -11.7754    214.2393     34.5810   4.2261532749e+01   2.7894986594e+01    0.7320019    0.5511654 -86.88  0.003795289    1.279    0.218
         2 -11.4569    221.1671     27.0626   3.9984354189e+01   2.7328251465e+01    0.7076762    0.3695139  57.63  0.001724818    2.127    0.530
         3 -11.6562    235.1178     13.9026   3.6221360399e+01   2.5977986966e+01    0.6386081    0.4486729 -55.60  0.002864356    1.146    0.127
         4  -8.7691      2.3838      5.2322   9.4004956331e+01   7.5823462145e+01    0.1511943    0.1045201 -47.55 0.0009529993    1.694    0.410
         5  -7.5952      2.2712      1.6380   9.1984856956e+01   7.6399432217e+01   0.09614296   0.09240479   2.79 0.0006999205    1.654    0.395
         6  -9.0501     21.0902    239.8113   1.2639668698e+02   2.0500218336e+01    0.2342416    0.1518865  87.14 0.0007059422    1.526    0.345
         7 -10.2927     84.6490    248.8589   1.1342638695e+02   1.1751586669e+01    0.6941111    0.2142197  26.95  0.002673491    3.154    0.683
         8  -9.4747     73.0313    250.4800   1.1609249732e+02   1.2871815898e+01    0.5434819     0.100529  32.60  0.001925147    3.681    0.728
         9 -10.0708     70.1092    246.5306   1.1639010497e+02   1.3947796569e+01    0.4088408    0.2586017  22.04  0.002365621    1.565    0.361
        10 -10.3938     60.4250    248.7472   1.1866079218e+02   1.4665605494e+01    0.5463446    0.3462328  22.96  0.002517801    1.561    0.359
        11  -8.9036     50.8690    250.4696   1.2081276599e+02   1.5417052281e+01    0.4159744     0.128159  26.64  0.001714826    3.126    0.680
        12  -8.3430     26.3021    250.3179   1.2586417842e+02   1.7995117591e+01    0.2086442    0.1453687   5.52 0.0008372225    2.007    0.502
        13  -9.5743     30.4387    247.5215   1.2487592745e+02   1.8112081016e+01    0.3442993    0.2387141  53.31  0.002256736    1.166    0.142
        14 -12.9971      5.0591    239.2064   1.2963101624e+02   2.2056788363e+01     2.489095    0.9999559 -81.06   0.01337795    2.468    0.595
        15 -13.0893      2.4631    134.0058   1.2414761393e+02   4.6373462510e+01     3.892126     1.176081  89.89    0.0120934    4.509    0.778
        16 -11.3393     27.1165    208.1417   1.2318679743e+02   2.6523335849e+01     0.456694    0.3453062 -39.22 0.0009651948    1.690    0.408
        17 -13.5993     37.1478    197.1061   1.1987907042e+02   2.8030044850e+01     3.971732       1.6584  65.13   0.01529333    3.235    0.691
        18 -10.7363     87.6743    226.3218   1.1042729940e+02   1.5658971139e+01    0.4300876    0.2750629  49.07  0.001054868    1.516    0.340
        19 -11.0863    112.5820    230.9331   1.0516552880e+02   1.1399037239e+01    0.5383179    0.2341973  31.81  0.002433217    1.924    0.480
        20 -10.7846    134.5211    231.3685   1.0021703951e+02   8.2550664019e+00     0.342031    0.2506151 -11.14  0.001951339    1.512    0.339
        21 -12.3014     10.5029    206.7375   1.2697841224e+02   2.8313817617e+01    0.9350063    0.5578963  19.49  0.004204863    1.875    0.467
        22  -9.6343    121.9320    224.1594   1.0210383016e+02   1.1362144629e+01    0.2570943    0.1619201 -21.64   0.00124741    2.106    0.525
        23  -8.6657     22.6653    223.8952   1.2520095079e+02   2.3560432403e+01    0.1960411    0.1598534  23.46  0.001325571    1.350    0.259
        24  -9.1451    164.5891    218.8323   9.1626251025e+01   6.1382482656e+00    0.3040895    0.1298425 -47.74  0.001307504    2.731    0.634
        25  -7.9533     33.8714    237.3130   1.2356445618e+02   1.9739676500e+01    0.2249822    0.1179189  76.28  0.001205042    2.093    0.522
        26  -9.4883    103.1908    236.8822   1.0803497061e+02   1.1563015277e+01    0.3845398    0.1128095  32.94  0.001483704    2.703    0.630
        27  -8.7389     61.1766    234.5363   1.1735072029e+02   1.7308855814e+01    0.2235954    0.1826129  63.12 0.0005731459    1.182    0.154
        28  -9.7264     89.4792    234.4694   1.1089850108e+02   1.3824883444e+01    0.1977365    0.1283222 -62.14  0.001104505    1.812    0.448
        29 -10.1242      2.0521    160.7837   1.2633473042e+02   3.9686936932e+01    0.3249312    0.1817462 -72.35  0.001721002    1.565    0.361
        30 -11.1691      1.7973    181.9816   1.2770276308e+02   3.4610340272e+01    0.6693186    0.3168434  85.50  0.003297048    2.017    0.504
        31 -10.8365      9.3081    187.6954   1.2616832219e+02   3.2722440192e+01    0.4115879    0.2188083 -77.75  0.001370604    1.727    0.421
        32 -11.3647     15.5716    214.9595   1.2627557640e+02   2.6094965868e+01    0.5597411      0.39002  55.95  0.003582309    1.218    0.179
        33 -10.1663     56.7027    180.1535   1.1295092086e+02   2.9894596159e+01    0.4855049    0.2940104 -34.83  0.001589242    2.142    0.533
        34 -10.1278     62.3408    174.5400   1.1065480750e+02   3.0576958927e+01    0.3564501    0.2825516 -25.18 0.0009912653    1.490    0.329
        35 -10.8744      9.6491    169.7244   1.2488634748e+02   3.6983329963e+01    0.3745947    0.2026637  31.41  0.001412192    1.837    0.456
        36  -9.8391     72.9660    164.6839   1.0614986803e+02   3.1621185744e+01    0.3283315     0.275871 -41.32  0.000492873    1.245    0.197
        37 -11.2868     80.8798    157.8990   1.0267494429e+02   3.2184054675e+01    0.7941613     0.711451 -37.57  0.002548184    1.144    0.126
        38 -11.7256     59.5028    160.8687   1.0957560587e+02   3.4342887301e+01    0.5898132    0.3407052 -39.04  0.001467328    2.031    0.508
        39  -9.0808     33.0038    156.1079   1.1694589887e+02   3.8452945018e+01    0.4271375     0.162187 -74.89   0.00161143    2.678    0.627
        40  -8.2533    124.8164    153.7794   8.9225773248e+01   2.5850958917e+01    0.2722982      0.20437 -82.88 0.0008225075    2.014    0.504
        41 -11.6062     68.1756    144.1483   1.0417158712e+02   3.7475190866e+01    0.8569582    0.5684051  59.68  0.002540236    1.850    0.459
        42  -8.7656     95.1971    143.7882   9.5642009180e+01   3.3432782832e+01    0.2697126    0.2176499 -70.61  0.001224632    1.412    0.292
        43 -10.5578     83.4818    142.2532   9.8952563194e+01   3.5709083146e+01    0.3538136    0.2969736 -39.02 0.0006370639    1.201    0.167
        44  -7.7035     98.9616    140.0384   9.3700273894e+01   3.3711187913e+01    0.3339996    0.1837542 -16.40  0.000965473    4.187    0.761
        45 -10.3661     58.3193    133.0524   1.0539490423e+02   4.1640016977e+01    0.7542318    0.2811327 -73.47   0.00206981    4.702    0.787
        46  -8.3064     94.7541    128.1677   9.2339676264e+01   3.7340742717e+01    0.2969908    0.2032816 -31.70   0.00117921    1.618    0.382
        47 -10.8046     83.7989    229.1833   1.1164710234e+02   1.5592676120e+01    0.5989674    0.3036206 -76.93  0.002710784    2.862    0.651
        48  -9.1913    107.2995    131.4481   8.9235211284e+01   3.4291706114e+01    0.4286361      0.30973  27.33  0.001265239    1.413    0.292
        49  -7.7699    105.5327    120.2385   8.7042815951e+01   3.7274045492e+01    0.2059697    0.1474155 -34.83 0.0003172835    1.449    0.310
        50  -7.5934    206.0007    110.2834   6.0977538995e+01   1.8590955105e+01    0.1600323    0.1244424  48.74 0.0006627256    1.427    0.299
        51  -9.5994      1.5245    100.0506   1.2089521102e+02   5.5066083271e+01    0.3400579    0.1468668 -77.41  0.001240573    2.131    0.531
        52  -9.8026      1.9181     94.6465   1.2003152841e+02   5.6411189452e+01    0.3045755    0.1691906 -76.87  0.001520834    1.653    0.395
        53 -10.5127      2.0914     81.9227   1.1807645712e+02   5.9569051243e+01    0.7064499    0.0379849 -64.29  0.002068012    4.580    0.782
        54  -9.1896      1.7008     61.4974   1.1447713397e+02   6.4484157401e+01    0.2397465    0.1011125 -66.61  0.001085236    2.086    0.521
        55  -8.1835     30.9540     53.5495   9.6920869552e+01   6.4115202665e+01    0.1981688    0.1259348  19.03 0.0004989092    1.571    0.363
        56  -9.2249     13.1671     60.2599   1.0826363780e+02   6.4164445138e+01    0.2462301    0.1440103 -47.67 0.0006999729    1.405    0.288
        57 -10.7206    197.0202     48.5345   4.7413233742e+01   2.9871004889e+01    0.4273249     0.244914  55.16  0.002173302    1.828    0.453
        58 -11.3273    206.2179     38.9161   4.4055308296e+01   2.9077170576e+01    0.4879729    0.3498673 -75.06  0.001955157    1.377    0.274
        59 -10.7707     97.3275    245.6731   1.1031982893e+02   1.0723119947e+01    0.5675684    0.1993125  27.69  0.002191223    2.590    0.614
        60 -10.8809     83.2320    242.8529   1.1316470477e+02   1.3031849051e+01    0.4301509    0.2996803  18.08   0.00254215    1.461    0.315
        61  -8.0392      2.3201     37.3288   1.0782129901e+02   6.9819142703e+01    0.1395053   0.06925151 -33.09 0.0007047916    1.688    0.407
        62  -7.9589    131.9710     31.3482   5.2456266775e+01   4.7507724216e+01    0.1950607     0.158827  65.54 0.0004364957    1.129    0.114
        63  -9.6106    114.1109    241.8342   1.0615506137e+02   9.2020966894e+00     0.219835     0.176441 -63.39 0.0007541092    1.585    0.369
        64  -8.4808    108.3068    243.3115   1.0762168494e+02   9.7121679649e+00    0.1238217   0.09082174  -3.38            0    1.619    0.382
