#   1 NUMBER                 Running object number                                     
#   2 MAG_AUTO               Kron-like elliptical aperture magnitude                    [mag]
#   3 X_IMAGE                Object position along x                                    [pixel]
#   4 Y_IMAGE                Object position along y                                    [pixel]
#   5 X_WORLD                Barycenter position along world x axis                     [deg]
#   6 Y_WORLD                Barycenter position along world y axis                     [deg]
#   7 A_WORLD                Profile RMS along major axis (world units)                 [deg]
#   8 B_WORLD                Profile RMS along minor axis (world units)                 [deg]
#   9 THETA_WORLD            Position angle (CCW/world-x)                               [deg]
#  10 FWHM_WORLD             FWHM assuming a gaussian core                              [deg]
#  11 ELONGATION             A_IMAGE/B_IMAGE                                           
#  12 ELLIPTICITY            1 - B_IMAGE/A_IMAGE                                       
         1 -12.5399     74.9220     51.2056   9.1128728671e+01   5.6240238967e+01     1.240425    0.8005499 -49.11  0.006547085    1.979    0.495
         2  -9.6790     64.6729      8.6460   7.8954422027e+01   6.3035200900e+01    0.5742157    0.4208169  55.39  0.003834492    1.558    0.358
         3 -12.1498     60.5471     45.6044   9.4060729422e+01   5.9387146143e+01    0.9320185    0.5371072 -34.38  0.005100678    1.718    0.418
         4 -12.0815    124.7363     27.7548   7.0454943154e+01   4.9325510701e+01    0.7573464    0.5514882  40.72  0.001854395    1.320    0.243
         5 -11.3521    120.3132     57.4952   8.0333323659e+01   4.6468863138e+01     1.662175     1.005274 -73.19  0.006200691    3.731    0.732
         6 -12.8740    120.1504     38.5834   7.4677476660e+01   4.9073400701e+01    0.7316167    0.5401199 -75.88  0.002633822    1.890    0.471
         7 -10.8350    138.7244     32.7535   6.9178412170e+01   4.5664146209e+01    0.6818478    0.4994139 -65.31  0.003875989    1.635    0.389
         8 -10.0281      1.3046      7.2825   1.0404950656e+02   7.1451852058e+01    0.1743604   0.07556107 -36.81 0.0002511021    2.048    0.512
         9 -11.2128      5.2519     34.0160   1.1242096537e+02   6.7407267734e+01     1.093351    0.3460152 -40.07   0.00546561    2.452    0.592
        10 -11.2596      4.9347      9.2949   1.0310867286e+02   7.0893736904e+01    0.6884634    0.4393718 -33.12  0.004226665    1.518    0.341
        11 -11.4980      3.4305      1.7742   1.0055415116e+02   7.1913528505e+01    0.4050126    0.1494968  22.59  0.002262767    2.580    0.612
        12 -12.5791     18.8106     22.7132   1.0210772743e+02   6.7867027570e+01    0.8227187    0.5663594  26.92  0.003920523    1.544    0.353
        13 -11.6124     26.1727     27.5191   1.0075970171e+02   6.6443529012e+01    0.5064015    0.4295991  28.46  0.003756204    1.545    0.353
        14 -12.4197     16.7976     13.5051   9.9271940320e+01   6.9241863843e+01    0.4798809    0.3412749 -19.58 0.0006630862    1.227    0.185
        15 -12.0209     22.4489     11.2633   9.5786375256e+01   6.8886604316e+01    0.6308468    0.3971951 -22.76  0.004413764    1.428    0.300
        16 -11.4974    178.6849     21.0438   6.0034972569e+01   3.7935361659e+01    0.5887185    0.2939651  48.67  0.002907387    2.258    0.557
        17 -12.0003    162.8746     28.7899   6.4078336486e+01   4.0643604851e+01     0.529769    0.4175083  33.29 0.0008547505    1.584    0.369
        18 -11.0428    138.3913     21.7248   6.6163489550e+01   4.6940725686e+01    0.9286777    0.2339026  48.64  0.003266888    3.729    0.732
        19 -10.0762    147.3881     16.4557   6.3261989266e+01   4.5455325115e+01    0.4146936    0.3141378  65.31  0.002629533    1.109    0.098
        20 -12.3631    104.7989     13.0076   7.0089741260e+01   5.5014131365e+01     0.470652    0.3776001 -34.26  0.003154219    1.484    0.326
        21 -12.3284    106.0030     20.1184   7.2105246509e+01   5.4103793936e+01    0.2663836    0.2368129  -0.21   0.00036194    1.240    0.193
        22 -12.5601    113.7902     24.7701   7.1846251100e+01   5.2001154079e+01    0.8135749      0.31762  58.28  0.001695631    2.271    0.560
        23 -11.4976    199.1705     28.3886   5.9223130394e+01   3.2528033928e+01    0.5140446    0.4216553 -38.93  0.002013311    1.438    0.305
        24 -12.0070     69.2318     18.8586   8.1426205650e+01   6.1279324972e+01    0.9406269    0.4460542  39.29  0.005016298    1.798    0.444
        25  -9.3743     87.5273      7.4063   7.2211080973e+01   5.8949163071e+01    0.5523018     0.257577  51.80  0.002981642    1.723    0.420
        26 -11.1386     85.7413     14.0498   7.4985154442e+01   5.8720364700e+01     0.391829    0.2880208  10.73  0.001903516    1.421    0.297
        27 -11.1904     89.9310     21.0491   7.6322463012e+01   5.7242943707e+01    0.5641362    0.4528521  48.26  0.003732693    1.152    0.132
        28 -10.7536     41.4736      4.5924   8.5170586231e+01   6.7086841331e+01    0.4273286    0.2169684   0.65  0.001885854    2.506    0.601
        29 -10.1478     38.7518     21.6724   9.3268065448e+01   6.5663121602e+01    0.2949688    0.1640898 -22.50  0.001232384    1.739    0.425
        30 -11.7677     36.2024     17.5290   9.2614820070e+01   6.6484224737e+01    0.6149434       0.2887 -16.44  0.003143776    2.587    0.613
        31 -12.1716     48.3059     12.9591   8.6130257390e+01   6.5270712185e+01    0.6566724    0.3691549  35.18  0.003436902    1.506    0.336
        32 -10.9815    120.3219     18.8389   6.8678735801e+01   5.1196888812e+01    0.8372322    0.3234646 -21.48  0.003230609    3.504    0.715
        33  -9.4700    141.4767     12.3041   6.3076964641e+01   4.7168133352e+01    0.2161605      0.16378  34.28 0.0006819493    1.504    0.335
        34 -11.5119    133.4451     15.3071   6.5226595193e+01   4.8667436714e+01     1.042641    0.3516546  59.33  0.004192369    2.335    0.572
        35 -10.4943    127.2152     11.7998   6.5316100772e+01   5.0353573791e+01    0.4338531    0.2271766  81.73  0.002018534    2.572    0.611
        36 -12.1612    238.8564     16.0355   5.3001136016e+01   2.5684000310e+01    0.7629028    0.3603667  66.86  0.003283235    1.995    0.499
        37 -10.9463    218.7781      3.1731   5.2238660927e+01   3.1175599742e+01    0.2937533    0.2124937 -62.99  0.001053704    1.228    0.185
        38 -11.2871    224.7120      2.2155   5.1594760499e+01   3.0062108804e+01    0.6026335    0.2494012  88.45  0.002913562    2.424    0.588
        39 -11.1105    165.1411     17.7406   6.1015851023e+01   4.1333574454e+01    0.3886876    0.2491986  42.05  0.001424347    1.852    0.460
        40 -11.9204    244.9130      6.7393   5.0917456368e+01   2.5567252846e+01    0.6863683    0.3753235 -71.59  0.003302122    1.523    0.343
        41 -11.0146    232.8327      7.0640   5.1855314107e+01   2.7905136009e+01    0.3963424      0.22408  65.27  0.001701648    1.759    0.431
        42  -9.9915    191.5784     16.4539   5.7491266177e+01   3.5569996726e+01    0.2968882    0.2611622 -38.07  0.002058604    1.414    0.293
        43 -10.7313    186.2844     15.2573   5.7818582256e+01   3.6866398460e+01    0.2950199    0.2014555  69.11 0.0004449728    1.267    0.211
        44 -11.5574    192.5941      7.4232   5.5447757664e+01   3.6291816001e+01    0.5224499    0.3582002  41.77  0.002490084    2.019    0.505
        45  -9.5072    194.4320      1.4660   5.4021669562e+01   3.6480087138e+01    0.1692615   0.09092315  86.03 0.0005281738    1.645    0.392
        46 -10.1604    225.9270     15.7160   5.4006531193e+01   2.8328806574e+01    0.2940888    0.1634535 -45.45 0.0009716566    1.715    0.417
        47 -10.9721     32.9401     12.7879   9.1976617697e+01   6.7438926781e+01     0.213262    0.1758443  39.92 0.0005799809    1.682    0.405
        48 -11.4588    211.6282      9.8422   5.4130212991e+01   3.1960384778e+01    0.3693202    0.3171446  15.61  0.001556361    1.955    0.489
        49  -9.9783    168.8260     10.0691   5.8694697414e+01   4.1273428637e+01    0.2653045    0.1393298  57.46   0.00144632    1.691    0.409
        50  -9.0646    162.8678     10.1511   5.9468584168e+01   4.2595322719e+01    0.1883688     0.145386  57.16 0.0006790877    1.251    0.200
        51  -9.2728    162.7169      6.0186   5.8488088812e+01   4.3012537033e+01    0.1883402    0.1657581 -68.03 0.0004951905    1.213    0.175
        52  -9.7531    185.1817      7.4369   5.6218715183e+01   3.7909322229e+01    0.2709068    0.1569476 -55.85  0.001326913    1.746    0.427
        53 -10.1416    151.9333      7.5000   6.0275062935e+01   4.5277757486e+01    0.4063643    0.1649374  61.29   0.00129509    1.946    0.486
        54 -11.2142     75.4346      4.5135   7.4291161660e+01   6.1465683968e+01    0.6148855    0.3726602  54.94  0.003356416    1.533    0.348
        55 -10.4772     82.1595      1.3378   7.1398407050e+01   6.0451819748e+01    0.1849263   0.08671034  53.18 0.0003432849    1.717    0.417
        56 -10.4162    175.5076      5.0134   5.6736709936e+01   4.0271238574e+01    0.3814061    0.2053816  84.68  0.002077391    1.752    0.429
        57  -9.6458    122.4260      1.3385   6.3121520163e+01   5.2249973873e+01    0.3266211   0.08876682  63.37  0.001326396    2.899    0.655
        58  -9.3964    115.4903      6.0886   6.5766092626e+01   5.3357756741e+01    0.1904242    0.1204091 -10.63 0.0007089117    2.023    0.506
        59  -9.7612    117.0239      2.4876   6.4402021356e+01   5.3314766224e+01    0.2701342     0.147991  55.74  0.000924738    1.441    0.306
        60 -10.3330    111.3299      1.6382   6.5191216291e+01   5.4579734543e+01    0.4760003    0.1559713  55.61  0.002217442    2.231    0.552
        61 -10.4746    105.3784      1.5154   6.6302528955e+01   5.5826104187e+01    0.3239559    0.1487436  62.14 0.0009844737    1.847    0.459
        62 -11.4808    205.2097      2.5947   5.3269184540e+01   3.4069254644e+01    0.3976747    0.2363859  80.38  0.001157928    1.376    0.273
        63 -10.1439    142.5221      3.4187   6.0550800611e+01   4.7712221309e+01    0.3319041    0.1985194  65.45  0.001966148    1.350    0.259
        64 -11.9262    133.5656      2.6182   6.1676929705e+01   4.9740794603e+01    0.3874766    0.2001877  60.81 0.0009568952    1.530    0.347
        65  -9.3359    169.7353      2.9637   5.6923291563e+01   4.1733440736e+01    0.2936059     0.152373 -71.23  0.001467521    2.342    0.573
        66  -9.9066    159.8458      1.8743   5.7845010341e+01   4.4014984587e+01    0.4974428    0.1239164  59.25  0.002058047    2.911    0.656
        67 -10.3927     12.9228      1.9785   9.6036784699e+01   7.0953627731e+01     0.245649    0.1294567  21.59  0.001083281    1.619    0.382
        68  -9.7665    214.6181    151.4795   8.4043116352e+01   8.1039202778e+00    0.2706544    0.2107832  77.21  0.001007733    1.693    0.409
        69 -11.2227     62.4681    150.0993   1.2078776182e+02   3.7091111152e+01    0.4701141    0.4666254 -40.63  0.002331784    1.124    0.111
        70  -9.3337     85.4600    149.9944   1.1432434475e+02   3.3702143510e+01    0.2359949    0.1409306 -57.16 0.0005389932    1.568    0.362
        71  -9.8019     55.8998    149.3266   1.2249484986e+02   3.8149427704e+01    0.2887104    0.1976162 -30.56  0.001391803    1.804    0.446
        72  -9.7825    239.8389    146.8142   7.8728038177e+01   4.4221827733e+00    0.2019427    0.1749147 -27.90 0.0006308169    1.173    0.147
        73 -10.7498    249.5178    142.7385   7.6395665510e+01   3.5216927587e+00    0.6237274    0.2219478 -43.93  0.002501307    2.339    0.572
        74  -9.5169    108.5377    146.0233   1.0712539910e+02   3.0684131298e+01    0.2266018    0.2083275  44.80 -3.358275e-05    1.131    0.116
        75 -10.6079     33.0932    144.1653   1.2804889515e+02   4.2038433124e+01     0.299508    0.2486732 -84.58 0.0007574648    1.175    0.149
        76  -9.0983    104.5074    142.4568   1.0743254477e+02   3.2298265489e+01    0.1542029    0.1474518 -66.05 7.491048e-05    1.019    0.018
        77 -10.0453    133.4478    140.3807   9.9274959733e+01   2.7175842082e+01    0.3274442    0.2974469 -21.59  0.001012822    1.198    0.165
        78 -11.9965     29.8492    132.8256   1.2713276544e+02   4.5138976841e+01     0.790675    0.5001752 -64.20  0.003010721    1.341    0.254
        79 -11.3543     24.1599    136.8535   1.2943451434e+02   4.4679344297e+01    0.4106795    0.2656656 -49.71 0.0003387008    1.385    0.278
        80 -10.8354     21.0089    134.5025   1.2997309260e+02   4.5523806803e+01    0.2539518    0.2471321  17.42 0.0007937594    1.240    0.194
        81  -8.7824    186.5083    139.4935   8.6861615107e+01   1.6208487465e+01    0.1526618    0.1428141 -54.87 -4.739279e-05    1.010    0.009
        82 -10.3623     47.0457    135.6310   1.2256476668e+02   4.2642348080e+01    0.5030976    0.2129812 -54.57  0.001815864    1.978    0.494
        83  -9.3737     44.1782    133.1171   1.2294766505e+02   4.3587366924e+01    0.2134514     0.192193  57.46 0.0003592499    1.254    0.203
        84 -10.5823     80.4853    135.9642   1.1279928696e+02   3.7985202645e+01    0.5197331    0.3281116   9.49  0.002121357    2.457    0.593
        85 -10.7755     92.5982    129.4326   1.0781494997e+02   3.7574606030e+01     0.447888    0.3311213 -79.36  0.001740453    1.709    0.415
        86 -10.9453     71.9635    133.9788   1.1486756812e+02   3.9771476917e+01    0.5775346    0.4003203 -17.68  0.002283728    1.973    0.493
        87  -9.8297     62.5553    131.3335   1.1710675039e+02   4.1750218041e+01    0.4237367    0.1845655 -42.83  0.001253697    2.403    0.584
        88  -9.0462    216.5388    135.4452   8.0261214370e+01   1.0941968919e+01    0.1441327    0.1296357 -46.99 6.248439e-05    1.030    0.029
        89 -10.5287     18.4644    124.8719   1.2918596091e+02   4.8046154515e+01     0.389644    0.1603754 -56.89  0.001295411    1.867    0.464
        90  -9.5449     81.5578    125.5688   1.1015344185e+02   4.0337852661e+01    0.3656937    0.2251885  46.33  0.001218069    1.807    0.447
        91  -9.3395     84.4916    123.0149   1.0868182732e+02   4.0470067990e+01    0.2540153    0.2058107  13.76 0.0006034843    1.417    0.294
        92 -10.2911     46.0941    120.3839   1.1987215342e+02   4.6450320011e+01    0.3232443    0.2672747  72.13  0.001156864    1.476    0.323
        93 -10.8725     55.8782    123.0026   1.1738317190e+02   4.4645114225e+01    0.4902303    0.3649965   8.29  0.001056007    1.625    0.385
        94  -9.2714     50.1767    122.6085   1.1906303262e+02   4.5442305820e+01    0.2988322     0.203286  -4.46  0.001102657    1.970    0.492
        95  -9.5434      2.2805    125.7116   1.3406789284e+02   4.8994848574e+01     0.252665    0.1662734 -79.12  0.001319649    1.393    0.282
        96 -11.5373    104.6447    121.7527   1.0251643028e+02   3.7218618858e+01    0.4957259    0.4474452 -55.68  0.001336773    1.092    0.084
        97  -8.6036     40.6508    122.2781   1.2194717497e+02   4.6599740434e+01     0.132137    0.1016778  70.22 0.0006063858    1.640    0.390
        98 -10.8912     33.2390    119.6326   1.2373667397e+02   4.7986400550e+01    0.3690801     0.282524 -56.77  0.001164355    1.108    0.098
        99  -9.8350      4.1240    120.8270   1.3282436730e+02   5.0021936394e+01    0.3361795    0.1470219 -49.30  0.001393483    1.880    0.468
       100  -9.6645      6.8499    114.8377   1.3107524178e+02   5.1237940930e+01    0.2744089    0.1910313 -65.30  0.001185309    1.182    0.154
       101 -11.2541      2.4973    112.1110   1.3197891880e+02   5.2134414032e+01     0.368092    0.2311296 -63.29 0.0009939476    1.257    0.204
       102 -11.9586      3.7358    105.1653   1.3044981682e+02   5.3636598546e+01    0.4015806    0.3350439 -54.92 0.0007026499    1.059    0.056
       103  -8.9601    220.6921    120.3359   7.6296391433e+01   1.3067785392e+01    0.1474421    0.1030174 -71.21  0.000704214    1.676    0.403
       104  -9.1735    148.4066    119.7669   9.0580199047e+01   2.8687632224e+01    0.2199885    0.1460057 -35.58 0.0004428434    1.621    0.383
       105  -9.2533     72.8142    119.8594   1.1146465382e+02   4.3049624499e+01    0.2253749     0.185246 -26.59  0.000677136    1.272    0.214
       106  -9.1634    184.6112    118.7956   8.2458615328e+01   2.0940319680e+01    0.2287834    0.1327486 -53.15 0.0009581941    1.736    0.424
       107  -9.4402     81.7698    117.4779   1.0816916785e+02   4.2213172152e+01    0.2584429    0.1921971 -50.48 0.0002739732    1.263    0.208
       108  -9.5698    113.6314    115.9272   9.8536575843e+01   3.6816869050e+01    0.2518902    0.2123109  24.08  0.000491875    1.293    0.227
       109 -10.7259    107.4878    112.0233   9.9242924746e+01   3.8885671725e+01    0.6304118    0.3830312 -66.53  0.001963319    2.328    0.570
       110 -10.7367    102.0103    110.0523   1.0029228619e+02   4.0362843586e+01    0.4688673    0.3890913  23.27   0.00183345    1.297    0.229
       111  -9.4901    103.1781    106.1395   9.8925056869e+01   4.0999805697e+01    0.2900778    0.2214794  46.75 0.0006769207    1.372    0.271
       112 -10.2464     67.0936    112.0959   1.1140199461e+02   4.5697239186e+01    0.5386776    0.3100195 -60.78  0.002405802    1.832    0.454
       113  -9.6577     36.4583    114.6952   1.2174686085e+02   4.8830376783e+01     0.233966    0.1820199 -78.32 0.0007082895    1.416    0.294
       114 -11.6414     49.3310    100.6025   1.1438878461e+02   5.0629891889e+01     1.427236    0.4197204 -45.60  0.001208607    2.999    0.667
       115 -12.0946     79.0045     95.4604   1.0333930578e+02   4.7549729660e+01    0.7711535    0.5128536 -27.47   0.00369902    1.657    0.396
       116 -11.1755     90.2292     89.2368   9.8105384843e+01   4.6910179002e+01    0.7652474    0.4497149 -19.56  0.003056586    2.589    0.614
       117 -12.3882     52.8104     74.4533   1.0615828749e+02   5.5605395858e+01    0.7615011    0.4687209 -53.14  0.001406549    1.760    0.432
       118 -10.5736     46.9144     74.3804   1.0825407149e+02   5.6362688142e+01    0.3825344    0.2085164 -47.81            0    1.709    0.415
       119 -11.8787     35.0491     92.3216   1.1725772726e+02   5.4008812027e+01     1.800767    0.9344383 -67.68  0.007974748    2.481    0.597
       120 -10.9939     79.7655     83.0791   9.9592352018e+01   4.9931084926e+01    0.5270954     0.512014  85.20  0.002683308    1.248    0.199
       121 -11.9478     70.6019     79.7029   1.0158567320e+02   5.2058346150e+01     1.500187    0.8633866  15.99  0.006612949    2.335    0.572
       122 -11.8232     18.9159    105.9028   1.2566788114e+02   5.2428310422e+01    0.6861915    0.3845734 -31.45 0.0004105712    1.895    0.472
       123 -12.6107     20.7340     95.4230   1.2292482645e+02   5.4623748861e+01     1.115023    0.6885439 -11.72  0.006062199    1.932    0.482
       124 -12.5148     17.6937     90.3993   1.2289169185e+02   5.5951273182e+01    0.8261356    0.4287531 -22.48 0.0009713942    2.308    0.567
       125 -10.9131     38.0476     86.7654   1.1482344234e+02   5.4879338881e+01    0.4971235    0.3403134  89.30  0.002353791    2.785    0.641
       126 -11.6633     43.3477     85.3247   1.1257077340e+02   5.4598478215e+01    0.6132396    0.4502699  17.37  0.002543439    1.450    0.310
       127 -12.2479     10.1207     94.6652   1.2640441496e+02   5.5565714742e+01    0.5060923     0.276208 -43.31  0.001124338    1.516    0.340
       128 -12.2861      7.8933     89.4298   1.2611858606e+02   5.6842673284e+01    0.5679272    0.4958505 -54.26  0.001662871    1.145    0.127
       129 -11.8624     22.1882    114.1524   1.2617448828e+02   5.0268338009e+01    0.9892598    0.3801374  10.23  0.003690491    4.315    0.768
       130 -12.3750     24.6101    108.4172   1.2430272311e+02   5.1389637422e+01     1.185059    0.6022152 -26.27  0.005361329    2.546    0.607
       131  -9.3548    126.8070    113.8048   9.4454379794e+01   3.4608188298e+01    0.2340925    0.2112342  -6.60 0.0008672494    1.234    0.190
       132  -9.3002     87.8672    114.4616   1.0558669894e+02   4.1898319421e+01     0.285625    0.1407976  42.60    0.0011419    2.159    0.537
       133 -11.2833    171.1362    109.9594   8.3074571111e+01   2.5712885301e+01    0.6556772    0.4613025  32.25   0.00237525    1.788    0.441
       134  -9.5931     94.0176    111.7379   1.0306339523e+02   4.1446627151e+01    0.2859868     0.217115 -73.91   0.00135504    1.669    0.401
       135  -9.6124     48.9510    112.1605   1.1720288040e+02   4.8052320848e+01    0.2040175    0.1856466  85.10  0.001217824    1.291    0.225
       136 -10.3749     85.8013    104.4330   1.0363429633e+02   4.4495094730e+01    0.5687678    0.3621487 -13.35  0.001910548    2.442    0.590
       137 -10.0012     90.3286    104.4424   1.0226098773e+02   4.3713224830e+01    0.4149598    0.3130909   3.65  0.001384123    1.647    0.393
       138 -11.3513     79.5998    108.2805   1.0654276761e+02   4.4665254728e+01    0.5947021    0.5495225  55.06  0.002876297    1.219    0.180
       139  -9.0585     82.2650    102.6631   1.0425649075e+02   4.5473352205e+01    0.2088329    0.1459203  36.43 0.0003745169    1.494    0.330
       140 -10.0378    130.5757    109.4243   9.2343149390e+01   3.4760050034e+01     0.277131    0.2542585  -9.28  0.001332096    1.193    0.162
       141  -9.9783    120.1103    109.3449   9.5065904135e+01   3.6961779006e+01    0.2655291    0.2064499 -33.59 0.0006656768    1.342    0.255
       142 -10.7646    157.5973    106.3478   8.5087962909e+01   2.9475300278e+01    0.4122614    0.3127422 -11.42  0.001524799    1.853    0.460
       143  -9.4533     58.1834    107.8843   1.1323552378e+02   4.7883765272e+01    0.2862985    0.1672153 -75.09  0.001151798    2.732    0.634
       144 -10.7150    143.3351    106.2126   8.8344993886e+01   3.2672441279e+01    0.3403468    0.2887299  48.18  0.001043442    1.190    0.159
       145 -11.8078    145.8941    100.2676   8.6190142301e+01   3.3313839237e+01     0.542239    0.4821277   3.03  0.001701345    1.328    0.247
       146  -9.8928     57.7320    102.3969   1.1204475122e+02   4.9176780780e+01      0.31063    0.2213303 -64.88  0.001414692    1.565    0.361
       147  -9.9600     57.0566     97.5148   1.1103762795e+02   5.0338191511e+01    0.3026189    0.2412911 -55.54  0.001192623    1.261    0.207
       148  -9.6070     61.1740    101.1829   1.1061054933e+02   4.8984259957e+01    0.2290615    0.1700779  54.75 0.0006900933    1.740    0.425
       149 -11.4225     67.4901     96.4730   1.0731887293e+02   4.9114183216e+01    0.5452132    0.3414425 -17.72 0.0006778394    2.141    0.533
       150 -10.1499    120.8297    101.2665   9.2722127646e+01   3.8521838106e+01    0.2870504    0.1977488 -16.72  0.001175671    2.032    0.508
       151  -9.6548    210.1163     97.6620   7.3038843257e+01   1.9503365420e+01    0.2496382    0.2206586 -68.40    0.0010945    1.012    0.012
       152 -10.5789    139.0910     94.2105   8.6195275125e+01   3.6016901198e+01    0.5543849    0.4069539  69.24  0.001453727    1.597    0.374
       153  -9.9875     42.5730     94.7460   1.1524628806e+02   5.2691732655e+01    0.3121243    0.2623116 -33.87  0.001136734    1.041    0.039
       154 -10.2952    117.4889     93.0173   9.1356193914e+01   4.0884020586e+01    0.3973651    0.2747588  28.32  0.001315139    1.666    0.400
       155 -10.6988    120.1563     85.5310   8.8548416008e+01   4.1771569603e+01     0.439738    0.2811978  43.49  0.002023547    1.543    0.352
       156 -11.1100    125.1869     93.4187   8.9440001415e+01   3.9190253147e+01    0.6321969    0.3543496  44.39  0.001461264    1.778    0.438
       157 -10.4034    121.9964     89.0088   8.9045346592e+01   4.0723300115e+01    0.5092273    0.2748087  37.85  0.002104778    2.000    0.500
       158  -9.7877    160.1831     93.3048   8.1200435381e+01   3.1449511954e+01    0.5163684    0.2845928  73.58  0.001829982    3.015    0.668
       159 -10.6971    152.6100     91.8791   8.2467128845e+01   3.3437304844e+01    0.4388424    0.3444142  61.15  0.002217938    1.288    0.224
       160 -11.7655    102.1412     90.1640   9.4832000386e+01   4.4514754079e+01    0.4727668    0.3850054  -7.70 0.0006600445    1.388    0.280
       161  -9.2619    211.8031     88.0107   7.0635419444e+01   2.0865577866e+01    0.2093481    0.1643633 -11.46 0.0008449164    1.949    0.487
       162  -8.9376    200.4721     88.4642   7.2515478013e+01   2.3247043683e+01    0.1419759    0.1275174 -72.75 0.0008089186    1.007    0.007
       163 -10.4428    183.6200     85.5682   7.4704911388e+01   2.7529211357e+01    0.6662886    0.2479275 -49.42  0.002361853    2.829    0.647
       164  -9.8903    102.7424     81.0065   9.2015496188e+01   4.6154912921e+01    0.7960752    0.1959147 -37.54  0.002128862    5.154    0.806
       165 -11.0194    113.5842     83.3046   8.9663988832e+01   4.3554927707e+01    0.7739381     0.319378 -33.97  0.002736303    2.940    0.660
       166 -11.7489    109.3208     80.4630   9.0006956612e+01   4.4948476249e+01    0.7309533    0.5163007 -79.29   0.00264503    2.407    0.584
       167 -10.4770    165.8616     83.3934   7.7501345245e+01   3.1970422407e+01    0.4112049    0.3444288 -75.18  0.001705643    1.240    0.194
       168 -11.3770    143.1903     84.0216   8.2487743484e+01   3.7019985173e+01    0.3622034    0.3229704 -53.30  0.001985458    1.142    0.125
       169 -10.8524    127.0172     82.9436   8.6059714871e+01   4.0787217462e+01    0.3704661    0.3537645  47.86  0.002114834    1.025    0.025
       170 -10.3711    232.8048     77.3525   6.5461808651e+01   1.8284271700e+01    0.4413891    0.2499757 -51.85  0.002276922    1.542    0.351
       171  -9.5594     24.2730     74.0058   1.1654102443e+02   5.8803395810e+01    0.2091828    0.1458015 -44.14 0.0003772678    1.203    0.169
       172 -11.8791     14.1591     74.7418   1.2054241115e+02   5.9468264124e+01    0.5872456    0.4111251 -16.19  0.001963674    1.401    0.286
       173 -11.1698     14.2657     66.6170   1.1842668633e+02   6.1055187843e+01    0.3053371    0.2160781 -47.11 0.0005511299    1.218    0.179
       174 -11.8645      1.9135     71.3564   1.2437380313e+02   6.0936625857e+01    0.7096434    0.1401471 -58.08   0.00270721    3.548    0.718
       175 -12.2330      5.3081     62.7860   1.2095978660e+02   6.2401902001e+01    0.7468372    0.3565489 -30.76  0.003263591    1.901    0.474
       176 -10.8066     10.3389     62.7110   1.1893585032e+02   6.2082511044e+01     0.296419     0.234027 -37.26  0.001139482    1.071    0.066
       177  -9.2641    170.4926     77.9140   7.5220044497e+01   3.1862521004e+01    0.2103362    0.1389594 -42.06 0.0007400447    1.531    0.347
       178 -10.0316    143.1293    249.3131   1.1737953776e+02   9.7658328575e-01    0.2171921    0.1607389  21.54  0.001200036    1.435    0.303
       179 -10.1182     98.2448     62.8194   8.7795938268e+01   5.0182190164e+01    0.4826329    0.3025839   8.93  0.002095754    2.494    0.599
       180 -10.5606     93.8052     76.4872   9.3287919370e+01   4.8689364128e+01    0.5745794    0.3032093  28.64  0.001884371    2.322    0.569
       181 -11.7662     85.1986     73.5361   9.5021278333e+01   5.0783505878e+01    0.7066498    0.5456905  42.69  0.003392781    1.340    0.254
       182 -10.7661     78.7816     67.4963   9.5181935444e+01   5.2958837972e+01    0.4918508    0.3954894  52.98  0.002797675    1.501    0.334
       183 -10.9913     91.4519     62.6827   8.9735472694e+01   5.1500643089e+01    0.3635237    0.2957226  51.59  0.001023335    1.344    0.256
       184 -11.5686     89.1405     57.5187   8.8778191591e+01   5.2749655862e+01    0.5698827    0.4794186  42.02  0.002212752    1.194    0.163
       185  -9.8097     33.1780     77.4267   1.1413404474e+02   5.7287784190e+01    0.2194308    0.1559255 -41.77 0.0005081829    1.197    0.165
       186  -9.7098    134.5383     77.4474   8.2687672055e+01   4.0123179756e+01    0.3369904    0.1796562  59.29  0.001391604    2.069    0.517
       187  -9.9065    126.8678     76.9557   8.4402509730e+01   4.1892340895e+01    0.2343361    0.2006947  47.72 0.0003215485    1.129    0.114
       188 -12.0876    186.4795     70.7355   7.0652913916e+01   2.9399202449e+01    0.8385289    0.5976385 -46.09  0.003323483    1.384    0.278
       189  -9.8425    184.3379     61.4542   6.8779673637e+01   3.1349537843e+01    0.2633577    0.2325812 -51.87 0.0009786051    1.176    0.150
       190  -9.6930     66.4576     74.1495   1.0131764952e+02   5.3742523692e+01    0.2744312    0.2082474 -65.81  0.001030066    1.868    0.465
       191  -9.5939    151.3069     73.7027   7.7930373518e+01   3.6982613862e+01    0.3443706    0.1824703  43.18  0.001453194    2.034    0.508
       192 -11.9014     40.7643     70.1252   1.0926781995e+02   5.7896462722e+01    0.5237548    0.2677808 -47.23  0.001542252    1.779    0.438
       193 -11.2751     32.5371     71.9459   1.1286799309e+02   5.8429067824e+01    0.5265999    0.2574453  25.61  0.002634102    2.182    0.542
       194  -9.9230    123.1943     72.9379   8.4163415631e+01   4.3380566874e+01    0.3862015    0.3146238 -58.75  0.001051315    1.394    0.283
       195 -11.5961    123.7722     68.5941   8.2759429029e+01   4.3982752680e+01    0.8527216    0.5099986  28.17  0.002801149    2.241    0.554
       196 -10.6134    120.3131     68.6879   8.3648513252e+01   4.4710902608e+01    0.2925775    0.2591572  72.09 0.0006928365    1.240    0.194
       197 -10.0325    161.9387     70.7006   7.5003498584e+01   3.5038828896e+01    0.3255119    0.2414915  79.43  0.001126057    1.464    0.317
       198 -10.6687    171.6705     66.9605   7.2250383450e+01   3.3398542086e+01    0.5692722    0.3041361 -51.58  0.002533975    1.988    0.497
       199 -11.3956    219.8963     66.5336   6.4855026377e+01   2.2697033318e+01    0.6307355    0.3145352  61.26  0.002712053    2.020    0.505
       200  -9.2522    208.2710     68.5197   6.6843589363e+01   2.4887845360e+01    0.1805484    0.1210108  53.70 0.0009455685    1.627    0.385
       201  -9.4821     21.4718     65.2505   1.1523474639e+02   6.0737529026e+01    0.2674582    0.2231078  69.85  0.001359759    1.961    0.490
       202  -8.9869     25.6157     65.4214   1.1366706840e+02   6.0337380576e+01    0.1779511    0.1326012 -17.98 0.0004413674    1.196    0.164
       203  -9.6274    192.4903     65.7873   6.8534765460e+01   2.8827756195e+01    0.2665679    0.1893916 -80.53  0.000831218    1.498    0.332
       204  -9.3518    198.2334     63.0456   6.7047421287e+01   2.7965140415e+01    0.2698368    0.1636473 -59.12  0.001231355    1.667    0.400
       205 -10.4559    101.4225     56.5655   8.4941945079e+01   5.0529619708e+01      0.56005    0.3966804 -70.58  0.002237381    2.373    0.579
       206 -10.7728     23.2814     37.1409   1.0556332965e+02   6.5365096857e+01    0.4117139    0.3559994  84.71  0.002639204    2.463    0.594
       207  -9.4945    175.5064    246.4957   1.1019600014e+02  -3.7065126105e+00    0.1306132    0.1170551  23.03 0.0008102208    1.046    0.044
       208 -11.0544     58.2086     61.9479   1.0037700962e+02   5.7134284656e+01    0.4513549    0.4110795 -72.90  0.002198583    1.583    0.368
       209 -11.0496     34.2464     42.4330   1.0288850427e+02   6.3382123673e+01    0.6520647    0.2772105 -31.08  0.003156801    2.353    0.575
       210 -12.5922     43.5548     46.8464   1.0075921656e+02   6.1576817946e+01    0.7594862    0.6227671  40.54   0.00312838    1.577    0.366
       211 -11.2340     21.1104     47.2403   1.0992775710e+02   6.3968433649e+01    0.4780007    0.2725869 -20.95  0.002432148    1.676    0.403
       212 -12.5220     53.1084     30.8448   9.1372011562e+01   6.2518529192e+01     1.047072    0.2769508  40.43  0.001022061    3.513    0.715
       213 -12.5196     49.6688     60.4133   1.0297626796e+02   5.8565575190e+01    0.5793574    0.4321229  42.26  0.001342946    1.647    0.393
       214 -11.7275     25.4722     55.8795   1.1088514678e+02   6.2084394336e+01    0.9252948    0.5932552  14.14  0.005605769    1.578    0.366
       215 -10.8174     33.0630     58.4459   1.0867145585e+02   6.0871194096e+01    0.4446874    0.2498316  -2.85 0.0008933217    2.226    0.551
       216 -11.5954     39.7651     55.3798   1.0508733898e+02   6.0653384298e+01    0.4508704    0.3954706  60.22  0.002700192    1.797    0.443
       217  -9.2724    156.6495    246.3159   1.1409154875e+02  -6.5537321334e-01    0.1346565   0.09996597  64.30 0.0007047149    1.731    0.422
       218 -10.7007    159.4095     61.7666   7.3157486965e+01   3.7036081691e+01    0.4491111    0.2509381  43.46  0.002020359    1.985    0.496
       219  -9.5514    199.0704    244.5142   1.0509204111e+02  -6.9958387869e+00    0.1965011    0.1157897  34.12   0.00102952    1.587    0.370
       220 -10.3396    113.2477     60.8448   8.3110224530e+01   4.7459652530e+01    0.3702379     0.264573 -36.06  0.001379119    1.477    0.323
       221 -10.5459    127.5027    241.4978   1.1957417036e+02   5.0445262767e+00    0.2160613    0.1902239 -41.83  0.001152997    1.284    0.221
       222 -11.4290    113.0185     49.7504   7.9776091035e+01   4.9137213840e+01    0.5979775    0.4693827  24.64  0.002502941    1.340    0.254
       223 -12.5634    117.0850     43.1620   7.6771847021e+01   4.9156529593e+01     0.951066    0.6114094  87.64  0.004230952    2.767    0.639
       224  -8.8736    163.6782    243.3433   1.1215315019e+02  -1.2465371941e+00    0.1323116    0.1032366  68.81 0.0007050221    1.728    0.421
       225  -9.4722    147.3703     60.6287   7.5207990765e+01   3.9973227871e+01    0.3371827    0.1300143  59.91  0.001243707    2.670    0.625
       226  -9.0430     68.3302    240.3238   1.3196838000e+02   1.4447066930e+01    0.1190399    0.1020023 -29.30 0.0007050034    1.700    0.412
       227 -11.2968    140.1511     43.9471   7.2041096348e+01   4.3966275616e+01    0.9185325    0.4358821  36.79  0.000696706    2.934    0.659
       228 -10.7864    136.6082     56.3977   7.6283743835e+01   4.3042634050e+01    0.7174108    0.5840446 -28.93  0.003571337    1.360    0.265
       229 -11.5144    146.2035     46.2233   7.1498091950e+01   4.2293302475e+01    0.6517774    0.4260315 -15.90  0.003150764    2.132    0.531
       230 -10.5330    162.6658     43.9272   6.7955313222e+01   3.8826091473e+01    0.3283536    0.2799058  47.67  0.001809307    1.251    0.200
       231 -11.5529    156.0604     41.7980   6.8522141585e+01   4.0619592803e+01    0.4073326    0.3498808 -64.98  0.000965905    1.212    0.175
       232 -10.7510    153.2587     36.1555   6.7515721538e+01   4.1966727667e+01    0.2908695    0.2181718  75.82 0.0005711672    1.261    0.207
       233 -11.1879    157.5086     54.9920   7.1733478830e+01   3.8482733578e+01    0.5894006     0.453623  83.10  0.003240548    1.354    0.261
       234 -11.3040    155.1260     49.6569   7.0760995779e+01   3.9785439019e+01    0.3431363    0.2576176 -14.17 0.0004709541    1.776    0.437
       235  -9.9134     66.9965     54.8058   9.4971540633e+01   5.6987782383e+01    0.2504812    0.1778733 -41.02 0.0008446047    1.503    0.335
       236  -9.2998      1.8889     56.1458   1.2059728580e+02   6.3851684014e+01    0.1585678    0.1017922 -26.58 0.0006053679    1.305    0.233
       237  -9.8354    249.1252     52.8895   5.8851661126e+01   1.8815488122e+01    0.2901995    0.1874016  84.89  0.001319448    1.501    0.334
       238  -9.8203    244.5920     50.7796   5.8902690316e+01   2.0004396851e+01    0.2515545    0.1553764 -54.19  0.001492631    1.357    0.263
       239 -11.0839    240.3368     50.4282   5.9263691183e+01   2.0898076907e+01    0.4013908     0.321555 -32.67  0.002276179    1.643    0.391
       240  -9.6567    188.0041     55.1229   6.6717952755e+01   3.1461628917e+01    0.3387616    0.1661985  60.00  0.001562024    1.911    0.477
       241 -10.0373    106.3989     63.8605   8.5843947908e+01   4.8395225932e+01    0.2768923    0.2672209  52.85  0.001372807    1.120    0.107
       242  -9.7524    211.2071     53.0006   6.3076239445e+01   2.6608220056e+01     0.234817    0.1535052  54.87  0.001283002    1.678    0.404
       243 -11.2777    201.9129     47.9469   6.3158030515e+01   2.9368042046e+01     0.712953    0.3894504 -47.93  0.003654994    1.746    0.427
       244 -10.9544    174.0633     48.1785   6.7179482387e+01   3.5633601174e+01    0.5591503    0.3263898  70.63   0.00263664    1.664    0.399
       245  -9.9928    176.5063     43.6881   6.5708209566e+01   3.5682344837e+01    0.3085807    0.2337547  87.04  0.001285617    1.261    0.207
       246 -10.3936     13.8379     46.4168   1.1272866920e+02   6.4733280540e+01    0.5428504    0.2136963 -21.61  0.002162434    3.951    0.747
       247  -9.9777     18.1626     41.5331   1.0927871106e+02   6.5166796938e+01    0.2854267    0.1795787 -13.97  0.001806337    1.446    0.308
       248  -9.5519     91.1252     47.9918   8.5088880920e+01   5.3781135771e+01    0.2592298    0.1649701 -37.41  0.001380349    1.690    0.408
       249 -10.8084    148.6660    237.7047   1.1445531184e+02   2.2932943804e+00    0.4085376    0.2307293  43.44  0.001715758    1.658    0.397
       250  -9.5675      2.1530     48.8280   1.1844820564e+02   6.5151541812e+01    0.4600156    0.1905328 -39.20  0.002273053    1.853    0.460
       251 -10.8628    197.9226    232.9949   1.0335121637e+02  -4.8468435130e+00    0.3749145    0.2839141 -64.99  0.002026374    1.949    0.487
       252  -9.7130     15.0837    233.7762   1.4192603349e+02   2.2491165996e+01    0.2226069    0.1460034 -76.02 0.0009834768    1.352    0.261
       253 -10.4027    242.4878    231.2397   9.4514504837e+01  -1.0982713385e+01    0.2631847    0.2260279 -84.35   0.00159979    2.219    0.549
       254  -9.8047    247.4646    231.1150   9.3603191906e+01  -1.1611035674e+01    0.1845139    0.1037988 -35.24 0.0008751323    1.572    0.364
       255 -10.5788      9.6027     21.7792   1.0595092163e+02   6.8860856475e+01    0.2420819    0.1719335 -35.63 0.0009451531    1.434    0.303
       256 -11.2058     31.0865     28.5893   9.9097370335e+01   6.5741100472e+01     0.340971    0.2408453 -25.35   0.00110595    1.284    0.221
       257  -9.3227     23.6896    231.5824   1.4011547483e+02   2.2031053033e+01    0.1600167   0.09582195  52.30 0.0009329997    1.498    0.332
       258  -9.5459      9.8402    227.4091   1.4246240977e+02   2.4424222709e+01    0.1330644     0.115549  26.17 0.0004835879    1.628    0.386
       259  -9.9351    234.1449    222.8959   9.4534266511e+01  -8.5020212678e+00    0.2061335    0.1365036  -6.12  0.000811829    1.655    0.396
       260 -11.0473     60.6766     36.1783   9.0654499868e+01   6.0676227013e+01    0.3232417    0.2041885 -25.65  0.001078833    1.575    0.365
       261  -9.5806    193.7004     45.9805   6.3800621637e+01   3.1471889090e+01    0.3332502    0.1798753 -83.95  0.001452673    2.511    0.602
       262 -10.4006    233.5668     45.0444   5.8914542558e+01   2.3025593040e+01    0.2509744    0.2032261  60.39 0.0009102914    1.497    0.332
       263 -10.5126    145.8860     52.1486   7.3184228166e+01   4.1552966018e+01    0.3310953    0.2819026  47.48  0.001231358    1.157    0.136
       264  -9.7443    101.2340     44.0460   8.1002188371e+01   5.2337313751e+01    0.2502584    0.2134253 -69.28  0.001076185    1.559    0.358
       265 -11.0365     94.7593     41.4032   8.1889733351e+01   5.3967088027e+01    0.5947468    0.2691618  49.22  0.002737868    2.023    0.506
       266 -10.7854    189.0977     41.5754   6.3415741868e+01   3.3101870480e+01     0.419227    0.1953257 -32.11 0.0007655582    2.554    0.608
       267  -8.8719     86.4934     30.9851   8.0679640459e+01   5.6831513750e+01    0.4667837    0.2896777  -2.71  0.002457167    2.069    0.517
       268 -10.8974     81.0256     39.9156   8.5361382885e+01   5.6747473504e+01    0.5651684    0.3206002  48.35  0.002959002    1.730    0.422
       269 -10.7205     77.6263     34.3062   8.4444494704e+01   5.8068191302e+01    0.4433565    0.2441479  43.45 0.0009759083    1.634    0.388
       270 -10.2992     81.5355     31.0803   8.2139229257e+01   5.7745496980e+01    0.3394795    0.2048752 -47.45  0.001779237    2.329    0.571
       271 -10.2970    231.5578     39.2565   5.7992162498e+01   2.4229132390e+01    0.2655813    0.1711971 -58.92 0.0009259917    1.332    0.249
       272  -9.1501    217.7245     38.9819   5.9377409023e+01   2.7156952535e+01    0.1770398    0.1423438 -71.22 0.0006020752    1.065    0.061
       273 -10.0270    182.3104     32.1722   6.2151012553e+01   3.5830094339e+01    0.2307266     0.175313  49.42 0.0008129814    1.479    0.324
       274 -11.4309    183.4383     24.9677   6.0343171260e+01   3.6428548733e+01    0.6235465    0.2801721  52.87  0.002967957    2.265    0.558
       275  -9.5313      9.6495    217.8131   1.4179581479e+02   2.6575270152e+01    0.1763409   0.09129637 -87.56 0.0009447385    1.663    0.399
       276 -11.1229    176.5266     36.8983   6.4067232177e+01   3.6556984183e+01    0.4248416    0.3583553 -62.37  0.002350098    1.187    0.157
       277 -10.9495    176.2981     30.3268   6.2528249138e+01   3.7412789960e+01    0.7083786    0.2577263  46.82  0.002628664    3.631    0.725
       278  -9.6082    133.4309     37.1253   7.1440087977e+01   4.6331527648e+01    0.3519311    0.2230065 -70.38  0.001674989    2.368    0.578
       279  -9.7616    206.8458     37.0365   6.0192123609e+01   2.9758278224e+01    0.2152935    0.1623091  83.09 0.0007387875    1.158    0.136
       280 -10.5590    240.4496     32.5832   5.5887264081e+01   2.3316572498e+01    0.4449868    0.3119238 -71.13  0.002938671    1.146    0.127
       281 -10.6510     27.4146     47.2394   1.0731850432e+02   6.3359162890e+01     0.460012    0.2474416  -7.84 0.0008779372    2.305    0.566
       282 -10.2281    165.1945    212.2515   1.0655572593e+02   4.5948918650e+00    0.2868174     0.199632  73.85  0.001253459    2.335    0.572
       283  -9.5054    152.7951    207.8076   1.0851627949e+02   7.7516513750e+00     0.200661    0.1735565  69.58 0.0007677681    1.314    0.239
       284  -8.7042     61.4600    207.4383   1.2969787623e+02   2.2909421014e+01    0.1371895    0.1189989  83.82 0.0001545128    1.005    0.005
       285 -10.8182    145.1422     24.8451   6.5865533116e+01   4.5100822700e+01    0.5554324    0.3304545  58.39  0.003028181    1.432    0.302
       286 -11.2118    147.7059     31.5837   6.7246871569e+01   4.3771922127e+01    0.2719722    0.2589853 -88.84 0.0007446548    1.113    0.102
       287 -11.1856    154.2186     25.7377   6.4627825596e+01   4.2952687612e+01    0.6503704    0.3140937  51.04  0.003172146    1.933    0.483
       288 -10.2467    156.9220     20.6173   6.2898137432e+01   4.2889021312e+01    0.4574179     0.220366  62.94  0.002297762    1.738    0.425
       289 -10.7796      4.6781    203.6195   1.4169844181e+02   3.0281101433e+01    0.6843945   0.08792099 -63.82  0.002288588    4.492    0.777
       290 -12.2760      5.2406    185.0967   1.4001231716e+02   3.4569533852e+01    0.8598213    0.4891747  89.55  0.004441421    1.557    0.358
       291 -12.0867    105.7618     32.9935   7.6293439997e+01   5.2781797666e+01    0.6530914    0.3514017  19.50  0.002743311    3.124    0.680
       292 -10.7766    245.4689    200.8459   8.8408709853e+01  -6.3716629796e+00    0.2149298    0.1788301  18.91 0.0006840598    1.280    0.219
       293 -10.1615     68.5353     32.8906   8.6812530845e+01   5.9819000110e+01    0.4214855    0.2543412  32.70  0.002399527    1.490    0.329
       294  -9.8609    248.4849     33.5318   5.5357820116e+01   2.1614073411e+01    0.2200907    0.1657775 -70.07  0.001525061    1.033    0.032
       295  -9.3878    216.4352     32.4342   5.8181236355e+01   2.8285364825e+01    0.1828147    0.1512735  10.95 0.0008992371    2.130    0.531
       296  -8.6360    207.3238    201.3339   9.5628397216e+01  -5.2009300193e-01    0.1460155     0.102761  -8.68 0.0007050784    1.709    0.415
       297 -10.7013    189.3380     28.8385   6.0489155824e+01   3.4654020436e+01    0.4790149    0.2745965 -33.01  0.002321863    2.029    0.507
       298 -10.0134    233.9292    197.5196   8.9827918390e+01  -4.0744434296e+00    0.3104427    0.1785045 -41.38  0.001566897    1.562    0.360
       299  -9.3783    210.8573     30.2630   5.8326569506e+01   2.9753301229e+01    0.2157427    0.1417303 -56.64 0.0008758929    1.399    0.285
       300  -9.6561    221.2514     29.4294   5.7088855724e+01   2.7647865855e+01     0.206465    0.1493278 -52.14 0.0005869745    1.319    0.242
       301 -10.8380     98.5205     27.5395   7.6309393495e+01   5.4867797198e+01    0.3629262    0.2764094 -54.33 0.0006567548    1.762    0.432
       302  -9.9938    230.3270     27.3964   5.5829588985e+01   2.6022057339e+01    0.3005423    0.1625068 -44.57  0.001184747    1.745    0.427
       303 -10.1660    250.5430     26.1236   5.3867810013e+01   2.2171082279e+01    0.2734137   0.09607553 -40.71 0.0008335975    2.632    0.620
       304  -8.6504     41.6155     27.1546   9.4293605320e+01   6.4607354463e+01    0.1401796   0.09278064 -14.47 0.0002758156    1.399    0.285
       305 -10.7108    214.5053     23.4708   5.6568242687e+01   2.9803278615e+01    0.3629122    0.2968647 -25.93  0.002411873    1.717    0.418
       306 -10.1670    211.3174     18.8494   5.5952000157e+01   3.1023586113e+01    0.2100886    0.1604283  83.02 0.0002711148    1.121    0.108
       307  -9.3407    169.5841     23.8441   6.1893656258e+01   3.9677713946e+01    0.2190689    0.1487682  61.21 0.0007983843    1.314    0.239
       308 -10.6752    237.9383    204.2406   9.0383934582e+01  -5.8677297008e+00    0.3006763    0.2744879   0.42  0.001965113    1.150    0.130
       309 -10.0530     80.8943     19.2164   7.8124370149e+01   5.9144606579e+01    0.3455814    0.1559563  47.43  0.001272229    1.859    0.462
       310  -9.8952    169.6538    191.5117   1.0164321665e+02   8.1948852362e+00    0.3737737    0.2082659  29.04   0.00110453    2.112    0.527
       311  -9.9555     86.2872     23.6772   7.8205193184e+01   5.7674731051e+01     0.190649    0.1620532  80.32 0.0001839911    1.616    0.381
       312  -8.5585    237.6378    188.3041   8.7381599152e+01  -2.9758144801e+00    0.1258631    0.1057608 -78.04 0.0007037818    1.731    0.422
       313  -9.5752    239.6703    184.7905   8.6339841281e+01  -2.6506402937e+00    0.1801428     0.153209 -13.28 0.0006753171    1.139    0.122
       314 -10.5209     46.9588     18.8307   8.8983419838e+01   6.4848240298e+01    0.2911372    0.2067773   8.58  0.001382181    1.218    0.179
       315 -10.0747    212.8563    180.9934   9.0513245529e+01   2.5057430352e+00    0.3084046    0.1882161   9.38  0.001220964    2.871    0.652
       316  -9.4982    250.0173    179.4794   8.3546199799e+01  -3.2749481403e+00    0.3016533    0.1369665 -30.67  0.001268682    2.416    0.586
       317  -9.7436    100.9754    175.9946   1.1519616079e+02   2.4573135201e+01    0.2115522    0.1991295 -87.23            0    1.017    0.017
       318  -9.9517    242.1808     22.0953   5.3824133678e+01   2.4299120782e+01    0.1997658    0.1388012  87.08 0.0007400493    1.226    0.184
       319  -9.0642    223.4705     22.4419   5.5509556347e+01   2.8043639234e+01    0.1854659    0.1146853 -73.81  0.000743601    1.439    0.305
       320  -9.5209    221.0131     19.0410   5.5076699200e+01   2.8958399526e+01    0.1941768    0.1362267 -66.42            0    1.213    0.176
       321  -9.4038     28.4891    176.0298   1.3364850013e+02   3.4589886333e+01    0.1965857    0.1756728  60.51  0.001253005    1.214    0.176
       322  -8.8993    230.4334    175.4688   8.6129081962e+01   5.7434831074e-01    0.1388122    0.1197235 -31.44   8.0416e-05    1.016    0.015
       323  -9.4380     57.2757    174.9929   1.2629870080e+02   3.1483300891e+01    0.1979161     0.167434 -72.94  0.000434451    1.052    0.050
       324 -10.0311    247.5471    173.8748   8.2865583402e+01  -1.8849038725e+00    0.3932849     0.192987  25.29  0.001561728    3.524    0.716
       325  -9.7176     39.5067    173.5002   1.3059951969e+02   3.4029081446e+01    0.2565078    0.1515919 -59.52 0.0008376165    1.494    0.331
       326 -10.4006     35.9861    170.6647   1.3111024218e+02   3.5128094640e+01    0.4042825    0.2324885  85.87  0.001868542    2.019    0.505
       327  -9.8289     51.7145    172.9453   1.2742105727e+02   3.2713074181e+01    0.2663937    0.1779552 -85.50  0.001321518    1.534    0.348
       328  -8.5682    170.6635    172.2742   9.7490100812e+01   1.2241852569e+01    0.1507061    0.1213146  81.36 0.0004179391    1.605    0.377
       329  -8.7881      1.4639     20.5784   1.0935383638e+02   6.9686682893e+01    0.1083479   0.07632345 -15.25 0.0002966523    1.032    0.031
       330 -10.1960      8.8496    155.9328   1.3615517071e+02   4.1298488045e+01    0.2749957    0.1810035 -61.58   0.00160799    1.268    0.211
       331  -9.8165    206.3451     18.1522   5.6301179747e+01   3.2167395213e+01    0.3385897    0.1652604 -73.63  0.001638926    2.361    0.576
       332 -11.7319      9.7861    166.3301   1.3709400483e+02   3.8699449983e+01    0.6208835    0.4072896 -70.53  0.002853513    1.221    0.181
       333 -10.7293     13.9557    157.8104   1.3507860234e+02   4.0428542999e+01    0.4903207    0.1988229 -71.38  0.002150764    2.043    0.510
       334  -9.0642    197.8301    167.8702   9.0769944461e+01   7.9234886203e+00     0.200903    0.1704879 -65.00 0.0007624236    1.307    0.235
       335 -10.0160     40.3779    165.8230   1.2932115935e+02   3.5853614227e+01    0.3808487    0.1477529 -63.95  0.001549436    2.163    0.538
       336 -10.1265     18.8919    165.3378   1.3473678750e+02   3.8153787763e+01    0.2779977    0.2715179 -21.66  0.001764104    1.295    0.228
       337 -10.0740    188.6889    164.3251   9.1894736347e+01   1.0438988484e+01    0.2885167    0.2450948 -24.28 0.0008286855    1.226    0.185
       338  -9.0950    115.7574     17.4118   6.9162656511e+01   5.2311985226e+01    0.1835853   0.09387531  50.76 0.0009522003    1.618    0.382
       339 -10.2681     28.3254    162.4735   1.3198181265e+02   3.7966073783e+01    0.5439879    0.1489206 -66.26  0.001950262    2.942    0.660
       340  -9.7226    219.8478     12.6235   5.3943659009e+01   2.9934950482e+01    0.3092345    0.1135085  67.88  0.001522407    2.342    0.573
       341  -9.9644    204.9667    163.0332   8.8327799979e+01   7.5752746306e+00    0.4439067     0.247096  55.81  0.001847197    2.318    0.569
       342  -9.3465    208.3617    160.7907   8.7195463976e+01   7.3951576778e+00     0.305196    0.2052152 -41.17  0.001477727    1.363    0.266
       343  -9.6244     79.8986    159.9648   1.1779219564e+02   3.2064626843e+01    0.2881442    0.2060203 -69.41  0.001384657    1.381    0.276
       344  -9.5940    215.5751    158.1655   8.5280841963e+01   6.5794572366e+00    0.2967927    0.1685762 -32.16  0.001271206    1.894    0.472
       345 -10.5731    104.8883    154.4890   1.0993501178e+02   2.9257429691e+01    0.5276989    0.3893417 -60.28  0.002487099    1.327    0.246
       346  -8.9312    223.6906    156.6765   8.3495408291e+01   5.3892673500e+00    0.1418452    0.1071168 -12.55 0.0007037169    1.651    0.394
       347 -10.7973     10.6468    127.3757   1.3188644387e+02   4.8042470598e+01    0.6026224    0.2113518 -54.77  0.002211793    2.138    0.532
       348 -12.1442     22.6656    149.3371   1.3169071608e+02   4.1752750818e+01    0.7659785    0.3888615 -45.72  0.003227782    1.993    0.498
       349 -11.0767     15.3884    147.6454   1.3341755297e+02   4.2792982612e+01    0.4310373    0.3022065  88.67  0.001442109    1.423    0.297
       350 -11.5423     12.3367    139.1016   1.3309258257e+02   4.5108823875e+01    0.8021798    0.4791929 -74.23  0.004195076    1.446    0.308
       351 -10.8896     31.3255    152.7514   1.2983887263e+02   4.0084568603e+01    0.5890567    0.3198605 -77.67  0.002764407    1.825    0.452
       352 -10.1513      3.3571    152.7801   1.3718724198e+02   4.2472139453e+01    0.3106988    0.1756274  72.54  0.001597627    2.055    0.513
       353 -11.5145      3.7440    147.4021   1.3646416631e+02   4.3738007504e+01    0.5143476     0.433241  66.73  0.003455145    1.304    0.233
       354 -11.2620      5.1723    141.7634   1.3539669064e+02   4.4991868320e+01    0.3967239    0.2780806  27.23  0.002087089    1.751    0.429
       355 -11.7642      3.9849    136.8094   1.3508520729e+02   4.6258309282e+01    0.2814622    0.1860827 -55.33 0.0002260102    1.277    0.217
       356  -9.0697    141.3101    153.2940   1.0025770096e+02   2.2522868064e+01    0.1560424    0.1259015  -9.14 0.0001950296    1.590    0.371
       357 -10.2731     70.7569    151.7781   1.1877702367e+02   3.5505720098e+01    0.2957334    0.2736334  56.62  0.001669331    1.151    0.131
       358 -10.0490     48.1378    151.7290   1.2507374299e+02   3.8501342072e+01    0.3248261     0.254276  22.37  0.001093188    1.520    0.342
       359 -10.9610     47.3741    146.3901   1.2438749807e+02   3.9930620492e+01     0.567066    0.3024234 -64.04  0.002058497    1.661    0.398
