#   1 NUMBER                 Running object number                                     
#   2 MAG_AUTO               Kron-like elliptical aperture magnitude                    [mag]
#   3 X_IMAGE                Object position along x                                    [pixel]
#   4 Y_IMAGE                Object position along y                                    [pixel]
#   5 X_WORLD                Barycenter position along world x axis                     [deg]
#   6 Y_WORLD                Barycenter position along world y axis                     [deg]
#   7 A_WORLD                Profile RMS along major axis (world units)                 [deg]
#   8 B_WORLD                Profile RMS along minor axis (world units)                 [deg]
#   9 THETA_WORLD            Position angle (CCW/world-x)                               [deg]
#  10 FWHM_WORLD             FWHM assuming a gaussian core                              [deg]
#  11 ELONGATION             A_IMAGE/B_IMAGE                                           
#  12 ELLIPTICITY            1 - B_IMAGE/A_IMAGE                                       
         1 -11.0126      5.0644     39.4677   8.3079692285e+01   6.6773449434e+01    0.5905749    0.1400789 -63.54  0.002304124    3.756    0.734
         2 -10.4906     40.9498     13.9630   5.7268265706e+01   6.8307858067e+01    0.1791213    0.1379813 -11.89 0.0003210038    1.024    0.023
         3  -8.9686     54.7122    250.6588   9.6602452568e+01   1.7748643608e+01   0.08612612   0.08122689 -85.24  0.000402545    1.643    0.391
         4  -9.2038     13.5293    250.5366   1.0299404778e+02   2.2457373324e+01    0.1003882   0.06626287  69.62 0.0001340318    1.023    0.023
         5 -11.1956    162.1118    225.5987   7.4633923068e+01   5.4767737442e+00    0.4412431    0.3074796  21.50  0.002478751    1.714    0.417
         6 -10.8799     87.1041    227.1879   8.9136581224e+01   1.7461863679e+01    0.3033843    0.1503438  34.04  0.001523241    2.381    0.580
         7 -10.5414     98.9331    225.2762   8.6730642149e+01   1.6039352712e+01    0.3172666    0.1932288  38.09  0.001094251    1.644    0.392
         8  -9.7464    193.1807    225.3942   6.8689573828e+01   8.2372614866e-02       0.1825     0.101417  48.24 0.0005374593    1.693    0.409
         9  -8.9647    171.2816    225.6927   7.2888742577e+01   3.8583409856e+00    0.1204749   0.09161264  65.09 0.0002377443    1.560    0.359
        10 -10.3356     60.9500    223.7256   9.3624840494e+01   2.1711267547e+01    0.2789461    0.0837478  50.65  0.001275153    2.632    0.620
        11 -10.9796    126.2194    220.5418   8.0929984520e+01   1.2502529454e+01    0.2644086    0.1902442  60.30 0.0006964129    1.248    0.199
        12  -9.6952     75.0506    219.4994   9.0666669832e+01   2.0606198840e+01    0.1813415   0.09734013  45.93  0.001028882    1.584    0.369
        13  -9.1001    143.5045    216.5341   7.6992298775e+01   1.0234693859e+01    0.1317884    0.1090165  49.85 6.186158e-05    1.002    0.002
        14  -9.1949     99.6697    216.3080   8.5624037246e+01   1.7575858325e+01     0.132452   0.07933727  66.72 0.0006084523    1.663    0.399
        15  -9.3193    131.3229    214.3441   7.9118058275e+01   1.2738135701e+01    0.1225955    0.1009595   8.39 0.0007050338    1.733    0.423
        16  -9.6922     77.9706    211.2260   8.9320285915e+01   2.1781940758e+01    0.2812518    0.1165635  43.25  0.001376593    2.075    0.518
        17 -10.0288    100.1687    206.7746   8.4429955902e+01   1.9320159070e+01    0.2273801    0.1107179  67.93 0.0009471693    2.830    0.647
        18 -10.0154     57.1293    205.3421   9.2805830531e+01   2.5752957677e+01    0.2682713   0.09087078  56.61   0.00114825    2.917    0.657
        19 -10.8839     88.8247    198.3712   8.5757608301e+01   2.2748667089e+01     0.345708    0.1873387  79.50  0.001595442    2.417    0.586
        20 -10.3661    126.5234    197.4245   7.7742360810e+01   1.6737989758e+01    0.2396385    0.2067409 -48.60  0.001447293    1.383    0.277
        21 -10.9366    113.2643    198.1265   8.0630814365e+01   1.8885383865e+01      0.36862    0.1779047  58.07  0.001608956    2.243    0.554
        22 -10.5366    105.5147    197.9855   8.2236899209e+01   2.0198759362e+01    0.2526097    0.1639114 -65.48 0.0008939645    1.638    0.389
        23 -10.8851    172.9422    195.4575   6.7731401171e+01   8.4949834336e+00    0.2357936    0.1979064 -81.31  0.001329805    1.550    0.355
        24 -10.7186     78.3610    193.1192   8.7325250567e+01   2.5373983283e+01    0.3056803    0.1661973  69.23  0.001393198    2.000    0.500
        25 -10.1361     44.1457    193.1063   9.4284983001e+01   2.9823023684e+01    0.2912121    0.1333844  72.98  0.001421659    2.360    0.576
        26 -10.0787     67.0753    194.8577   8.9840722007e+01   2.6584391276e+01     0.292036     0.140672  68.87  0.001360621    2.377    0.579
        27 -11.8252     88.5784    189.4861   8.4737221532e+01   2.4619963610e+01    0.4595029    0.1893809  45.49  0.002061401    2.148    0.534
        28 -12.2508     96.9849    187.5063   8.2674181658e+01   2.3725191026e+01      0.60077    0.2405452  43.50   0.00258947    2.236    0.553
        29 -12.3853     93.5535    182.6586   8.2773679626e+01   2.5294426972e+01    0.4608739    0.3871304  86.24  0.001929702    1.091    0.083
        30 -10.6571     55.5235    187.1513   9.1439755907e+01   2.9699032755e+01    0.3542184    0.1487502  63.28  0.001561334    2.707    0.631
        31 -11.9287    110.5479    185.8318   7.9487026741e+01   2.1841952790e+01    0.4605432    0.3256445  61.60  0.002041653    1.335    0.251
        32  -8.7718      7.6654    187.6798   1.0089749349e+02   3.4642815314e+01   0.09924921   0.07300825 -59.68 0.0007049546    1.702    0.412
        33  -9.7079     34.8298    187.2340   9.5644611865e+01   3.2087398161e+01    0.2176374   0.08525313  66.86 0.0009642538    2.891    0.654
        34 -10.0851     66.4923    184.9792   8.8915617531e+01   2.8741477805e+01    0.2384704    0.1399367  71.42 0.0009905542    1.709    0.415
        35 -11.3342     74.6030    183.3633   8.6995836312e+01   2.7971823512e+01    0.3068288    0.1935017  84.37  0.001295098    1.626    0.385
        36 -11.0840     84.1492    182.3654   8.4798845008e+01   2.6799659088e+01    0.2735458    0.1679801  67.23  0.001215942    1.658    0.397
        37  -9.0987    197.6775    182.3568   6.0289119262e+01   5.9408013150e+00    0.1368536    0.1127366  84.32 0.0007045359    1.766    0.434
        38  -9.8984     44.6198    182.2694   9.3229848148e+01   3.2045248174e+01    0.2215222    0.1197729  53.63  0.001223237    1.664    0.399
        39  -9.9909     25.4543    181.5922   9.7067356961e+01   3.4240184761e+01     0.222279    0.1801932  76.44  0.001636151    1.124    0.110
        40 -12.3173     78.9440    176.1099   8.5149040192e+01   2.8923912304e+01    0.5565787    0.2553186  57.49  0.002168971    2.348    0.574
        41 -10.8991     60.1251    176.6485   8.9365611950e+01   3.1376559000e+01    0.3017049    0.1671603  63.71  0.001398553    1.787    0.441
        42  -9.0093     13.6834    177.0287   9.9071803044e+01   3.6304079449e+01    0.1933012   0.06287038  81.79 0.0007048387    4.333    0.769
        43 -11.0391    106.5683    175.2958   7.8802680645e+01   2.4750032986e+01    0.4153215    0.2240545  62.01  0.001620772    2.170    0.539
        44 -11.3221     89.2042    177.3453   8.3018346821e+01   2.7117514910e+01    0.2944926    0.2100611  60.40  0.001332678    1.289    0.224
        45  -9.8479     34.6697    173.3412   9.4495181170e+01   3.5060022150e+01    0.1996636    0.1082951  69.78   0.00110443    1.751    0.429
        46  -9.8674    135.7831    171.8499   7.1585179868e+01   2.0196837505e+01    0.2055618    0.1634346  72.32  0.001073637    1.343    0.255
        47  -9.8403     45.1882    171.9897   9.2117619171e+01   3.4203866010e+01    0.2105449    0.1120291  77.93  0.001074918    1.957    0.489
        48 -11.7630    122.8555    169.8553   7.4190560872e+01   2.3044586248e+01     0.536869     0.285136  57.61  0.001941488    2.107    0.525
        49 -10.9262     55.2906    169.2326   8.9601672459e+01   3.3616612367e+01    0.3292145    0.1877262  84.87  0.001521817    1.822    0.451
        50 -10.8971     88.9124    168.6365   8.1858789139e+01   2.9079677550e+01    0.2628557    0.1877617 -81.57 0.0009038824    1.390    0.281
        51 -10.2405    112.1280    167.3006   7.6245283352e+01   2.5528681705e+01    0.2742455    0.1765284  86.59  0.001228111    2.088    0.521
        52 -10.7287     74.9112    167.7901   8.4974343686e+01   3.1345385642e+01    0.2666556    0.1524718  82.36  0.001239945    2.128    0.530
        53 -11.5420     99.6281    166.0512   7.8968286514e+01   2.7939231207e+01    0.5269854    0.2402186  56.03   0.00209351    2.519    0.603
        54 -10.4828    140.0425    165.4180   6.9434789779e+01   2.0715714744e+01    0.3916405    0.2278783  64.71   0.00157725    2.319    0.569
        55 -12.5124     79.7565    162.5300   8.3117953346e+01   3.1832033503e+01    0.8583611    0.3945396 -83.76  0.003015956    3.729    0.732
        56  -9.3791     20.7529    166.3194   9.6829065506e+01   3.7946377251e+01    0.3078399   0.06324103  47.73  0.001204996    4.122    0.757
        57  -9.8211    217.7828    165.3961   5.2886161293e+01   4.7932274086e+00    0.2036147    0.1230373  33.57 0.0002569008    1.645    0.392
        58 -10.9872     70.1385    162.6198   8.5391349545e+01   3.3174109104e+01    0.3411835    0.1916556 -85.55  0.001456834    1.983    0.496
        59  -9.6957     47.6690    163.6682   9.0691939472e+01   3.5762861613e+01    0.2640359    0.1270525  85.27  0.001181007    2.508    0.601
        60  -9.7056     38.2328    164.4528   9.2883414171e+01   3.6630680426e+01    0.1629102   0.09616963  53.12 0.0008807825    1.612    0.380
        61 -11.8913     93.6761    159.9890   7.9419039856e+01   3.0270665495e+01    0.5012947      0.32875  73.11  0.002043608    1.743    0.426
        62 -10.5728    154.0652    160.9691   6.5364025533e+01   1.8817324295e+01    0.3342221    0.1783118  37.76  0.001369879    1.907    0.476
        63 -10.7657     62.2560    160.1930   8.6919122121e+01   3.4771229859e+01    0.3451899    0.1941741  80.78  0.001650007    2.082    0.520
        64  -9.6122      8.9803    159.9598   9.8815283975e+01   4.0327041024e+01    0.3106992    0.1022317  81.74  0.001148237    4.323    0.769
        65 -10.4714    144.2680    159.4611   6.7310452118e+01   2.1127879427e+01    0.3089683     0.225659  66.85  0.001311332    1.556    0.357
        66  -9.5117     31.8085    160.0099   9.3871025219e+01   3.8276052377e+01    0.2112581    0.1081317  77.70  0.001079899    2.026    0.506
        67 -12.1332    106.8205    158.1900   7.5956851588e+01   2.8479914594e+01     0.604062    0.2903631  54.56  0.002316165    2.300    0.565
        68  -9.4077     23.0109    159.0052   9.5721810388e+01   3.9335916597e+01    0.1999995    0.1099794  71.12  0.001134248    1.731    0.422
        69 -11.6246    120.2130    155.8942   7.2313308349e+01   2.6582744300e+01    0.4052657    0.2748531  83.13  0.001683937    1.974    0.493
        70 -12.3225     82.0346    153.8626   8.1274410535e+01   3.3474459611e+01    0.6323698    0.3721988  81.41  0.002385629    2.255    0.557
        71 -11.0837     78.3998    146.5479   8.1017752890e+01   3.5703585495e+01     0.306884    0.2139582  80.85  0.001482398    1.560    0.359
        72 -11.3102     50.0919    154.7934   8.9106463630e+01   3.7487533451e+01    0.4575094    0.2462132  74.26   0.00221539    2.150    0.535
        73 -10.5369    146.1003    155.3671   6.6062942949e+01   2.1620828827e+01    0.3083757      0.17443  55.41  0.001270001    1.910    0.476
        74 -12.1008     69.3314    153.4566   8.4314768030e+01   3.5377308682e+01    0.5800792    0.3185454  60.82  0.002388264    2.017    0.504
        75 -11.1836    133.9707    153.2068   6.8490630538e+01   2.4529712881e+01    0.4274188    0.2813492  72.66  0.001814349    2.070    0.517
        76 -11.1727     91.5682    151.2541   7.8501871080e+01   3.2603642053e+01     0.383269    0.2455722  84.95  0.001546271    1.964    0.491
        77 -11.2787     99.0208    150.7815   7.6571604675e+01   3.1493914270e+01    0.3123732    0.2396372  66.76  0.001058015    1.319    0.242
        78  -9.6825    190.2568    150.2970   5.5135799577e+01   1.3220209267e+01    0.3012232     0.186988  67.35  0.001175738    2.467    0.595
        79 -10.1657     28.8043    149.3445   9.3488920336e+01   4.0951148260e+01    0.3087368    0.1355363  89.90  0.001404285    2.496    0.599
        80  -9.7101    143.1973    149.2224   6.5475826894e+01   2.3529385741e+01    0.2117361    0.1767531  80.94 0.0007926461    1.342    0.255
        81 -10.7730     40.0522    147.7318   9.0653452954e+01   4.0204136536e+01    0.4308133    0.2170529  67.02  0.002073962    2.305    0.566
        82 -12.8502    108.1200    145.2167   7.3273791167e+01   3.1199396697e+01    0.8300118    0.4719373  71.08  0.003130015    2.838    0.648
        83  -9.5175     13.4627    145.9478   9.6698333905e+01   4.3032387655e+01    0.1679345   0.07508548  79.59 0.0007523712    2.395    0.582
        84 -12.2105    125.6490    143.0622   6.8453792569e+01   2.8413409414e+01    0.6443971    0.4168165  85.08  0.002560612    2.481    0.597
        85 -12.3361     88.4467    142.9111   7.7850459363e+01   3.5031827373e+01    0.6379582     0.328259 -65.24  0.002539044    1.958    0.489
        86  -9.2113    166.3281    144.6534   5.9101042561e+01   1.9563786173e+01    0.1584747    0.1224572  88.65 0.0007049988    1.753    0.430
        87 -10.2218    138.7602    144.6083   6.5563287655e+01   2.5442908527e+01    0.2217904    0.1367696  53.70 0.0009490131    1.669    0.401
        88 -11.6557     56.4184    145.4281   8.6358821384e+01   3.8892892708e+01    0.6453323    0.3289526  71.83  0.002608327    2.704    0.630
        89 -11.9711     69.0407    138.4357   8.2100296054e+01   3.8912961197e+01    0.6908813    0.3019178 -77.56  0.002495667    3.282    0.695
        90 -10.5669     81.4623    139.0211   7.8969864703e+01   3.7011570263e+01    0.3185517    0.2073158  86.34  0.001505037    1.881    0.468
        91  -9.3028    173.6489    139.3062   5.6232452479e+01   1.9030601590e+01    0.1577268     0.123604  86.07 0.0007042286    1.709    0.415
        92 -10.5879     23.0964    136.8413   9.3532375662e+01   4.4287889069e+01     0.581502    0.2499251  88.27  0.002579268    2.720    0.632
        93 -10.9101     39.1066    135.4671   8.9376436251e+01   4.3122144508e+01    0.3573478    0.1767611 -86.61  0.001605814    2.220    0.550
        94 -11.7588    150.4320    145.6822   6.3006625255e+01   2.2776095206e+01    0.6514007    0.3690716  64.11  0.002386715    2.535    0.605
        95  -9.5937    180.6639    134.3282   5.3512472710e+01   1.8444513416e+01    0.1585387    0.1248275 -87.07 0.0007051903    1.726    0.421
        96 -11.9576    113.1923    133.1032   6.9526747984e+01   3.3058663158e+01    0.4716514    0.2991925  70.55  0.001633831    2.202    0.546
        97 -11.3761    143.7074    131.8500   6.1509776000e+01   2.7194875849e+01     0.389266    0.3001533 -84.77   0.00135565    1.655    0.396
        98 -12.3393    132.6609    131.3422   6.4142127112e+01   2.9631008800e+01    0.6230554     0.424107 -85.36  0.002142997    2.225    0.551
        99 -12.7415     83.8960    129.8976   7.6658557342e+01   3.8789291841e+01    0.9487003    0.4515801 -66.08  0.003393647    2.234    0.552
       100 -11.4830    153.6995    129.6178   5.8559561678e+01   2.5496060061e+01    0.4536355    0.3331486 -76.02  0.001638893    1.821    0.451
       101 -10.3929    169.6503    130.1167   5.4956143286e+01   2.1799998907e+01    0.2812329    0.2148766  58.07 0.0008838049    1.374    0.272
       102 -13.0153     99.3788    126.7467   7.1840420254e+01   3.7012126844e+01    0.9519825    0.5350266 -73.10   0.00357869    2.417    0.586
       103 -11.0405    104.2975    123.6421   6.9838561290e+01   3.6871172475e+01    0.3810753    0.1866347  32.30  0.001457841    2.509    0.601
       104 -11.3302     73.4284    128.6922   7.9266847922e+01   4.0605625916e+01    0.4989272    0.2888435 -81.74  0.002091326    2.148    0.534
       105 -10.4259     12.5449    126.7670   9.5075077538e+01   4.7389967069e+01    0.7030735    0.1710013 -73.62  0.002740182    3.278    0.695
       106 -12.1803    118.8123    125.5069   6.6377595214e+01   3.3727447932e+01    0.6689842    0.4075596  73.85  0.002467834    2.808    0.644
       107 -11.8091     59.3069    122.8447   8.2104048780e+01   4.3835828175e+01    0.8565664    0.3915895 -78.76  0.003251944    3.057    0.673
       108 -11.6826     43.7792    121.3590   8.6147834870e+01   4.5931191014e+01    0.9570488    0.4303263 -88.87  0.003454834    3.832    0.739
       109 -10.3392    181.0893    125.3644   5.1243720456e+01   2.0123011147e+01    0.3159307    0.2034145  63.97  0.001289467    1.919    0.479
       110 -11.1425     28.4849    121.8941   9.0371127164e+01   4.7249811963e+01    0.7063922    0.3026871  78.52   0.00250761    4.486    0.777
       111 -10.5286    173.3833    121.7505   5.2049190974e+01   2.2641472101e+01    0.2983154    0.1942611  59.68  0.001245772    1.718    0.418
       112 -11.3326    159.2882    121.6597   5.5279238886e+01   2.5921150052e+01    0.3537603     0.268532 -89.45  0.001543427    1.803    0.445
       113 -12.4728    142.1663    118.7258   5.8722587259e+01   3.0392487319e+01    0.6673223    0.4280967 -65.42  0.002500184    2.040    0.510
       114 -11.2210     71.2458    119.0661   7.8068125448e+01   4.3180337806e+01    0.4541858    0.2477778 -76.68  0.001934022    2.278    0.561
       115 -12.0880    131.2232    118.4573   6.1452029461e+01   3.2802825841e+01    0.5981227    0.3876843 -87.84  0.002179174    2.831    0.647
       116 -12.6141    109.4721    112.9962   6.5953512415e+01   3.8375699608e+01     1.040061    0.4359719 -59.41  0.003470468    3.005    0.667
       117 -10.4673      2.6606    115.7579   9.6460332709e+01   5.0498737450e+01    0.5605171    0.1960631  89.39  0.002233134    3.632    0.725
       118 -10.3621    186.5123    116.5038   4.7847912284e+01   2.0587124922e+01    0.2885645    0.1529083  61.83  0.001029416    2.426    0.588
       119 -11.7613     79.2504    111.8653   7.4297012825e+01   4.3731058696e+01    0.6963439    0.3931152 -80.43   0.00270904    2.778    0.640
       120 -11.6685     92.7754    110.3392   7.0039632205e+01   4.1954020401e+01    0.9889574    0.3684382 -58.21   0.00340182    2.883    0.653
       121 -11.5953    159.6350    112.1588   5.2762684341e+01   2.7823510663e+01    0.3657261    0.2717502 -72.33  0.001425875    1.757    0.431
       122 -11.9444    122.4446    111.9970   6.2160771272e+01   3.6060625285e+01    0.4832573    0.3171995 -60.80  0.001832546    1.696    0.410
       123 -10.3926    175.2632    112.1233   4.9161461401e+01   2.4130473193e+01    0.3084134    0.2171746  81.64  0.001243701    2.088    0.521
       124 -11.3680     66.6676    109.6799   7.7520441719e+01   4.6002614064e+01    0.5994345    0.2849951 -68.37  0.002483745    2.304    0.566
       125 -10.6936     14.1774    109.3980   9.2649537222e+01   5.1203613964e+01    0.4123624    0.2050794 -80.90  0.002201202    1.789    0.441
       126 -11.5982    133.6351    109.1631   5.8461553996e+01   3.4337679053e+01    0.4318749    0.3030609 -69.52    0.0016401    1.833    0.455
       127  -9.5966    183.3467    109.6731   4.6756086482e+01   2.2671033754e+01    0.1645906    0.1261901 -80.49 0.0007049995    1.750    0.429
       128 -10.2034     59.4950    108.9681   7.9495372105e+01   4.7076197635e+01    0.2125779    0.1184506 -62.29  0.000858909    1.584    0.369
       129  -9.8417    190.0046    108.5177   4.5051355396e+01   2.1286103695e+01    0.2191301    0.1421909  79.37 0.0008094179    2.474    0.596
       130 -12.2238    140.0664    104.3306   5.5508451761e+01   3.3964455768e+01    0.5195478    0.3691912 -65.91  0.001945051    1.745    0.427
       131 -11.4129     22.8511    101.8833   8.9127538402e+01   5.2296352461e+01     0.704865    0.3315654  77.28   0.00283422    3.759    0.734
       132 -10.5263     20.7125     93.2823   8.8426744008e+01   5.4403540012e+01    0.4090002    0.1277402 -50.68   0.00178681    2.616    0.618
       133 -12.7212    150.1077    101.7859   5.2284807737e+01   3.2202393289e+01    0.8894269    0.4371107 -58.86  0.002818006    3.208    0.688
       134 -11.7674     45.3650    101.4324   8.2285015249e+01   5.0413531785e+01    0.8149147    0.4367526  84.68  0.003276738    3.323    0.699
       135  -9.6583     43.5169     92.4839   8.1104274138e+01   5.2657648437e+01    0.2405656    0.1655003 -55.41 0.0007697997    1.215    0.177
       136 -10.8718    166.9097    104.1560   4.8929925102e+01   2.7729006567e+01    0.2534591    0.2222186 -86.32  0.001003323    1.301    0.231
       137 -12.2963    128.8654    101.1721   5.7590515356e+01   3.7102048916e+01    0.5630924    0.3524799 -54.98  0.002117798    1.730    0.422
       138  -9.8784      6.7729    102.3001   9.3836187571e+01   5.3265283197e+01    0.2817433    0.1288642 -88.32  0.001393102    2.298    0.565
       139 -10.4136    176.0142    102.0443   4.6312578021e+01   2.5936818198e+01    0.2588501    0.1992848 -77.00  0.001136863    1.686    0.407
       140 -12.6005    109.9894     99.1453   6.2275755923e+01   4.1400071152e+01    0.8465469    0.5316113  72.93  0.003151726    2.816    0.645
       141 -11.4096    160.0712    100.7745   4.9599035142e+01   3.0052979356e+01    0.3451631    0.2672889 -63.90  0.001564721    1.505    0.336
       142 -10.5679     82.0503     98.8365   7.0466130788e+01   4.6327011487e+01    0.5494652    0.2576826 -65.50  0.002018527    2.831    0.647
       143 -11.2213     94.8424     95.8667   6.5843142879e+01   4.4906974305e+01    0.6007226    0.2262535 -51.79  0.002148478    2.555    0.609
       144 -11.4931     63.6675     94.2393   7.5076844492e+01   4.9970819980e+01    0.8190395    0.3898326 -66.61  0.003383104    2.396    0.583
       145 -10.1966     58.0052     92.0125   7.6366690833e+01   5.1180136497e+01    0.1956908    0.1728816 -60.88  0.001205852    1.046    0.044
       146 -10.2557    184.0165     96.5039   4.3087602848e+01   2.5029131459e+01    0.2270638    0.1431927  80.34 0.0008105112    2.587    0.613
       147 -11.1734    177.5030     93.8427   4.3736730610e+01   2.7148979919e+01    0.2679445    0.2265785  85.76  0.001277303    1.364    0.267
       148 -11.5585    164.6598     93.9427   4.6623317959e+01   3.0301019742e+01    0.3088838    0.2589273 -76.70  0.001460294    1.402    0.287
       149 -12.0523    139.0406     91.3015   5.2127477697e+01   3.6925954423e+01    0.6147976    0.3470724 -52.75  0.002403802    2.002    0.501
       150 -11.3919    158.1898     91.6354   4.7476801280e+01   3.2332235007e+01    0.3475353    0.2494502 -67.45  0.001239555    1.811    0.448
       151 -12.6928    125.0486     89.4682   5.5332445028e+01   4.0414856522e+01    0.8197263    0.4102712 -45.87  0.003185283    1.987    0.497
       152  -9.6685      8.7693     80.5934   9.0158463338e+01   5.7974706211e+01    0.2953089    0.1358074  46.48  0.001517994    2.922    0.658
       153 -10.6820      4.6992     89.9235   9.2830367767e+01   5.6133605657e+01    0.4981432    0.1623038 -71.69  0.002297518    2.382    0.580
       154 -10.8917     34.9120     87.2343   8.2821037905e+01   5.4652486870e+01    0.8101847    0.2225954 -62.25  0.003108867    2.918    0.657
       155 -10.9895    151.1713     88.7370   4.8328003765e+01   3.4598486974e+01    0.2944186    0.2130221 -50.59  0.001314429    1.458    0.314
       156 -11.3849     86.6879     86.5992   6.5850589697e+01   4.8338886355e+01    0.4999528    0.3435067  83.36  0.002146756    2.525    0.604
       157 -10.4232    164.4012     86.7623   4.4629800939e+01   3.1753045315e+01    0.2232201    0.1542726 -25.73 0.0007313327    1.632    0.387
       158 -11.0329    179.8533     85.7296   4.0959396493e+01   2.8075577178e+01    0.3265597    0.1979992 -59.76  0.001242569    2.191    0.544
       159 -11.2323     48.6046     81.9791   7.7127364173e+01   5.4506944757e+01    0.8296307    0.3740763 -62.93  0.003700666    2.132    0.531
       160 -11.5102    158.9033     82.9268   4.4774906888e+01   3.3843169186e+01    0.3822222    0.2232258 -51.62  0.001498938    1.950    0.487
       161 -11.3686    140.8550     82.1180   4.8945629849e+01   3.8350483422e+01     0.454127    0.2184625 -43.43   0.00169254    2.096    0.523
       162 -11.3801     25.6553     76.1787   8.3679721022e+01   5.7864666239e+01     1.181806    0.2545464 -51.95  0.004575242    3.082    0.675
       163 -10.8197    150.6493     80.1114   4.5897630568e+01   3.6400571705e+01    0.3608544    0.1877859 -49.02   0.00134515    2.140    0.533
       164 -10.8950    119.5890     80.2895   5.4121185095e+01   4.3474103323e+01    0.3828163    0.2301054 -63.91  0.001447191    2.546    0.607
       165 -10.2273     74.7536     80.2327   6.7926535692e+01   5.1584553623e+01    0.3374287    0.1849723 -65.43  0.001400793    2.415    0.586
       166 -11.1994    174.8837     78.5427   3.9936901636e+01   3.0640680756e+01    0.3361471    0.1975892 -51.66  0.001325467    1.935    0.483
       167 -11.1355    167.7052     77.3301   4.1124676889e+01   3.2680892780e+01    0.2966147    0.1891265 -47.73 0.0009528193    1.658    0.397
       168  -9.9193    189.5037     76.4700   3.6393980703e+01   2.7271398564e+01    0.1557588    0.1503825 -79.89 0.0008096407    1.037    0.035
       169  -9.7679    116.7593     83.6354   5.5937641317e+01   4.3380966256e+01    0.2836592    0.1791305 -33.08 0.0006886835    1.692    0.409
       170 -10.9871    140.8218     74.4741   4.6608433528e+01   3.9829696351e+01    0.4632466     0.212166 -46.58  0.001658273    2.366    0.577
       171 -11.5435    128.2349     74.1311   4.9807908824e+01   4.2804761194e+01    0.6882522    0.2653271 -42.33  0.002363442    2.586    0.613
       172 -11.3195     82.4760     72.2724   6.3053801550e+01   5.2089840658e+01     0.420579    0.2553182 -62.28  0.001502995    2.118    0.528
       173  -9.7053     10.0023     74.4809   8.8716222976e+01   5.9243741626e+01    0.1387789    0.1159408   2.67 -7.011394e-05    1.507    0.336
       174 -10.8943     62.5559     71.1350   6.9497078605e+01   5.5228485594e+01    0.5617259   0.09162269 -49.69  0.001591674    4.702    0.787
       175  -9.8254    115.9916     72.0282   5.2567734984e+01   4.5879957924e+01    0.2375288    0.1898003 -77.57 0.0007848722    1.690    0.408
       176 -10.2800     95.0861     70.7566   5.8495202820e+01   5.0238700259e+01    0.4655368     0.220426 -55.96  0.001704352    2.815    0.645
       177 -11.6297    104.7957     82.3612   5.9062922795e+01   4.6033860652e+01    0.6516219    0.3548708 -59.81  0.002508253    2.460    0.593
       178 -10.0483    162.9774     71.4827   4.0411626326e+01   3.4925890413e+01    0.2204658    0.1412724  83.58 0.0008094208    2.464    0.594
       179 -10.1133    105.6568     71.3544   5.5408678129e+01   4.8119097451e+01    0.2256169    0.1834252 -82.66 0.0008837462    1.689    0.408
       180 -11.0215     51.2253     67.2250   7.2416943440e+01   5.7430531155e+01    0.8258294    0.2338641 -58.25  0.002728369    3.926    0.745
       181 -10.5706    184.3884     77.1791   3.7595846288e+01   2.8456659609e+01    0.2366055    0.1391094 -46.11 0.0009542112    1.762    0.432
       182  -9.9384     16.7143     69.2880   8.5397436823e+01   5.9977130823e+01    0.3175494    0.1429892 -70.94  0.001573904    2.114    0.527
       183 -10.0218     17.8129     62.7021   8.3594533705e+01   6.1316792327e+01    0.3767608   0.07753153 -53.02  0.001518916    2.921    0.658
       184 -10.4563    146.8783     67.5723   4.2931759289e+01   3.9635964833e+01    0.3253484    0.1979509 -51.72  0.001119897    1.913    0.477
       185  -9.4324    204.0029     67.0194   3.1127339547e+01   2.5136602789e+01     0.187865    0.1794316 -55.67  0.001011568    1.030    0.029
       186 -10.4835    138.6256     65.8755   4.4434387101e+01   4.1933769184e+01    0.3137825      0.18627 -50.00  0.001280825    1.923    0.480
       187 -10.2560    110.1348     63.4502   5.1473494413e+01   4.8740236964e+01    0.3572158    0.1844952 -48.85  0.001163769    2.163    0.538
       188 -10.5267     37.4276     62.6301   7.6238738786e+01   5.9810690589e+01    0.5106847    0.1918812 -54.98  0.002306446    2.146    0.534
       189 -10.0954    100.0000     59.0470   5.3069358558e+01   5.1584658245e+01    0.3715962    0.1402445 -48.80  0.001246106    3.222    0.690
       190 -10.4848     73.2391     57.5020   6.1484929794e+01   5.6505300984e+01    0.6761706    0.1953764 -46.99  0.002328821    3.253    0.693
       191 -10.4525    121.7272     65.3715   4.8772417403e+01   4.5908893297e+01    0.4572142    0.2042878 -43.23  0.001711223    2.278    0.561
       192  -9.9213     25.0078     57.1717   7.9537839999e+01   6.1982480975e+01    0.3652005    0.1147837 -52.99  0.001643808    2.273    0.560
       193 -11.2547      7.6493     54.5970   8.5652842153e+01   6.3593253466e+01    0.6518219    0.1190508 -61.19    0.0025547    3.341    0.701
       194 -10.1872    119.6808     55.7191   4.6078459577e+01   4.8086614775e+01     0.296926    0.1703399 -54.99  0.001165697    2.429    0.588
       195  -9.6373    139.6898     55.3546   4.0703911226e+01   4.3490170338e+01    0.1565823    0.1197288 -70.52 0.0007043713    1.727    0.421
       196 -10.3477     62.9126     53.9676   6.4038721842e+01   5.8675207751e+01    0.3688577    0.1640181 -50.40   0.00160972    2.191    0.543
       197 -10.3269     54.1415     53.3148   6.7122056309e+01   5.9930896305e+01    0.4124683    0.1823733 -60.21  0.001585745    3.332    0.700
       198  -9.9736     44.3188     54.8395   7.1381666584e+01   6.0737969408e+01    0.3171468     0.173957 -61.10  0.001575766    2.016    0.504
       199 -11.0920     45.2987     49.0744   6.9175601505e+01   6.1775072852e+01    0.2449793    0.1843671 -34.66 0.0003476208    1.110    0.099
       200 -10.2181     30.8125     49.9603   7.5257270965e+01   6.2994057752e+01    0.4356824    0.1732777 -65.07   0.00170978    3.551    0.718
       201 -10.0153     20.0120     51.0317   7.9909299254e+01   6.3598539750e+01    0.2830128    0.1331723 -69.34  0.001357772    2.496    0.599
       202 -10.2643     92.1214     48.7343   5.1929303727e+01   5.4928335867e+01    0.5548121    0.1642777 -45.56  0.001732779    3.960    0.747
       203  -9.7167     81.8412     46.3540   5.4513392074e+01   5.7176607940e+01    0.1938706    0.1645132 -33.70 0.0006502682    1.160    0.138
       204 -10.2219     16.8485     42.7165   7.8934014479e+01   6.5471803644e+01    0.4810583    0.1044109 -55.46  0.001947236    3.088    0.676
       205 -10.4173     58.1492     42.2553   6.1725906199e+01   6.1506243843e+01    0.2332986    0.1681988 -65.41  0.001235193    2.123    0.529
       206  -9.8105    237.9011    229.6311   6.1261363906e+01  -7.8567739122e+00    0.2028892    0.1460782   0.17 0.0008557687    1.325    0.245
       207 -10.0341     68.8535     40.0519   5.6802707081e+01   6.0365948419e+01    0.4059566    0.1685695 -46.40  0.001693525    2.545    0.607
       208  -9.4856    105.6889     40.3678   4.4555881068e+01   5.3614320955e+01    0.1405829     0.113165 -67.89  0.000357226    1.765    0.433
       209  -9.3967     84.2124     39.7852   5.1200291868e+01   5.7873023196e+01    0.2274625    0.1452748   2.90  0.001048021    2.082    0.520
       210  -9.9860     36.7939     38.7197   6.9163671400e+01   6.4621437960e+01    0.3755716    0.1049785 -45.54  0.001536265    2.782    0.641
       211  -9.7064     95.3811     37.1960   4.6504249856e+01   5.6193221731e+01    0.2005803    0.1226917 -41.78 0.0009570714    1.756    0.431
       212 -10.0933     60.5859     31.0288   5.6395629715e+01   6.3091922924e+01    0.3882004    0.1076832 -37.84  0.001413715    3.357    0.702
       213 -10.4221     27.7915     28.9045   6.9578413133e+01   6.7239832578e+01    0.4388281   0.07175887 -41.81  0.001424737    4.807    0.792
       214 -10.0142     12.6961     29.7048   7.6805463841e+01   6.8222087538e+01    0.3241534   0.07410349 -54.83  0.001338897    3.188    0.686
       215  -9.9975     72.0000     30.0034   5.1610573142e+01   6.1503103663e+01    0.2169004   0.06839412 -36.98 0.0008098574    2.994    0.666
       216  -9.2349     81.6590     27.3412   4.7052128911e+01   6.0238428082e+01    0.1247979    0.1076543 -69.27 0.0007049091    1.774    0.436
       217  -9.4454    113.9693     41.3052   4.2511390676e+01   5.1692776623e+01    0.1993543    0.1741129  31.01 0.0002041222    1.083    0.077
       218  -9.2092     40.8430     21.1773   6.0548620377e+01   6.7220313431e+01    0.1655818    0.1135366 -14.80  0.001026269    1.310    0.237
       219  -9.5652     12.7528     21.3617   7.3888209172e+01   6.9726561961e+01    0.1420442   0.09184504  -5.31 0.0009439127    1.592    0.372
       220  -9.4597     50.6225     15.6888   5.3809186776e+01   6.6816591876e+01    0.1310208   0.08063918  -0.33 0.0007028249    1.792    0.442
