#   1 NUMBER                 Running object number                                     
#   2 MAG_AUTO               Kron-like elliptical aperture magnitude                    [mag]
#   3 X_IMAGE                Object position along x                                    [pixel]
#   4 Y_IMAGE                Object position along y                                    [pixel]
#   5 X_WORLD                Barycenter position along world x axis                     [deg]
#   6 Y_WORLD                Barycenter position along world y axis                     [deg]
#   7 A_WORLD                Profile RMS along major axis (world units)                 [deg]
#   8 B_WORLD                Profile RMS along minor axis (world units)                 [deg]
#   9 THETA_WORLD            Position angle (CCW/world-x)                               [deg]
#  10 FWHM_WORLD             FWHM assuming a gaussian core                              [deg]
#  11 ELONGATION             A_IMAGE/B_IMAGE                                           
#  12 ELLIPTICITY            1 - B_IMAGE/A_IMAGE                                       
         1 -12.4024    207.7249     11.8354   5.5412570327e+01   3.2458328692e+01     0.388262    0.3176179  84.30 0.0007293614    1.132    0.117
         2 -15.2566    187.3220     77.0100   7.2650928413e+01   2.8105563375e+01     6.464395     4.630107 -56.61   0.02267204    1.368    0.269
         3 -16.3451    213.6508     71.3261   6.7332931999e+01   2.3141801220e+01     9.973491     5.663882 -69.95   0.04557803    2.117    0.528
         4 -13.8579    214.7777     17.1306   5.5814951096e+01   3.0355546686e+01     1.431714     1.165498  50.97  0.004794971    1.630    0.386
         5 -14.9873    222.2876     62.0184   6.4211877656e+01   2.2739226737e+01     3.387231     1.473069 -59.43   0.01275282    2.635    0.620
         6 -14.3148    238.2859      5.0776   5.1618057192e+01   2.6856941148e+01     0.993246    0.7972082  86.27   0.00496057    1.242    0.195
         7 -15.3599    240.5857     45.0130   5.8782457708e+01   2.1421340212e+01     1.676531    0.9295356 -70.61  0.009078796    1.770    0.435
         8 -14.7756    229.9706     27.1729   5.6370981685e+01   2.5954677730e+01     1.144254    0.7182761 -48.58  0.004426645    1.485    0.326
         9 -14.8323    248.7674      5.5830   5.0975722806e+01   2.4748511997e+01     1.555419    0.8938601 -18.38  0.004086873    4.670    0.786
        10 -15.7365    245.5737     32.7398   5.6023704410e+01   2.2081453795e+01     2.604916    0.4287338  61.49  0.009157674    5.143    0.806
        11 -15.2467    233.8963     49.9355   6.0421010643e+01   2.2090145983e+01     3.764623     1.116695 -57.85   0.01153927    5.327    0.812
        12 -14.6191    249.8872     24.2624   5.4138911548e+01   2.2318634139e+01    0.7489088    0.3470143 -45.98  0.002983751    1.875    0.467
        13 -11.3071    144.7796     27.2226   6.7143244390e+01   4.4966248897e+01    0.4114276    0.3186379 -53.14  0.001723346    1.437    0.304
        14 -11.7698    131.4281     25.8084   6.9155719676e+01   4.8133116497e+01    0.4951481     0.314358 -24.09  0.002078429    1.890    0.471
        15 -10.4504    135.1930     15.4472   6.5516362145e+01   4.8330440143e+01    0.3147776    0.2383791  -8.11  0.001949061    1.700    0.412
        16  -9.7642    164.9400     14.0489   6.0679805884e+01   4.1745795142e+01    0.2924002    0.1827757 -19.74 0.0009583285    2.193    0.544
        17  -9.6010    118.6346      3.1893   6.4848785217e+01   5.3012390482e+01    0.2218543    0.1602644  14.53 0.0008689566    1.699    0.411
        18  -9.9394    115.7780     12.4352   6.8192545245e+01   5.2862615005e+01    0.2896324    0.1837895  58.20  0.001202654    1.309    0.236
        19 -11.5168    120.2709      8.9004   6.6261939243e+01   5.2198217469e+01    0.3990516    0.3165286  59.12  0.001397295    1.047    0.045
        20  -9.7231    217.2982      7.1559   5.3635508696e+01   3.0924574279e+01    0.2828238    0.1283587 -44.47  0.001563629    2.075    0.518
        21 -10.6852    217.7378      2.3490   5.2679509448e+01   3.1337290977e+01    0.1879795    0.1805394 -20.84 0.0008801973    1.595    0.373
        22  -9.4822    184.2374      7.0849   5.6761752573e+01   3.8095599922e+01    0.5231546    0.2287925 -52.03  0.002315238    2.401    0.584
        23  -9.3123    187.6665      5.6519   5.6087924732e+01   3.7476545865e+01     0.258338    0.1042406 -35.42   0.00128903    2.652    0.623
        24  -9.9092    210.4445      3.0203   5.3412233366e+01   3.2802966008e+01    0.2860684    0.1849774 -50.50  0.001867309    1.505    0.336
        25  -8.8016     79.6456      4.2432   7.3645742619e+01   6.0860183650e+01    0.1469333    0.1009279   0.86 0.0009055331    1.600    0.375
        26  -9.1182    159.5204    158.5231   9.7773178108e+01   1.7627228851e+01    0.1562404    0.1494501 -76.50 5.322586e-05    1.062    0.058
        27 -10.6134    230.8195    250.6385   1.0070754443e+02  -1.2361430415e+01    0.1894913    0.1023059  31.37 0.0002278329    1.749    0.428
        28 -10.8235    153.3533    135.9162   9.4045075877e+01   2.4069586196e+01    0.4366735    0.2480345 -61.77  0.001633767    2.232    0.552
        29 -10.0758    150.5127    141.4772   9.6030616687e+01   2.3415507969e+01    0.2826649    0.1475346 -57.71 0.0009324828    2.225    0.551
        30 -10.1699    248.9865    174.9923   8.3548254474e+01  -2.4244490087e+00    0.2502325    0.1758062 -29.60 0.0009488272    1.296    0.228
        31 -10.5889    176.1340    139.7611   8.9804252864e+01   1.8317718515e+01    0.5492963    0.3153333 -78.17  0.001534709    4.842    0.793
        32 -11.6220    210.4423    137.0504   8.2389901934e+01   1.1732498477e+01    0.4399246    0.3467363  17.14  0.002213979    1.703    0.413
        33 -10.3589    166.2158    135.8796   9.1076998786e+01   2.1299119833e+01    0.3784816    0.2026702 -37.73   0.00145964    2.005    0.501
        34 -10.7713    201.0015    135.6749   8.3840186859e+01   1.3935475913e+01    0.2850662    0.2040029 -66.23  0.001337945    1.606    0.377
        35 -11.4883    226.8057    173.0581   8.7001289919e+01   1.5687046709e+00    0.4643236    0.3591037  25.30  0.002556399    1.466    0.318
        36 -10.5642    132.9398    120.9882   9.5415077091e+01   3.1799032338e+01    0.4002253    0.3662651  61.17  0.001188436    1.122    0.109
        37 -11.0089    128.5168    114.6575   9.4944461069e+01   3.4133258476e+01    0.6159469    0.3656117 -71.26  0.002155589    2.948    0.661
        38  -8.3504     96.2749    132.3058   1.0815575035e+02   3.6364797776e+01    0.1508002     0.116895 -22.77 0.0002595948    1.545    0.353
        39 -11.4724    159.7290    129.1985   9.0955476168e+01   2.4177354662e+01    0.5121285    0.4355991 -13.36   0.00250924    1.419    0.296
        40 -10.4391    223.1812    128.4195   7.8302415670e+01   1.0895407736e+01    0.3391896    0.1442222  51.53  0.001128755    2.636    0.621
        41 -11.2045    217.6081    125.4271   7.8592415025e+01   1.2582779846e+01    0.5701324    0.3304748 -65.60  0.001153679    2.335    0.572
        42 -11.0400    230.6833    167.5739   8.5196481874e+01   1.9472817970e+00    0.3958239    0.2517833 -55.00  0.001931397    1.715    0.417
        43 -10.4045    152.3019    127.6546   9.2307570478e+01   2.6140185554e+01    0.3975158    0.2710687  36.27  0.001573975    1.629    0.386
        44 -11.2759    136.1758    126.1945   9.5889438394e+01   2.9944649875e+01    0.8198521    0.3501637 -51.33  0.002837729    2.430    0.589
        45 -11.4073    235.7433    174.1960   8.5640923117e+01  -1.5449753347e-01    0.4385962    0.3084347  63.10  0.001928641    2.081    0.520
        46 -10.8626    158.1711    114.7256   8.7761596915e+01   2.7628175543e+01    0.5305677    0.3332647 -67.76 0.0009326431    2.185    0.542
        47  -9.5283    140.6902    121.3308   9.3552509293e+01   3.0061484827e+01    0.2506572    0.1881614  89.55  0.001092163    1.793    0.442
        48 -11.2865    167.1805    114.7245   8.5773705905e+01   2.5609232847e+01     0.507188     0.469422  -5.75  0.001660317    1.255    0.203
        49 -10.1178    174.4957    114.7821   8.4240994426e+01   2.3958147032e+01    0.3291182    0.2416368 -84.55 0.0008434265    1.751    0.429
        50 -10.6663    134.8967    109.0112   9.1849644367e+01   3.3980469214e+01     1.091423    0.2622941 -43.71  0.002940314    4.172    0.760
        51 -10.4108    237.8773    170.1307   8.4459275031e+01   2.4897382102e-01    0.2666691    0.1806351 -47.09 0.0004413523    1.367    0.269
        52 -10.2775    211.7413    103.3248   7.4698541934e+01   1.8000654672e+01    0.3824121     0.306563  -4.68  0.001385571    1.880    0.468
        53  -9.9227    200.5543    173.9437   9.2200301185e+01   6.1229126553e+00    0.3133277    0.1789348 -29.91  0.001012566    2.036    0.509
        54  -8.6727    141.2905    105.3214   8.9307302361e+01   3.3348888001e+01    0.1513102    0.1230642   0.10 0.0005785442    1.606    0.377
        55 -10.1514    125.8315    103.2136   9.2639107238e+01   3.7144135071e+01    0.3399651    0.2472199 -76.25  0.001499155    1.897    0.473
        56 -10.7638    122.6879    103.3443   9.3500961401e+01   3.7781225799e+01    0.3859027    0.2812578 -79.72  0.001693519    1.962    0.490
        57 -10.1644    147.4165    101.5730   8.6871103584e+01   3.2744224809e+01    0.2890541    0.2766369  78.83 0.0006337537    1.033    0.032
        58  -9.5957    168.0260     97.4902   8.1306633009e+01   2.8855063966e+01    0.4152755    0.1993602 -44.57 0.0008766237    2.049    0.512
        59 -11.9526    172.2711     87.4673   7.7940554059e+01   2.9745961413e+01    0.7871376    0.5719354  17.20  0.003529791    2.214    0.548
        60  -9.9517    133.4500     97.4690   8.9149038428e+01   3.6669269350e+01    0.3605055    0.2663033  69.44  0.001193304    1.618    0.382
        61 -10.6989    157.2173     95.9789   8.3206713714e+01   3.1620540960e+01    0.4718736    0.3040208  36.42  0.002062967    1.847    0.459
        62 -10.4602    140.9219     91.6798   8.5770206527e+01   3.6142878012e+01    0.3188937    0.2868281 -72.22 0.0005551871    1.171    0.146
        63  -9.8644      5.6599     92.0084   1.2819775108e+02   5.6578996936e+01    0.2230412   0.02251615 -48.11 0.0007051608    4.431    0.774
        64 -11.0607    213.8107    167.4829   8.8264727887e+01   4.9692588291e+00    0.6548454    0.3657949  66.15  0.002335272    3.698    0.730
        65 -11.7900    155.0986     86.2738   8.1131825098e+01   3.3926783982e+01    0.4422347    0.3504696 -50.84 0.0005234406    1.276    0.216
        66 -10.7803    160.8596     86.3647   7.9942661853e+01   3.2582157967e+01    0.5677251    0.2006822 -50.47  0.001801081    3.441    0.709
        67 -10.7775    243.6059    167.2081   8.2907819839e+01  -1.5319415468e-01    0.3255152    0.1125103 -42.19  0.001257309    2.485    0.598
        68  -8.3108    111.2936     78.3120   8.9538701159e+01   4.5036843069e+01    0.1437169    0.1110318   6.36  0.000462532    1.592    0.372
        69  -8.8433     83.5541     77.0000   9.7317600111e+01   5.0571730956e+01    0.3053936   0.07673751  40.85   0.00094029    3.980    0.749
        70  -8.9020     64.5575     76.4925   1.0342191623e+02   5.3730473698e+01    0.1346167    0.1193312 -15.45 4.563973e-05    1.007    0.007
        71  -9.7484      8.6826     76.3103   1.2378415220e+02   5.9680794714e+01    0.1060488   0.09105524  76.72 0.0002953279    1.639    0.390
        72  -8.7273    159.3829     75.1293   7.7311420181e+01   3.4894484128e+01     0.200882    0.1279264 -52.40 0.0004755981    1.664    0.399
        73 -10.3587    121.5502     73.3247   8.5372810506e+01   4.3750015608e+01    0.3526433     0.189151 -54.95  0.001415305    2.501    0.600
        74 -10.4982    151.2275     71.6062   7.8039985144e+01   3.7373144205e+01    0.3197178      0.19593 -49.33  0.001047219    1.733    0.423
        75 -11.2492    122.7876     63.1870   8.2084324554e+01   4.5146792261e+01    0.4946215    0.1766825  42.93  0.001746576    2.925    0.658
        76  -8.2413    159.2677    166.3181   9.9526870501e+01   1.5899491921e+01    0.1529483    0.1217062 -14.92 0.0002027568    1.556    0.357
        77  -8.5806     72.5599     58.4495   9.5034811024e+01   5.5656626555e+01    0.1294763    0.1164857   3.54  0.000210497    1.043    0.041
        78 -12.4645     68.6815    145.4753   1.1887666825e+02   3.7549031067e+01     1.238697     1.153869  -1.40  0.005167021    1.227    0.185
        79 -10.6703    123.1512     37.8712   7.4415283433e+01   4.8595415567e+01    0.2016238    0.1765983  87.02 0.0007735144    1.276    0.216
        80 -12.4246     43.7815    163.3205   1.2876021809e+02   3.6288845607e+01    0.5903695    0.4525143  26.69  0.001222981    1.548    0.354
        81 -12.9322     50.8735    158.8668   1.2618843090e+02   3.6556776178e+01    0.9451281    0.7311614 -71.74  0.003066676    1.157    0.136
        82  -9.2578    166.6298     29.0317   6.4148759902e+01   3.9750413020e+01    0.3280317    0.1687799 -55.82  0.001552012    2.277    0.561
        83  -8.8138     92.8627    168.0625   1.1653712077e+02   2.8091096770e+01    0.1903164    0.1680687 -39.67            0    1.227    0.185
        84 -16.1043    216.2601    218.4834   9.7810183648e+01  -5.0975537258e+00     4.955149     1.430304  35.33   0.01733144    3.703    0.730
        85 -10.6385    130.5131     19.4342   6.7480663647e+01   4.8989306120e+01    0.2949367    0.2215501  -8.72  0.001587538    1.685    0.407
        86 -12.4768     56.7232    154.9706   1.2395319048e+02   3.6796803629e+01     0.756478    0.5008014 -78.55   0.00153708    1.572    0.364
        87 -11.0413    179.5733     23.8209   6.1118495895e+01   3.7383412085e+01    0.4779258    0.3475807  82.55  0.002646224    1.197    0.164
        88 -10.9680     24.6536    165.2289   1.3395721330e+02   3.7850155342e+01    0.3241908    0.1622571 -59.10  0.001584767    1.697    0.411
        89  -9.4527    194.8433     19.9965   5.8441041606e+01   3.4378454817e+01    0.1831991    0.1477356  58.13  0.001193448    1.378    0.274
        90 -13.8112    179.6027    201.5806   1.0212563611e+02   4.2995022319e+00     4.396139    0.9565161  38.78   0.01199388    4.763    0.790
        91 -13.1072    170.7804     73.1027   7.4598973566e+01   3.2583154739e+01     1.400203    0.6186588 -34.72  0.001539172    2.559    0.609
        92 -10.1075    206.2655    163.0055   8.8774382527e+01   7.2828824833e+00    0.2342805    0.2134243  57.12 0.0003669867    1.223    0.183
        93  -8.9944     94.2573     13.9871   7.3409522971e+01   5.7199720823e+01    0.1362735    0.1028201 -17.37 0.0004153888    1.501    0.334
        94 -10.3153    142.8701    227.9633   1.1484381911e+02   5.3947506710e+00    0.2494238    0.2146242 -38.97 0.0003791749    1.268    0.212
        95  -9.9251    203.7075    152.4845   8.7018576309e+01   9.9357143362e+00    0.3345298    0.1957045 -46.89  0.001482442    1.595    0.373
        96 -10.6848    191.5237    151.7670   8.9284683342e+01   1.2526724340e+01    0.4971199    0.2543553 -57.06  0.001864062    2.367    0.578
        97 -10.0365    134.4004    147.6446   1.0142525927e+02   2.5338595267e+01    0.5681716    0.2727784 -58.37  0.001983581    2.437    0.590
        98  -9.7328    132.6859    140.5643   1.0022957088e+02   2.7361172902e+01    0.6501159    0.2025797 -55.12  0.001713423    4.183    0.761
        99 -13.4301     13.3831    180.6384   1.3840043065e+02   3.5157302018e+01    0.9019787    0.7210071 -83.64  0.003829531    1.010    0.010
       100 -10.0037    199.3069    144.8724   8.6209289586e+01   1.2389358065e+01    0.2466998    0.1799742 -60.50  0.001178493    1.465    0.318
       101  -9.3921    227.3010    159.6430   8.4170267012e+01   4.0636094151e+00    0.1415158    0.1061752 -69.85 0.0007037526    1.710    0.415
       102  -9.3964    195.5150    158.5296   8.9949597246e+01   1.0298452565e+01    0.1491356    0.1400939 -47.77 9.635836e-05    1.029    0.028
       103 -10.0947    192.2764    144.1421   8.7439795375e+01   1.3983306292e+01    0.2629908    0.2193383  59.26 0.0004095201    1.301    0.231
       104 -11.7805    158.1290    140.4036   9.3982412902e+01   2.2034385135e+01    0.5602738    0.4354596 -51.90   0.00266656    1.259    0.206
