#   1 NUMBER                 Running object number                                     
#   2 MAG_AUTO               Kron-like elliptical aperture magnitude                    [mag]
#   3 X_IMAGE                Object position along x                                    [pixel]
#   4 Y_IMAGE                Object position along y                                    [pixel]
#   5 X_WORLD                Barycenter position along world x axis                     [deg]
#   6 Y_WORLD                Barycenter position along world y axis                     [deg]
#   7 A_WORLD                Profile RMS along major axis (world units)                 [deg]
#   8 B_WORLD                Profile RMS along minor axis (world units)                 [deg]
#   9 THETA_WORLD            Position angle (CCW/world-x)                               [deg]
#  10 FWHM_WORLD             FWHM assuming a gaussian core                              [deg]
#  11 ELONGATION             A_IMAGE/B_IMAGE                                           
#  12 ELLIPTICITY            1 - B_IMAGE/A_IMAGE                                       
         1 -14.9276     68.5466    144.1521   1.0507419942e+02   3.7416447564e+01     5.497502     2.315376  60.26  0.003510596    5.082    0.803
         2 -14.4701    199.5258     38.7479   4.5563263931e+01   3.0830817267e+01     1.827122     1.437842  20.45  0.004517481    1.712    0.416
         3 -14.5427    210.5075     27.3877   4.1323773171e+01   2.9638970143e+01     1.548887     1.138883   8.59  0.003073906    2.066    0.516
         4 -12.9201      2.4818     21.7333   9.9995411721e+01   7.1052772820e+01     1.354991    0.1769918 -55.03  0.004310816    5.827    0.828
         5 -13.3022      2.5098      7.3391   9.3901908538e+01   7.3471216553e+01     1.130972    0.5164443 -45.84  0.006650454    1.852    0.460
         6 -12.9678    235.3151      3.4944   3.3552022791e+01   2.6692599768e+01    0.7950434    0.3787021  75.91  0.004172203    1.962    0.490
         7  -9.9065     60.4878      7.5229   6.5209108630e+01   6.6245987472e+01    0.1243588    0.1018486  13.21 5.107664e-05    1.033    0.032
         8  -9.9479     15.7225     32.3721   9.7037582589e+01   6.8244120075e+01    0.1528293    0.0980998  -3.32 0.0005167316    1.584    0.369
         9 -11.8346    139.9383    248.2330   1.0364497524e+02   4.3908893711e+00    0.4460609    0.2910157 -70.05  0.002544666    2.218    0.549
        10 -15.1765     50.6368    219.4847   1.1837156862e+02   2.2412387838e+01     5.709614      1.59103  38.24   0.02444941    2.982    0.665
        11 -14.6071     54.2233    190.0369   1.1486020250e+02   2.8314917579e+01       4.1074     2.212383  72.28   0.01979626    2.095    0.523
        12 -11.8177    203.8544    199.2705   8.3162367117e+01   2.0105793630e+00    0.5637237    0.2560218  35.21  0.002476516    2.107    0.525
        13 -10.4566    113.6013    207.1495   1.0368855842e+02   1.6041390194e+01    0.3141747    0.2150504  76.73  0.001593561    1.838    0.456
        14  -9.4868     32.7127    204.0124   1.2074607194e+02   2.7698400962e+01    0.1683607    0.1248103  85.95 0.0004755523    1.118    0.106
        15 -11.8200    109.5969    201.6524   1.0380293630e+02   1.7824653980e+01    0.4757895     0.305589 -28.42  0.002163529    2.549    0.608
        16  -9.4899    128.6189    195.7513   9.8618529466e+01   1.5887357180e+01    0.1812093    0.1332908 -69.82 0.0003980605    1.585    0.369
        17 -14.0879     57.7508    241.1283   1.1872051465e+02   1.7306526155e+01    0.7341523    0.3323034  51.58  0.004046266    1.794    0.443
        18  -8.6597     27.2797    195.2899   1.2119413088e+02   3.0154122985e+01    0.1069192   0.08483476 -56.31 0.0002432897    1.525    0.344
        19  -8.5253     24.5068    194.3505   1.2170138667e+02   3.0637836732e+01    0.1779556    0.1028135  39.35 -0.0002654031    1.733    0.423
        20 -16.3561     39.4827    249.3250   1.2256814827e+02   1.7979866957e+01     10.70965     3.333365  26.97   0.02535005   14.218    0.930
        21 -15.9989      2.8342    201.2560   1.2648810851e+02   3.1148867373e+01      9.73859          nan -72.31    0.0245597    7.725    0.871
        22  -9.1684     92.4708    184.4589   1.0528169279e+02   2.4290763789e+01     0.137642     0.125435  73.06 0.0001260438    1.002    0.002
        23  -8.5276     80.2771    184.3095   1.0815103779e+02   2.6145553667e+01    0.1264217    0.1042551 -34.67 0.0001826606    1.556    0.357
        24 -11.0890    150.5911    179.2389   9.0699265381e+01   1.5373417074e+01    0.4258232    0.2758276 -70.62  0.001816274    2.311    0.567
        25 -10.9407    144.9943    180.0637   9.2141180099e+01   1.6242171135e+01      0.32946    0.3084262  69.11  0.001037058    1.136    0.120
        26 -10.6982    142.4546    176.4772   9.2057536866e+01   1.7473188661e+01    0.2725248    0.2345957  46.59 0.0006874513    1.132    0.117
        27 -10.6591     99.4263    180.6678   1.0304922669e+02   2.4059099510e+01    0.2425981     0.236344  18.26 0.0006898981    1.175    0.149
        28  -9.1786    164.3117    210.3163   9.3213449184e+01   6.8876068456e+00    0.1363105    0.1008717   2.82 0.0002476017    1.640    0.390
        29 -12.0991     68.6868    175.5282   1.0975392169e+02   2.9803777281e+01     0.402443     0.279944 -38.95  0.001336516    1.872    0.466
        30 -12.1646     73.2639    170.2754   1.0790602832e+02   3.0418016243e+01    0.3734213    0.2840967 -43.98  0.001236353    1.523    0.343
        31 -11.1389    208.0870    195.2529   8.1571700745e+01   1.9570555760e+00    0.4025201     0.190683 -44.29  0.001364491    2.333    0.571
        32  -9.8043    204.3319    175.9588   7.8486129644e+01   5.9311979039e+00     0.205572    0.1694683 -24.63 0.0007931585    1.157    0.135
        33  -9.8729    196.7581    175.6346   7.9945466904e+01   7.3830437346e+00    0.2729273    0.2436203 -53.98  0.001541261    1.343    0.256
        34  -9.9946    188.2711    174.5067   8.1468597510e+01   9.1804779697e+00    0.3438949    0.1978901 -51.45  0.001493031    2.071    0.517
        35 -13.1896     46.4230    106.4489   1.0472418117e+02   4.9410201635e+01     1.703223     1.071634  71.63  0.007852086    2.345    0.574
        36 -16.7072      7.5793    244.2584   1.2772250549e+02   2.2268594658e+01     4.066982     1.587559 -76.74   0.02402169    2.312    0.567
        37 -10.9885     34.1871    166.2639   1.1701595573e+02   3.6078112474e+01    0.4561589     0.245674  51.60  0.002374392    1.855    0.461
        38  -9.9118    157.7352    160.3840   8.5250071903e+01   1.7963154300e+01    0.2502031    0.2286038  79.91 0.0008146518    1.258    0.205
        39 -12.9183     81.8804    161.3489   1.0436287880e+02   3.1315782182e+01      1.04328    0.4779654  57.51 0.0003435113    3.034    0.670
        40 -10.1616     35.8029    158.0440   1.1571592902e+02   3.7873993725e+01    0.2345409    0.1728781  80.23 0.0006736905    1.262    0.208
        41 -10.5627     32.0406    156.4995   1.1648584626e+02   3.8618069211e+01    0.2316706    0.1937987  73.15 0.0009778466    1.138    0.121
        42 -12.3480     88.8672    154.3396   1.0134666139e+02   3.1944518611e+01    0.6278924    0.4552163 -27.49  0.003006413    1.853    0.460
        43 -11.3422    133.7320    144.4554   8.7603978772e+01   2.6270031648e+01     1.258113    0.3172059 -54.18  0.002928022    5.737    0.826
        44 -10.6853    174.3906    148.8493   7.8913075431e+01   1.6993902974e+01    0.3722488    0.2854071 -66.67  0.001598054    1.674    0.403
        45  -9.0824    112.5053    150.5288   9.4382854398e+01   2.8874614758e+01    0.1503635    0.1428339  85.75 6.487522e-05    1.048    0.046
        46 -11.0435    102.7663    139.6519   9.4745070150e+01   3.3204725097e+01    0.5795605    0.3744434 -23.62  0.002344572    2.372    0.578
        47 -12.4256     89.9581    139.5873   9.8273956185e+01   3.5368146439e+01    0.2931732    0.2561583 -47.09 0.0003920752    1.150    0.130
        48 -12.2188     43.9146    129.7145   1.0968094901e+02   4.3965456365e+01    0.4500455    0.3282306  89.60  0.001811616    1.409    0.290
        49 -11.0230    135.6291    127.8376   8.3224048506e+01   2.9673783235e+01    0.6220036    0.1490019 -49.21  0.001579474    4.434    0.774
        50 -10.4644    111.7209    130.1568   9.0180127260e+01   3.3862961421e+01     0.353254    0.2847971  -8.01  0.001129339    1.569    0.363
        51 -11.3104    139.1798    170.7724   9.1737916016e+01   1.9316604595e+01     0.415383    0.3315977  45.89  0.001120482    1.225    0.184
        52 -10.3412    160.6073    128.1272   7.7132340191e+01   2.4275375224e+01    0.3656689    0.2529141 -54.72  0.001604997    1.578    0.366
        53 -11.0913     98.9112    126.2234   9.2880637993e+01   3.7119469930e+01    0.3184126    0.2581702 -10.40  0.001429854    1.538    0.350
        54  -8.9468     93.7955    126.3585   9.4385193975e+01   3.7963488608e+01     0.187294    0.1444956  25.10 0.0003142161    1.470    0.320
        55 -10.5726    117.1996    124.5741   8.7344382486e+01   3.4135591968e+01     0.302063    0.2443234 -15.27 0.0006858762    1.490    0.329
        56 -11.1921    120.5078    121.9827   8.5799016827e+01   3.4089387695e+01    0.4365868    0.2473059 -33.70  0.001679236    2.124    0.529
        57 -10.5086    105.9561    130.8077   9.1929912101e+01   3.4766592921e+01    0.3614094    0.3118739 -73.10  0.001282773    1.212    0.175
        58 -10.2172    134.6587    105.7682   7.7731460757e+01   3.4785264805e+01    0.5123026    0.1422633 -44.01  0.001441648    3.526    0.716
        59 -10.9236    135.0000    113.9974   7.9860685307e+01   3.2909438264e+01    0.7886104   0.08848792 -45.05  0.001408484    8.726    0.885
        60  -9.9793    107.9467    119.0146   8.8577834644e+01   3.7205860944e+01    0.2195855    0.2105043 -34.72 0.0002894457    1.037    0.036
        61 -11.6860     34.9037    118.5745   1.1056992604e+02   4.7601746994e+01    0.2973195    0.2152196 -15.01  0.001380412    1.813    0.448
        62  -9.5442    168.3141    113.1598   7.1533576733e+01   2.5685697290e+01    0.2950709    0.2121307  84.87  0.001210635    2.128    0.530
        63 -11.0865    132.4799    171.8475   9.3545294033e+01   2.0327671279e+01      0.50089    0.2005731  40.56  0.001838762    2.403    0.584
        64 -12.2256     19.1785    109.2578   1.1396100746e+02   5.1162906553e+01    0.4800594    0.3076319 -51.51  0.002760348    1.370    0.270
        65 -10.2231    205.3069    110.1533   6.3230302905e+01   1.7933366735e+01    0.3389347    0.2393211  37.85  0.001147095    1.576    0.365
        66 -10.8781    115.7763    109.0184   8.3777946893e+01   3.8008308261e+01    0.3955739    0.3031165  -5.56  0.001790823    1.705    0.413
        67 -10.1852    244.6581    107.6702   5.6189492401e+01   1.0170993305e+01     0.138966    0.1042115   2.31 -4.908463e-05    1.746    0.427
        68 -11.8451    193.8350    195.9311   8.4537101412e+01   4.2970354373e+00     1.269567    0.7188458 -66.21   0.00383785    6.161    0.838
        69 -12.6203     55.3142    146.9586   1.0914927572e+02   3.8417411436e+01     3.554326    0.7541977 -55.89   0.01140298    3.686    0.729
        70 -10.6104     33.8334     99.9874   1.0761005933e+02   5.2210037998e+01    0.2445202    0.1723269 -83.04 0.0009028893    1.538    0.350
        71 -10.0348     53.0908     91.1068   9.9035333136e+01   5.2313752796e+01    0.2206733    0.1688203 -37.51 0.0005320123    1.225    0.183
        72 -13.7989     70.2311    156.5709   1.0663978687e+02   3.4138333342e+01    0.6224246    0.5607848 -31.10  0.001682843    1.326    0.246
        73 -14.8355     10.4947    206.3457   1.2530442501e+02   2.9407660663e+01    0.6880605    0.6559452  34.49  0.002469831    1.501    0.334
        74 -10.1359    158.1614     81.8186   6.5113267145e+01   3.4203391477e+01    0.2343337    0.2137837 -72.39  0.000589575    1.180    0.153
        75  -9.1065    184.5950     77.1734   5.8397382748e+01   2.8644506395e+01     0.208917    0.1442201 -22.13 0.0006232794    1.667    0.400
        76  -8.9629     56.5054     66.4899   9.0884560808e+01   5.7345915360e+01    0.1367252    0.1197505 -30.42 0.0008103925    1.031    0.030
        77 -10.9051     13.3805     59.8388   1.0645751613e+02   6.2904553670e+01    0.2468035    0.1852945 -56.79 0.0004416826    1.158    0.136
        78 -13.6506    189.9116     45.8607   4.8829872409e+01   3.2213344314e+01     1.158496    0.7709954  41.34 0.0009137431    1.754    0.430
        79 -11.3384    124.5828    244.2371   1.0616196336e+02   7.3895701880e+00    0.3549922    0.1498551 -57.38  0.001474456    2.889    0.654
        80 -12.9315     14.2434    190.0677   1.2352613870e+02   3.2548520194e+01    0.6402827    0.3686603 -56.96  0.002717995    1.926    0.481
        81  -9.7118     68.0402     52.0699   8.1530974722e+01   5.8503053132e+01    0.1990868    0.1886185  -3.06 0.0007122857    1.170    0.145
        82 -10.2908    146.1860     42.8379   5.5605892327e+01   4.3485976420e+01    0.2317582    0.2218479  66.45 0.0003758064    1.038    0.037
        83 -10.6345     44.4047    229.8890   1.2038491864e+02   2.1071536176e+01    0.3219339    0.2196647  65.77  0.002087294    1.182    0.154
        84 -11.1142     34.0818    227.1525   1.2213499227e+02   2.2783562372e+01    0.2387239    0.1944971 -38.03 0.0004243766    1.974    0.493
        85 -11.0740    188.1238     31.0451   4.5008368720e+01   3.4591252553e+01    0.2513454    0.1904676  71.58  0.000680143    1.247    0.198
        86 -11.5043    143.8501     48.6288   5.7990002501e+01   4.3230512096e+01    0.5271397    0.3387142 -81.75  0.002111883    2.595    0.615
        87  -9.5935    189.6459     14.9361   4.0454308684e+01   3.6055751630e+01    0.1827043    0.1604684 -52.69  0.000604421    1.153    0.133
        88 -12.9685     28.2672    215.7978   1.2247872148e+02   2.5698718252e+01      1.17076    0.3641461 -77.02  0.005214665    3.033    0.670
        89 -14.0570     43.8862    201.2058   1.1819391010e+02   2.7064853023e+01     1.251969    0.6661512  78.26  0.002960115    1.960    0.490
