#   1 NUMBER                 Running object number                                     
#   2 MAG_AUTO               Kron-like elliptical aperture magnitude                    [mag]
#   3 X_IMAGE                Object position along x                                    [pixel]
#   4 Y_IMAGE                Object position along y                                    [pixel]
#   5 X_WORLD                Barycenter position along world x axis                     [deg]
#   6 Y_WORLD                Barycenter position along world y axis                     [deg]
#   7 A_WORLD                Profile RMS along major axis (world units)                 [deg]
#   8 B_WORLD                Profile RMS along minor axis (world units)                 [deg]
#   9 THETA_WORLD            Position angle (CCW/world-x)                               [deg]
#  10 FWHM_WORLD             FWHM assuming a gaussian core                              [deg]
#  11 ELONGATION             A_IMAGE/B_IMAGE                                           
#  12 ELLIPTICITY            1 - B_IMAGE/A_IMAGE                                       
         1 -11.8230    232.7690     63.8835   3.0017215597e+01   2.0711704493e+01    0.4338689    0.2797706 -42.44  0.002580173    1.355    0.262
         2 -11.2425     39.5452      8.0587   5.5672967957e+01   7.3056784989e+01    0.4584667    0.2576161 -23.35  0.002113333    2.104    0.525
         3 -13.2287     44.5523     24.4276   6.2356455264e+01   6.9326687335e+01     1.185133    0.9842994 -29.29  0.006735626    1.185    0.156
         4 -10.9736     76.1187     25.3152   4.7576473071e+01   6.2769184714e+01    0.5082805    0.3093513 -10.45  0.002095336    2.409    0.585
         5 -12.0854    178.6431     24.0055   2.5503525589e+01   3.6975054396e+01    0.5405245    0.4404161 -55.66  0.003170896    1.139    0.122
         6 -11.6809    172.8626     20.8312   2.5197201398e+01   3.8723040968e+01    0.4558769     0.275924  48.38   0.00144518    1.848    0.459
         7 -10.2381    115.9258     16.2828   3.2114936184e+01   5.3943108124e+01    0.3847103    0.1386266 -42.98  0.001345467    2.997    0.666
         8 -12.2552     77.9371     13.8116   4.0990267692e+01   6.3963984259e+01    0.4766804    0.3323867  -7.99  0.002336852    1.703    0.413
         9 -12.4907    156.0088     11.6735   2.4222372751e+01   4.3896601475e+01    0.6396112    0.5511289 -47.99  0.003713055    1.135    0.119
        10 -13.4347    166.9014     10.5734   2.2687679138e+01   4.1245983200e+01     2.129103    0.4550427  61.20  0.007051255    3.752    0.733
        11 -12.4394    159.4673      3.1576   2.1069951205e+01   4.3805784725e+01     1.097412    0.3295615  68.25  0.004094024    2.863    0.651
        12 -10.2174     20.9988     13.9216   7.3206309473e+01   7.4774555376e+01    0.4092161    0.1757413 -37.72  0.001729598    2.422    0.587
        13 -12.8736    169.3730      2.8069   2.0056762953e+01   4.1346500411e+01     1.353351    0.2615187  73.50    0.0041486    4.489    0.777
        14 -11.6792    145.5239      4.5040   2.3000212103e+01   4.7285499131e+01    0.5227804    0.3726213  76.92  0.002791437    1.299    0.230
        15 -10.3088    141.5065      1.5072   2.2400770424e+01   4.8599996163e+01    0.2626134    0.1650372  76.18  0.001307813    1.462    0.316
        16 -11.1226    131.0579      3.9316   2.4617878826e+01   5.1154118137e+01    0.7226654    0.2505683  57.76  0.002739182    2.504    0.601
        17 -11.0060    121.6495      4.6633   2.6293124329e+01   5.3596849825e+01    0.4994649    0.3633688 -87.23  0.002585276    1.385    0.278
        18 -11.7532     71.1118      5.7412   3.8876012855e+01   6.6582998059e+01    0.4852341    0.2341322  61.13  0.002065308    1.989    0.497
        19 -10.0286    222.5226      4.5011   1.6893246878e+01   2.9097817297e+01    0.2457845     0.102242 -26.15  0.001207958    2.159    0.537
        20 -10.5868    208.3634      4.3469   1.7666294176e+01   3.2104745376e+01    0.2123847    0.1898819 -86.53 0.0009243358    1.161    0.139
        21 -10.7854    204.0520      4.5176   1.7977485784e+01   3.3035157253e+01    0.2850696    0.1784678  71.71   0.00163104    1.644    0.392
        22 -10.5415    106.4636      4.9824   2.9105612958e+01   5.7615750526e+01    0.4202432    0.1911953 -88.69  0.001400628    3.502    0.714
        23 -11.7192     85.5618      3.6523   3.3252813553e+01   6.3205911659e+01    0.5785342    0.3623156  62.44   0.00210037    1.443    0.307
        24 -10.9513     60.9197      2.2566   4.0628148039e+01   6.9382076071e+01     0.527774    0.2452425  46.98  0.002301883    1.916    0.478
        25  -9.6360    217.7243      2.0025   1.6551591263e+01   3.0316628077e+01    0.1715818    0.1371263 -49.81  0.001154154    1.038    0.037
        26  -9.8332     53.8491    143.3271   8.9475976238e+01   3.9378478946e+01    0.2416026    0.1864911  84.09  0.001256326    1.364    0.267
        27 -12.7487     10.8678    140.2248   1.0297919098e+02   4.4110049398e+01    0.5583382    0.3500713  79.90  0.003036154    1.501    0.334
        28  -9.4223     40.6597    141.6717   9.3512839079e+01   4.1237171071e+01    0.1400671   0.09984185 -33.00 8.650358e-05    1.737    0.424
        29  -9.4486    164.8601    134.8158   5.7306747965e+01   2.3008658988e+01    0.1797119    0.1717156  81.38  0.001067602    1.332    0.249
        30 -13.6042    240.8270    125.1650   4.2230365031e+01   1.1642860951e+01     1.036141    0.9136481  47.46  0.007494624    1.493    0.330
        31 -13.5975    244.8786    110.6919   3.8776326824e+01   1.2852530307e+01     1.334336    0.8773897 -45.59  0.007986639    1.668    0.401
        32  -9.3106    208.5939    123.2454   4.6586168980e+01   1.7059634150e+01     0.179079    0.1101144 -22.14 0.0007981919    1.574    0.365
        33  -9.8077    154.5073    120.4969   5.6371419290e+01   2.7550505576e+01    0.1436396    0.1346287   6.08 0.0008106432    1.004    0.004
        34 -11.2880    189.7579    115.3766   4.8052862230e+01   2.1625652879e+01    0.7009163    0.3644519 -12.87  0.002564288    3.468    0.712
        35 -10.7997      4.6591    124.6579   1.0418040023e+02   4.8335625811e+01    0.2872473    0.1338234  54.14  0.001332873    2.018    0.504
        36 -11.0431    212.9330    112.8926   4.3649375880e+01   1.7799160718e+01    0.4270788    0.2689454 -30.60   0.00235678    1.408    0.290
        37  -9.7449     95.1608    112.3121   7.0535234836e+01   4.0736890360e+01    0.3296087    0.1903825 -79.53   0.00110126    3.464    0.711
        38  -9.9043    224.5184    112.0368   4.1756484640e+01   1.5938746962e+01    0.2871177    0.1064544 -32.71  0.001256295    2.327    0.570
        39 -11.4347    223.0987    107.1438   4.0898534328e+01   1.6842850718e+01    0.4499571    0.2268795  43.63   0.00206768    2.194    0.544
        40 -10.0887    148.4880    111.0777   5.5496136206e+01   3.0514098625e+01    0.3258103    0.1381994 -47.00  0.001196824    2.567    0.610
        41 -11.0994     17.2045    104.2855   9.7987127174e+01   5.2782499936e+01    0.5468957    0.3236755  56.46  0.002671604    1.728    0.421
        42  -9.9128    155.8092    108.6187   5.3220142385e+01   2.9469589200e+01    0.2069935    0.1368123  55.25 0.0009540162    1.705    0.414
        43 -10.2193     30.6608    101.8340   9.2262580519e+01   5.2360758957e+01    0.2901406    0.1913607 -43.76  0.001428663    1.612    0.380
        44  -9.9435    112.8522    100.2605   6.2093152136e+01   4.0043144727e+01    0.3052335    0.1868602 -61.28  0.001239032    2.089    0.521
        45  -9.4292    208.6227     94.7356   4.0181581372e+01   2.1168963009e+01    0.1851576    0.1075949 -39.17  0.000681453    1.580    0.367
        46 -12.1685     11.0178    123.6334   1.0191436965e+02   4.8219153043e+01     0.504589    0.2585317  70.77  0.002360946    1.960    0.490
        47  -9.7059    179.0095     93.0262   4.4608357763e+01   2.7317787602e+01    0.2216289    0.1723998 -69.42  0.001138957    1.685    0.406
        48 -11.2780     13.0313     89.7298   9.8182501928e+01   5.6843982102e+01    0.2913132     0.225604  31.00  0.001485837    1.345    0.256
        49 -11.7272      2.6239     86.4929   1.0246752318e+02   5.8197805400e+01    0.7866614    0.2826907 -82.98  0.003115947    2.575    0.612
        50 -12.7561      5.1315     76.5785   1.0039298965e+02   6.0668160291e+01    0.9483237    0.5143376  61.84  0.004473248    2.018    0.504
        51 -12.7352     16.9293     74.5979   9.4363798746e+01   6.0554280588e+01     0.711349    0.4874949 -27.18  0.003698441    1.594    0.373
        52 -12.6888     11.7951     71.6252   9.6491780873e+01   6.1634467822e+01    0.6672986    0.4224895 -28.11  0.003200643    1.720    0.419
        53 -10.5544    192.7905     86.6517   4.0657215834e+01   2.5455465612e+01    0.3877262    0.2573765  59.76  0.001930473    1.714    0.417
        54 -12.7507     42.6339     80.7322   8.3276243834e+01   5.6606289464e+01     1.117812    0.8180739 -11.89   0.00549951    1.640    0.390
        55  -9.2593    100.5012     83.4912   6.1221285751e+01   4.6219727501e+01    0.1532021    0.1490876  29.59 -4.64142e-05    1.008    0.008
        56  -9.8085    144.8860     80.9069   4.8258856531e+01   3.6873083278e+01    0.2409762    0.2087937  16.65  0.001254044    1.268    0.211
        57  -9.7771    215.0669     80.0344   3.5829492692e+01   2.1978213621e+01    0.2109168    0.1432533 -57.04  0.001141653    1.728    0.421
        58 -10.0374    221.0411     77.9792   3.4589575231e+01   2.1118632686e+01    0.2890805    0.1733218 -67.58  0.001357472    2.694    0.629
        59 -10.2241    169.5934     76.5267   4.1964171527e+01   3.1992325940e+01    0.2780296    0.2521673 -62.33  0.001380613    1.166    0.142
        60  -9.4074    218.9276     71.5144   3.3329494406e+01   2.2361102726e+01    0.1748662    0.1268964  60.22  0.001028695    1.579    0.367
        61 -10.2331     74.8616     69.3769   6.6092052692e+01   5.4440689305e+01    0.3339254    0.2678058  38.19  0.001524769    1.228    0.186
        62 -11.9174    214.8950     66.5948   3.2636579281e+01   2.3783387634e+01    0.4158813    0.2404736 -19.36  0.002082195    1.859    0.462
        63 -10.8208    218.4924     61.8122   3.1066286623e+01   2.3682188448e+01    0.2141287    0.1862611  65.04  0.001167437    1.306    0.234
        64 -11.1803     25.4161     65.5053   8.8329799910e+01   6.2264188305e+01    0.5236066    0.2663088 -61.53  0.002226123    1.770    0.435
        65  -9.6009    178.9910     66.4861   3.7589220378e+01   3.1408662150e+01    0.2103384    0.1381049  59.58  0.001036799    1.602    0.376
        66 -11.0354    159.4724    231.9932   7.4700375955e+01   8.4724469271e+00    0.1931749    0.1223201  24.91  0.001065899    1.204    0.169
        67 -11.0682    209.6275     59.7881   3.1596234451e+01   2.5719305835e+01    0.3239685    0.1889154 -48.46  0.001659762    1.677    0.404
        68  -9.5257    248.2113     58.5759   2.7370723478e+01   1.8582891220e+01    0.1432229     0.105708  45.00 0.0008623592    1.676    0.403
        69 -10.7998    220.3428     53.5821   2.8888111707e+01   2.4329540770e+01    0.2125958    0.1754146 -74.73  0.001355892    1.322    0.243
        70 -10.4305     20.4759     89.0043   9.4800861764e+01   5.6547138495e+01    0.2189622    0.1276509 -74.54  0.001038572    1.610    0.379
        71  -9.5989    138.2138     56.3939   4.2196811553e+01   4.2641399568e+01    0.2103046    0.1427248  70.20 0.0008788596    1.640    0.390
        72 -11.7637    198.4342     52.5893   3.1111594891e+01   2.9004015983e+01    0.5059741    0.2610635 -22.90  0.002307008    2.053    0.513
        73 -11.4589    215.3687     51.0494   2.8792635304e+01   2.5634266522e+01    0.2995574    0.2699775 -49.38  0.001987776    1.052    0.049
        74 -10.0072    247.6541     49.3183   2.5405268152e+01   1.9715918927e+01    0.1240604   0.07116275 -53.47 0.0007048864    1.726    0.421
        75 -10.7995     85.0949     47.9217   5.4283168035e+01   5.6835044162e+01    0.5139064     0.304792  49.98  0.002223856    1.663    0.399
        76  -9.8050     35.0308     52.3149   7.9582318530e+01   6.4586037510e+01    0.1995311    0.1845645   2.33 0.0009433118    1.086    0.079
        77 -10.0229    164.8627     53.7114   3.6243033892e+01   3.6547032842e+01    0.2524103    0.1965694 -17.51 0.0009201738    1.410    0.291
        78 -11.6176      3.2579     41.0594   9.6471607433e+01   6.9791726775e+01    0.5371929    0.4223589  65.80  0.002613263    1.445    0.308
        79 -10.6887      6.0181     35.2242   9.3303246177e+01   7.1112624590e+01    0.3450628     0.199134  30.73  0.001720997    1.891    0.471
        80 -10.0583    242.3869     43.2216   2.4484587349e+01   2.1327127358e+01     0.176913   0.08490153 -37.19 0.0009003256    1.631    0.387
        81 -12.1914    190.8148     38.5558   2.8257814864e+01   3.2444875017e+01    0.7126815    0.1480375 -36.27  0.002379442    3.504    0.715
        82 -11.2590     80.5924     37.9746   5.1785580487e+01   5.9655221764e+01    0.4906889    0.4198871  88.40  0.002544199    1.441    0.306
        83 -11.4215    181.4548     40.2782   2.9875828874e+01   3.4398932793e+01    0.3795128    0.2341997 -52.12  0.001872275    1.623    0.384
        84 -10.4013      3.8586    230.2373   1.0782031260e+02   2.5628853066e+01    0.2468139   0.09493183  29.45  0.001400588    1.920    0.479
        85 -11.5834     49.7316     36.6847   6.5372711592e+01   6.6025218477e+01    0.8433308    0.5596817  80.32  0.003210269    3.421    0.708
        86  -9.3892    111.6616    228.6698   8.4173529596e+01   1.4843569357e+01    0.1193357     0.081482  -0.31 0.0007051908    1.737    0.424
        87  -9.7334     11.8064     32.5845   8.8369280183e+01   7.1432831805e+01    0.1808484    0.1594654  69.42  0.001104208    1.337    0.252
        88 -10.3688    197.6690     34.0994   2.6302866590e+01   3.1421481822e+01    0.2270689    0.1736908 -82.95  0.001318648    1.366    0.268
        89  -9.0207    132.3440     63.7020   4.5929736475e+01   4.2853306690e+01    0.1549673    0.1186372 -79.37 0.0007034922    1.672    0.402
        90 -10.4129    145.4867     27.7230   3.1103781875e+01   4.4850699111e+01    0.5320094     0.272133 -79.64  0.001888944    3.163    0.684
        91  -9.8136     90.1502     28.1514   4.3996993224e+01   5.9010224487e+01    0.2354904    0.1999486  25.64  0.001241039    1.233    0.189
        92 -11.2477    248.6981    224.5179   5.8271812282e+01  -7.1399192411e-01    0.3634448    0.2140585 -21.36  0.002730215    1.473    0.321
        93  -9.5717     31.5392    227.4656   1.0179552146e+02   2.3798913477e+01    0.1138923   0.08600486  42.51 0.0002351529    1.009    0.009
        94 -10.6216    158.6056    225.2089   7.4003751203e+01   9.4963296857e+00    0.1514667    0.0989202 -23.79  0.000953238    1.697    0.411
        95  -9.4331    224.2177     22.9731   2.1191859668e+01   2.6970314804e+01    0.1797707    0.1115017 -63.57  0.001032023    1.591    0.372
        96 -10.0581    187.5075     19.6430   2.3350540116e+01   3.5337150989e+01    0.2401954    0.2074786  78.45  0.001485972    1.177    0.150
        97 -10.4341    128.5627     18.3882   3.0568480855e+01   5.0366322073e+01    0.3544788    0.2618228  75.71  0.001660233    1.304    0.233
        98 -10.0349     94.5739     17.2906   3.7614336779e+01   5.9385775271e+01    0.3242117    0.2120596 -83.87   0.00140172    2.155    0.536
        99 -12.3317    203.5062    220.9201   6.5023318922e+01   4.5715934708e+00    0.5206547    0.2952337 -19.91  0.003323575    1.728    0.421
       100  -9.4902     14.3069     17.6671   8.0789075565e+01   7.4659114321e+01     0.124572   0.09981514  61.09 0.0005493703    1.666    0.400
       101  -9.8245    248.0351     16.3029   1.8191053912e+01   2.3054876048e+01    0.2195996   0.05442371 -49.45  0.000894692    3.370    0.703
       102  -9.8581    227.6504     15.4788   1.9187865983e+01   2.7027197197e+01    0.3084758    0.1413037 -85.30  0.001493038    2.661    0.624
       103 -11.9719    209.9461    215.5364   6.3118331318e+01   4.4498176549e+00    0.4470553    0.2853022  -9.47  0.003038795    1.389    0.280
       104 -13.2456    183.4303    217.5084   6.8157876015e+01   7.4191675093e+00    0.6205986    0.3979227   1.86  0.003947942    1.473    0.321
       105 -10.6752     50.9137    218.3628   9.6954937719e+01   2.3572973027e+01    0.2022799    0.1780462 -72.77  0.001477408    1.394    0.283
       106 -10.3298     66.5152    216.4924   9.3210124314e+01   2.2247290036e+01    0.1891645    0.1106744  85.07  0.001037257    2.292    0.564
       107 -10.3523     76.2738    220.4270   9.1276294866e+01   2.0438821598e+01    0.2455526    0.1013958  24.61  0.001153174    2.169    0.539
       108  -9.8700    129.5246     12.8364   2.8271400354e+01   5.0708527421e+01    0.3089049    0.1541471  52.29  0.001078131    1.927    0.481
       109  -9.5185    250.4932     11.4899   1.7030178494e+01   2.3062855742e+01    0.1130036   0.08746905 -45.61 0.0008105737    1.000    0.000
       110  -9.3743    141.3178    206.7996   7.5119936294e+01   1.4471296983e+01    0.2124357    0.1192982 -58.09   0.00108877    2.650    0.623
       111  -9.8743    123.9683    205.9899   7.8835840410e+01   1.6955146821e+01    0.1755101    0.1432772  23.86  0.001136591    1.011    0.011
       112 -11.4398    243.9529    201.6908   5.5513562349e+01   2.1284169324e+00    0.4327636    0.3301424 -29.30   0.00331027    1.658    0.397
       113  -9.6911    202.8118    197.1729   6.1513890124e+01   7.5899743119e+00    0.1935465    0.1438688   3.95  0.001260528    1.063    0.059
       114 -10.9365    204.1755    192.5422   6.0518011304e+01   8.0130106967e+00    0.3564194    0.1897707  15.25  0.001924731    1.960    0.490
       115 -11.4547    195.6596    185.0078   6.0793249696e+01   1.0171900235e+01    0.3302248    0.2756424 -27.84  0.002262356    1.374    0.272
       116  -9.8563     37.4938    185.4711   9.8120537784e+01   3.1463557163e+01    0.1247192    0.1064316  45.93 0.0008097254    1.033    0.032
       117  -9.8969     26.6573    180.3174   1.0066122507e+02   3.3580443964e+01     0.139531   0.07070309  52.42 0.0006534912    1.715    0.417
       118 -10.5504    101.0225    175.9507   8.0329444791e+01   2.5728481918e+01    0.1915257    0.1672209  31.46            0    1.005    0.005
       119  -9.4978    172.1955    163.4080   6.1506182482e+01   1.6911912003e+01    0.1826979    0.1156229  43.55 0.0009190002    1.693    0.409
       120 -11.1305    219.4486    155.8041   5.1397955572e+01   1.0782939475e+01    0.3261762    0.2154234  43.56  0.001960561    1.804    0.446
       121 -10.1877     20.7682    155.5763   1.0084620107e+02   3.9693975410e+01    0.1858388    0.1004723  36.63 0.0009465116    1.607    0.378
