#   1 NUMBER                 Running object number                                     
#   2 MAG_AUTO               Kron-like elliptical aperture magnitude                    [mag]
#   3 X_IMAGE                Object position along x                                    [pixel]
#   4 Y_IMAGE                Object position along y                                    [pixel]
#   5 X_WORLD                Barycenter position along world x axis                     [deg]
#   6 Y_WORLD                Barycenter position along world y axis                     [deg]
#   7 A_WORLD                Profile RMS along major axis (world units)                 [deg]
#   8 B_WORLD                Profile RMS along minor axis (world units)                 [deg]
#   9 THETA_WORLD            Position angle (CCW/world-x)                               [deg]
#  10 FWHM_WORLD             FWHM assuming a gaussian core                              [deg]
#  11 ELONGATION             A_IMAGE/B_IMAGE                                           
#  12 ELLIPTICITY            1 - B_IMAGE/A_IMAGE                                       
         1 -11.4717     58.5715    131.6752   9.6380414332e+01   4.2120951126e+01      1.53397    0.5424958 -72.10  0.003769584    5.950    0.832
         2 -12.6023    210.7809     40.2825   3.7036734445e+01   2.8408020958e+01     1.062098     1.030396  67.84  0.006818703    1.321    0.243
         3 -11.9863    226.3369     26.5794   3.2641020473e+01   2.6877148652e+01    0.6982939    0.5926003 -70.46  0.003121855    1.116    0.104
         4 -10.8441      2.2079     13.2260   8.6575485884e+01   7.2776316540e+01    0.8435709    0.1394282 -48.86  0.002833128    6.059    0.835
         5 -10.4846    248.4538      7.1332   2.7337981074e+01   2.4780765487e+01    0.4012318      0.25447 -71.83  0.002790642    1.236    0.191
         6 -10.3623    247.1559      2.8310   2.6644982335e+01   2.5486233910e+01    0.4124124    0.2115075  76.00   0.00260892    1.825    0.452
         7 -13.7180      9.0708    207.3932   1.1889747244e+02   2.8493406881e+01     2.179652     1.032503 -81.74  0.009612919    1.864    0.464
         8  -8.8947    116.2241    249.1141   9.9309401027e+01   6.1035537973e+00    0.2459974     0.169265 -42.02  0.001392236    1.739    0.425
         9 -10.3316     82.5282    214.7887   1.0267616453e+02   1.8112727623e+01    0.5437272    0.2967687 -70.15 0.0004499267    2.017    0.504
        10 -11.6285     31.0118    199.3050   1.1327835278e+02   2.8230400795e+01    0.5153361    0.4233774 -34.64  0.001287919    1.597    0.374
        11 -14.4098     40.7684    190.1384   1.1000385931e+02   2.9375902809e+01     11.05247     4.506047  80.77   0.03279556    5.131    0.805
        12 -10.1598     64.8394    168.6553   1.0087349120e+02   3.1782745724e+01    0.3563121    0.2693952 -38.93 0.0007893834    1.499    0.333
        13  -9.2949    102.2736    172.1886   9.1210086435e+01   2.5177153384e+01    0.3257111    0.2006171  46.17  0.001409653    1.652    0.395
        14  -8.8064     47.6205    168.5020   1.0561893718e+02   3.4001917727e+01    0.2773581    0.2476259  45.62  0.001421254    1.175    0.149
        15 -11.8440     61.9624    155.3795   9.9589160946e+01   3.5575114040e+01    0.5237192    0.3565686 -37.68  0.001207933    1.681    0.405
        16 -10.1150     81.6480    245.7923   1.0636320953e+02   1.1643938325e+01    0.3347175    0.2604393  62.00  0.002082353    1.202    0.168
        17  -9.2265     32.7146    156.3670   1.0820471534e+02   3.8729258527e+01    0.3120286     0.195608 -87.48  0.001523718    1.626    0.385
        18  -7.6509     99.2812    180.6342   9.3484416116e+01   2.3605005155e+01     0.154441    0.1130216  75.95 0.0007014856    1.685    0.406
        19  -8.2284    134.5067    148.5049   7.7852078888e+01   2.5001866386e+01    0.2393656    0.1518735 -59.87 0.0009876492    1.774    0.436
        20 -14.8900     16.1291    243.7522   1.1965195977e+02   1.9939715312e+01     6.172134     4.250965  28.34   0.04023198    1.679    0.405
        21  -8.2828    186.7522    175.4237   7.1473578354e+01   9.2163782816e+00    0.2660206     0.177388 -52.76  0.001265412    1.653    0.395
        22  -9.8660     98.6491    139.1786   8.5627620776e+01   3.4007344794e+01    0.6874266    0.4029729 -19.78  0.002294998    3.303    0.697
        23 -10.7036     85.0578    138.6965   8.9560724640e+01   3.6435092913e+01    0.3486749    0.2857345 -40.73 0.0004563865    1.232    0.188
        24  -8.3127     74.9060    207.9373   1.0365207935e+02   2.0762101554e+01    0.2227801    0.1489303  68.20 0.0006427245    1.632    0.387
        25  -9.2751    107.0278    130.4299   8.1192717827e+01   3.4622660026e+01    0.4941813    0.3054492  30.89  0.002069162    1.772    0.436
        26  -8.0589     96.7165    125.0294   8.2956477362e+01   3.7826724750e+01    0.2185128    0.1950821 -41.02 0.0004436104    1.097    0.089
        27 -10.7074    126.5635    222.9810   9.3500266118e+01   9.6468288001e+00    0.4357107     0.293961  38.76   0.00190276    1.348    0.258
        28  -8.0246    105.9457    118.6596   7.8635404905e+01   3.7631804710e+01    0.2064311    0.1923451  35.75 0.0002962276    1.094    0.086
        29  -8.2686    160.8193    117.5280   6.4102525752e+01   2.6425608022e+01    0.2409237    0.2026918 -69.06 0.0007939237    1.306    0.234
        30  -7.6021     76.7689    111.9938   8.6089317811e+01   4.4378116362e+01    0.1977546    0.1199977 -52.66 0.0004241976    1.574    0.365
        31 -12.1956     68.4552    144.7877   9.5798905852e+01   3.7410354537e+01     1.345732    0.8267215  82.05  0.003595604    2.500    0.600
        32 -10.4372     59.4300    174.0281   1.0314647577e+02   3.1134703507e+01    0.4709427    0.2966691 -35.76  0.002058637    2.059    0.514
        33  -7.8538    205.4489    110.2557   5.3658778684e+01   1.8396113873e+01    0.1990845    0.1223677 -50.28 0.0009219014    1.539    0.350
        34 -10.7791     75.1064    159.3221   9.6454047491e+01   3.2717610443e+01    0.6269838    0.5026525 -65.95 0.0007243089    1.201    0.167
        35 -11.0833     82.5251    153.4518   9.3252024396e+01   3.3092166974e+01     1.034294    0.5034217 -49.84  0.003923313    1.996    0.499
        36 -11.2238     13.0710     61.0406   9.7569046181e+01   6.3333690232e+01    0.4954574    0.2510344 -47.39  0.001684555    1.585    0.369
        37  -7.7577     35.5553     63.4735   8.8226409897e+01   6.0790923055e+01     0.132265    0.1116515 -23.35 7.821785e-05    1.008    0.008
        38  -7.9537     39.9613     58.4589   8.4705513108e+01   6.1269381906e+01    0.1798402    0.1215979  26.50 0.0003891018    1.504    0.335
        39  -9.6489     19.8967     55.7077   9.2874807744e+01   6.3884731037e+01    0.4031509     0.167851  38.55  0.001760052    3.187    0.686
        40 -11.1527      3.3690     50.2467   9.9194808238e+01   6.6156171888e+01    0.4822511    0.3400927 -40.27  0.002623908    1.117    0.104
        41 -10.7309      1.9299     39.1862   9.6626006166e+01   6.8380658399e+01    0.6056269    0.1131662 -56.98  0.002149241    4.427    0.774
        42 -12.1270    201.6291     46.9351   3.9584843493e+01   2.9504985640e+01    0.8124974    0.5667391  59.64  0.003288205    1.493    0.330
        43  -9.3114    115.3912    242.0094   9.8607489669e+01   7.5703763456e+00    0.2916247    0.1590258 -62.50  0.001424816    2.221    0.550
        44 -10.8961    219.5399     32.9968   3.4579680438e+01   2.7489082993e+01    0.4445444    0.3140162  58.30  0.001175046    1.620    0.383
        45  -8.2702     42.1829    230.8141   1.1345863592e+02   1.9809966290e+01    0.1885441    0.1419698  67.23  0.000608649    1.143    0.125
        46 -11.1615    127.0015    228.9715   9.4271514624e+01   8.3696283708e+00    0.6156638    0.3789079  54.81  0.002974421    1.898    0.473
        47  -8.5943    198.0105     23.9245   3.4724155679e+01   3.3213912460e+01    0.1806795    0.1446114  40.86 0.0007150137    1.687    0.407
        48 -10.1307     20.4997    194.4713   1.1534533311e+02   3.0445714143e+01    0.2627287    0.1673479  68.23 0.0006883132    1.470    0.320
