#   1 NUMBER                 Running object number                                     
#   2 MAG_AUTO               Kron-like elliptical aperture magnitude                    [mag]
#   3 X_IMAGE                Object position along x                                    [pixel]
#   4 Y_IMAGE                Object position along y                                    [pixel]
#   5 X_WORLD                Barycenter position along world x axis                     [deg]
#   6 Y_WORLD                Barycenter position along world y axis                     [deg]
#   7 A_WORLD                Profile RMS along major axis (world units)                 [deg]
#   8 B_WORLD                Profile RMS along minor axis (world units)                 [deg]
#   9 THETA_WORLD            Position angle (CCW/world-x)                               [deg]
#  10 FWHM_WORLD             FWHM assuming a gaussian core                              [deg]
#  11 ELONGATION             A_IMAGE/B_IMAGE                                           
#  12 ELLIPTICITY            1 - B_IMAGE/A_IMAGE                                       
         1 -14.2712    219.3316      5.7425   3.8886834657e+01   2.9195515931e+01     2.064194     1.046127  70.69  0.005327393    1.814    0.449
         2 -15.2773    193.7664     35.7141   4.9713840390e+01   3.2095145354e+01     3.509928      2.11923  22.32    0.0140529    2.789    0.641
         3  -9.9959     49.7925    216.7976   1.2168342388e+02   2.3752376248e+01    0.3016941    0.2216916   0.70  0.001678736    3.060    0.673
         4 -12.1495    248.9990    247.6598   8.8260601864e+01  -1.1518738588e+01    0.4817192    0.2335291 -24.69   0.00284516    2.161    0.537
         5 -10.1443     42.4761    206.3456   1.2226085268e+02   2.6726685535e+01    0.2728334    0.1940067 -48.57  0.001706459    2.041    0.510
         6 -11.9025     32.9806    206.7773   1.2411828046e+02   2.7719978347e+01    0.3842813    0.1550184  61.28  0.001928551    2.300    0.565
         7 -11.8574    193.3344    195.5828   8.9480518897e+01   4.2551192635e+00     1.000845     0.561285 -63.59  0.003556127    4.481    0.777
         8 -11.0113     96.9624    201.0784   1.1058742420e+02   2.0329612925e+01    0.3831604    0.2907201  31.46  0.002217475    1.516    0.340
         9 -13.4851     56.4205    199.7793   1.1891399109e+02   2.6379457741e+01     0.555532    0.2889764 -61.17  0.002583086    1.984    0.496
        10 -18.0006     30.4429    242.4623   1.2679121017e+02   2.1221008973e+01     7.807036     4.005462  38.30   0.03435988    1.963    0.491
        11 -12.0404    202.9188    198.5045   8.8140344171e+01   2.0513440041e+00    0.3710618    0.3103254  11.92  0.002241183    1.100    0.091
        12  -9.1784    161.0159    199.4895   9.6759158138e+01   9.5379777148e+00    0.1981525    0.1219237  42.51 0.0009802612    1.443    0.307
        13  -9.2308     44.0344    198.2164   1.2128622393e+02   2.8225469088e+01    0.1512712    0.1181571  66.43  0.001020695    1.093    0.085
        14 -11.1072     35.0780    197.3180   1.2300362899e+02   2.9436997065e+01    0.1726676    0.1173855  60.53 0.0004155044    1.240    0.194
        15 -11.4418    151.9742    195.7926   9.8038415291e+01   1.1880689118e+01    0.3476749    0.1802032  42.07  0.001078341    1.725    0.420
        16 -10.0015     82.1180    195.1691   1.1303116638e+02   2.3820836189e+01    0.2178484    0.2008004  56.15  0.001428234    1.215    0.177
        17 -10.8947    158.6578    235.5472   1.0270890712e+02   3.9407052864e+00    0.2915766    0.1835595  28.67  0.001024857    1.587    0.370
        18 -13.2407     66.6482    186.1551   1.1533554641e+02   2.7955384305e+01    0.7560485    0.6456392 -51.53  0.003411929    1.468    0.319
        19 -11.1216     96.0372    189.8324   1.0931806042e+02   2.2823845741e+01    0.4074088    0.2938651  24.62  0.001475548    1.799    0.444
        20  -9.5181     56.1516    211.0269   1.1998534404e+02   2.4104631076e+01    0.3247146    0.1415292  60.84   0.00110395    2.240    0.554
        21  -9.3573     47.2480    191.5423   1.2003661411e+02   2.9260369353e+01     0.133565   0.07258416  75.07 0.0006859076    1.833    0.454
        22  -9.1764     87.5057    202.4303   1.1274742981e+02   2.1505346411e+01     0.126722    0.1102734  65.74 0.0001917989    1.076    0.070
        23  -9.3166    168.8043    234.7540   1.0066820409e+02   2.3805508902e+00    0.1546541    0.1273661  53.07 0.0004149954    1.264    0.209
        24 -10.2502    153.2018    184.1761   9.5756428335e+01   1.3872494332e+01    0.1977423    0.1671243  80.06  0.001072907    1.391    0.281
        25 -11.9209    146.0701    182.4903   9.7019698419e+01   1.5560972660e+01    0.3502735    0.2858956  51.73  0.000882958    1.158    0.136
        26 -12.1231    141.5448    175.1789   9.6710415705e+01   1.7909892352e+01    0.8312024     0.518835  82.23  0.002714928    3.097    0.677
        27 -11.3368     99.3155    180.7141   1.0729189071e+02   2.4265757706e+01    0.2725833    0.2357725  36.71 0.0005993085    1.274    0.215
        28 -10.7441    188.5633    175.6201   8.6596536945e+01   8.5973998492e+00    0.5227482    0.2544992 -51.52    0.0020613    2.668    0.625
        29 -10.5321    204.4047    175.5907   8.3400852584e+01   5.5276363307e+00    0.3452583    0.2891147 -45.72  0.001153384    1.369    0.270
        30 -10.2780     59.0454    176.7647   1.1595192675e+02   3.1046110740e+01    0.1945555    0.1589176 -86.49 0.0004013425    1.081    0.075
        31 -10.3786    196.4290    175.0855   8.4886656566e+01   7.1551726983e+00    0.3201321    0.2745568 -58.87  0.001472668    1.454    0.312
        32 -11.5205     60.3206    232.5933   1.2096992445e+02   1.9410788281e+01    0.1966974    0.1325794  66.69 0.0005426033    1.176    0.149
        33  -9.9376     66.3514    174.2171   1.1398224988e+02   3.0656683359e+01    0.2842804    0.2334154  75.68  0.001753386    1.062    0.058
        34 -16.5148     70.4317    146.6305   1.0908410969e+02   3.6540553324e+01     8.417686     4.238411  74.09   0.01684203    3.663    0.727
        35 -11.2702     44.1101    172.5647   1.1885621278e+02   3.3811550195e+01    0.6332158    0.2133997  47.48  0.002207153    2.766    0.638
        36 -10.7906    229.9554    166.4657   7.6665068996e+01   2.2141361350e+00    0.3595573    0.1610429 -50.21   0.00127848    3.629    0.724
        37 -10.3285    186.7469    165.2170   8.4828536996e+01   1.0863910797e+01    0.2838815     0.192303 -31.96 0.0009661273    1.561    0.359
        38 -19.2070      8.2627    104.5902   1.2016206326e+02   5.2863554572e+01     15.97294    0.7897913 -71.24   0.02880581   14.254    0.930
        39 -10.4499    187.9039    152.7702   8.1885207026e+01   1.2971523135e+01    0.2876113    0.2034937 -68.49  0.001250512    2.123    0.529
        40 -11.6076    133.8569    145.6115   9.2642052317e+01   2.5811908063e+01     1.254454    0.3259343 -54.83  0.003018698    5.633    0.822
        41 -10.0223     61.9894    220.2327   1.1965344054e+02   2.1531267424e+01      0.21211     0.131894  73.53  0.001287846    1.448    0.309
        42 -10.6486    174.3477    148.7257   8.3886194116e+01   1.6643573107e+01    0.3943741    0.2794126 -60.05  0.001341181    1.730    0.422
        43 -11.0729    144.1275    146.4852   9.0336433670e+01   2.3518118946e+01    0.4942673    0.2751586 -66.34  0.001771044    2.785    0.641
        44 -11.8549     66.6890    206.1554   1.1744082719e+02   2.3711080350e+01    0.3806773     0.255999 -37.29 0.0004401182    2.628    0.620
        45  -9.6400    110.5023    140.4881   9.7468753646e+01   3.1503984021e+01     0.266008    0.2083704 -85.67 0.0006219489    1.446    0.309
        46 -11.4626    106.8774    138.3474   9.7971874105e+01   3.2667929455e+01    0.5887179    0.3459156 -37.78  0.002449518    2.099    0.524
        47 -12.4601     94.7785    138.4249   1.0119283260e+02   3.4762561020e+01    0.2830642    0.2747071 -69.51 0.0004235243    1.091    0.084
        48  -9.5863    117.2974    133.6669   9.4226921124e+01   3.1812194300e+01    0.1558661    0.1184035  85.74 0.0003113997    1.646    0.392
        49 -11.3186    105.4632    131.0014   9.6783908397e+01   3.4656102435e+01    0.4644885     0.412327   0.09  0.002453546    1.374    0.272
        50 -11.0202    135.7103    127.7339   8.8096052950e+01   2.9437404347e+01    0.6640069     0.191887 -49.39  0.001896911    3.605    0.723
        51 -10.9367    114.4156    129.4475   9.4038551224e+01   3.3348120054e+01    0.3515864    0.2919556 -18.94 0.0007346647    1.485    0.327
        52 -10.0626    160.8644    128.0898   8.2064339149e+01   2.3857584642e+01    0.2501021    0.2210222 -84.35   0.00123853    1.298    0.230
        53 -11.2531    120.2135    123.2666   9.1046701366e+01   3.3644513564e+01    0.6892433    0.3808703 -25.45  0.002228011    3.509    0.715
        54 -11.1824    101.8873    125.3947   9.6518400559e+01   3.6627631519e+01    0.3087642    0.2593647 -15.68  0.001107623    1.486    0.327
        55 -10.1449    109.8107    118.5709   9.2737779293e+01   3.6765237407e+01    0.2506403    0.2030666 -50.80  0.000378619    1.192    0.161
        56 -10.2674    167.5102    112.3460   7.6504892843e+01   2.5598058284e+01    0.3392928     0.268046 -82.49  0.001527517    1.648    0.393
        57  -9.7457    134.7684    112.1404   8.4400520822e+01   3.3109789046e+01    0.3819608    0.1293852 -43.29  0.001174799    2.952    0.661
        58 -11.6877    118.2829    110.4898   8.8369141150e+01   3.6956238536e+01    0.6597823     0.439882  64.25  0.002783592    1.938    0.484
        59 -10.3032    205.2824    110.1078   6.8121765218e+01   1.7164795553e+01    0.3421191    0.2252046  46.68 0.0009673936    1.575    0.365
        60  -9.8391    134.5566    105.8111   8.2756431376e+01   3.4541661581e+01    0.3874806    0.1515098 -46.75  0.001280068    2.560    0.609
        61  -9.2095    155.0521     81.4930   7.0647479814e+01   3.4706984441e+01    0.2309585    0.1550513  51.01 0.0004199313    1.488    0.328
        62  -9.0824    184.3759     77.2844   6.3225527503e+01   2.8140208571e+01    0.1617632    0.1190606  25.14  0.000701505    1.716    0.417
        63  -9.5283     67.6903     71.1178   9.2951205664e+01   5.4644280528e+01    0.1920296    0.1561527 -40.50  0.000425098    1.095    0.087
        64 -11.5690    158.1621     60.0986   6.3339177872e+01   3.7715533284e+01    0.4917893    0.3353895 -86.03 0.0004387537    2.133    0.531
        65 -10.6031     72.3546    202.8705   1.1594984743e+02   2.3609440796e+01     0.337606    0.1889143  66.57  0.001598791    1.798    0.444
        66 -13.3264    178.3669     50.2086   5.6380304591e+01   3.4057796703e+01    0.8321473    0.7470464  31.02  0.000842432    1.217    0.178
        67  -9.2736    168.1690    248.1156   1.0261517896e+02   5.6021246887e-01    0.1475365    0.1184785  51.04 -0.000430966    1.256    0.204
        68 -11.0074     44.0869    210.1689   1.2225008987e+02   2.5761695358e+01    0.2197985    0.1222304  69.09 0.0006620013    1.588    0.370
