#   1 NUMBER                 Running object number                                     
#   2 MAG_AUTO               Kron-like elliptical aperture magnitude                    [mag]
#   3 X_IMAGE                Object position along x                                    [pixel]
#   4 Y_IMAGE                Object position along y                                    [pixel]
#   5 X_WORLD                Barycenter position along world x axis                     [deg]
#   6 Y_WORLD                Barycenter position along world y axis                     [deg]
#   7 A_WORLD                Profile RMS along major axis (world units)                 [deg]
#   8 B_WORLD                Profile RMS along minor axis (world units)                 [deg]
#   9 THETA_WORLD            Position angle (CCW/world-x)                               [deg]
#  10 FWHM_WORLD             FWHM assuming a gaussian core                              [deg]
#  11 ELONGATION             A_IMAGE/B_IMAGE                                           
#  12 ELLIPTICITY            1 - B_IMAGE/A_IMAGE                                       
         1  -8.9449     39.3924      7.6136   1.0733203025e+02   7.1335244204e+01    0.3932657     0.268354  15.11  0.002181145    1.563    0.360
         2 -10.5616     38.8309     29.8738   1.1901508971e+02   6.7106992444e+01    0.8236381    0.4020924 -54.67  0.003745082    1.950    0.487
         3 -11.9013     44.1918     21.3875   1.1229498255e+02   6.8149553768e+01     1.267674     1.093748 -74.67  0.007411402    1.684    0.406
         4 -10.1993    103.4370     12.2169   8.4349344408e+01   5.7972783244e+01    0.6999507    0.4573312 -23.68  0.003370266    1.483    0.326
         5 -12.1206     81.3088      9.2902   8.9524034457e+01   6.3401512493e+01     2.395449     1.201614  -2.93  0.008800258    2.988    0.665
         6 -12.1750    115.2949      3.8112   7.7501810415e+01   5.5922454613e+01     2.700307     0.641437  66.66  0.007449714    4.748    0.789
         7 -11.5442    155.6280     20.5961   7.6971506193e+01   4.3794283459e+01      1.10553    0.5410247  53.84  0.003693693    1.943    0.485
         8 -13.9294    164.3818      9.4316   7.1584643350e+01   4.2641239253e+01     3.823539     2.254784  65.46   0.01764137    1.669    0.401
         9 -10.5921    248.9950     15.3780   6.5171254623e+01   2.1975244470e+01    0.7948357    0.2525458 -19.20  0.003079881    3.007    0.667
        10 -10.6354    248.8843      6.5605   6.2976573084e+01   2.2788585926e+01    0.5082292    0.4049312  44.27  0.003265496    1.479    0.324
        11 -10.5784    116.8312     17.6749   8.3508407218e+01   5.4056063447e+01    0.8941376    0.3740152 -35.35  0.003388359    2.356    0.576
        12  -9.5382     94.0512     17.6217   8.9706648040e+01   5.9483624042e+01    0.4949543    0.4101974 -67.41  0.002386483    1.652    0.395
        13 -10.6715     71.4801      5.2496   9.0766842953e+01   6.5995874526e+01    0.6295858    0.3908536  35.84  0.002411969    1.572    0.364
        14  -9.9190     64.0167     16.3588   1.0011776627e+02   6.5857266650e+01    0.6955715    0.3430674 -49.05   0.00274941    2.822    0.646
        15 -11.0517    128.5663     17.5647   8.0819046508e+01   5.1118109728e+01    0.9332138    0.6579128  55.04  0.004545566    1.390    0.281
        16  -8.3093     20.5208     14.6086   1.2274917923e+02   7.2202350124e+01    0.2899228    0.1987958 -49.43  0.001708333    1.243    0.195
        17  -9.3525    117.5240     13.9683   8.1679628600e+01   5.4315246749e+01    0.3463268    0.2273139  21.42  0.001113182    1.667    0.400
        18  -8.5716     51.7885      2.0968   9.7270517246e+01   7.0203620601e+01    0.2580214    0.2170368 -23.18  0.001474321    1.191    0.160
        19  -9.1732     54.7707      7.7935   9.9407250474e+01   6.8848468228e+01     0.521655    0.3716814 -88.53  0.002054794    4.241    0.764
        20  -8.3869     48.8107      6.4012   1.0149195844e+02   7.0077349774e+01    0.2449485    0.1648083  16.81 0.0009730584    1.577    0.366
        21 -10.5376    203.2597      5.6581   6.6120862595e+01   3.3142553321e+01    0.5528849    0.3379292  19.93  0.002611907    2.050    0.512
        22  -9.3594    229.7872      5.8653   6.4072963493e+01   2.6948509092e+01    0.2634455    0.2180424  23.84  0.001366373    1.378    0.274
        23  -9.4620    222.2439      3.8066   6.4060261541e+01   2.8827048545e+01    0.3793314    0.1623096 -19.41   0.00166199    2.191    0.544
        24  -9.4799    214.6084      4.7987   6.4920447337e+01   3.0509976684e+01    0.2578453    0.2231191 -32.90  0.001578872    1.061    0.057
        25  -9.0518    217.0002      2.0011   6.3945825454e+01   3.0188103046e+01    0.2291952    0.1934924  86.34  0.001399449    1.246    0.197
        26  -9.8861     61.5136      2.0821   9.2836434354e+01   6.8398506177e+01    0.5505744    0.2552252  41.44  0.002450739    2.124    0.529
        27  -8.6238     26.0144      2.6450   1.1250893481e+02   7.3954997197e+01    0.2969807    0.1611076 -41.67  0.001559745    1.574    0.364
        28 -10.2276    111.2800     15.7673   8.4003331392e+01   5.5651840442e+01     0.747823    0.3429825  39.19  0.002638871    2.307    0.567
        29  -8.4826     16.4919      1.6465   1.1858115809e+02   7.5152584383e+01     0.243515    0.1564142  34.02  0.001203441    1.942    0.485
        30 -10.9937    131.7567      3.0586   7.4022807881e+01   5.1753947891e+01     1.018186    0.3769788  63.33  0.003785522    2.473    0.596
        31  -7.8351    203.7150     75.9672   8.6825224511e+01   2.4812027791e+01    0.2080206    0.1732559 -21.66 0.0007106785    1.086    0.079
        32  -8.5507     63.0954     70.2016   1.2217849855e+02   5.4948964096e+01    0.3424646    0.1605286 -41.78  0.001393804    2.131    0.531
        33  -8.5672     83.0108     69.9473   1.1484705043e+02   5.1963792584e+01     0.242325    0.1761349 -12.22  0.001117558    1.735    0.424
        34  -8.9608     74.3833     68.4509   1.1746189869e+02   5.3699712308e+01    0.4894075    0.3708963 -22.61   0.00249113    1.457    0.313
        35  -8.1587     33.8894     68.7988   1.3332494517e+02   5.8571695578e+01    0.2701938    0.1480576 -16.87  0.001178166    2.762    0.638
        36  -9.9372     16.6128     64.4061   1.3957486729e+02   6.0930933077e+01    0.3567922     0.222598  75.53  0.001799236    1.903    0.475
        37  -9.1459     48.4285     62.3176   1.2574343125e+02   5.8657194463e+01    0.3820344    0.2599265  31.64  0.002015319    1.654    0.395
        38  -8.5445     12.2381     60.9138   1.4081401450e+02   6.2034230014e+01    0.2471084    0.1246808 -37.61  0.001227838    2.078    0.519
        39  -7.7476     93.4887     57.4764   1.0701486706e+02   5.2728535648e+01    0.1503902    0.1389657 -24.34 0.0008100202    1.021    0.021
        40  -8.0580     10.1589     55.9581   1.4084958657e+02   6.3349225615e+01    0.2573897    0.1262649 -70.78  0.001293204    1.643    0.391
        41  -9.0469     66.6730     54.2292   1.1573034334e+02   5.8067912067e+01    0.5012233    0.2176571 -59.84  0.001716862    3.222    0.690
        42  -8.6920     90.7539     51.7215   1.0580964431e+02   5.4410436142e+01     0.401156    0.1889087  43.68  0.001583106    2.260    0.558
        43 -10.7255      3.4995     75.8070   1.4640917095e+02   5.8818476140e+01    0.7528934    0.4325218  63.60  0.004122856    1.907    0.476
        44  -7.4826     22.6673     52.2871   1.3438530651e+02   6.3476688271e+01    0.1244331   0.09452256  70.16 0.0003300398    1.623    0.384
        45 -10.1905     82.3722     46.6216   1.0681593318e+02   5.7007373776e+01    0.5930448    0.4963518 -35.23  0.003196018    1.110    0.099
        46  -8.9745     81.0141     36.4654   1.0307514633e+02   5.9203175638e+01    0.2104439    0.1899233   8.46  0.001175739    1.092    0.084
        47  -9.5829     82.1744     40.1343   1.0422507461e+02   5.8299058889e+01    0.3774482    0.2849534  12.59   0.00175376    1.484    0.326
        48  -7.6708    111.3719     45.6754   9.6859518397e+01   5.1213822704e+01    0.1547464    0.1217344 -72.23 0.0007031707    1.815    0.449
        49 -10.4188      3.1704     39.3482   1.4100340694e+02   6.7657988400e+01    0.5764608    0.3702061 -74.34  0.002355998    1.327    0.246
        50  -8.2803     97.4138     43.1958   1.0018690273e+02   5.4682214582e+01    0.2231249    0.1330897 -45.15 0.0008630165    1.752    0.429
        51  -9.5589    108.4890     39.3567   9.5154211808e+01   5.2931693015e+01    0.4145431     0.277327   4.40  0.001778457    1.934    0.483
        52 -10.6015    184.5830    246.4352   1.2394669615e+02   4.6457256335e+00    0.4267218    0.1518604  42.39  0.002202928    2.701    0.630
        53 -10.1643     50.7082     35.1672   1.1535240201e+02   6.4479035925e+01    0.6869572    0.3882813 -58.19  0.003105519    2.054    0.513
        54 -10.6036    174.0075    241.8220   1.2518623120e+02   6.4753728993e+00    0.2856117    0.2184443  62.98  0.002007117    2.288    0.563
        55  -9.6330    162.9938    244.6811   1.2740514279e+02   7.5471715452e+00    0.1569627    0.1049062  30.92 0.0005635606    1.098    0.090
        56  -8.8191     69.6099     36.7395   1.0767382394e+02   6.1228357940e+01    0.3446907    0.2678268 -35.40  0.001846091    1.165    0.142
        57  -8.4731     27.1137     35.7723   1.2742963395e+02   6.7003611260e+01    0.2300676     0.180667   4.51  0.001103189    1.441    0.306
        58  -8.7225     11.8085     33.6869   1.3502410134e+02   6.8585897385e+01    0.4202937     0.270735 -85.91  0.001867426    1.815    0.449
        59  -9.2801    200.0196    240.4931   1.2063821489e+02   3.3258449410e+00    0.1679242   0.07836797  33.03  0.001038007    1.605    0.377
        60 -10.9299    205.1399    225.8492   1.1780434727e+02   4.1915014476e+00    0.3363702    0.2167799  23.69  0.002357532    1.156    0.135
        61  -7.7111     37.6930    185.3585   1.4611349441e+02   3.1769077819e+01    0.1210888   0.06379788  61.52 0.0007040848    1.729    0.422
        62 -11.7494     10.5439    139.2642   1.4946373307e+02   4.3543442514e+01      0.58697    0.3858691 -84.90  0.003807714    1.286    0.222
        63 -11.4073     12.4774    128.9107   1.4827947107e+02   4.5728411893e+01    0.7167233    0.2906938  86.93  0.003350655    2.422    0.587
        64  -8.8411     85.6099     31.1831   9.9020216036e+01   5.9228650921e+01    0.3145556    0.1983736 -13.36  0.001380191    1.868    0.465
        65  -8.6865     89.8229     28.0648   9.6107651490e+01   5.8867455449e+01    0.3867923    0.2961245   3.00  0.001813852    1.371    0.271
        66  -8.8610    125.4052     28.8011   8.6246534870e+01   5.0505412435e+01    0.3369079    0.2849196 -33.53   0.00175079    1.202    0.168
        67  -8.6639     97.8214     27.3825   9.3180433306e+01   5.7231936833e+01    0.3720717    0.2263354  14.78  0.001515001    2.240    0.554
        68  -9.3625    104.3289     25.5312   9.0372684467e+01   5.6024916192e+01    0.4745544     0.373719  34.40  0.002440329    1.247    0.198
        69  -8.1031     10.2997     25.9895   1.3358864087e+02   7.0447357035e+01    0.2762092    0.1131419 -27.96  0.001184386    2.900    0.655
        70  -9.2283     41.0135    142.6357   1.4190600692e+02   4.0299081723e+01    0.2166836    0.1569621 -50.11  0.001321862    1.548    0.354
        71 -12.6429    241.2761    132.9579   9.4901888949e+01   9.7975755752e+00      1.34986    0.9268091  36.01   0.00431028    1.503    0.335
        72  -8.7618     21.9594    125.4654   1.4541047565e+02   4.5840172062e+01    0.1664737     0.115873  30.39  0.000754592    1.578    0.366
        73 -11.3360     11.5825    118.2609   1.4773440586e+02   4.8233121601e+01    0.5049266    0.3682168  83.77   0.00328831    1.168    0.144
        74  -8.2402     44.0391     38.8922   1.2002872189e+02   6.4541217880e+01    0.2768725    0.1733787  47.63  0.001351422    2.145    0.534
        75 -10.2554    225.2635     28.6658   7.0671666670e+01   2.5788972740e+01    0.4324746    0.3415745   6.59  0.001347116    1.362    0.266
        76  -9.9445      3.1159    139.3464   1.5132981585e+02   4.4008070904e+01     0.254363    0.1758119 -84.30  0.001220845    1.220    0.180
        77 -10.5449     17.4692    105.0185   1.4478097026e+02   5.0974863176e+01    0.6148213     0.367026  70.58  0.003388069    1.706    0.414
        78  -8.5172    235.6371    106.2996   8.9662473264e+01   1.4189118723e+01    0.1267433    0.1019832 -52.86 0.0006672657    1.722    0.419
        79 -10.0008     29.9306    102.4947   1.4051826055e+02   5.0659818932e+01    0.4256583    0.2369442 -45.13  0.002172142    1.925    0.481
        80  -9.7785     46.9217     97.8776   1.3422159951e+02   5.0211600324e+01    0.4351299    0.1872865 -69.80   0.00182778    2.235    0.553
        81  -9.8205     51.9152     80.3688   1.2896018607e+02   5.3924838450e+01    0.3833418    0.2225979 -56.32  0.001870718    1.495    0.331
        82 -11.7506     43.2665     83.0436   1.3271162537e+02   5.4203783586e+01     1.100775    0.7035738 -49.34  0.005794534    1.435    0.303
        83  -9.4030     34.8018     79.8446   1.3522162002e+02   5.5786507750e+01    0.3579815    0.2492685 -83.81   0.00135461    1.452    0.311
        84  -9.1978      2.5160     89.1573   1.4810184072e+02   5.5631361894e+01    0.3833151    0.1851121 -85.40  0.001683739    1.752    0.429
        85  -8.9538     19.3556     88.8544   1.4227036565e+02   5.4763329423e+01    0.1764065    0.1496765  79.92  0.001142403    1.162    0.140
        86  -9.4763     65.5045     29.6275   1.0618545053e+02   6.3287142080e+01    0.4500536    0.3748735   3.34  0.002534634    1.193    0.162
        87 -10.0318     24.4243     64.3340   1.3628433565e+02   6.0426340548e+01    0.8672836    0.1971673 -54.53  0.003162309    2.996    0.666
        88  -9.7921     10.9367     70.7722   1.4290663741e+02   5.9692156608e+01    0.5155738    0.2872229 -66.39  0.002661758    1.413    0.292
        89  -9.5915     12.7441     77.5658   1.4315894467e+02   5.7930748410e+01    0.3455925    0.2837656 -11.16  0.001590668    1.498    0.332
        90 -10.5969     16.1760     73.8276   1.4130866981e+02   5.8647589290e+01    0.4933517    0.4266865 -80.28  0.003267126    1.084    0.078
        91  -9.3076    227.2792     78.9250   8.4039512630e+01   1.9391600456e+01    0.4065374    0.2537356  17.93  0.001920385    1.944    0.485
        92  -8.5285     78.1115     78.8922   1.1919941224e+02   5.0731792018e+01    0.3140826    0.2188973  79.46  0.001372044    2.318    0.569
        93  -7.7457    135.6932     77.3369   1.0130266302e+02   4.0004927463e+01    0.1531379    0.1233363 -71.13 0.0007041522    1.676    0.403
