#   1 NUMBER                 Running object number                                     
#   2 MAG_AUTO               Kron-like elliptical aperture magnitude                    [mag]
#   3 X_IMAGE                Object position along x                                    [pixel]
#   4 Y_IMAGE                Object position along y                                    [pixel]
#   5 X_WORLD                Barycenter position along world x axis                     [deg]
#   6 Y_WORLD                Barycenter position along world y axis                     [deg]
#   7 A_WORLD                Profile RMS along major axis (world units)                 [deg]
#   8 B_WORLD                Profile RMS along minor axis (world units)                 [deg]
#   9 THETA_WORLD            Position angle (CCW/world-x)                               [deg]
#  10 FWHM_WORLD             FWHM assuming a gaussian core                              [deg]
#  11 ELONGATION             A_IMAGE/B_IMAGE                                           
#  12 ELLIPTICITY            1 - B_IMAGE/A_IMAGE                                       
         1 -15.0040    169.3127     44.8416   6.8752997160e+01   3.7196449769e+01     1.434144     1.140409   0.52  0.003985112    1.380    0.275
         2 -15.2000    189.0273     11.5510   5.5198568128e+01   3.5868485888e+01     2.516114      1.32698  68.05  0.008168075    1.782    0.439
         3 -11.8349    167.7990    245.4766   1.1327109378e+02   5.0455316899e+00    0.2114311    0.1567582 -17.60 0.0008936563    1.701    0.412
         4 -19.5561     66.0017    160.0590   1.2419000497e+02   3.4374297856e+01     16.18042     6.257208 -70.46   0.06863445    2.796    0.642
         5 -14.0323    102.4681    241.1337   1.2478264183e+02   1.4772076027e+01    0.4563799    0.3517175 -52.58  0.003412771    1.725    0.420
         6 -10.5813    125.0193    244.8837   1.2099854420e+02   1.1185189442e+01    0.1444452    0.1141442  45.42 0.0004295571    1.095    0.086
         7 -10.2530    119.4942    212.4659   1.1854625175e+02   1.6891064289e+01    0.1223878    0.0990245  42.94 6.413047e-05    1.006    0.006
         8 -10.9666    105.9793    198.7688   1.1972106810e+02   2.1233729433e+01     0.196757    0.1689479  63.16 0.0003817043    1.137    0.121
         9 -13.1337    106.8135    203.4173   1.2009586085e+02   2.0286913437e+01    0.4437131    0.3692999  43.85   0.00154195    1.035    0.034
        10 -11.4560    102.1412    199.8616   1.2066603781e+02   2.1592075918e+01    0.2412871     0.201255  21.76 0.0006118588    1.346    0.257
        11 -11.3572    113.3125    207.6925   1.1924680116e+02   1.8600059921e+01    0.2162918    0.1741475  60.45 0.0006310088    1.226    0.185
        12 -12.0894     11.4761    205.9924   1.3937802480e+02   3.0796492409e+01    0.2140238    0.1403379  34.00   0.00151151    1.585    0.369
        13 -11.0107    125.2563    239.3477   1.2039513466e+02   1.1932677891e+01    0.3052551    0.1342251 -54.31   0.00168192    2.966    0.663
        14 -10.5022    138.8197    242.9719   1.1826800502e+02   9.5167057916e+00    0.1795254    0.1374811 -88.17 0.0006796659    1.991    0.498
        15 -10.6972    134.8314    242.8127   1.1898489784e+02   1.0102296645e+01    0.2475936    0.1356785 -40.89  0.001039363    2.558    0.609
        16 -12.2776    159.8374    194.8080   1.0777912525e+02   1.3376787614e+01    0.3293409    0.2332169  54.84  0.001053435    1.640    0.390
        17 -10.5006    160.2450    239.8965   1.1396957443e+02   6.8379441024e+00    0.1858309     0.134571 -40.90  0.001046877    1.809    0.447
        18 -12.4612    164.9209    187.2877   1.0549385152e+02   1.3714434911e+01    0.2993878    0.2123041  39.51 0.0006335528    1.238    0.193
        19 -13.1737    173.1925    184.9770   1.0338148972e+02   1.2648910019e+01    0.3809914    0.3445373 -89.85  0.002349501    1.597    0.374
        20 -11.8767    147.7676    185.3629   1.0881695274e+02   1.6972473811e+01    0.3443366    0.1933367 -44.61  0.001726218    2.052    0.513
        21  -9.8486    136.6155    185.2598   1.1122415813e+02   1.8864897899e+01    0.1544885    0.1246217 -33.10 0.0002548759    1.450    0.310
        22 -11.2918    167.9694    240.2737   1.1259963573e+02   5.6631649346e+00     0.166852    0.1161204  31.84 0.0002996849    1.069    0.065
        23 -12.2994     28.5065    183.7782   1.3488081566e+02   3.3480607236e+01    0.2029363    0.1644024  39.30 0.0009439908    1.320    0.243
        24 -11.9972    162.9071    181.5264   1.0493362469e+02   1.5003394426e+01    0.3263437    0.1975941 -52.51  0.001619674    2.154    0.536
        25  -9.9720    163.2345    250.5948   1.1469655646e+02   5.0755837012e+00    0.1529163   0.08087784  31.16 0.0002689506    1.487    0.327
        26 -11.5578    185.5095    169.0083   9.7896681080e+01   1.2970413705e+01    0.3362622    0.2518474 -46.96  0.001167762    1.674    0.402
        27 -12.6858    189.1662    178.6065   9.8979542514e+01   1.0824056820e+01    0.4492727     0.369052  56.18  0.001404086    1.588    0.370
        28 -11.5755    188.3867    174.1707   9.8302757939e+01   1.1640806015e+01    0.3022793    0.2569697 -59.34  0.001098063    1.707    0.414
        29 -11.0103      4.5293    180.1664   1.3961961362e+02   3.6202433259e+01     0.147723    0.1318223 -30.51 0.0007638673    1.653    0.395
        30 -11.1472    225.8289    177.8301   9.1847818789e+01   4.5940070171e+00    0.1610357    0.1477333  -0.20 0.0005717513    1.329    0.248
        31 -12.2783    169.4604    178.1535   1.0295245903e+02   1.4400437729e+01    0.4509511    0.1570386  47.57  0.001604857    3.181    0.686
        32 -11.0915    203.4995    173.9902   9.5275600727e+01   8.9679583861e+00    0.2691456    0.1246736 -41.11   0.00119093    2.526    0.604
        33 -11.0187      9.9324    175.0151   1.3826644878e+02   3.6805868714e+01    0.1528342    0.1182104  63.56 0.0006998514    1.094    0.086
        34 -11.6756    195.4104    172.8160   9.6635057506e+01   1.0584258134e+01    0.2909737    0.2459114 -23.11 0.0009061365    1.272    0.214
        35 -10.7716    207.6279    171.4776   9.3991022053e+01   8.5992344360e+00     0.324815    0.1915467 -45.95  0.001569455    2.305    0.566
        36 -11.7253    176.9983    169.2898   9.9719184668e+01   1.4487756666e+01    0.2255446    0.1467732 -36.64  0.001010583    1.678    0.404
        37 -11.5275    230.0080    166.7461   8.8918512390e+01   5.3465126326e+00     0.332358    0.1468781 -44.83  0.001307177    3.602    0.722
        38 -10.5036     33.8742    168.3629   1.3261791546e+02   3.6103324178e+01    0.1479493    0.1247877  54.37  0.000399562    1.152    0.132
        39 -12.2849    160.8079    165.9171   1.0256010239e+02   1.8041206141e+01    0.2990997     0.196236 -52.05   0.00148195    1.884    0.469
        40 -10.5294     24.2072    165.6636   1.3460421015e+02   3.7542753647e+01     0.139433    0.1052689  16.81 0.0009352463    1.719    0.418
        41  -9.8581      2.0616    165.2864   1.3945330371e+02   3.9344773784e+01     0.135805   0.07414366  44.55 0.0003384274    1.653    0.395
        42 -10.2465    109.5709    238.7664   1.2325536951e+02   1.4175932453e+01    0.1089955   0.07468891  21.16 0.0002205337    1.727    0.421
        43 -10.8201    141.0408    228.1553   1.1616234607e+02   1.1269278686e+01    0.2981283    0.1710843 -51.66  0.001770305    2.262    0.558
        44 -12.0715    188.4288    154.4193   9.4343598926e+01   1.4768048751e+01     0.607336    0.3658175  41.17  0.002931555    1.548    0.354
        45  -9.8284    177.9633    156.0363   9.6877704006e+01   1.6513042293e+01    0.1705825    0.1471049  23.32 0.0003375672    1.027    0.026
        46 -10.9140     16.6799    156.1684   1.3567281709e+02   4.0160446590e+01    0.1792927    0.1613758  14.91 0.0006679549    1.452    0.311
        47 -10.3969    127.8378    223.6429   1.1819088325e+02   1.3887753493e+01    0.1659778    0.1617705 -64.67 0.0005079398    1.295    0.228
        48 -12.5564    163.4802    151.7654   9.9163187308e+01   2.0055232098e+01    0.3718815    0.3277243  63.52   0.00151638    1.376    0.273
        49 -11.4257    174.4418    148.7423   9.6104749435e+01   1.8450082732e+01    0.3005655    0.2791914  80.67  0.001113199    1.409    0.290
        50 -10.0525    106.2005    229.4315   1.2299781802e+02   1.6055750222e+01    0.2668904     0.134309  25.21 0.0009448736    2.508    0.601
        51 -12.5178    160.5358    127.7170   9.4509914715e+01   2.5094476940e+01    0.4339473    0.3641523 -60.35  0.001512017    1.471    0.320
        52 -11.7663    168.3743    113.4973   8.9197297730e+01   2.6057604802e+01    0.3962483    0.3326018 -76.14 0.0008575312    1.638    0.390
        53 -10.9315    231.2469    113.6908   7.6993637427e+01   1.2527119186e+01    0.2550335    0.2131631   7.85  0.000778648    1.110    0.099
        54 -10.4879    138.7893    250.5354   1.1907391811e+02   8.5164036644e+00     0.204568    0.1012186  36.19  0.001220237    1.512    0.339
        55 -11.0667    205.2525    110.2529   8.0727907606e+01   1.8485164452e+01    0.3598154     0.238741  38.46  0.001072564    1.488    0.328
        56 -11.7541     97.5719    249.0983   1.2634068621e+02   1.4240695911e+01    0.8301197    0.2507337 -68.65  0.003470588    5.955    0.832
        57 -10.6219    147.0285     81.9698   8.5504495251e+01   3.6759023279e+01    0.2480129    0.1854815  10.32 0.0004778193    1.602    0.376
        58 -10.4458     93.2395     79.2516   1.0024768266e+02   4.8594180171e+01    0.2095606    0.1921714 -13.55 0.0008051117    1.068    0.063
        59 -10.2912    141.6182     71.3422   8.3554644859e+01   3.9960826423e+01    0.2624816    0.1888983  60.94 0.0005806058    1.586    0.370
        60 -14.3811    157.0121     59.2607   7.5974192385e+01   3.8225901683e+01     1.420578      1.06792  43.51  0.002228599    1.290    0.225
        61 -12.5931    101.7436    247.2703   1.2544295157e+02   1.3967081208e+01    0.2100058    0.1658293 -42.32  0.001590087    1.815    0.449
        62 -13.1043    173.8545     37.1472   6.5443055942e+01   3.7021458128e+01    0.4547664    0.3879972  -2.39 0.0008522423    1.239    0.193
        63 -10.7564    126.3426    227.9196   1.1896591468e+02   1.3455386224e+01    0.2401887    0.1781525  23.90 0.0008713165    1.380    0.276
        64 -10.9010     13.5720     59.8894   1.2560454788e+02   6.2265520375e+01    0.1848751    0.1771509  32.90 0.0003983694    1.283    0.220
