#   1 NUMBER                 Running object number                                     
#   2 MAG_AUTO               Kron-like elliptical aperture magnitude                    [mag]
#   3 X_IMAGE                Object position along x                                    [pixel]
#   4 Y_IMAGE                Object position along y                                    [pixel]
#   5 X_WORLD                Barycenter position along world x axis                     [deg]
#   6 Y_WORLD                Barycenter position along world y axis                     [deg]
#   7 A_WORLD                Profile RMS along major axis (world units)                 [deg]
#   8 B_WORLD                Profile RMS along minor axis (world units)                 [deg]
#   9 THETA_WORLD            Position angle (CCW/world-x)                               [deg]
#  10 FWHM_WORLD             FWHM assuming a gaussian core                              [deg]
#  11 ELONGATION             A_IMAGE/B_IMAGE                                           
#  12 ELLIPTICITY            1 - B_IMAGE/A_IMAGE                                       
         1 -11.2651     98.3891     16.0181   6.3057081212e+01   5.8030486493e+01    0.5714629    0.3967715 -80.98  0.002628162    2.732    0.634
         2  -9.7962     97.4939     10.4914   6.0934477325e+01   5.8816710938e+01    0.1950675    0.1219274  -4.48  0.000849633    1.747    0.428
         3  -9.7421     41.3207     12.7327   8.1982991297e+01   6.8443753753e+01    0.2701465    0.1665648  -5.45  0.001239175    1.694    0.410
         4 -10.3279     85.1450     11.4847   6.4908025746e+01   6.1274844384e+01    0.3779292    0.2276338  55.36  0.001472713    1.777    0.437
         5  -9.9446     78.0701     10.9903   6.6908442076e+01   6.2710201888e+01    0.2958716    0.1850655  56.64  0.001556851    1.881    0.468
         6  -9.5424     48.5723     10.4334   7.7668456111e+01   6.7753848330e+01    0.2178463     0.200012  85.98  0.001440394    1.970    0.492
         7 -11.5847    113.4432      8.8334   5.6301601340e+01   5.5414080941e+01    0.4968917    0.1580655  40.49  0.001703742    3.378    0.704
         8 -10.2953     91.8557      9.4832   6.2044572937e+01   6.0115517057e+01    0.3019604    0.2113152  64.13  0.001376911    1.692    0.409
         9 -10.8636     58.0283      9.9634   7.3576822574e+01   6.6362627553e+01    0.3950106    0.1784736  44.34  0.001753163    2.277    0.561
        10 -10.0966    119.2837      9.4392   5.5250647241e+01   5.3989812973e+01    0.2767373    0.1108058  55.68  0.001143012    2.132    0.531
        11  -9.6512     36.2524      7.2464   8.1556074946e+01   6.9853994817e+01    0.3124248    0.2132006 -30.10  0.002025292    1.340    0.254
        12 -11.4212     72.5004      6.5259   6.6634929293e+01   6.4244035776e+01    0.3905059    0.2408474  46.48  0.001754056    1.581    0.367
        13 -10.0451    214.6117      7.2256   4.0860576382e+01   3.0257607738e+01    0.1740039    0.1290494 -12.64 0.0009552484    1.685    0.407
        14 -10.7832     80.3111      2.2531   6.2099534905e+01   6.3174034820e+01    0.3513012    0.1588781  47.26  0.001386094    1.938    0.484
        15 -10.2035    183.1996      4.3658   4.3349848066e+01   3.8413046974e+01    0.1989601     0.118011  85.52 0.0006844914    1.696    0.410
        16 -10.8774    100.5076      3.5139   5.7149673792e+01   5.8828215762e+01    0.3068359    0.1212383  59.86  0.001277742    2.435    0.589
        17 -11.0498    103.6176      9.5767   5.8954066665e+01   5.7570600138e+01    0.2542855     0.201039  73.67   0.00101473    1.527    0.345
        18 -11.3143     90.9466      2.8499   5.9331762587e+01   6.0947354666e+01    0.4627999    0.2147187  55.70  0.002171212    2.021    0.505
        19  -9.5196     54.2020      2.0607   7.1061794773e+01   6.7897435634e+01    0.2190332    0.1599597 -35.65  0.001369244    1.646    0.392
        20 -10.1704    160.9901      2.4836   4.5570907314e+01   4.4262879446e+01    0.2151036    0.1231368  70.08    0.0010282    1.579    0.367
        21  -9.4824    148.5162      2.4910   4.7378000211e+01   4.7430821201e+01    0.1363339    0.1225118  62.78  0.000810392    1.008    0.008
        22 -10.0498    139.3206      2.4497   4.8831775559e+01   4.9740554406e+01    0.2643328    0.1114885  60.97  0.001112979    1.998    0.499
        23 -10.9335    129.9693      2.2140   5.0373062839e+01   5.2066482599e+01    0.5106613    0.1800449  72.94  0.001723024    3.593    0.722
        24  -9.8506    174.2374      1.6048   4.3596174017e+01   4.0955356619e+01    0.2057776    0.1070993  60.32 0.0009560173    1.693    0.409
        25  -9.9492    228.9977      2.0000   3.8337109224e+01   2.7350689011e+01    0.2117627   0.06680328  74.39 0.0008097222    2.993    0.666
        26 -10.1357     65.1314      2.1356   6.7008317026e+01   6.6037836564e+01    0.3645923    0.2322568  66.27  0.001855899    2.657    0.624
        27 -10.1883     78.8602    211.3940   1.1623755669e+02   2.1077408703e+01    0.2346768   0.09703847  43.46  0.001131538    2.072    0.517
        28  -8.9372    115.9580    210.4849   1.0871103905e+02   1.5588909262e+01    0.1961204   0.08791127  57.42 0.0008098663    2.600    0.615
        29  -9.2531    202.5264    208.9793   9.1324631988e+01   8.4625317045e-01    0.1821462     0.124981 -32.50   0.00103121    1.592    0.372
        30  -9.1715    211.9899    207.4836   8.9295328564e+01  -5.5412043328e-01    0.1759138    0.1074861  58.69 0.0008104251    2.635    0.620
        31  -9.2690     99.9370    207.1203   1.1154009771e+02   1.8786586200e+01    0.2308633    0.1202148  62.28  0.001084478    2.137    0.532
        32  -8.9335     49.3261    202.6769   1.2121451075e+02   2.6706929649e+01    0.1285082   0.07015528  67.88 0.0007048387    1.689    0.408
        33  -9.8053     89.2171    199.7086   1.1285267925e+02   2.1902967696e+01    0.2541776    0.1598342  65.59  0.001129876    1.566    0.361
        34 -11.2042    173.1834    195.0238   9.4625679725e+01   8.3401140037e+00    0.4968429    0.2968717 -35.58  0.002345301    1.932    0.482
        35  -9.0541    112.8220    198.2121   1.0771867841e+02   1.8477678535e+01    0.2346363    0.1262216  70.51 0.0009544275    2.872    0.652
        36  -9.7030     67.1895    195.3642   1.1692924353e+02   2.5936689153e+01    0.2810032     0.105692  57.11  0.001147917    2.936    0.659
        37 -10.0567    126.6366    197.3426   1.0468150816e+02   1.6312737022e+01    0.2531903    0.2353862  -3.92  0.001197134    1.344    0.256
        38  -9.2923     44.0296    194.0031   1.2151574380e+02   2.9126510566e+01    0.2021708    0.1104838  67.76 0.0009478462    1.695    0.410
        39  -8.9888     78.3423    193.6664   1.1441649927e+02   2.4745101907e+01     0.139103   0.08242337  69.20 0.0007050824    1.757    0.431
        40  -8.8443    124.4340    192.1988   1.0437813532e+02   1.7706962736e+01     0.175273    0.1272987 -76.72   0.00041506    1.596    0.374
        41 -11.6908     96.4761    187.7379   1.0978642456e+02   2.3267872798e+01    0.6820157    0.2429717  52.06  0.002207255    3.021    0.669
        42 -10.0746    203.9530    188.4777   8.7321553257e+01   3.7507315849e+00    0.3152909       0.1233  48.02  0.001214669    2.731    0.634
        43  -9.3106    156.6268    188.0318   9.6826763069e+01   1.2683972658e+01    0.1882211    0.1802859 -56.66  0.001137612    1.150    0.130
        44 -10.3495     56.4116    187.8929   1.1840082902e+02   2.8920981803e+01    0.4219933    0.1475921  52.83  0.001789474    2.810    0.644
        45  -9.2774     34.8079    188.1937   1.2287874880e+02   3.1387167207e+01     0.220879   0.08711313  66.30 0.0009613425    2.921    0.658
        46  -9.1274    120.8173    187.0691   1.0437488663e+02   1.9370175132e+01    0.1797015    0.1038352 -58.14 0.0008548051    1.857    0.461
        47 -10.2518    109.8443    186.5270   1.0669343779e+02   2.1351852822e+01    0.2967703    0.1856659  73.95  0.001068359    2.027    0.507
        48 -10.4181    210.9638    183.2735   8.4971713505e+01   3.2962026326e+00     0.482262    0.2747455  13.41  0.001986833    2.706    0.630
        49  -9.1123     66.6304    185.2971   1.1595233038e+02   2.8150903159e+01    0.1379504   0.08029726  67.05 0.0007029754    1.732    0.423
        50  -9.5108     74.8141    184.5996   1.1410189768e+02   2.7175620167e+01    0.1915042   0.09991425  51.26 0.0009474957    1.776    0.437
        51 -10.3719     13.4838    183.2060   1.2675707794e+02   3.4569911430e+01    0.3110389    0.2237254 -20.79  0.001912861    2.775    0.640
        52  -9.2205     44.7646    182.6363   1.2033165705e+02   3.1461111685e+01    0.1740321   0.09117117  49.87  0.000760727    1.745    0.427
        53  -9.2324    148.5011    181.5180   9.7416462209e+01   1.5458888115e+01    0.2560613    0.1203914  51.59 0.0007934837    2.238    0.553
        54 -10.0272    204.5618    176.1876   8.4793341293e+01   5.6487513577e+00    0.3266769    0.2394906 -34.24  0.001180963    1.401    0.286
        55  -9.7045     60.5850    177.5260   1.1638743936e+02   3.0644513418e+01    0.3197682    0.1352566  53.83  0.001432625    2.379    0.580
        56 -10.8565     77.6068    176.3231   1.1244532928e+02   2.8588028425e+01    0.5028601    0.1807994  51.83  0.001939574    2.965    0.663
        57  -9.2339    197.4234    181.7729   8.7299957679e+01   6.0662368842e+00     0.190893    0.1280978 -23.82 0.0008076762    1.662    0.398
        58 -10.6853    106.3838    175.7834   1.0583949975e+02   2.4214754600e+01    0.3924998    0.2006928  60.47  0.001615824    2.423    0.587
        59  -8.6667    159.6569    175.3383   9.3866958978e+01   1.4528360063e+01    0.1472066    0.1119246  78.48 0.0006172482    1.772    0.436
        60  -8.7590      4.6782    175.3455   1.2798469958e+02   3.6995308746e+01    0.1225188   0.06157135  69.12  0.000704984    1.734    0.423
        61 -10.1842     94.0004    174.1660   1.0842058397e+02   2.6587460374e+01    0.2115845    0.1668304  -4.17  0.001095513    2.060    0.514
        62  -8.7052     35.9332    174.6328   1.2145520589e+02   3.4193783695e+01    0.2053854   0.04938113  51.82 0.0007033176    4.452    0.775
        63 -10.1168    207.6095    170.2639   8.2992743352e+01   6.0588766958e+00    0.2776678    0.2071622  24.27 0.0008169189    1.329    0.248
        64  -9.4809    122.3682    170.3483   1.0128485251e+02   2.2602060979e+01    0.2973754    0.1914076  72.89  0.001153843    2.094    0.522
        65  -9.8752     55.7206    170.2403   1.1663543131e+02   3.2884637165e+01    0.2992863    0.1301041  51.57  0.001254003    2.268    0.559
        66 -10.0668    214.1530    168.3638   8.1344675322e+01   5.1203723335e+00    0.2369673     0.182497 -15.51 0.0008070084    1.309    0.236
        67  -9.2828    112.9992    168.6706   1.0316258934e+02   2.4631747566e+01    0.2426469   0.09138531  56.31 0.0007051275    4.337    0.769
        68  -9.0605     75.3558    168.7156   1.1194385875e+02   3.0611725727e+01    0.1409881   0.08933566  68.65 0.0007019799    1.668    0.401
        69 -10.0656    100.6995    167.0530   1.0577027846e+02   2.7082308742e+01    0.5079619    0.1422769  47.94  0.001610468    3.776    0.735
        70  -9.4053    140.0594    165.8814   9.6417774182e+01   2.0243034607e+01    0.3219364     0.213576  78.39  0.001359099    2.318    0.569
        71 -10.4436     81.0628    165.4826   1.1015392553e+02   3.0515956931e+01    0.3978971    0.2108081  68.81   0.00166184    2.566    0.610
        72  -9.2899     47.9825    164.7980   1.1777151481e+02   3.5045989558e+01    0.2167835    0.1118661  59.94  0.001070997    2.004    0.501
        73  -9.4266     38.0640    165.0582   1.2005058151e+02   3.6097059699e+01    0.2088402    0.1199655  70.11 0.0008898579    1.723    0.419
        74  -8.8554    160.3197    164.6943   9.1641940190e+01   1.6492950394e+01    0.1460751    0.1154539  79.90 0.0004414836    1.634    0.388
        75  -9.2519    148.7462    163.8325   9.4050204281e+01   1.8973284517e+01     0.205262    0.1696653  72.48  0.001028065    1.364    0.267
        76  -9.5927     70.7723    163.6147   1.1231764619e+02   3.2415023871e+01    0.1909017    0.1089411  50.33 0.0009490078    1.713    0.416
        77  -9.4029     10.2918    161.9017   1.2588222645e+02   3.9434541660e+01    0.2656151    0.1243165  61.12  0.001445059    2.056    0.514
        78 -10.1630     94.2923    161.1994   1.0634459217e+02   2.9447839657e+01    0.3849026    0.1673237  47.15   0.00157959    2.269    0.559
        79  -9.1577     62.7613    161.5828   1.1393725492e+02   3.3957264815e+01    0.1855889    0.1069751  51.46 0.0008482288    1.707    0.414
        80  -8.3955    205.6719    159.6343   8.1123068529e+01   8.2615885238e+00    0.1540729    0.1076019   4.47 0.0007036957    1.807    0.447
        81  -9.8466    106.4711    158.8634   1.0301699603e+02   2.7947871930e+01    0.3633916    0.2065543  61.77  0.001540139    2.159    0.537
        82 -10.6474     83.1899    155.7389   1.0816100293e+02   3.2435263476e+01    0.5379776    0.2398001  55.26  0.002115559    2.690    0.628
        83 -10.1904     50.6340    155.9507   1.1609939983e+02   3.6763242730e+01    0.4100347     0.182528  58.43  0.001775689    2.634    0.620
        84  -9.3314    120.0098    156.0446   9.9239659071e+01   2.6164528823e+01    0.2415152    0.1731682  77.98  0.001131109    1.735    0.424
        85  -9.8191    213.4423    155.2788   7.8678707652e+01   7.4640869061e+00    0.2698095    0.1918971  38.35   0.00108896    1.390    0.280
        86 -10.4621     69.3167    154.6669   1.1139897314e+02   3.4682002657e+01    0.4202792      0.18204  53.17  0.001734883    2.587    0.613
        87  -9.5591    134.2514    153.7044   9.5379263479e+01   2.3974736353e+01    0.3432222    0.2043352  80.86   0.00112381    3.778    0.735
        88  -9.6944     29.5686    150.9580   1.2053656942e+02   4.0173194610e+01    0.4079092    0.1836473  76.72  0.001758319    2.863    0.651
        89  -9.7269     99.5156    151.4977   1.0340965249e+02   3.0814061950e+01    0.2656721    0.1180412  50.10  0.001031065    2.400    0.583
        90  -8.9752    229.8678    149.1206   7.4297859915e+01   5.2619501218e+00    0.2025945    0.1870888 -41.26 0.0005491512    1.229    0.187
        91 -10.0072     40.4618    148.3381   1.1762022190e+02   3.9673365095e+01     0.457672    0.1883651  58.42  0.001897181    3.044    0.671
        92 -10.8551    109.0676    146.5915   1.0010860297e+02   3.0291463666e+01    0.8049501     0.373549  60.04  0.002667019    3.489    0.713
        93 -10.7546     57.4235    146.6181   1.1318641460e+02   3.8121711969e+01    0.6131536    0.2712837  60.60  0.002393116    3.150    0.683
        94 -10.4802    149.9377    145.8356   9.0026650373e+01   2.2507277218e+01    0.5600114    0.3422322  74.89  0.001971209    3.140    0.681
        95  -9.4725     13.9773    146.8768   1.2379500990e+02   4.2488305243e+01    0.2392542    0.1188459  49.50  0.001101908    2.037    0.509
        96  -9.1133    196.0192    145.0121   7.9792006923e+01   1.2883051327e+01     0.245543    0.1806709   3.14   0.00113673    1.708    0.414
        97  -9.8951    125.9964    144.1017   9.5395941862e+01   2.7706148319e+01    0.4273744    0.2724628  80.33  0.001646809    2.640    0.621
        98 -10.7880     89.3588    144.8015   1.0476665491e+02   3.4033625137e+01    0.4857208     0.210142  52.03  0.001849619    2.689    0.628
        99  -9.5948     71.7215    141.7583   1.0878451769e+02   3.7386974357e+01    0.6224844    0.2062258  50.66  0.002069623    3.900    0.744
       100  -8.9348      2.9912    142.4996   1.2596668339e+02   4.4306320093e+01    0.1613717   0.06637052  54.47 0.0008102549    2.521    0.603
       101  -8.7604    165.6931    144.3523   8.6097201206e+01   1.9495215326e+01    0.1547146     0.121909 -86.08 0.0007042497    1.713    0.416
       102 -10.0869     24.4660    139.0522   1.2047638629e+02   4.3393971803e+01    0.4636161    0.1836101  60.22  0.001924185    3.324    0.699
       103 -10.1008     39.7818    136.6088   1.1629581639e+02   4.2495027294e+01    0.3163601    0.1723754  55.28  0.001091147    2.006    0.501
       104  -9.8747    114.1767    134.5211   9.6335033642e+01   3.2139340509e+01    0.3956186    0.2272885  65.73  0.001489137    2.631    0.620
       105 -11.3686     85.3835    132.7654   1.0356603755e+02   3.7505618995e+01     0.706364    0.3058389  48.69  0.002652724    2.567    0.610
       106 -10.3790    132.9713    132.6003   9.1137793697e+01   2.8894727590e+01    0.4011605    0.2564445  70.67  0.001580812    2.328    0.570
       107  -9.4191    143.7335    132.1515   8.8390457653e+01   2.6756185039e+01     0.265372    0.1740569  88.53 0.0009593419    2.834    0.647
       108  -9.3931    154.0208    130.7266   8.5597386358e+01   2.4854713427e+01    0.3217629    0.1997638 -70.79  0.001174994    2.666    0.625
       109 -10.8880    100.9751    129.3887   9.8699445030e+01   3.5723632020e+01    0.6578445    0.3394054  56.76  0.002540655    2.502    0.600
       110 -11.0322     74.8552    130.4955   1.0597879001e+02   3.9626624217e+01    0.4316129    0.2140978  50.37  0.001846974    2.268    0.559
       111  -9.8890     14.0433    130.4800   1.2215398026e+02   4.6235316656e+01    0.3574226    0.1650575  56.03  0.001802357    2.432    0.589
       112  -8.8571      2.7867    130.5953   1.2497925342e+02   4.7006221417e+01     0.151076   0.09264269  49.12 0.0009436727    1.755    0.430
       113 -10.3561    120.3400    126.7752   9.3005392528e+01   3.2737421926e+01    0.6793589     0.313245  58.45  0.002175189    3.422    0.708
       114 -11.5153     61.5692    125.9148   1.0879512325e+02   4.2528747637e+01    0.7192296    0.3392121  56.15  0.002694111    2.848    0.649
       115 -11.1035     45.6692    124.5121   1.1296174649e+02   4.4742350615e+01     0.781543     0.378021  65.30  0.003125167    3.225    0.690
       116 -10.7995     29.5186    123.3907   1.1722473687e+02   4.6609363946e+01    0.7825226     0.342306  71.08  0.002850023    4.181    0.761
       117  -9.2919    180.1658    125.3433   7.8403486429e+01   2.0135030134e+01    0.3283155    0.2001865  73.87  0.001147492    2.999    0.667
       118  -9.3439    159.8451    122.6258   8.2248654460e+01   2.5274395878e+01    0.3988253     0.238242  85.64  0.001037772    5.536    0.819
       119 -10.2054     72.6395    121.3048   1.0483135395e+02   4.2141119432e+01    0.4693928    0.2661985  57.07  0.002081341    2.192    0.544
       120 -10.6463    142.9939    120.4299   8.5723085594e+01   2.9466489633e+01    0.4869059    0.3317365  68.71  0.001831488    1.950    0.487
       121 -10.1366    132.3719    120.2647   8.8343632418e+01   3.1767526385e+01     0.410872    0.2460032  60.61  0.001625526    2.118    0.528
       122 -10.0370      4.3167    118.2992   1.2337466995e+02   4.9711539789e+01    0.4270403    0.1912238  60.92  0.002096616    2.718    0.632
       123 -10.5814    110.4500    115.5438   9.2970174614e+01   3.7219941595e+01    0.5325394    0.3514997  86.96  0.001984326    2.568    0.611
       124 -11.0798     80.6241    114.0933   1.0104053719e+02   4.2682976453e+01    0.6569171    0.3598526  63.44  0.002518219    2.941    0.660
       125 -11.2561     95.5781    113.9164   9.6717963461e+01   4.0291289943e+01    0.8259187    0.3217683  42.93  0.003016474    2.695    0.629
       126  -9.7593    123.7859    113.4371   8.8857482789e+01   3.5068739398e+01    0.4697107     0.187246  50.87   0.00155081    2.903    0.656
       127 -10.9241     68.4016    112.0578   1.0417084865e+02   4.4939084431e+01    0.4799067    0.2668987  56.06  0.002103953    2.325    0.570
       128 -10.4506     14.9778    111.1401   1.1961143865e+02   5.0650266013e+01    0.4704616    0.2464084  73.80  0.002338584    2.384    0.581
       129  -9.4751    134.3500    110.3512   8.5304833196e+01   3.3532608971e+01    0.3074268    0.1873587  66.28  0.001156668    2.387    0.581
       130 -10.3638     60.4002    110.1007   1.0613729738e+02   4.6458562340e+01    0.2696822    0.1646266  52.32  0.001313711    1.930    0.482
       131 -11.1803     47.4862    103.8722   1.0879982897e+02   4.9457294258e+01    0.9123902    0.4275855  61.29   0.00325265    4.199    0.762
       132 -11.0451     23.9421    103.6061   1.1591355113e+02   5.1732485086e+01    0.7173141    0.3363417  67.45  0.002873388    3.732    0.732
       133 -10.1777    141.4872    105.8134   8.2282420597e+01   3.2945887067e+01    0.5426726    0.2767726  60.56  0.001861587    2.751    0.637
       134  -8.7309    112.3213    106.2997   9.0122000032e+01   3.8966874126e+01    0.1519439    0.1208333  -8.75 0.0005030658    1.624    0.384
       135  -9.3985    150.6360    104.2943   7.9620815854e+01   3.1193169272e+01    0.2537318    0.1924693 -78.90  0.001101542    1.774    0.436
       136 -10.6364    130.7715    103.3266   8.4347922756e+01   3.5831022480e+01    0.5806617    0.2975744  57.39  0.002095659    2.491    0.599
       137 -10.0386      8.0531    103.9657   1.2065790280e+02   5.2770046616e+01    0.3286724    0.1565533  39.95  0.001780088    2.446    0.591
       138 -11.3611    112.6317    101.0759   8.8647198625e+01   4.0077103420e+01     1.097556    0.4812444  57.20  0.003372415    3.788    0.736
       139 -10.3613     83.5074    101.2614   9.7187299350e+01   4.5244994716e+01    0.4921915    0.2840083  62.16  0.001958723    2.705    0.630
       140 -10.9825     66.1508     97.5711   1.0163600620e+02   4.8662161954e+01    0.7674106    0.3458794  47.65   0.00310114    2.782    0.641
       141 -10.3903     97.4743     97.9155   9.2153188418e+01   4.3645163328e+01    0.7111763    0.2538686  43.00  0.002455817    2.973    0.664
       142 -10.0019    140.7556     93.4378   7.9002319948e+01   3.5701872487e+01    0.5159534    0.2508277  63.38  0.001602478    3.434    0.709
       143 -10.6228    127.4144     92.3569   8.2147681648e+01   3.8901025872e+01    0.8015723    0.3322855  53.47  0.002657079    2.901    0.655
       144 -10.4889     35.4526     90.7066   1.0998857047e+02   5.3751789702e+01    0.4433201    0.2615429  87.83   0.00190731    2.441    0.590
       145 -10.1555     40.8014     91.3962   1.0838314435e+02   5.3078030526e+01    0.2382609    0.1785664 -21.53  0.001380063    1.602    0.376
       146 -10.2201      8.7719     93.0253   1.1892870901e+02   5.5234754800e+01    0.6567128    0.1498532  26.28  0.002684999    4.563    0.781
       147 -11.0738     89.1556     88.2586   9.2018681575e+01   4.7265897999e+01    0.7730725    0.3619123  52.79  0.002831735    2.998    0.666
       148 -10.8904     51.2060     86.5754   1.0386078885e+02   5.3073595999e+01    0.6862091    0.3560129  56.45  0.002825329    3.190    0.686
       149 -10.6450    107.5115     84.9781   8.5534954738e+01   4.4595053819e+01    0.8292461    0.3974754  56.02  0.002922023    2.951    0.661
       150  -9.7250    142.3471     84.0612   7.5840067656e+01   3.7220524734e+01    0.4336193    0.2316009  66.05  0.001473115    2.898    0.655
       151 -10.5292     26.4844     81.9045   1.1119188734e+02   5.6543339390e+01    0.5468957     0.253032  42.83  0.002635552    2.749    0.636
       152 -10.4136     10.8101     82.1219   1.1653492884e+02   5.7589419852e+01     0.508657    0.2337005  28.64  0.002722322    2.619    0.618
       153 -10.7085     76.1665     81.7365   9.4304562081e+01   5.0816123231e+01    0.3981473     0.232882  55.41  0.001719968    2.417    0.586
       154  -8.9523    151.9771     81.4941   7.2744585648e+01   3.5430411023e+01    0.2448962    0.1560605  54.20  0.001019662    1.611    0.379
       155  -9.3643    120.9567     81.7213   8.0726691617e+01   4.2499510041e+01    0.3512337    0.1843783  59.94  0.001262869    2.663    0.625
       156 -10.2280    130.3700     77.0653   7.6745696973e+01   4.1348539340e+01    0.5995719    0.3362461  64.39  0.002212491    2.556    0.609
       157  -9.5176     62.0460     77.5752   9.7859935101e+01   5.3756488347e+01    0.2937107    0.1671749 -69.58  0.001146688    2.446    0.591
       158  -9.2836    142.7008     76.4492   7.3425332297e+01   3.8605596920e+01    0.3901528    0.1500181  49.49  0.001309912    2.590    0.614
       159 -10.6766     84.6375     74.3287   8.9337996800e+01   5.1044805968e+01    0.6630965     0.378355  58.99  0.002642399    2.834    0.647
       160  -9.1119    116.9958     73.9596   7.9394665225e+01   4.4901549265e+01    0.2392116     0.190959 -85.04  0.000788119    1.725    0.420
       161  -9.5325     44.2060     73.6668   1.0305724449e+02   5.6750432730e+01    0.2996917    0.1774369  50.39  0.001482692    2.336    0.572
       162  -9.4902      9.0262     73.8468   1.1566761252e+02   5.9546222125e+01    0.2246285    0.1558427  33.12  0.001454941    1.816    0.449
       163  -9.7103    107.1556     72.7580   8.1844871576e+01   4.7183578276e+01    0.4141749    0.2571077  64.29  0.001675553    2.415    0.586
       164  -9.9594     96.5503     72.5989   8.5006655321e+01   4.9279526524e+01    0.3939636    0.2951439  78.46   0.00181999    2.069    0.517
       165 -10.9610     54.0881     71.5339   9.8944820287e+01   5.6091483788e+01    0.5784943    0.3089533  43.87  0.002738678    2.326    0.570
       166  -9.9321     18.3779     71.0330   1.1176542325e+02   5.9583238416e+01    0.4319385     0.176134  31.27  0.002126945    2.889    0.654
       167  -9.3932    123.3958     67.4569   7.5512488489e+01   4.4748020862e+01    0.4594758    0.2556483  60.53   0.00179301    2.287    0.563
       168 -10.0821     40.3105     65.8696   1.0238883353e+02   5.8854427663e+01    0.4879385    0.2011915  38.65  0.002169728    2.944    0.660
       169  -9.6015    148.0420     68.9984   6.9810714655e+01   3.8690669139e+01    0.4568099    0.1961175  59.56  0.001532795    2.753    0.637
       170  -9.8231    112.0921     65.1130   7.7882745879e+01   4.7643863714e+01    0.5119084    0.2177689  55.73  0.001733969    3.122    0.680
       171  -9.9118    102.1854     62.1239   7.9793285570e+01   5.0240733497e+01    0.3959062    0.2777269  82.09  0.001643808    2.655    0.623
       172 -10.8554     76.5537     60.9879   8.7719345070e+01   5.5101832062e+01    0.7116243    0.3145084  44.94  0.002901898    2.634    0.620
       173  -9.7925     27.4060     60.6280   1.0588302658e+02   6.1164616423e+01    0.4168066    0.1602398  38.17  0.001859467    3.320    0.699
       174  -9.7074     90.4967     60.5159   8.2900198414e+01   5.2785179635e+01    0.2895764    0.1411789  43.34  0.001208324    2.169    0.539
       175  -9.2093    132.2030     58.9796   7.0379144622e+01   4.4242893170e+01    0.2834687    0.1999728  68.28  0.001274996    1.723    0.420
       176 -10.0105      9.4618     58.8335   1.1242929005e+02   6.2795701766e+01    0.3768916    0.1663453  36.14  0.001945331    2.931    0.659
       177  -9.8097    121.4393     57.4474   7.2657702968e+01   4.6986238353e+01    0.4424746    0.2488524  62.07  0.001761745    2.279    0.561
       178  -8.9875    141.7493     57.4080   6.7529362646e+01   4.2222459999e+01    0.3002228    0.1496398  58.12  0.001148012    2.118    0.528
       179 -10.2392     55.5635     55.3976   9.3422592390e+01   5.9270753002e+01    0.4254087    0.3225005 -89.05   0.00219595    2.299    0.565
       180 -10.1281     46.1365     56.8200   9.7494197891e+01   6.0129311921e+01    0.4245818    0.2213741  43.62  0.002033359    2.537    0.606
       181 -10.5443     64.5520     55.7522   9.0194801082e+01   5.7968741043e+01    0.4331635    0.2418624  44.39  0.001906178    2.167    0.538
       182  -9.6235    108.1143     55.0851   7.5562905342e+01   5.0302570421e+01     0.356664    0.2040968  61.24   0.00144285    2.399    0.583
       183  -9.1668      1.8596     54.4323   1.1444103742e+02   6.4124020121e+01     0.237497   0.08584954 -42.72  0.001181908    2.258    0.557
       184  -9.0723    100.4884     53.9866   7.7445987349e+01   5.2064177607e+01    0.2082192    0.1368145 -36.12 0.0003427376    1.468    0.319
       185 -10.5946     94.2050     52.0498   7.8697567575e+01   5.3643122095e+01    0.6605281     0.347895  53.76  0.002744114    2.363    0.577
       186 -10.3462     33.7186     53.1217   1.0124514109e+02   6.2175863578e+01    0.5062679    0.2299788  40.60  0.002378552    2.938    0.660
       187  -9.6838     22.5857     53.7545   1.0593067867e+02   6.2995949414e+01    0.3723942    0.1702874  30.09  0.001925261    2.586    0.613
       188  -9.2108    131.3183     49.6195   6.7388470100e+01   4.5995843963e+01     0.291249     0.145128  58.79  0.001130308    2.173    0.540
       189  -9.9091     85.5103     48.5146   8.0214998011e+01   5.5892986828e+01    0.2813041    0.2245603  -8.96  0.001398489    1.257    0.204
       190  -9.6682     82.4695     47.4916   8.0853458830e+01   5.6617964402e+01     0.253313    0.2335423  57.63 0.0007549085    1.354    0.262
       191  -9.6205    114.6477     47.7225   7.1054175550e+01   5.0129735704e+01    0.4109099    0.2036044  51.39   0.00168663    2.041    0.510
       192  -9.5488     75.4530     48.5249   8.3670347811e+01   5.7638260897e+01    0.3521576    0.1310059  36.63   0.00134049    2.954    0.662
       193  -9.9759    124.5180     46.9694   6.8160142260e+01   4.8010177190e+01    0.4024284    0.2232464  56.71  0.001706028    1.889    0.471
       194 -10.1132     47.5153     45.7840   9.3237165723e+01   6.2149154838e+01    0.4023492    0.2065523  32.60  0.002027913    2.172    0.540
       195 -10.1350     19.6910     45.8219   1.0485301286e+02   6.4838533397e+01     0.445716    0.1807121  28.42   0.00223285    2.868    0.651
       196 -10.3232     60.0798     44.0043   8.7633529342e+01   6.0827721409e+01    0.4474547    0.2729003  52.25  0.002158661    2.485    0.598
       197  -9.1244    134.2886     44.0054   6.4708028029e+01   4.6146555478e+01    0.3125033    0.1632502  67.26   0.00118296    2.470    0.595
       198 -10.4242     71.7601     43.0205   8.2896872520e+01   5.9218804482e+01    0.5397576    0.2852853  51.61  0.002364018    2.658    0.624
       199 -10.1199      7.4569     43.4373   1.0943431674e+02   6.6113473770e+01    0.4361331    0.2073174  33.57  0.002402523    2.736    0.635
       200 -10.3188    107.4904     42.3931   7.1084075412e+01   5.2534626551e+01    0.4106575    0.2470568  62.09  0.001795465    2.128    0.530
       201  -9.9965     38.9649     41.8037   9.5328851733e+01   6.3879260857e+01    0.3540809    0.1899921  36.75  0.001862393    2.242    0.554
       202 -10.2690     97.6287     39.6102   7.2925968616e+01   5.5029303002e+01    0.4207384     0.250085  59.76  0.001872573    2.192    0.544
       203  -9.8351     82.7829     38.0979   7.7092829815e+01   5.8135027196e+01    0.3417488    0.2721393  68.59  0.001834929    1.855    0.461
       204  -8.7998    120.9176     39.0000   6.6182338500e+01   5.0045656999e+01    0.2416299    0.0801959  54.36 0.0008039414    2.953    0.661
       205 -10.1063    113.6374     36.0295   6.6967365778e+01   5.2131181644e+01    0.4250145    0.2837379  83.03  0.001801356    2.578    0.612
       206  -9.8930     28.4034     37.1276   9.8211624467e+01   6.5815144003e+01    0.3605521    0.1513956  31.84  0.001784068    2.750    0.636
       207  -9.4190    105.6812     35.6060   6.8993752384e+01   5.3942272128e+01    0.2342701    0.2306262 -34.74  0.001407599    1.176    0.150
       208  -9.5455     90.4712     35.4829   7.3519596058e+01   5.7087760680e+01    0.2860295    0.1308313  46.15  0.001214989    2.187    0.543
       209 -10.5840     63.1137     33.8472   8.2441640466e+01   6.2132237266e+01    0.4947762    0.2445409  45.34  0.002303247    2.423    0.587
       210  -9.6838    120.9116     34.0967   6.4357451564e+01   5.0738155573e+01    0.3564208    0.2053116  65.82  0.001525034    2.100    0.524
       211 -10.4536     51.9521     33.8384   8.6860530481e+01   6.3742326315e+01     0.402749     0.218576  39.81  0.002070684    2.130    0.531
       212 -10.3383     75.2190     32.6920   7.7496351241e+01   6.0332305730e+01    0.4981056    0.2215843  47.91  0.002136462    2.561    0.609
       213  -9.9877     14.4873     31.9119   1.0272201534e+02   6.7927935674e+01    0.2972469    0.1667159  38.78  0.001699924    2.526    0.604
       214  -9.8742    103.3126     30.2539   6.7551423689e+01   5.5203386490e+01     0.359027    0.2403902  53.98  0.001718105    1.552    0.356
       215  -9.6336     44.1327     30.6156   8.8810077231e+01   6.5297713773e+01    0.2974711    0.1432445  33.72  0.001501563    2.272    0.560
       216  -8.5526    222.5097     30.5042   4.5996297085e+01   2.5648035530e+01    0.1367946    0.1249708 -70.92 -7.773082e-05    1.029    0.029
       217 -10.5626     83.7038     28.8751   7.2989665007e+01   5.9359310878e+01    0.5296492    0.3362783  63.84  0.002466471    2.460    0.594
       218 -10.4496     94.0224     27.8952   6.9313683280e+01   5.7468523028e+01    0.4659793    0.2878433  58.80  0.002171234    1.950    0.487
       219  -9.3364      4.4294     28.3369   1.0631062105e+02   6.9236874336e+01    0.2053181    0.1476137  58.09  0.001114788    2.418    0.586
       220  -9.2456    111.5295     27.8542   6.4360416594e+01   5.3715193486e+01    0.2902575    0.2284884  74.35  0.001476915    1.590    0.371
       221  -9.9587    107.3016     23.7347   6.3836377607e+01   5.5179008281e+01    0.5349361    0.1931011  62.96  0.001691912    4.157    0.759
       222  -9.2469     42.1500     25.5574   8.7530755348e+01   6.6384327666e+01    0.3225243    0.1157547  33.25  0.001424857    3.017    0.668
       223 -10.8519     52.0866     22.6227   8.1984807677e+01   6.5528449250e+01    0.7385315    0.2614088  41.54  0.003135297    3.161    0.684
       224 -10.9116     65.3935     21.5131   7.6219473168e+01   6.3643179243e+01    0.4281177    0.2945775  50.16  0.002395264    1.817    0.450
       225  -9.1295     21.6599     22.4319   9.5704462563e+01   6.9072863507e+01    0.2015509    0.1049585  28.70  0.001153279    2.197    0.545
       226  -9.3351    123.4840     21.5308   5.8989890531e+01   5.1717325207e+01    0.1412105    0.1278622  33.69 8.479949e-05    1.013    0.013
       227 -10.9635     76.4160     20.4141   7.1764870875e+01   6.1872990672e+01    0.5333145    0.2670225  50.83  0.002497896    2.219    0.549
       228  -8.9797     12.7134     21.4258   9.9727519525e+01   6.9970206642e+01    0.1446007   0.09417883  -7.66 0.0009149259    1.554    0.356
       229  -9.6220     41.3791     19.0627   8.4968770298e+01   6.7506179996e+01    0.3201798    0.1937218  28.46  0.001875621    1.716    0.417
       230 -10.8930    166.0679    248.5367   1.0406332338e+02   1.2253355226e+00    0.2571215    0.1850618  42.02  0.001706123    1.107    0.096
       231  -9.0749    107.4444    248.7353   1.1461574504e+02   1.0258659568e+01    0.1284401    0.1092724 -55.45 0.0009328005    1.558    0.358
       232 -10.7423     90.0339     18.0137   6.6323883545e+01   5.9542834097e+01    0.4487362    0.2435621  53.70  0.002154518    1.910    0.476
       233  -9.9027     32.1992     17.2441   8.8356009896e+01   6.8876495580e+01    0.3518467     0.167171  41.07  0.001774213    2.879    0.653
       234  -8.7333      9.2087     16.3883   9.9500047833e+01   7.1098518962e+01    0.1349975   0.09850257  24.05 0.0009473119    1.689    0.408
       235  -9.0218     18.9855     14.9981   9.3841381460e+01   7.0555982733e+01    0.2256867    0.1328456  38.35   0.00133577    2.395    0.582
       236  -8.5079    130.3378     14.3256   5.4805860465e+01   5.0849405756e+01    0.1520111   0.09380316  32.46 0.0005949287    1.724    0.420
       237 -10.4392    245.2932    247.5187   9.0110360283e+01  -1.0576215538e+01    0.3952328    0.1422866  37.65  0.002026748    2.289    0.563
       238 -11.2600    173.8044    244.7156   1.0216447147e+02   5.2179897390e-01    0.3689398    0.2470989 -66.93  0.002116925    2.547    0.607
       239 -10.5749    167.9658    242.9119   1.0298419436e+02   1.7054881623e+00    0.1898639    0.1508819  38.04 0.0008405374    1.004    0.004
       240 -10.1937    237.5016    240.0226   9.0234810408e+01  -8.6773654912e+00    0.3597298    0.1630377  36.30   0.00149183    1.822    0.451
       241 -10.3736    107.6551    236.9805   1.1339735180e+02   1.2159383691e+01    0.3557013    0.2005349 -89.25  0.001830646    2.624    0.619
       242  -9.6907    101.7977    233.8174   1.1415359304e+02   1.3581137938e+01    0.2697887   0.08501759  35.83  0.001032616    3.570    0.720
       243  -9.5734    128.5137    232.0034   1.0893922430e+02   9.7467944106e+00    0.1518763    0.1041873 -26.12 0.0006146196    2.532    0.605
       244  -9.4206    236.3586    230.1121   8.8822260006e+01  -7.3785020704e+00     0.201577    0.1432999 -39.69  0.001288488    1.873    0.466
       245  -9.9041     73.4853    229.1353   1.1893239887e+02   1.8464454441e+01    0.2563075    0.1090146  54.03  0.001322427    1.992    0.498
       246  -9.8082    160.7500    227.0074   1.0214466602e+02   5.2494242598e+00    0.2018839     0.192369  -4.46 0.0008633994    1.222    0.181
       247 -10.7907    164.2994    225.8535   1.0130203393e+02   4.8321496788e+00    0.3222158    0.2782397  61.18  0.002127492    1.272    0.214
       248 -11.6050    125.6656    221.1730   1.0814922232e+02   1.2059190880e+01    0.3966169    0.3092539  38.18  0.001245785    1.233    0.189
       249 -11.1596     88.2802    225.8215   1.1587518575e+02   1.6995393889e+01    0.4428222    0.1388595 -59.00  0.001943231    3.427    0.708
       250 -11.5437     98.8129    226.4488   1.1394661622e+02   1.5329693497e+01    0.3586069    0.2209981  39.87  0.001507413    1.510    0.338
       251  -9.2731    185.1842    225.2184   9.7251304536e+01   1.4129572540e+00    0.2467116   0.09153854 -35.88  0.001014421    3.536    0.717
       252  -9.0244     30.4911     10.2879   8.5852998589e+01   7.0119689198e+01    0.1866916   0.09653939  29.03  0.001056253    2.024    0.506
       253 -10.3996    129.1892    226.6986   1.0816062454e+02   1.0529715966e+01    0.3311544    0.1920478  75.48  0.001530498    2.850    0.649
       254 -10.3875    108.2119    223.3160   1.1180236885e+02   1.4459111970e+01    0.2749429    0.2199017 -14.36  0.001636192    2.129    0.530
       255  -8.8725    157.5281    221.5276   1.0197947294e+02   6.6652645024e+00    0.1282676    0.1078312  39.61 0.0003308652    1.020    0.020
       256  -9.2964    114.8301    221.1372   1.1026243884e+02   1.3811284481e+01    0.1585646    0.1413957  30.12 0.0005392607    1.327    0.247
       257  -9.7715     75.4735    220.0085   1.1773643370e+02   1.9890337989e+01    0.2377054    0.1268535  54.74 0.0007267186    1.579    0.367
       258 -10.4571     99.0015    217.2123   1.1290375925e+02   1.6998490576e+01    0.2908693    0.1606916 -86.95  0.001410738    2.504    0.601
       259  -9.1415    143.5796    216.6575   1.0401590701e+02   9.8560999406e+00    0.2150191    0.1249127 -46.45   0.00112202    2.044    0.511
       260 -10.6892    131.2642    215.0853   1.0624545521e+02   1.2213260622e+01    0.3045012    0.2082474 -66.06  0.001593712    1.736    0.424
