#   1 NUMBER                 Running object number                                     
#   2 MAG_AUTO               Kron-like elliptical aperture magnitude                    [mag]
#   3 X_IMAGE                Object position along x                                    [pixel]
#   4 Y_IMAGE                Object position along y                                    [pixel]
#   5 X_WORLD                Barycenter position along world x axis                     [deg]
#   6 Y_WORLD                Barycenter position along world y axis                     [deg]
#   7 A_WORLD                Profile RMS along major axis (world units)                 [deg]
#   8 B_WORLD                Profile RMS along minor axis (world units)                 [deg]
#   9 THETA_WORLD            Position angle (CCW/world-x)                               [deg]
#  10 FWHM_WORLD             FWHM assuming a gaussian core                              [deg]
#  11 ELONGATION             A_IMAGE/B_IMAGE                                           
#  12 ELLIPTICITY            1 - B_IMAGE/A_IMAGE                                       
         1 -10.4040    184.6121     40.6018   2.8638495015e+01   3.3700465258e+01    0.3415441    0.2710544 -70.74  0.001708063    1.438    0.305
         2 -12.5766      2.4720     20.3704   7.4650609580e+01   6.9945069532e+01    0.3849662    0.1854936 -52.31 0.0004685972    1.722    0.419
         3 -11.9710     70.6929     18.5968   4.6306401951e+01   6.2188467156e+01    0.2626549    0.2186983  13.60  0.000145273    1.136    0.120
         4 -11.3317     34.3271     12.1960   5.6750161940e+01   6.8320589404e+01    0.4096652     0.263976   6.68   0.00212101    1.567    0.362
         5 -11.4768     30.6350      7.5365   5.5958464427e+01   6.9396927875e+01    0.3936931    0.2643026   8.14  0.002595959    1.425    0.298
         6 -12.1413    125.3782     17.0300   3.1160715389e+01   5.1203445267e+01     0.259961    0.2502355   6.80 0.0002267576    1.111    0.100
         7 -12.1265    126.0149     10.9016   2.8635548936e+01   5.1657411096e+01    0.2996674    0.2776314 -27.04 0.0003206132    1.190    0.159
         8 -10.3976     60.3833     15.7489   4.8462143551e+01   6.4236422702e+01    0.3587354    0.2000734 -37.03  0.001903289    1.835    0.455
         9 -10.4861    171.0273     16.0565   2.2868115787e+01   4.0059629083e+01    0.2084334    0.2019934  76.98 0.0003741515    1.039    0.038
        10 -11.0356      6.1221      8.0099   6.7526442985e+01   7.1726944865e+01    0.5359848    0.3208489  39.40   0.00269167    2.790    0.642
        11  -9.4371     14.4566     12.5029   6.5694962688e+01   7.0338735120e+01    0.1615486    0.1284356  -2.16 0.0006050959    1.300    0.231
        12 -11.1062    235.2699     14.7151   1.5146271551e+01   2.4187756726e+01    0.2263972    0.2204273  60.18 0.0005480188    1.169    0.145
        13  -9.6982    108.6086     11.7292   3.2700273081e+01   5.5525594561e+01    0.2051713    0.1699359 -82.59 0.0005850855    1.714    0.417
        14  -9.9415     91.2974     11.0943   3.6736391642e+01   5.9220873765e+01    0.3210946     0.155617  17.79  0.001299205    2.778    0.640
        15  -9.9373    148.5083     10.5040   2.4436736808e+01   4.6263134682e+01    0.2334627    0.1152077 -33.59  0.000642003    2.066    0.516
        16 -11.2732     55.6359      9.5630   4.7121776129e+01   6.5738260088e+01    0.2649755    0.1899948  14.41  0.000315324    1.262    0.207
        17 -10.2892     50.9948     10.5142   4.9297802525e+01   6.6320667635e+01    0.2168564    0.1715755 -38.42  0.000904298    1.622    0.384
        18 -10.2503     45.5132      9.5482   5.0897392076e+01   6.7224661534e+01    0.2264274    0.1782462   0.84 0.0005875479    1.104    0.094
        19 -10.4865     42.3862      9.2082   5.1952495929e+01   6.7695754525e+01    0.2564515    0.1282927 -37.86 9.708725e-05    2.008    0.502
        20 -11.0929    221.4442      9.5674   1.5087320172e+01   2.8044471684e+01    0.3549708    0.1778659  20.58  0.001209917    4.445    0.775
        21 -11.6827    192.2066      9.8969   1.8220995069e+01   3.5282221346e+01    0.4639261    0.1890105  66.60  0.001882403    2.271    0.560
        22  -9.6495    215.4885      9.5707   1.5656920597e+01   2.9498450883e+01    0.1339686    0.1221884 -72.69 9.846954e-05    1.018    0.018
        23 -10.5382     14.0783      3.2053   6.1235749498e+01   7.1748645166e+01    0.2477933    0.2112073  40.82  0.001834088    2.071    0.517
        24 -10.1925     16.3748      7.8235   6.2523707375e+01   7.0870456362e+01    0.2197826    0.1203704 -21.25 0.0004378882    1.558    0.358
        25 -12.3256     19.6126      2.3935   5.8182478362e+01   7.1308336893e+01    0.2922019    0.1745601 -16.21  0.001082448    1.364    0.267
        26 -10.0630     98.0023      6.9762   3.3183436921e+01   5.8246606010e+01    0.1953405    0.1636252  15.32  0.000311626    1.012    0.012
        27 -10.5692     88.9574      6.0862   3.5088599618e+01   6.0178872924e+01    0.2052766    0.1597399   1.73  0.000368918    1.125    0.111
        28 -10.2725    247.0841      5.9788   1.2027557854e+01   2.2387841660e+01    0.1893815    0.1593272 -61.36  0.000342963    1.033    0.032
        29 -12.0558    195.5768      4.8903   1.6384417162e+01   3.4906731839e+01    0.6520851    0.2872681  73.29 0.0006861274    2.224    0.550
        30 -10.0130    111.8096      5.7834   2.9500707206e+01   5.5365335513e+01    0.2151811    0.1561216  29.31 0.0009234489    1.252    0.202
        31 -10.6952    123.1522      2.5578   2.5909194726e+01   5.3045988461e+01    0.3121871    0.2656497 -54.80  0.001844962    1.446    0.308
        32 -10.2458    104.7593      4.1581   3.0365915396e+01   5.7055514676e+01    0.2068224    0.1671495  39.25 0.0004654691    1.136    0.120
        33 -10.2759    164.4958      3.4648   1.9662665295e+01   4.2881829070e+01    0.1345719    0.1276755  65.39 0.0001744205    1.031    0.030
        34 -11.0558    148.5099      2.4790   2.1599496890e+01   4.6953450446e+01    0.2406172    0.2144625  46.64 0.0005787928    1.029    0.028
        35  -9.8278     43.6654      2.8820   4.8146702011e+01   6.8285013137e+01    0.2506115   0.09183017 -21.88   0.00110353    2.651    0.623
        36  -9.8907     59.1248      3.1638   4.2651097035e+01   6.5895670093e+01    0.1579579     0.132104 -16.48  0.001061639    1.285    0.222
        37 -10.0636     29.7511      1.3513   5.3048281900e+01   7.0296140499e+01     0.180608    0.1022973  37.14  0.001078161    2.075    0.518
        38  -8.9106    208.5596    191.4889   6.3418197975e+01   2.8825962797e+00    0.1330062     0.115894  14.81 0.0002356915    1.016    0.016
        39 -10.2782    110.0344    250.5717   8.9380145771e+01   1.0354550256e+01    0.1630594   0.08605146  46.36 0.0004654068    1.533    0.348
        40 -11.0315     29.0459    250.2065   1.0163084982e+02   2.0742156352e+01    0.2269483   0.08954991  49.87  0.001477817    1.936    0.483
        41 -12.4856      4.8813    241.0565   1.0457050982e+02   2.4714473546e+01    0.3818108    0.3246221  60.62  0.003563731    1.585    0.369
        42  -9.0249     69.7288    177.6414   8.8584569628e+01   2.9407870516e+01    0.1170344   0.08989804 -47.08 0.0006998816    1.647    0.393
        43 -10.8341      5.7777    154.6424   9.9048736056e+01   4.1201533578e+01    0.4658569      0.15772  53.86  0.002262524    3.169    0.684
        44  -9.5308     23.5008    155.5114   9.5520109639e+01   3.9483001300e+01    0.1184723   0.08936634 -82.06 0.0002447144    1.039    0.038
        45  -9.5770     23.3345    147.3148   9.4680439085e+01   4.1303380325e+01     0.115077   0.07634527 -51.15 0.0007046743    1.689    0.408
        46 -10.8751      6.5951    145.2023   9.8028775829e+01   4.3178727236e+01    0.2159514    0.1494258 -89.58 0.0005415856    1.121    0.108
        47 -10.3626     57.9337    143.4022   8.6403781675e+01   3.8496772469e+01     0.191408    0.1512083 -83.65 0.0004474968    1.105    0.095
        48  -9.2479    248.3301    143.6967   4.6166322770e+01   2.6315104592e+00     0.131633    0.1089781 -58.07 0.0007035166    1.652    0.395
        49  -9.5010     29.0336    143.2208   9.2957545966e+01   4.1684604091e+01      0.12985   0.09868804  39.59  0.000353422    1.619    0.382
        50  -9.3595     25.4704    136.3840   9.2922552021e+01   4.3555213225e+01    0.1194327   0.09274381 -78.30 0.0001211944    1.030    0.029
        51  -9.0485     38.2983    135.6886   8.9854764946e+01   4.2473837112e+01    0.1256678   0.08182888  81.19 0.0002265609    1.601    0.375
        52  -9.6687     95.8828    133.8855   7.5639246731e+01   3.5271841457e+01    0.1954901     0.157407 -82.53 0.0007159951    1.289    0.224
        53  -9.1420      4.4598    129.5153   9.6917890605e+01   4.6788117209e+01    0.1172839   0.08403181 -77.09 9.091337e-05    1.025    0.025
        54 -10.1180     28.2739    127.9317   9.1154437640e+01   4.5217959628e+01    0.1789346    0.1275636 -70.87 0.0006511908    1.081    0.075
        55 -10.4386     41.1662    126.8580   8.7856369691e+01   4.4203965870e+01    0.1715443    0.1241901 -54.33            0    1.304    0.233
        56  -9.8753     58.8599    124.0489   8.2950316459e+01   4.2848363383e+01    0.1932828    0.1520517 -80.11  0.001145758    1.185    0.156
        57 -11.8348     24.6429    122.4156   9.1266574107e+01   4.6800213840e+01    0.3844986    0.2188074  81.24   0.00204466    2.046    0.511
        58  -9.1519     81.4785    122.4520   7.6860815879e+01   4.0148572943e+01    0.1405862    0.1222533 -66.78 2.034299e-05    1.025    0.024
        59 -12.0785     10.3321    120.2219   9.4467670321e+01   4.8441010821e+01    0.3906761    0.3206896   7.18  0.001256467    1.806    0.446
        60 -10.8972     69.2104    116.8891   7.8883008412e+01   4.3178353699e+01    0.2172662    0.1973033 -62.13 0.0002264589    1.087    0.080
        61  -9.8342     86.3521    118.8289   7.4824384983e+01   4.0244923768e+01    0.2088286    0.1139959 -47.07 0.0004673978    1.693    0.409
        62 -11.9797      2.9951    112.4482   9.5296847221e+01   5.0688640496e+01    0.3293847    0.1987045 -82.54 0.0005959156    1.347    0.258
        63  -9.5550     42.0244    115.7503   8.5804301484e+01   4.6680749057e+01    0.2473548   0.09869167 -40.22 0.0007378289    3.830    0.739
        64 -10.0675     39.9714    112.6114   8.5792038707e+01   4.7616369988e+01    0.2067133    0.1299959  14.74  0.001104459    2.418    0.586
        65 -10.1318     28.9708    112.2745   8.8632355917e+01   4.8740379345e+01    0.1710149    0.1382421 -68.25 0.0003792028    1.061    0.057
        66 -10.7010     24.1379    112.1162   8.9868062006e+01   4.9195948155e+01    0.1906821       0.1308 -54.49 0.0008351492    1.297    0.229
        67  -9.7184     20.6102    111.7915   9.0733652654e+01   4.9560998558e+01    0.1765885   0.09340952 -76.85 0.0009046918    1.639    0.390
        68 -10.0169     27.6600    108.1044   8.8292035776e+01   4.9811820645e+01    0.1973594    0.1247679 -78.35 0.0004801351    1.430    0.301
        69  -9.7606     66.4599    104.5397   7.6947285547e+01   4.6400425407e+01    0.1388531    0.1158081 -54.59 2.526746e-05    1.030    0.030
        70 -11.1505     13.1129    103.6725   9.1474664371e+01   5.1973984310e+01    0.2277971    0.1265071 -63.52 0.0006423697    1.313    0.238
        71 -10.2243      1.3885    103.3222   9.4524739954e+01   5.2826387063e+01    0.2505933   0.07224991 -65.97  0.001151961    2.262    0.558
        72 -10.8843      5.3039    102.4788   9.3378076478e+01   5.2771224859e+01    0.3222116   0.09160404 -75.18  0.001211761    3.499    0.714
        73 -10.4455    247.2406    101.5694   3.6102201922e+01   9.4006891559e+00    0.1899877    0.1339374  37.46 0.0008385334    1.595    0.373
        74 -10.8802     61.2499    100.1315   7.7400214849e+01   4.8085212469e+01    0.2585823    0.1387202 -53.93 0.0007059628    1.526    0.345
        75 -11.9715     20.4133     92.7442   8.7609799745e+01   5.3899882790e+01    0.5561444    0.2574588 -47.15  0.002898265    1.908    0.476
        76  -9.5835    217.9938     98.5263   3.9959358393e+01   1.6413975561e+01    0.2128337    0.1532875  52.55 0.0004240711    1.505    0.336
        77 -12.3937     10.7372     93.6732   9.0538291164e+01   5.4388928200e+01    0.3403838    0.2337815 -46.04 0.0002775117    1.412    0.292
        78  -9.8902      7.4711     90.5516   9.0949756138e+01   5.5299410054e+01    0.2349927    0.1312352 -61.44 0.0007485575    1.280    0.219
        79  -9.7852    147.5495     96.5206   5.3550508226e+01   3.3367765250e+01    0.1578032    0.1479921 -33.21 -1.653342e-06    1.011    0.011
        80 -10.1536     36.8906     96.0961   8.3501712463e+01   5.1713195921e+01    0.2383873    0.1549179 -70.75  0.001331307    1.388    0.279
        81 -10.7982     28.9354     93.9089   8.5364492392e+01   5.2938078365e+01     0.342683    0.1619699 -62.20 0.0009194573    1.615    0.381
        82 -12.0408    125.2434     93.0461   5.7969316486e+01   3.8914120528e+01    0.2728504    0.2553256  -8.33 0.0003161226    1.099    0.090
        83 -10.5200    105.6067     91.0935   6.2561730131e+01   4.3187853663e+01    0.3504415    0.2362811 -60.29  0.001225896    1.689    0.408
        84 -11.5374     57.9869     91.3423   7.6253873700e+01   5.0487904968e+01    0.2929663     0.242294 -37.84 0.0007046542    1.189    0.159
        85 -10.9832     54.6755     90.2901   7.6978687875e+01   5.1124444635e+01    0.2543378    0.2160342  55.66 0.0006642422    1.451    0.311
        86 -11.3183    159.8261     89.1697   4.8584852571e+01   3.1971402072e+01    0.2683652    0.2537438 -37.06 0.0002396539    1.045    0.043
        87  -9.9067     92.0987     87.1236   6.5159273433e+01   4.6439001454e+01    0.2060029    0.1749304 -29.83            0    1.137    0.121
        88 -13.5367     65.4000     81.8089   7.1523304615e+01   5.1651887283e+01    0.3699825    0.3452395 -66.46 0.0008210703    1.194    0.163
        89  -9.9826     17.7718     84.8580   8.6890697050e+01   5.5865772926e+01    0.1888414    0.1218625 -51.53 0.0004711727    1.247    0.198
        90  -9.8970      7.4649     83.9059   8.9806712743e+01   5.6774953518e+01    0.3367968    0.1559884 -43.48   0.00164081    2.039    0.510
        91 -11.1599      8.5257     79.4567   8.8663499771e+01   5.7689508187e+01    0.2020931     0.156747 -75.43 0.0006665348    1.214    0.176
        92 -11.7703     12.8242     76.4533   8.6727779109e+01   5.8069530853e+01    0.3514405    0.2113361 -21.32  0.002051649    2.207    0.547
        93  -9.9597    187.6276     82.8941   4.1016871833e+01   2.6385338976e+01    0.2470926    0.2103824  35.42 0.0003923384    1.240    0.194
        94 -10.0171    250.2228     80.7646   3.0400660673e+01   1.1954749011e+01    0.1937494    0.1598417  -3.61 0.0005962985    1.313    0.239
        95  -9.5029    124.8050     80.2423   5.4162277898e+01   4.1601684842e+01    0.3488291    0.1016465 -45.26  0.001000721    3.517    0.716
        96  -9.4540    159.2195     80.0206   4.5928275947e+01   3.3822566140e+01    0.2105111    0.1244074 -34.18 0.0003895692    1.612    0.380
        97  -9.7869     85.9742     78.9491   6.4492251634e+01   4.9198723021e+01    0.2901989    0.2686373   7.58  0.001708282    1.186    0.157
        98  -9.5324     87.5138     75.4494   6.2949817811e+01   4.9672500401e+01    0.1456307    0.1256953 -31.88 -1.553031e-05    1.034    0.033
        99  -9.9792     48.0033     78.9654   7.6157264176e+01   5.4406887782e+01    0.2002613     0.153982 -45.70  0.000359448    1.073    0.068
       100 -10.9178     54.0452     75.8846   7.3407622211e+01   5.4380320349e+01    0.5481935    0.2553352  34.44  0.002562718    2.584    0.613
       101  -9.6432     22.7566     76.8173   8.3654946866e+01   5.7266022814e+01    0.1597382    0.1254382 -77.82 0.0005403852    1.341    0.254
       102  -9.7703    177.0193     76.4912   4.1150839792e+01   3.0110312313e+01     0.234576      0.15694  53.92 0.0006660194    1.563    0.360
       103 -10.0324     34.9688     73.3428   7.8877697025e+01   5.6970080826e+01    0.2093909    0.1707203 -43.91 0.0008495636    1.096    0.088
       104 -11.0891      4.1030     74.2344   8.9039248601e+01   5.9096084712e+01    0.2794817    0.1641157  20.32  0.001759139    2.314    0.568
       105 -11.4448      9.4534     70.4506   8.6548717168e+01   5.9594212417e+01    0.2482007    0.1739656 -60.34 0.0009624299    1.064    0.060
       106  -9.5404    105.8403     71.8407   5.6506156812e+01   4.7095517026e+01    0.1821204    0.1708326  83.51 0.0004915154    1.309    0.236
       107 -12.6642     80.5556     67.4891   6.2479638634e+01   5.2427526787e+01    0.5763589    0.3676282 -14.62 0.0006064069    2.108    0.526
       108  -9.3453     70.0610     69.9871   6.6562637525e+01   5.3516099307e+01     0.160859    0.1349987 -37.25            0    1.005    0.005
       109  -9.6466     45.7050     69.1791   7.4213877007e+01   5.6771134262e+01    0.2857172    0.2168429 -45.02  0.001748116    1.043    0.041
       110  -9.5009     39.0194     70.5197   7.6801089113e+01   5.7185444880e+01    0.1597504    0.1280959  26.47  0.000525721    1.558    0.358
       111  -9.0066    158.6712     69.7206   4.2796487343e+01   3.5786096787e+01    0.1592777     0.119023  17.96 0.0006998237    1.599    0.375
       112 -12.1854    211.8569     67.4408   3.2353473739e+01   2.2943214888e+01    0.2781907    0.2662985 -21.58 0.0003421736    1.039    0.038
       113 -10.2669     58.8937     66.2919   6.8993354470e+01   5.5803163684e+01    0.3072223    0.1557142 -46.08  0.001131305    1.609    0.379
       114  -9.4259     85.9758     67.0405   6.0675174710e+01   5.1627508009e+01    0.1657438    0.1443696 -29.43            0    1.012    0.012
       115 -11.3237      5.8425     65.3455   8.6636844076e+01   6.0909389220e+01    0.4304295    0.1265594 -40.80  0.001813599    3.344    0.701
       116 -10.0344    128.6573     63.0311   4.7489575209e+01   4.3974916669e+01    0.2300845      0.18943  -7.06 0.0004248742    1.250    0.200
       117 -10.9112     17.1394     50.6024   7.8854391252e+01   6.3233323914e+01    0.6853678    0.3687981  54.24  0.003154694    4.125    0.758
       118 -13.9009     20.5704     58.4850   7.9840532166e+01   6.1359597752e+01    0.4994185    0.3687875 -56.47 0.0009630929    1.150    0.131
       119 -12.1129     11.6993     59.6507   8.3284199369e+01   6.1749953725e+01    0.4426858    0.2437291 -68.78  0.002196699    1.756    0.431
       120 -11.2783     55.0187     61.2238   6.8664759843e+01   5.7328766882e+01    0.2218706    0.1708515 -41.43 0.0002129859    1.063    0.059
       121 -11.2727     58.4491     58.8903   6.6737163077e+01   5.7356441555e+01    0.2850369    0.1933918  30.26 0.0009907248    1.733    0.423
       122 -10.4585    145.6342     58.9934   4.2103523262e+01   4.0736651421e+01    0.2715472    0.2163772  39.76  0.000508004    1.284    0.221
       123 -10.1380     90.8894     59.2219   5.6489576221e+01   5.2274289072e+01    0.1989923    0.1794276 -36.41 0.0002913528    1.141    0.123
       124  -9.3759    153.9761     60.9720   4.0945404413e+01   3.8400942704e+01    0.1793779    0.1685207 -14.99 0.0003941226    1.011    0.011
       125  -9.2123    109.6643     58.2398   5.0757335350e+01   4.8867344335e+01    0.1341164    0.1171008 -80.14 0.0001883201    1.545    0.353
       126  -9.2914    130.7115     57.2891   4.4989755460e+01   4.4494909366e+01    0.1448234    0.1178452 -63.05 0.0002489659    1.539    0.350
       127 -10.5875     72.0202     57.0691   6.1613498419e+01   5.5792633406e+01    0.2028778     0.186584 -38.14 0.0007337917    1.191    0.160
       128  -9.3428    229.4560     56.4950   2.6789846398e+01   2.0296414086e+01    0.1456211    0.1337204 -37.16 0.0002094525    1.018    0.018
       129 -13.1480    114.5126     53.4111   4.7706787140e+01   4.8691329709e+01    0.3300258    0.2939364  13.09 0.0005226699    1.108    0.098
       130 -12.9110    106.3617     50.4102   4.8800487913e+01   5.0875559411e+01    0.4909502    0.3182693 -43.43 0.0004045895    1.597    0.374
       131 -11.3670     86.8546     54.0488   5.5837779375e+01   5.3929936598e+01    0.4645174    0.2595864  30.25   0.00116112    2.124    0.529
       132 -10.0046     37.8205     52.6610   7.1877865275e+01   6.0997693063e+01    0.3624559    0.1582235 -30.01  0.001523631    2.879    0.653
       133 -12.0188     67.4092     52.3687   6.1442077465e+01   5.7365601483e+01    0.4675097    0.2513839  27.99  0.001822993    2.264    0.558
       134  -9.4341    225.3252     52.7000   2.6300868799e+01   2.1827382118e+01    0.1527738    0.1038063 -60.59  0.000302908    1.634    0.388
       135 -10.1852    148.8628     52.1368   3.9056954823e+01   4.1048098692e+01    0.2194697    0.2045627 -56.90 0.0004394179    1.183    0.155
       136 -10.9288    137.6345     49.1894   4.0500441179e+01   4.4186977700e+01    0.5758816    0.4142568 -22.81  0.001802663    1.356    0.262
       137  -9.1956     45.2289     52.3572   6.9112559828e+01   6.0256540292e+01    0.1330871   0.07754659 -31.86 0.0006883171    1.571    0.364
       138 -11.9344      3.5407     46.4761   8.2818201984e+01   6.4955176563e+01    0.5326687    0.2379101 -69.46  0.002244476    2.610    0.617
       139  -9.2907    159.3623     56.3156   3.8277799101e+01   3.7823817084e+01    0.1654133      0.11475  21.45 0.0007041574    1.762    0.432
       140 -10.1219    121.3199     50.9958   4.5064045170e+01   4.7621486187e+01    0.2043501    0.1799296 -17.63 0.0004736294    1.049    0.046
       141 -10.1789    119.5336     47.4677   4.4217620928e+01   4.8571745556e+01    0.3215741    0.1675161 -30.82 0.0006535583    1.809    0.447
       142  -9.5925     32.9979     55.5230   7.4529016347e+01   6.0900285515e+01    0.1609207   0.09218077 -17.29 0.0004971168    2.324    0.570
       143 -10.6051     52.9901     47.9977   6.4805811466e+01   6.0154936862e+01    0.3803197    0.2841082  67.54  0.002013005    2.544    0.607
       144 -10.4583     74.0371     47.4171   5.7401505015e+01   5.7247484523e+01    0.2313549    0.1954191 -19.32 0.0009013242    1.022    0.022
       145  -9.9240    155.2381     46.8862   3.5941025761e+01   4.0267142377e+01    0.2802907    0.2130736  46.29  0.000686186    1.315    0.240
       146 -10.5903     16.4969     43.5672   7.6943563710e+01   6.4677980146e+01    0.3235237    0.2290532 -85.38  0.001347893    2.439    0.590
       147 -10.8851     79.2580     45.5782   5.5006242137e+01   5.6712763447e+01    0.2480945    0.2144653 -29.98 0.0002710346    1.141    0.123
       148 -10.9487     26.1847     44.3231   7.3440127209e+01   6.3739224701e+01    0.3448179    0.2888063 -32.24  0.002437833    1.139    0.122
       149 -10.4292     91.8376     43.3607   5.0259419081e+01   5.4851408395e+01    0.3175748    0.2695675  55.45  0.001803916    1.496    0.331
       150  -9.3627    220.8503     43.3821   2.4315413525e+01   2.4194993297e+01    0.1892565    0.1290067  52.21 0.0001181661    1.559    0.359
       151 -10.3082     68.9267     41.4178   5.6753015239e+01   5.9082278765e+01     0.456848    0.2750023 -64.14  0.001646906    4.587    0.782
       152 -12.1175    141.8458     41.1483   3.6704295446e+01   4.4358095306e+01    0.2624258    0.2470325   9.59 0.0003585773    1.012    0.012
       153 -10.5097     37.6351     41.5611   6.8077830895e+01   6.3144028133e+01    0.2558578    0.1803338 -27.17 0.0007304024    1.207    0.171
       154 -10.8851    189.5077    248.6438   7.6131601812e+01  -1.6215329074e+00    0.3209628    0.1376699  52.34   0.00153847    2.656    0.623
       155 -12.0695    120.5184     37.8608   4.0351494246e+01   4.9776448763e+01    0.7472112    0.3928046  25.90  0.002733056    2.614    0.617
       156 -11.4005      4.6520     40.1615   8.0560446324e+01   6.6140958240e+01    0.3313473    0.1177959 -60.31  0.001545333    2.437    0.590
       157  -8.9350     87.3028     40.2883   5.0404074861e+01   5.6175342831e+01    0.1396935    0.0981527   2.69 0.0002357438    1.564    0.361
       158  -9.6233     43.8101     39.8281   6.5088619823e+01   6.2769232048e+01    0.1570706    0.1308209 -42.51 0.0002901223    1.273    0.214
       159 -11.6123      2.1638     34.3035   7.9747340621e+01   6.7416901610e+01     0.397127   0.08446439 -56.13  0.001285105    3.291    0.696
       160 -10.4469    132.0041     36.3643   3.7106699403e+01   4.7352234810e+01    0.3480687    0.2207121  12.92  0.001512474    1.981    0.495
       161 -10.3147     82.1317     36.3503   5.0398117718e+01   5.7713993938e+01    0.2217383    0.1988485 -58.81            0    1.534    0.348
       162  -9.4269     40.5603     34.5803   6.4260038172e+01   6.4071660715e+01    0.1262663   0.09617652 -26.51 0.0001240876    1.020    0.020
       163  -9.1239     36.4651     34.4526   6.5803574235e+01   6.4550816679e+01    0.1236067   0.09694941 -31.80 6.076272e-05    1.081    0.075
       164 -10.1139     28.0862     33.4865   6.8760502548e+01   6.5578701243e+01    0.2231898    0.1185627 -33.78 0.0006990121    1.524    0.344
       165 -10.1933     19.5502     34.5082   7.2620600220e+01   6.6156656201e+01    0.1195296   0.08937748 -38.96 9.066995e-05    1.065    0.061
       166 -13.0619      9.7935     29.6150   7.4914552089e+01   6.7801087176e+01    0.3100846    0.2654351   1.93  0.002392453    1.418    0.295
       167 -10.8806    206.0069     32.1893   2.3049673113e+01   2.9328107422e+01    0.2264746    0.1976672 -32.55 0.0003822293    1.122    0.108
       168  -9.2525     55.2983     33.2979   5.8196834254e+01   6.2423899257e+01    0.1303078   0.08536167 -10.97 0.0002825852    1.574    0.364
       169  -9.5366     49.5957     33.4949   6.0380659142e+01   6.3154113047e+01    0.1288826   0.09993878 -25.05 9.201183e-05    1.025    0.024
       170 -10.2829     45.5520     32.5186   6.1499723079e+01   6.3828534735e+01    0.2260163    0.1724267 -25.44 0.0007093432    1.018    0.018
       171  -9.1279    145.4542     32.5801   3.2891483156e+01   4.4617362918e+01    0.1469387    0.1340971  20.92 2.341438e-05    1.048    0.046
       172 -10.3062     89.6800     31.0088   4.5877342897e+01   5.7118061378e+01    0.2316859    0.1759754  23.04 0.0008068067    1.290    0.225
       173 -11.7312     91.1854     26.7690   4.3643349814e+01   5.7407074310e+01    0.2494388    0.2154841   4.55 0.0002624835    1.039    0.037
       174 -10.3807    170.3389     40.2380   3.0891867398e+01   3.7393647688e+01    0.2640954    0.2389921 -63.84 0.0005941196    1.194    0.163
       175 -11.3725    135.7387     29.1304   3.3609033501e+01   4.7394867599e+01    0.2379506    0.2267009  44.22 0.0002820278    1.107    0.096
       176 -10.0414     39.0667     30.2666   6.3071929239e+01   6.4979087783e+01    0.1821971    0.1307385 -18.01 0.0006114779    1.207    0.171
       177  -9.0636     54.6411     29.3245   5.6739791827e+01   6.3150683439e+01    0.1161822   0.09962077 -59.04  0.000704377    1.777    0.437
       178 -10.6124    144.7875     27.8628   3.1326470579e+01   4.5356707738e+01    0.3040127    0.2185025  47.33 0.0006844161    1.336    0.252
       179  -9.2940     69.0197     27.5433   5.0901754185e+01   6.1248399867e+01    0.2548512    0.1584079 -58.73  0.001055962    3.615    0.723
       180 -10.6440     45.6148     26.2731   5.8798059789e+01   6.4834848100e+01      0.32464    0.1453602 -32.09  0.001586864    1.883    0.469
       181  -9.9685    102.8201     26.2702   4.0222813772e+01   5.5136117851e+01    0.2238221    0.1720225 -27.95  0.001233575    1.280    0.219
       182 -10.4266    102.9443     22.3141   3.8539532705e+01   5.5594470561e+01    0.2844501    0.2132124  20.21 0.0008008755    1.270    0.213
       183  -9.7320     80.9020     26.7355   4.6705390137e+01   5.9330016560e+01    0.1805023    0.1563557   0.03 0.0004800207    1.071    0.066
       184 -10.3812    216.8313     25.7813   1.9934997111e+01   2.7394042162e+01    0.1966158    0.1494414 -56.77 0.0004581848    1.296    0.229
       185  -9.6858     18.5586     26.3572   6.9904185254e+01   6.7698813827e+01    0.1614549   0.08133335 -38.12 0.0008657201    1.467    0.319
       186  -9.2866     19.5977     16.5303   6.5223880578e+01   6.9240844656e+01    0.1267057    0.1057015  18.26 0.0002261807    1.525    0.344
       187  -9.7486     21.3565     22.3152   6.7014815770e+01   6.8138330580e+01    0.2437213    0.1251968 -16.61  0.001266261    2.325    0.570
       188 -11.5121     17.5517     20.4602   6.7881532164e+01   6.8787762323e+01    0.3199939    0.2161545  -3.22 0.0007201564    1.527    0.345
       189  -9.3478     12.6855     20.3224   6.9992261903e+01   6.9217512943e+01    0.1710748    0.1266844 -51.26  0.001113998    1.525    0.344
       190 -11.7264     18.6082    248.0152   1.0298548753e+02   2.2201998615e+01    0.2299801    0.2077889  35.23  0.001567172    1.992    0.498
       191  -9.4354      7.4967     20.5344   7.2423742537e+01   6.9574724859e+01    0.1631351   0.09054983 -53.97  0.000656251    1.783    0.439
       192  -9.8192     51.3550     24.2306   5.5701955461e+01   6.4387246815e+01    0.2199024    0.1363195 -38.01  0.001245088    1.511    0.338
       193  -9.7507     34.7508     24.3986   6.2284156241e+01   6.6432551541e+01    0.1944706    0.1124621  33.56  0.001127799    2.082    0.520
       194 -10.2297    128.0513     23.0227   3.2920584258e+01   4.9930213947e+01     0.216472    0.1885942  23.06 0.0003641676    1.063    0.059
       195 -10.4911    199.3370     22.0987   2.0956936958e+01   3.2199779718e+01    0.2436914    0.1777826  57.25 0.0005546407    1.361    0.265
       196  -9.6941    132.0571     20.6424   3.1177030290e+01   4.9249888880e+01      0.19453     0.163872  40.13 0.0003776975    1.119    0.107
       197  -9.6555    111.9830     20.6883   3.5618775985e+01   5.3842209015e+01    0.1935329    0.1553884  34.77 0.0004392017    1.168    0.144
       198  -8.9302    106.4981     21.5128   3.7300000481e+01   5.4936608620e+01    0.1394829    0.1215964   8.77 0.0008105565    1.000    0.000
       199  -9.5449     31.2589     20.9482   6.2189196340e+01   6.7366841099e+01    0.1704554    0.1127278 -30.71 0.0003713665    1.157    0.135
       200 -10.9509     78.0322     19.4326   4.4349742694e+01   6.0800554077e+01    0.3366597    0.2412404  61.82  0.001827133    2.058    0.514
       201  -9.5643    230.1614    247.2202   6.9285705178e+01  -7.7226858858e+00    0.1393775    0.1147447  34.23 0.0004510219    1.285    0.222
       202  -9.3729    224.3234    247.3087   7.0241099560e+01  -6.8554331181e+00    0.1166905   0.07061474  17.56 0.0003653068    1.649    0.394
       203  -9.8024    170.7090    246.7848   7.8997836716e+01   1.5836128532e+00    0.1641038    0.1343365  10.85 0.0008980281    1.430    0.301
       204 -11.0678     38.0251     18.4728   5.8253587229e+01   6.6969937798e+01    0.4161942    0.2551582  43.88  0.002393734    2.365    0.577
       205 -10.3247     39.5076     15.0247   5.6004963704e+01   6.7287111599e+01    0.2123518    0.1696401 -24.79 0.0007185243    1.231    0.188
       206 -10.4837    237.9789     19.1033   1.6007410262e+01   2.3061712985e+01     0.244625     0.174608 -30.41  0.001344421    1.350    0.259
       207  -9.9217    220.5017     19.4608   1.7814728711e+01   2.7214239078e+01    0.1355048    0.1268117 -65.58 0.0001783053    1.015    0.015
       208  -9.6195    116.1118    246.8369   8.8026844860e+01   1.0026588200e+01    0.1668146    0.1238835  68.47 0.0007070996    1.223    0.182
       209 -13.0036     10.7753    244.2665   1.0389746590e+02   2.3608324413e+01     0.591714    0.2740848 -78.52  0.004239797    1.848    0.459
       210  -9.4836    147.0000    244.0069   8.2605904823e+01   5.7145878842e+00    0.1562924   0.06600495 -50.44 0.0006371408    2.913    0.657
       211 -10.1012    201.6414     16.7029   1.9115158521e+01   3.2205942254e+01    0.1464494   0.09888171  37.51 0.0007034013    1.705    0.413
       212  -9.9394     52.3868    244.3729   9.7858774546e+01   1.9026895144e+01    0.1290375    0.1199252 -80.36 0.0009632859    1.620    0.383
       213  -9.1592    202.3419    241.2921   7.2952066287e+01  -2.7678373628e+00    0.1189617   0.07591173  19.74 0.0003210951    1.654    0.395
       214 -10.6058     14.0802     15.8448   6.7407550847e+01   6.9841676406e+01    0.2240022    0.1722134 -40.47 0.0004285488    1.339    0.253
       215  -9.0644     60.6786    240.7216   9.6327164748e+01   1.8616541643e+01   0.08496805   0.08094683  65.77  0.000278728    1.582    0.368
       216  -9.9268     13.5601    180.8380   9.9684028335e+01   3.5046745266e+01    0.2538404   0.08318404 -84.78  0.001120411    3.087    0.676
       217  -9.6493    197.2887     14.6411   1.9023285187e+01   3.3520813827e+01    0.1495517   0.09527471 -56.50 0.0007025269    1.685    0.407
       218  -9.1963    100.3988     14.7095   3.5956994389e+01   5.6980877183e+01    0.1288977    0.1049165 -63.40 0.0004476248    1.792    0.442
       219 -11.4070    207.1761     12.9683   1.7439247761e+01   3.1209030807e+01    0.4176379    0.1999635  71.78  0.001390669    2.066    0.516
       220  -9.5120     59.1498    236.1071   9.6217556789e+01   1.9584428136e+01    0.1455587   0.09234954  72.68 0.0003729083    1.276    0.216
       221  -9.4791    204.1826    235.4254   7.1759264440e+01  -2.3521067118e+00    0.1552536   0.09659506  46.87 0.0005862438    1.521    0.342
       222 -10.9781    160.3484     15.9193   2.4424001499e+01   4.2781157125e+01    0.3786573    0.1811516  61.04   0.00055926    1.939    0.484
       223  -9.2852    238.9561    234.0632   6.5768363178e+01  -7.6567501261e+00    0.1371315    0.1067386  15.72 0.0004332481    1.032    0.031
       224 -10.1270     32.1873    233.2795   1.0019159062e+02   2.3227185523e+01    0.1555591    0.1113641 -86.72 0.0005790709    1.253    0.202
       225 -12.2952      2.9177    247.5062   1.0511881984e+02   2.3845112804e+01    0.4335516    0.3097524  71.97  0.002971782    1.179    0.152
       226 -11.9145      3.6841    232.8930   1.0436707199e+02   2.6204302638e+01    0.2681433    0.1763155  54.63  0.001226921    1.416    0.294
       227 -10.3269    244.9993    230.1753   6.4136224526e+01  -8.1534561690e+00    0.3855293    0.1191885  38.95  0.001429311    2.720    0.632
       228 -10.6929    140.3854    227.9066   8.1722988909e+01   9.1805879225e+00    0.2656486    0.1882814  85.37  0.001137651    1.853    0.460
       229 -10.7605      1.4949    223.9341   1.0426013997e+02   2.7964088864e+01    0.1429577   0.07163985 -85.36 0.0004289432    1.530    0.346
       230  -9.7269     97.5005     10.4922   3.4855494636e+01   5.8015937303e+01    0.1338757    0.1151516  11.55 0.0008105022    1.026    0.026
       231  -9.7034     86.4402     10.4158   3.7754215957e+01   6.0250279272e+01    0.1294759    0.1107389   6.19 -2.58833e-05    1.058    0.055
       232  -9.8506     12.4858    226.5615   1.0276678732e+02   2.6452578769e+01    0.1017557   0.06866311  76.69 8.369668e-05    1.009    0.009
       233  -9.3399    116.9134      9.0000   2.9737274419e+01   5.3931329489e+01    0.2197807   0.07327257  60.53 0.0008018675    2.938    0.660
       234  -9.8570     54.5961    235.7799   9.6908006939e+01   2.0200821215e+01    0.1405604   0.07990511  88.01 0.0002456086    1.613    0.380
       235 -11.5092      8.5936    219.1707   1.0295629934e+02   2.8146123292e+01    0.3714533    0.1111513 -68.58  0.001496251    2.846    0.649
       236  -9.6451    131.3531    221.1710   8.2449585859e+01   1.1733751181e+01    0.2380513   0.07965989  41.71 0.0009982098    2.705    0.630
       237 -10.3552     28.0281    219.8344   9.9979770721e+01   2.6061782199e+01     0.176577    0.1130438  56.90 0.0009950511    1.342    0.255
       238 -10.7199      2.2536    219.3695   1.0392333464e+02   2.8704916525e+01    0.2432406   0.08693268  71.84  0.001335571    2.582    0.613
       239  -9.8573     85.8333    215.0980   8.9853930691e+01   1.9756661223e+01    0.1678965     0.126691  75.56            0    1.136    0.119
       240  -9.5003    205.4357    211.7277   6.7676870125e+01   5.2529731948e-01    0.1648665    0.1145593 -16.74 0.0009449205    1.621    0.383
       241  -9.7458      4.6268    211.2995   1.0313944577e+02   2.9952732090e+01    0.1112149   0.05136183  67.98 0.0006302778    1.748    0.428
       242  -9.6547     20.1232    209.3442   1.0056132386e+02   2.8822211634e+01    0.1476382     0.100849  71.09 0.0009002481    1.130    0.115
       243 -10.2910     39.2657    207.0269   9.7210966446e+01   2.7218054575e+01    0.1774267    0.1300519  69.37 0.0006359979    1.122    0.108
       244 -11.1688      3.0010    206.0591   1.0310591194e+02   3.1074413599e+01    0.2281975   0.08417974 -79.00  0.001328718    2.116    0.527
       245  -9.4332    193.8174    201.3959   6.7950255844e+01   4.0689947184e+00    0.1868686    0.1087598  33.70 0.0005200526    1.637    0.389
       246  -9.3024      8.6823    201.7319   1.0194144153e+02   3.1372515416e+01    0.0887251   0.07054725 -68.68 0.0002389704    1.556    0.357
       247  -9.6405    124.0818    205.8922   8.1731753393e+01   1.5569219877e+01      0.14879    0.1364701  40.32 0.0009901311    1.216    0.177
