#   1 NUMBER                 Running object number                                     
#   2 MAG_AUTO               Kron-like elliptical aperture magnitude                    [mag]
#   3 X_IMAGE                Object position along x                                    [pixel]
#   4 Y_IMAGE                Object position along y                                    [pixel]
#   5 X_WORLD                Barycenter position along world x axis                     [deg]
#   6 Y_WORLD                Barycenter position along world y axis                     [deg]
#   7 A_WORLD                Profile RMS along major axis (world units)                 [deg]
#   8 B_WORLD                Profile RMS along minor axis (world units)                 [deg]
#   9 THETA_WORLD            Position angle (CCW/world-x)                               [deg]
#  10 FWHM_WORLD             FWHM assuming a gaussian core                              [deg]
#  11 ELONGATION             A_IMAGE/B_IMAGE                                           
#  12 ELLIPTICITY            1 - B_IMAGE/A_IMAGE                                       
         1 -12.0990     89.8850     59.3442   1.0133113121e+02   5.2702075106e+01     1.075894    0.8786169 -48.41  0.006167847    1.375    0.273
         2 -12.8513     42.9533     46.4188   1.1297425612e+02   6.1654663811e+01    0.6969332    0.5839875  86.23  0.001109993    2.198    0.545
         3 -12.4275     60.5182     45.8070   1.0638472006e+02   5.9573426845e+01     1.006989    0.4524747 -40.38  0.004862203    2.046    0.511
         4 -12.5723    104.9534     13.0790   8.0649363952e+01   5.6011365980e+01    0.7159703    0.4112516 -29.03  0.003846584    1.885    0.470
         5 -11.1475    119.9754     17.8153   7.8816878109e+01   5.2328867212e+01    0.8964195    0.4636178  67.98  0.003992253    2.313    0.568
         6 -12.2981    131.0044     13.8751   7.5168567824e+01   5.0241412539e+01     1.373827    0.6124157  73.39  0.005255269    3.188    0.686
         7 -13.6808    118.0947     41.7851   8.7453196847e+01   4.9858389982e+01     1.424361     1.071134  -0.14  0.005553597    1.506    0.336
         8 -12.9086    112.8583     24.9000   8.2946029447e+01   5.3107915972e+01     1.205985    0.4646415  49.45  0.005114159    2.239    0.553
         9 -11.8574    145.6474     47.9140   8.2986981078e+01   4.2716448428e+01     1.058435    0.5194525 -23.28  0.003894294    2.590    0.614
        10 -11.7204    182.1895     25.3994   6.9872397402e+01   3.6657677579e+01    0.6125994    0.3247732  49.34  0.002251275    1.893    0.472
        11 -11.4675    178.3091     21.0998   6.9275863982e+01   3.8113319514e+01    0.5457616    0.3415236  34.01  0.001686728    2.069    0.517
        12 -10.5011     60.4165     25.4109   9.8802795623e+01   6.2588599496e+01    0.5266451    0.2341924 -36.15  0.002650819    2.193    0.544
        13 -11.5620     26.3225     27.6498   1.1287344256e+02   6.6375470587e+01    0.4552308    0.4106276  -7.57  0.002897573    1.347    0.258
        14 -11.1749     22.5861     11.1330   1.0787228991e+02   6.9072335115e+01     1.413348    0.5556732  13.20  0.005743762    4.758    0.790
        15 -11.4332     19.9072     23.2626   1.1392464410e+02   6.7615444248e+01    0.5072548     0.251796 -39.29  0.002658965    1.636    0.389
        16 -10.9305     14.7326     23.4061   1.1620772279e+02   6.8020128260e+01     0.383828    0.3207616 -41.89  0.001954417    1.455    0.313
        17 -11.7425     16.7959     13.3948   1.1138623026e+02   6.9303586602e+01    0.5570972    0.1988169 -30.67   0.00246449    2.583    0.613
        18 -11.3015     14.4660      9.5169   1.1081737115e+02   7.0031706148e+01    0.3658381    0.2207873  23.65   0.00258119    1.742    0.426
        19 -10.2815    147.9644     16.6359   7.2860461431e+01   4.5996830873e+01     0.561452    0.5045587  69.27  0.003512843    1.071    0.066
        20  99.0000     87.9982      7.4645   8.2911836335e+01   5.9906579781e+01    0.6470895    0.3258516  52.25  0.003396429    1.840    0.457
        21 -11.4719     90.7889     20.1669   8.7040413490e+01   5.8090094356e+01    0.5296243    0.3873056 -12.65  0.002272415    1.368    0.269
        22 -11.5855     86.0522     14.3077   8.6136134931e+01   5.9606183592e+01    0.5028167     0.291386  -8.04  0.001833762    1.937    0.484
        23  -9.4759     32.0463     12.1126   1.0423965807e+02   6.7957568203e+01    0.2655208    0.1848914  50.73  0.001613457    2.802    0.643
        24 -10.8253     47.2627     18.8631   1.0100032271e+02   6.5259681158e+01    0.3380052    0.2843341  12.59  0.002004247    1.223    0.183
        25 -11.9064     49.1631     12.9434   9.7792782800e+01   6.5731346655e+01    0.6526423    0.3141384  37.52  0.003666516    2.025    0.506
        26 -10.6757     38.7603     21.9934   1.0560413615e+02   6.5892077848e+01    0.3944131    0.1677806 -35.63  0.002095118    2.075    0.518
        27 -11.6352     35.5053     18.9651   1.0568746883e+02   6.6676002250e+01    0.5549927    0.2138886 -28.79  0.002669513    2.560    0.609
        28 -10.1559    206.6384     19.8275   6.5240279105e+01   3.1294670266e+01    0.4461264     0.257043 -36.44  0.002274626    1.816    0.449
        29 -10.7747     66.3507     10.5370   9.0690648953e+01   6.3426723536e+01     0.494439    0.2242164  35.81  0.002546026    2.004    0.501
        30 -10.4737     62.6894      6.7037   9.0291701623e+01   6.4406080531e+01    0.4000675    0.1935996 -13.18  0.001598643    2.305    0.566
        31 -11.2644     77.3195      4.7162   8.4843744870e+01   6.2124331411e+01    0.6169762    0.3436041  -2.37   0.00331205    2.021    0.505
        32 -10.6781     71.6079      3.2076   8.5939381607e+01   6.3261447496e+01    0.3818253    0.2774991  11.69  0.002240338    1.203    0.169
        33 -11.9888     68.7322     17.7564   9.2872658716e+01   6.2247922775e+01     0.722816    0.3814772  51.30  0.003746436    2.305    0.566
        34 -11.3488    239.7719      7.7957   5.9217126365e+01   2.4912258482e+01    0.3993176    0.1948183 -71.04 0.0003552441    2.152    0.535
        35 -11.9919    244.9091      7.0321   5.8632836821e+01   2.3853767371e+01    0.7702675    0.3984584 -66.75  0.003900879    1.848    0.459
        36 -12.2172    237.8203     15.6340   6.1036702432e+01   2.4441925796e+01    0.5806927    0.4523139  53.71  0.002879654    1.553    0.356
        37 -11.5515    243.9464     15.0301   6.0357475005e+01   2.3134076277e+01    0.3908512    0.2729896 -30.35  0.001776368    1.719    0.418
        38 -11.1292    165.3363     17.1900   7.0139603162e+01   4.1732458310e+01    0.3695397    0.2411518  41.66 0.0007487065    1.620    0.383
        39 -10.7155    205.8907      2.4134   6.1179144436e+01   3.3362007113e+01    0.4434034    0.2083631  82.92  0.001948326    2.075    0.518
        40 -10.4384    200.1476      5.9041   6.2613049493e+01   3.4387140374e+01    0.4709223    0.1943562  71.82  0.001090236    2.112    0.527
        41 -10.7067    186.3406     15.3123   6.6627160780e+01   3.6768381932e+01     0.395477    0.2442573  44.86   0.00145867    1.793    0.442
        42 -11.4576    192.2996      7.4526   6.3882121610e+01   3.6130605800e+01    0.6805413    0.4139009  55.96  0.002924724    1.558    0.358
        43 -10.1067    193.7919      1.3968   6.2213958450e+01   3.6364278644e+01    0.2292975    0.1346878  62.33 0.0005975425    1.490    0.329
        44 -11.5447    211.3284     10.1066   6.2411316307e+01   3.1260373132e+01    0.4310521    0.3288685  33.65  0.001508242    1.807    0.446
        45  -9.6463      4.1291     10.9964   1.1621273287e+02   7.0630811910e+01    0.2720629    0.1610872 -21.71  0.001757971    1.318    0.241
        46 -10.5872    169.1617      9.9449   6.7533348642e+01   4.1531662506e+01    0.3554038    0.1926275  47.94  0.001736605    1.809    0.447
        47  -9.7271    157.6167     10.5375   6.9427684368e+01   4.4278735962e+01    0.2733101    0.1487507 -37.79  0.001047203    2.023    0.506
        48  -9.5125    162.8517     10.1686   6.8518842328e+01   4.3046144515e+01    0.2147541    0.1600968  46.51 0.0007492055    1.315    0.240
        49 -10.1129    158.1678      2.6197   6.7053720458e+01   4.4867688642e+01    0.3892335    0.2013159  56.10  0.001955998    1.619    0.382
        50 -10.0083    162.9074      5.5841   6.7210071125e+01   4.3462515258e+01    0.3591057    0.2422998  -4.00  0.001494791    1.986    0.496
        51  -9.2671    162.5586      1.4053   6.6082960823e+01   4.3917405041e+01    0.1749838    0.1012283  61.00 4.230148e-05    1.435    0.303
        52 -10.4628    151.1447      7.4824   6.9554004113e+01   4.6118153303e+01    0.4096797    0.2086289  60.90  0.001019291    1.635    0.388
        53 -10.1797      1.3124      7.2775   1.1604115084e+02   7.1346130859e+01    0.1636769    0.0702268 -40.64 0.0002439441    1.808    0.447
        54 -11.0326    218.6078      3.3083   6.0141740465e+01   3.0263050342e+01    0.3049805    0.2599632  86.55 0.0009147251    1.096    0.088
        55 -10.4558    228.0197      3.5085   5.9329675220e+01   2.8057200538e+01    0.3068393    0.2101697 -63.02  0.001491826    1.314    0.239
        56 -11.0171    223.5006      1.8088   5.9363905383e+01   2.9280285518e+01    0.5120093    0.3036495 -76.13  0.002802918    1.600    0.375
        57 -10.8652     42.2022     14.3607   1.0107899709e+02   6.6473351236e+01    0.3642307    0.1838867  37.81  0.001856571    2.095    0.523
        58 -10.5379     42.6435      3.4737   9.6129637826e+01   6.7664378237e+01    0.4185337    0.2196879   5.19  0.002284917    2.252    0.556
        59 -10.7222    174.1541      4.4540   6.5353662040e+01   4.0838189028e+01    0.6239139    0.2269178  73.51  0.002441235    2.700    0.630
        60 -10.8997    105.6619      1.8479   7.6380879096e+01   5.6857505240e+01    0.8915267    0.3442766  68.14  0.003350262    3.769    0.735
        61 -10.2916    113.0132      1.7774   7.4746559069e+01   5.5304379054e+01    0.3990965    0.1745175  65.05  0.001337942    2.341    0.573
        62  -8.8322      5.2477      5.3699   1.1335646349e+02   7.1326960630e+01    0.1087376   0.05562028 -22.27 0.0006947676    1.625    0.385
        63 -10.3792    141.8634      3.6532   6.9916671998e+01   4.8648635761e+01     0.475507    0.1923542  60.09  0.001960183    1.989    0.497
        64 -12.0429    133.7637      2.6957   7.1018173968e+01   5.0607004308e+01    0.3850467    0.2395498  58.23 0.0007299051    1.342    0.255
        65 -11.0273      2.6325      1.8177   1.1308279842e+02   7.1989649739e+01    0.3162886    0.1483894  10.39  0.001993771    2.244    0.554
        66 -10.2255    122.7044      1.3741   7.2642121113e+01   5.3215032812e+01    0.9336378   0.06383412  56.03  0.002800524    4.711    0.788
        67 -10.7419    249.5251    142.7214   8.7916228785e+01   1.7981262764e+00    0.6556548    0.2396999 -39.12   0.00248458    2.470    0.595
        68  -9.5760    239.7694    146.6071   9.0425832371e+01   3.0254457732e+00    0.1859795    0.1382138  60.02 0.0008029805    1.608    0.378
        69  -9.0274    108.7893    145.8488   1.1883003473e+02   3.0876675647e+01     0.201373     0.165648  86.63 0.0002161937    1.303    0.232
        70 -10.7275     33.1307    144.2858   1.3762299376e+02   4.1878511818e+01    0.2760781     0.213873  88.64  0.000768194    1.188    0.159
        71 -10.0459    133.3739    140.5042   1.1153015526e+02   2.7326499308e+01    0.3271116    0.2671712 -20.53  0.001164162    1.530    0.347
        72 -12.1473     23.5029    136.3222   1.3891225399e+02   4.4601621765e+01    0.7999026    0.5592196  58.11  0.005014061    1.588    0.370
        73 -11.7474     29.8473    132.9987   1.3685896356e+02   4.4792230460e+01    0.5101367    0.2873126 -76.25 0.0004297896    1.598    0.374
        74 -10.7632     81.3607    135.5247   1.2382575967e+02   3.7921079008e+01    0.5469928    0.3875671 -12.78  0.002523439    2.314    0.568
        75 -10.4783     79.1994    127.4981   1.2277932663e+02   4.0137775365e+01    0.5667756    0.3099874 -41.41  0.001515221    2.012    0.503
        76 -10.9793     72.6445    133.2653   1.2569569950e+02   3.9737666710e+01    0.6338988    0.3190618 -39.38  0.002590252    2.544    0.607
        77  -9.9935     67.3418    134.6847   1.2737024485e+02   4.0138488858e+01    0.2138673    0.1265674  42.68  0.001046256    1.837    0.456
        78 -10.5394     47.6052    134.8896   1.3258215180e+02   4.2535254902e+01     0.373808    0.1792309 -60.03  0.001241927    1.726    0.421
        79  -8.8584    216.6762    135.2812   9.2034571750e+01   9.9428359306e+00     0.147767    0.1181103 -80.16 0.0003153749    1.592    0.372
        80 -11.2806     92.9201    129.4971   1.1950023008e+02   3.7494925548e+01    0.5608822    0.3106622 -58.83  0.002449699    1.749    0.428
        81 -10.1955     14.2658    133.2030   1.4078476513e+02   4.6067884139e+01    0.2792473     0.168491 -89.60  0.001052128    1.611    0.379
        82  -9.9060     62.1223    132.1679   1.2829117648e+02   4.1421724127e+01    0.4015454    0.1934808 -50.44  0.001812474    1.909    0.476
        83 -11.2534     56.1571    123.2578   1.2824586110e+02   4.4250677086e+01    0.6146089    0.3603908  26.73  0.002693039    2.111    0.526
        84 -10.5197     45.6885    120.3546   1.3059454428e+02   4.6120555191e+01    0.3826772    0.2572376 -79.50  0.001353071    1.544    0.352
        85  -9.7357     18.8016    124.4898   1.3847840694e+02   4.7678270881e+01     0.284934    0.1247673 -59.84 0.0009765761    1.742    0.426
        86 -10.0853      1.5693    124.1859   1.4281497908e+02   4.8966831368e+01    0.3456246    0.1533313 -78.32  0.001754621    1.936    0.483
        87  -9.8344      3.6785    121.3133   1.4193384087e+02   4.9466606618e+01    0.3561546    0.1897619  67.77  0.001919677    2.431    0.589
        88 -10.2407    239.3940    123.7445   8.5358818223e+01   7.2024098786e+00    0.3970036     0.176576 -32.17  0.001502172    2.413    0.586
        89 -11.7010    104.8383    121.0168   1.1436641685e+02   3.7381598861e+01    0.5442511    0.5079275 -64.50  0.002135332    1.028    0.027
        90  -9.3911    221.2309    120.4226   8.7711479424e+01   1.1748631520e+01    0.1996878    0.1458062  67.25 0.0005017034    1.584    0.369
        91  -9.6065    148.4489    119.3904   1.0275113206e+02   2.8791594780e+01    0.2873016    0.2298038 -22.34 0.0009320321    1.478    0.323
        92  -9.2766     72.0680    120.0319   1.2317987825e+02   4.2916976784e+01    0.2203625    0.1591669 -28.00  0.001058432    1.707    0.414
        93 -11.2678     34.8670    118.9522   1.3332876061e+02   4.7539948916e+01     1.633798    0.2159734 -51.60  0.004831245    5.095    0.804
        94 -11.4595     44.7085     85.1430   1.2347754189e+02   5.4038278987e+01     1.051681    0.7018272 -72.45  0.004654661    1.823    0.451
        95 -11.3254     34.4818     92.5212   1.2840458194e+02   5.3465923765e+01    0.9380041    0.5836447  51.09  0.005150132    2.180    0.541
        96 -11.7678     37.5815     85.9092   1.2595420570e+02   5.4590521998e+01     1.017746     0.330182  31.53  0.004345638    3.436    0.709
        97 -11.7312     23.7522     99.5074   1.3305867423e+02   5.2858703944e+01    0.6976057    0.2645665 -62.33  0.003267433    2.088    0.521
        98 -11.9576     18.8434    106.1574   1.3565271641e+02   5.1773448262e+01    0.2834942    0.1929004 -51.44 0.0002602703    1.245    0.197
        99 -12.8753     24.4737    109.4624   1.3461219573e+02   5.0599617096e+01     1.632453    0.7976755 -33.04  0.007737562    2.769    0.639
       100 -11.3785     28.6646    113.0047   1.3403607163e+02   4.9452452173e+01    0.3183551     0.281002  -8.32  0.001120879    1.408    0.290
       101 -12.1946     18.7433     95.7355   1.3385962669e+02   5.4060190975e+01    0.2882956    0.2354001 -42.94 0.0002999131    1.176    0.150
       102 -12.2614     18.4446     90.6541   1.3299670121e+02   5.5174572939e+01    0.6448765    0.3546588 -39.47 0.0007820581    1.731    0.422
       103  -9.2289     81.2633    117.7681   1.2011065214e+02   4.2088670618e+01    0.1914274    0.1560139 -33.35 0.0004703378    1.317    0.241
       104 -10.2404    114.0167    115.9614   1.1066670362e+02   3.6802196813e+01    0.2220635    0.2152807 -52.07 0.0003542723    1.020    0.020
       105 -10.6252     67.1102    112.0892   1.2287421484e+02   4.5427961041e+01    0.5236303    0.2935073 -65.84  0.002408464    1.878    0.467
       106 -11.6937      3.0637    104.9301   1.3988752483e+02   5.3090787997e+01    0.3696641    0.2847212 -41.54  0.001075077    1.346    0.257
       107 -11.7200      2.9686    112.0691   1.4091339840e+02   5.1541860021e+01    0.4087832    0.2924547  57.75  0.002070741    1.682    0.405
       108 -10.6633      5.7774    108.6185   1.3967571770e+02   5.2124451308e+01    0.2233471    0.1938987 -57.23 0.0006456886    1.175    0.149
       109  -9.4200    126.8650    113.9110   1.0675822679e+02   3.4672427900e+01    0.2283368    0.2096672 -10.19 0.0004503332    1.207    0.172
       110 -10.4777    108.1343    112.5793   1.1140938046e+02   3.8684596857e+01    0.4959858    0.3296889 -76.44  0.001805759    2.201    0.546
       111 -11.0624    102.9947    108.4065   1.1176909436e+02   4.0567021089e+01    0.7186563    0.5458426   5.02  0.002635131    1.788    0.441
       112  -9.2147     87.9498    114.5151   1.1748468541e+02   4.1781658093e+01    0.2118506    0.1418156  42.28  0.001028259    1.609    0.379
       113 -11.3819    171.5274    109.7508   9.4927880350e+01   2.5467797931e+01    0.7170606    0.4805939  32.60   0.00251222    1.812    0.448
       114  -9.8501     49.1509    112.0866   1.2804868386e+02   4.7634806539e+01     0.202335    0.1986614  42.29  0.001155801    1.196    0.164
       115 -11.1985     79.3300    108.5695   1.1853815395e+02   4.4481444190e+01    0.6370086    0.4081457  49.58  0.002979069    1.809    0.447
       116 -11.1622     86.5979    105.2250   1.1562098534e+02   4.4095111178e+01    0.4583099    0.3593275  18.45  0.001617048    1.510    0.338
       117  -9.6697    130.3326    108.5347   1.0445978855e+02   3.5114460475e+01     0.288985    0.1413125 -44.77   0.00109619    2.010    0.502
       118 -10.0425    119.8530    108.9415   1.0731399423e+02   3.7203399651e+01     0.234508    0.2078624 -17.30 0.0006657291    1.246    0.197
       119 -10.6198    157.7553    105.6162   9.6951364151e+01   2.9567570126e+01    0.3322058    0.2990113   9.51 0.0006511302    1.269    0.212
       120 -10.4529    143.4853    105.9995   1.0046808930e+02   3.2769574152e+01    0.3659492     0.317855  69.51  0.001342486    1.235    0.190
       121 -11.5659    146.2714    100.5431   9.8310509783e+01   3.3269629213e+01    0.5654262    0.4476632 -14.74  0.002643299    1.553    0.356
       122  -9.4852    247.0038    104.3283   7.9740654939e+01   9.0288265944e+00    0.2200864    0.1174317  82.21 0.0007049724    4.308    0.768
       123 -10.8113     48.3045    103.0230   1.2643153066e+02   4.9770794320e+01    0.3694475    0.2320634 -31.50 0.0003786378    1.835    0.455
       124  -9.9083     52.4490     96.7279   1.2378156658e+02   5.0696801457e+01    0.4969544    0.1398279 -51.06  0.001856423    2.817    0.645
       125  -9.2765     81.9458    102.8397   1.1638078377e+02   4.5361151482e+01    0.2126289    0.1808441 -29.02 0.0005978944    1.205    0.170
       126  -9.8392     57.3973    102.2114   1.2353009383e+02   4.8900037870e+01    0.3289151    0.1216941 -59.03  0.001040311    2.551    0.608
       127 -10.3061     57.8399     97.6519   1.2234604082e+02   4.9853928293e+01    0.3412631    0.2436999 -66.08  0.001313905    1.433    0.302
       128 -11.1913     67.5090     97.1593   1.1928141472e+02   4.8713303384e+01    0.6193321    0.3478119 -47.31  0.001977381    1.572    0.364
       129  -9.6660    136.8246    100.1642   1.0054642571e+02   3.5475270948e+01    0.2970556    0.1992456  23.08  0.001220068    2.052    0.513
       130  -9.9599    142.9361    249.4921   1.2827295545e+02   3.1996146944e+00    0.2028218    0.1038429  43.53  0.001038682    1.609    0.378
       131 -10.0379     67.0428     55.0249   1.0727866182e+02   5.7109339058e+01    0.2203061    0.2037159   3.76 0.0007195031    1.154    0.134
       132 -10.3852     78.0121     97.0034   1.1607046111e+02   4.7242823457e+01    0.3781978    0.1820719 -53.68            0    1.971    0.493
       133 -10.6695     93.9835     76.0547   1.0537265175e+02   4.8934322814e+01    0.5226451     0.355125  22.12  0.001173589    1.726    0.421
       134 -11.4345     82.1062     93.2242   1.1385200984e+02   4.7426888395e+01    0.6013505    0.4314132  57.15  0.001323241    1.770    0.435
       135 -11.2582     90.0792     88.9904   1.1030775116e+02   4.7019407907e+01    0.8344675    0.4719337 -25.21  0.003369268    2.520    0.603
       136 -12.1910     74.3602     50.2542   1.0320934643e+02   5.6810121543e+01     1.105748    0.6879464 -47.30  0.005795161    1.802    0.445
       137 -11.4138     79.6754     82.5695   1.1165939531e+02   5.0026735794e+01     0.570847    0.5047392 -83.90  0.002237892    1.429    0.300
       138 -12.1219     69.9982     79.7413   1.1390107626e+02   5.2039113171e+01     1.210525    0.7799852   5.76   0.00582192    2.184    0.542
       139 -11.7414     84.8353     73.0481   1.0724924790e+02   5.1077759102e+01     0.609319    0.5589977 -80.24  0.003579532    1.378    0.274
       140 -11.4412     78.7182     67.1212   1.0734332517e+02   5.3180719605e+01     0.589794    0.4907594 -79.15  0.002610309    1.755    0.430
       141 -10.3256    210.8869     97.6395   8.4023729253e+01   1.8370131703e+01    0.3780482    0.3314804  10.51  0.001699022    1.402    0.287
       142  -9.1959    190.4830     96.5038   8.7528744546e+01   2.3493674578e+01    0.1553345    0.1475374 -76.36 0.0001301497    1.027    0.026
       143 -10.4098     98.6341     62.1872   9.9628718337e+01   5.0621202011e+01    0.3448018    0.2617991  -6.46   0.00113464    1.466    0.318
       144  -9.6924    138.1349     93.2982   9.8308526795e+01   3.6583972100e+01    0.3992928    0.2507494  23.89  0.001554415    2.340    0.573
       145 -10.8861    125.1796     93.3344   1.0165200013e+02   3.9405518918e+01    0.5947756    0.3619468  42.98  0.001597813    1.675    0.403
       146 -10.4395    117.3963     93.0784   1.0366608962e+02   4.1074410041e+01     0.369524    0.2646379  32.40  0.001326657    1.523    0.343
       147 -10.8740    122.2390     89.0965   1.0122576932e+02   4.0882564729e+01    0.4861308    0.3077296  18.69  0.001921229    2.450    0.592
       148 -10.5060    120.5723     85.2369   1.0055370688e+02   4.1997625198e+01    0.5324522    0.2376106  45.80  0.002028776    2.267    0.559
       149  -9.6559    160.5444     93.8281   9.3117746839e+01   3.1269471229e+01    0.3190839    0.2114712  70.86  0.001318494    1.905    0.475
       150 -10.5060    101.6085     90.8154   1.0744474473e+02   4.4604218296e+01     0.484116    0.3803785  67.83  0.001925284    1.630    0.386
       151 -10.0178    105.0142     88.0000   1.0566949999e+02   4.4546048890e+01    0.3532291    0.2208535  40.79  0.001398638    1.659    0.397
       152 -10.6226    152.6581     91.9614   9.4414643194e+01   3.3505571265e+01    0.3643565    0.3522702  15.58  0.001406996    1.084    0.077
       153 -10.3574    183.8209     85.7946   8.6010712667e+01   2.7112777927e+01    0.6902177    0.2303708 -44.21  0.002193522    3.015    0.668
       154 -10.0534    104.1369     76.2478   1.0244716807e+02   4.7026393033e+01    0.6345208    0.2867769 -30.55  0.002294714    2.853    0.650
       155 -11.2046    113.4461     83.1287   1.0187963108e+02   4.3872538152e+01    0.7951337    0.3315665 -35.73  0.002815809    2.661    0.624
       156 -10.8473    108.4240     80.4668   1.0249508549e+02   4.5387558087e+01    0.5037893    0.4151955 -55.70  0.001781841    1.327    0.246
       157  -9.2395     67.5219     88.0385   1.1695119688e+02   5.0670268524e+01    0.2114009    0.1178124 -47.25  0.001018016    1.582    0.368
       158  -9.7922    212.1398     87.0289   8.1165615913e+01   1.9978401937e+01     0.222245    0.2126445 -61.85 0.0004735962    1.050    0.048
       159 -10.7208    165.5455     83.1013   8.9036714622e+01   3.2094114126e+01    0.4604346    0.4009814 -75.98  0.001575967    1.242    0.195
       160 -11.3700    143.4799     83.3734   9.4156779114e+01   3.7300128960e+01    0.4773433    0.3755969 -25.99  0.001623915    1.380    0.276
       161 -10.4194    127.4004     83.2766   9.8169629569e+01   4.0925666327e+01    0.4084603    0.2872561  43.25   0.00131988    1.427    0.299
       162 -11.1325     58.1302     78.0740   1.1727491221e+02   5.3959898132e+01    0.4251731    0.3434392 -69.92  0.001132776    1.507    0.336
       163 -11.6734     52.7943     76.1280   1.1850204781e+02   5.4999788183e+01    0.7926397    0.3395328 -53.00    0.0035769    2.123    0.529
       164 -10.3982    120.7576     79.9858   9.8951979079e+01   4.2975089758e+01    0.4302928    0.2144365  49.76   0.00172793    2.083    0.520
       165 -10.1061     52.0470     47.1142   1.0986492632e+02   6.0468141574e+01    0.3585892    0.2088745 -36.67  0.002012372    1.499    0.333
       166 -11.7479     24.0449     55.9490   1.2298228511e+02   6.1751951258e+01     1.338708    0.5640429  23.18  0.006966012    2.741    0.635
       167 -11.1333     27.8617     47.1194   1.1892107259e+02   6.3033272700e+01    0.3886414    0.2136322  -9.53  0.002094493    2.293    0.564
       168 -10.6064     21.0131     46.8532   1.2147796549e+02   6.3650354154e+01    0.3037559    0.1952888 -43.88  0.001100123    1.242    0.195
       169  -9.1188    213.5147    247.9951   1.1491059953e+02  -8.5286458094e+00    0.1614398   0.09746668  -6.98 0.0008086903    2.418    0.586
       170 -11.1186     32.5434     42.1455   1.1550231784e+02   6.3457898835e+01    0.4459363    0.3857166  89.70  0.002603259    2.038    0.509
       171 -11.7928     13.8573     74.5800   1.3119190675e+02   5.8843733384e+01    0.4440084    0.3468813 -58.37  0.001918778    1.130    0.115
       172 -11.5828     39.9773     55.6180   1.1702620060e+02   6.0351822200e+01    0.4951083    0.4118004  60.59  0.003204028    1.867    0.464
       173 -12.0616      2.0774     71.3324   1.3444578760e+02   6.0189318956e+01    0.6428531    0.1454459 -59.82   0.00269477    2.849    0.649
       174 -12.8428     10.7811     63.7357   1.2979953857e+02   6.1202294490e+01    0.9397696    0.6147587  57.58  0.005601219    2.572    0.611
       175 -11.4680     51.3085     61.5853   1.1480887260e+02   5.7996763281e+01    0.5151179    0.3742494 -68.07  0.002507119    1.983    0.496
       176 -11.3606     46.1110     58.3479   1.1565290401e+02   5.9193223201e+01    0.5293851    0.2453112 -49.85   0.00261093    1.987    0.497
       177 -12.0475     10.0573     97.6294   1.3676476653e+02   5.4243675458e+01    0.8254047    0.6237115  59.12   0.00561416    1.670    0.401
       178  -9.3007      5.0244     78.2776   1.3484554031e+02   5.8621178909e+01    0.1541553    0.1221561 -52.30 0.0005572276    1.055    0.052
       179 -12.2236      7.4911     88.8551   1.3602421720e+02   5.6275660686e+01    0.4863851    0.3904477 -59.07  0.001045709    1.056    0.053
       180 -12.2395    186.2294     70.4185   8.1415021687e+01   2.9204383973e+01    0.9163663    0.7004475 -38.36  0.003551279    1.340    0.254
       181  -9.7421    192.1492     65.6605   7.9084289966e+01   2.8512223858e+01    0.3038138    0.2110233  87.69  0.001387499    1.705    0.414
       182 -11.1937     32.9557     71.9466   1.2409631844e+02   5.7896764530e+01    0.4766226    0.2544248  29.90  0.002636208    2.183    0.542
       183  -9.8554     38.5259     73.5130   1.2260021519e+02   5.7059732424e+01    0.2222084    0.1615767 -43.78 0.0008150405    1.126    0.112
       184 -11.2542     40.6398     70.3434   1.2103722090e+02   5.7482345763e+01    0.3643301    0.3147224 -66.37  0.001786598    1.359    0.264
       185  -9.0599    151.4650     73.4832   8.9400432350e+01   3.7227252011e+01    0.1502012    0.1451946  35.53 0.0001499706    1.041    0.040
       186  -9.1172    230.3790     73.6810   7.5072459390e+01   1.7933945705e+01    0.1565375    0.1013641 -71.73 0.0007025262    1.819    0.450
       187  -9.5442    131.1956     67.4114   9.2413047871e+01   4.2986915949e+01    0.3347822    0.1901833  61.76  0.001370104    2.138    0.532
       188 -11.7228    122.5760     68.1780   9.4864158320e+01   4.4747617102e+01    0.6750682    0.4714305  43.88  0.002438552    1.407    0.290
       189  -9.5966    128.5046     63.9863   9.2026950803e+01   4.4170326433e+01    0.2733971    0.2496539  14.50  0.001033829    1.104    0.094
       190 -10.1892    162.0049     70.4168   8.6196431381e+01   3.5208503719e+01    0.3806383    0.2799678  73.20  0.001739728    1.521    0.343
       191 -10.6339    171.9687     67.8495   8.3424614901e+01   3.3183881790e+01    0.4398682    0.3460906 -48.64   0.00153699    1.303    0.233
       192 -10.0654    167.6331     63.1087   8.2941732942e+01   3.5036062914e+01    0.2642114    0.2031832  55.97 0.0005109543    1.244    0.196
       193 -10.0446    207.8663     68.2339   7.7139562740e+01   2.4206971562e+01    0.4191046    0.1967054  47.86  0.001635303    2.353    0.575
       194  -9.5308    111.2249     67.1319   9.7606883434e+01   4.7302466343e+01    0.2575569    0.1978382  59.29 0.0003428802    1.511    0.338
       195 -11.5245    219.3433     66.2526   7.4888182599e+01   2.1743392309e+01    0.6675273    0.3645866  61.96  0.002281541    1.822    0.451
       196 -11.0847     58.4858     62.1598   1.1249975000e+02   5.7001972047e+01    0.5783731    0.3056403 -55.79  0.002578098    2.280    0.561
       197  -9.4450    174.8683    246.8022   1.2191017087e+02  -1.8656436572e+00    0.2713324    0.1337344  27.65   0.00117101    2.678    0.627
       198 -10.5999     60.6922     36.6810   1.0302955311e+02   6.0969137167e+01    0.2685222    0.1883322 -27.04 0.0007462925    1.278    0.218
       199  -8.8581     69.7449     66.9359   1.1019645685e+02   5.4572450329e+01    0.1642058    0.1026061 -40.64 0.0003068873    1.447    0.309
       200 -10.1060     21.0095     65.0531   1.2650493554e+02   6.0246038612e+01    0.1784121    0.1484387 -26.81 0.0007509189    1.151    0.131
       201  -9.8106    205.0123     63.4179   7.6368079385e+01   2.5682171750e+01    0.3252564    0.2208444  37.92  0.001502882    1.859    0.462
       202  -9.8291    198.1694     62.8285   7.7321066301e+01   2.7468459151e+01    0.3381499    0.2276055 -64.92  0.001217462    1.677    0.404
       203 -10.8812    105.9063     62.2897   9.7554807588e+01   4.9205511869e+01    0.4512931    0.3462849 -78.19  0.002206743    2.056    0.514
       204 -10.8248    159.4667     61.7900   8.4226712438e+01   3.7259450082e+01    0.4756851    0.2915672  40.75  0.002034358    1.753    0.429
       205 -11.5515    156.7172     53.5399   8.2361779745e+01   3.9215947231e+01    0.9249277     0.479341 -46.27  0.003844009    2.133    0.531
       206 -10.0850    162.2597     43.6981   7.8359672433e+01   3.9273950200e+01    0.4071925    0.2099564  63.13  0.001731689    1.883    0.469
       207 -11.5404    156.1754     41.8007   7.8964422959e+01   4.1026707724e+01    0.3913659    0.3730395  40.93 0.0009261383    1.072    0.067
       208 -10.9536    153.4895     36.3018   7.7829628018e+01   4.2405188598e+01    0.3290544     0.296464 -54.68 0.0007274942    1.204    0.170
       209  -9.8607    198.7917    244.4533   1.1706820426e+02  -5.6041925699e+00    0.2478048    0.1044121  44.59  0.001138668    2.088    0.521
       210 -10.7751    127.8642    242.9244   1.3026893430e+02   6.8778710562e+00    0.3350929    0.2136001 -68.19  0.001885495    1.865    0.464
       211 -10.1580    150.4982    237.9568   1.2528731883e+02   3.8252223817e+00    0.1775579    0.1300471 -54.70  0.001038691    1.607    0.378
       212 -12.1383    124.8582     27.7108   8.1080730105e+01   5.0161471401e+01    0.7436463    0.4381085  49.73  0.002462462    1.505    0.336
       213 -11.6898    120.3419     57.6354   9.2106503052e+01   4.7000773257e+01     1.026572    0.5303695  59.83  0.004142691    2.409    0.585
       214  -9.7207     15.1556    233.6411   1.4940697473e+02   2.4535686805e+01    0.2015418    0.1240392 -78.70  0.001287994    1.415    0.293
       215 -10.4890    242.4889    231.2682   1.0685260061e+02  -1.0894590232e+01    0.2621387    0.2248521  85.68  0.001607269    2.197    0.545
       216  -9.7729    147.7670     60.5286   8.6378154868e+01   4.0290942524e+01    0.4011753    0.1414427  54.97  0.001364888    2.748    0.636
       217  -9.4584    228.6221     59.1911   7.1889646954e+01   2.0644085489e+01    0.2003144    0.1659671 -86.35 0.0004228007    1.142    0.124
       218 -10.6313    139.4433     43.3678   8.2919433192e+01   4.4823797328e+01    0.8048626    0.4595236  15.84  0.003003691    3.223    0.690
       219 -11.2881    136.5524     55.9977   8.7557963469e+01   4.3640749187e+01    0.6103829    0.4389724 -19.42  0.002144876    1.581    0.367
       220 -10.5991    197.7241    231.9938   1.1526180672e+02  -3.5708103517e+00    0.2476735    0.1485202  29.26  0.001277579    1.634    0.388
       221  -9.8141      2.0399     56.1359   1.3114220058e+02   6.3163224942e+01    0.1875975    0.1207978 -49.36 0.0005423003    1.139    0.122
       222  -9.5549    188.0588     55.0964   7.6957836276e+01   3.1189801726e+01    0.3001316     0.180306  56.42  0.001366931    1.581    0.368
       223 -11.7228    105.6421     32.9868   8.7653552393e+01   5.3640085694e+01    0.4992044    0.2984392  11.49  0.001181268    2.319    0.569
       224  -9.2975    212.3172     53.4480   7.2756621297e+01   2.5426096166e+01    0.2689526    0.1540703 -55.68  0.001202704    1.830    0.454
       225  -9.8095    249.3475     53.0417   6.7935750187e+01   1.6832330885e+01    0.2308387    0.1842477  83.97 0.0005632831    1.212    0.175
       226 -11.1563    240.0916     50.3183   6.8403365658e+01   1.9313919360e+01    0.4391999    0.3902332  72.36   0.00258239    1.206    0.171
       227 -10.1166    244.5160     50.4927   6.7926978727e+01   1.8285506294e+01    0.2830491    0.2105282 -70.45  0.001036207    1.242    0.195
       228 -11.0611    202.6034     47.9959   7.2796406624e+01   2.8614576687e+01    0.7010877    0.3481605 -35.40  0.003028983    2.066    0.516
       229  -8.4138     55.2948     51.2843   1.1010905197e+02   5.9351401126e+01    0.1252369   0.08471314 -13.35 0.0006960502    1.542    0.351
       230 -11.2183    173.9933     48.2819   7.7523012307e+01   3.5714858163e+01    0.6490691    0.3685036  62.06  0.001937007    1.663    0.399
       231 -10.2347    176.5283     43.2663   7.5672994832e+01   3.5787471191e+01    0.3628781    0.2831544  72.95  0.001597727    1.225    0.184
       232 -10.7894    176.8433     37.0141   7.3878893060e+01   3.6547417195e+01    0.3787521    0.2991881 -24.95  0.001450877    1.450    0.310
       233 -10.6398    172.2405     33.1206   7.3547562324e+01   3.8191454211e+01    0.4087113    0.3161745  65.94  0.001572525    1.174    0.148
       234 -10.2909    175.8976     29.6260   7.1980679026e+01   3.7714256868e+01    0.3501306    0.3116645  14.86   0.00119177    1.351    0.260
       235 -10.0379    247.4605    231.0440   1.0593162874e+02  -1.1628378337e+01    0.1741009    0.1105499 -28.74 0.0007985432    1.587    0.370
       236  -9.2645     23.2438    231.6151   1.4795966772e+02   2.4044932072e+01     0.128974   0.09674641  46.04 0.0004788757    1.564    0.361
       237  -9.7927     90.6981     48.0698   9.7261767955e+01   5.4396106011e+01    0.2297829     0.217788  42.74 0.0007928442    1.244    0.196
       238  -9.3842      3.3267     48.9848   1.2888957615e+02   6.4432213352e+01    0.1759497    0.1384136  -6.85  0.001348621    1.379    0.275
       239  -9.5359     14.1190     46.4338   1.2402777549e+02   6.4232725201e+01    0.3538127    0.1029637 -40.59    0.0016106    2.715    0.632
       240  -9.5961     17.8338     42.0770   1.2125947946e+02   6.4733900779e+01     0.279359    0.1604115 -13.14  0.001687395    1.888    0.470
       241  -9.5475    193.2658     45.9869   7.3687338079e+01   3.1222654653e+01    0.2688998    0.1860313 -85.27 0.0009787487    1.625    0.385
       242 -10.3135    100.7904     43.8096   9.2803689940e+01   5.3134721839e+01    0.3609831    0.2941291 -84.53  0.001952705    1.915    0.478
       243 -11.2682     93.9204     41.4069   9.3952667328e+01   5.4796244337e+01    0.5234106    0.2790006  42.26  0.001853781    1.797    0.443
       244  -9.8061      4.1089     44.0963   1.2727966900e+02   6.5276937456e+01    0.3051787    0.1655878 -20.10 0.0009582571    1.889    0.471
       245  -9.5851    132.2916     45.1829   8.5121432886e+01   4.6226773244e+01    0.2490973    0.1711884  40.95 0.0005847852    1.401    0.286
       246 -11.3690     70.0557     32.5626   9.8241078859e+01   6.0158708761e+01    0.4878493    0.2631576  34.55 0.0007831867    1.803    0.445
       247 -11.0955     81.6671     39.4271   9.6994719580e+01   5.7279318966e+01    0.4724331    0.2929288  41.42   0.00179867    1.608    0.378
       248 -10.8035     77.6643     34.1899   9.6344572535e+01   5.8697017151e+01    0.3637471    0.2881374  33.22  0.001171134    1.243    0.195
       249 -11.2404     82.2963     31.6762   9.3932857858e+01   5.8242490081e+01    0.4026777    0.3651616  43.01  0.002640707    1.316    0.240
       250  -9.6111    231.3666     39.0013   6.6860282015e+01   2.2936748099e+01    0.2702779    0.1004291 -42.57  0.001101315    2.425    0.588
       251  -9.4579    218.3240     39.0113   6.8432560094e+01   2.6031909973e+01    0.1927201    0.1686976 -62.77 0.0008230291    1.099    0.090
       252 -10.0159    133.4729     37.3430   8.2317221432e+01   4.7018113470e+01    0.4295452    0.3290407 -80.89  0.002215576    1.770    0.435
       253 -10.4143    138.6177     33.1607   7.9853724609e+01   4.6352698759e+01    0.6550307    0.3659995  -5.10  0.002675595    2.867    0.651
       254 -10.1592    206.6838     36.8697   6.9418024000e+01   2.9152271319e+01    0.2837236    0.2249665 -63.47 0.0009250298    1.217    0.178
       255 -10.0534    189.4832     37.9728   7.2147579086e+01   3.3266364636e+01    0.3357935    0.1515478 -23.94  0.001284284    2.966    0.663
       256 -10.2581    190.2299     32.8313   7.0678118574e+01   3.3748825205e+01    0.3937969    0.2472394 -73.76  0.001541572    1.902    0.474
       257 -10.3522    189.3653     27.7973   6.9479223121e+01   3.4590083139e+01    0.3982023    0.3286733 -52.56  0.002080408    1.247    0.198
       258 -10.7544     22.3510     36.3640   1.1759607945e+02   6.5343116891e+01     0.360331    0.2237916  37.68   0.00226153    2.210    0.547
       259 -10.9701      4.7223     36.3335   1.2479188344e+02   6.6603944523e+01    0.3314287    0.2377294 -21.11  0.001488274    1.222    0.182
       260  -8.5975      6.8066     30.7741   1.2217553353e+02   6.7411716803e+01    0.3358935    0.1497268  17.31  0.001990042    2.516    0.603
       261  -9.0538     94.2083     36.1482   9.1983931096e+01   5.5474860563e+01    0.1645616    0.1579015 -63.36  0.001049498    1.360    0.265
       262  -9.5982     36.1578     31.9436   1.1048572929e+02   6.4733669349e+01    0.2037123    0.1508542 -49.14 0.0009376406    1.681    0.405
       263 -10.1884    160.4206     33.2238   7.5617982872e+01   4.1100292156e+01    0.3480724    0.2837247  48.45  0.001088485    1.174    0.148
       264 -10.4667    159.8408     29.1521   7.4521092432e+01   4.1738444188e+01    0.2861966    0.2598568  48.32 0.0007611203    1.090    0.083
       265 -11.2571    164.3118     27.4927   7.3265046558e+01   4.0836732877e+01    0.4201657    0.3373072 -77.84  0.001481121    1.360    0.265
       266  -9.4001    248.5067     33.0049   6.3706326315e+01   1.9839078829e+01    0.1953647    0.1145955 -41.84  0.001032577    1.596    0.373
       267 -10.5964    240.8595     31.3936   6.4131869368e+01   2.1771823287e+01    0.4015802    0.3560916 -21.27  0.002531485    1.490    0.329
       268 -11.2181    197.9667     28.9211   6.8586420977e+01   3.2323028683e+01    0.5036293    0.3789138  51.64  0.002308354    1.390    0.280
       269 -10.3819    199.7275     24.9749   6.7358830127e+01   3.2372290327e+01    0.2563474    0.2273727  77.85 0.0005004595    1.070    0.066
       270  -9.1138    190.0939    229.8457   1.1637248358e+02  -1.8891816879e+00    0.1789152    0.1393739  21.14  0.000558507    1.287    0.223
       271 -10.8295     57.0060     30.8084   1.0213214091e+02   6.2339059910e+01    0.3753982    0.2307111  24.95  0.001901794    1.602    0.376
       272 -11.7690     47.7605     30.5072   1.0544291957e+02   6.3603456716e+01    0.6549319    0.2778838  28.79  0.003052296    2.516    0.602
       273  -9.4992    182.6771     32.0274   7.1588055177e+01   3.5730684999e+01    0.1869775    0.1748594 -73.38 0.0004354598    1.095    0.086
       274  -9.8438      9.1517    227.1995   1.4998869742e+02   2.6397893855e+01    0.1509977    0.1154983  85.17 0.0003018237    1.183    0.155
       275  -9.8607    234.2424    222.7948   1.0682928344e+02  -8.4157159369e+00    0.1814616    0.1316334  10.61 0.0007899341    1.341    0.254
       276  -8.5955    209.3251    223.3266   1.1157188070e+02  -4.2687215025e+00    0.1354409   0.09383737   9.36 0.0005531607    1.694    0.410
       277 -10.1672      9.8925    217.6225   1.4927570507e+02   2.8202710218e+01    0.1809248    0.1163676 -80.38  0.000552698    1.292    0.226
       278  -9.7959    166.4404    213.3951   1.1833093681e+02   5.2727220268e+00     0.299112    0.1926247 -83.01 0.0008587298    2.936    0.659
       279  -9.0539    204.6691    208.6670   1.0983497077e+02  -1.0775951411e+00    0.1418125    0.1006469   7.57 0.0007052117    1.725    0.420
       280  -9.0828    230.6847     30.3281   6.4971476722e+01   2.4255983780e+01    0.2499962    0.1661702 -64.64   0.00068391    1.419    0.295
       281  -9.4982    230.3318     26.6804   6.4190261735e+01   2.4807298117e+01    0.2158581    0.1206324 -42.08 0.0009096513    1.712    0.416
       282  -9.4828    210.8513     30.0403   6.7205172718e+01   2.9024466762e+01    0.2165019    0.1610469 -71.59 0.0006033279    1.296    0.228
       283  -9.3944    152.9686    207.9820   1.2020179391e+02   8.8426911149e+00    0.2265918    0.1635351  74.12  0.001083883    1.710    0.415
       284 -10.4441    144.3709     24.8946   7.6080362831e+01   4.5969295637e+01     0.507246    0.3093118  73.47  0.002431154    1.813    0.448
       285 -10.1279    133.9664     24.6032   7.8071546541e+01   4.8442378617e+01    0.3975034    0.2772328 -67.07  0.001999069    2.018    0.504
       286 -11.1464    140.7874     20.4339   7.5368169790e+01   4.7304542203e+01    0.7926751    0.2328747  49.19  0.002883438    2.905    0.656
       287 -11.1667    154.7552     25.2760   7.4270993020e+01   4.3430206106e+01    0.6730456    0.2955106  52.60  0.002892326    1.985    0.496
       288  -9.7035    250.5338     25.0553   6.1844941154e+01   2.0430449311e+01    0.1828759    0.1128869 -41.84 0.0004594808    1.545    0.353
       289 -11.1343    214.6955     23.4901   6.5179974758e+01   2.8910736425e+01    0.3961513    0.3557029 -19.29  0.001923787    1.422    0.297
       290 -11.1089      4.9905    202.4939   1.4912816322e+02   3.1733816390e+01    0.6753485   0.08040296 -67.85  0.002474277    4.740    0.789
       291 -12.3432      5.3615    185.4862   1.4784361797e+02   3.5256191983e+01     0.775368     0.439701  86.07  0.004226064    1.422    0.297
       292 -10.5633    245.3304    200.9938   1.0074129522e+02  -7.0439561082e+00      0.18553    0.1543558 -16.51 0.0005742645    1.116    0.104
       293 -10.3593    157.2984     20.7129   7.2468939333e+01   4.3318575617e+01    0.5292029    0.1870102  55.93  0.002102975    2.328    0.571
       294 -10.3106    234.1767    197.0149   1.0199051444e+02  -4.5127153442e+00    0.3721537    0.2711165  -8.69  0.001457958    1.458    0.314
       295  -9.5200    238.5904    204.2286   1.0258110335e+02  -6.4002577487e+00      0.18206    0.1152281 -22.74 0.0009496342    1.631    0.387
       296  -9.7620     16.8916    192.3895   1.4620531663e+02   3.2714613321e+01     0.206245    0.1307513 -75.92 0.0004355114    1.290    0.225
       297 -10.0329    169.8872    191.1944   1.1365702083e+02   8.8310205835e+00    0.3915231    0.1821829  32.76   0.00109541    2.681    0.627
       298 -10.2944    212.8931    181.7805   1.0297771499e+02   2.0258091170e+00    0.3389101    0.2512777 -24.89  0.001748469    1.417    0.294
       299  -9.6228    223.2184     22.3668   6.3973954380e+01   2.7015516957e+01    0.2561736    0.1810153  85.75 0.0007377749    1.272    0.214
       300 -10.1181    220.8916     19.0821   6.3472283416e+01   2.7962217455e+01    0.2252055    0.1987908  70.72 0.0004943679    1.208    0.172
       301  -9.4152    250.4652    180.0248   9.5658178925e+01  -4.6469040361e+00    0.2108758     0.121063 -34.11  0.001042488    1.628    0.386
       302  -9.8619     52.2811    174.8216   1.3715648258e+02   3.2689671923e+01    0.3219455    0.1435299 -84.84  0.001280005    2.948    0.661
       303  -8.9543     57.5033    174.9891   1.3602213899e+02   3.1988536244e+01    0.1688393   0.09359206 -47.30 0.0005744725    2.215    0.548
       304  -9.7760    247.6419    173.6257   9.4834951159e+01  -3.1078913814e+00    0.3429341    0.1548573  30.18  0.001314992    3.046    0.672
       305  -9.9309     39.5141    173.0867   1.3974073564e+02   3.4594914250e+01    0.2313483    0.1560946 -61.75  0.001183457    1.403    0.287
       306 -10.4671     66.1722     21.8662   9.5388997183e+01   6.2166493337e+01    0.2259892    0.1578625  28.47 0.0004263271    1.305    0.234
       307 -10.6814     35.2743    170.5730   1.4037564232e+02   3.5630851368e+01    0.3134495    0.1787791  85.61  0.001673766    1.752    0.429
       308  -9.8033      8.8957    156.1613   1.4458454160e+02   4.1346653775e+01    0.2130263    0.1627864 -65.35  0.001129838    1.250    0.200
       309 -10.8433     10.6238    127.2062   1.4092866647e+02   4.7685750866e+01    0.6031413    0.1437751 -59.05  0.002544303    2.787    0.641
       310 -11.4974     12.7919    139.3470   1.4188767445e+02   4.4799384835e+01    0.6366905    0.3238923  78.47  0.003200167    2.400    0.583
       311 -12.0906     22.7796    149.4066   1.4073297983e+02   4.1683278130e+01    0.6672579    0.3624035 -47.82  0.003627753    2.032    0.508
       312  -9.1991      1.7414     20.4447   1.2087033104e+02   6.9379878755e+01    0.1390281   0.08079201  -8.20 0.0009466028    1.675    0.403
       313 -10.7929     15.8881    147.8811   1.4214783020e+02   4.2627432427e+01    0.3639536    0.2441306  64.64  0.001288727    1.555    0.357
       314  -9.5824    225.1766     16.6525   6.2479209261e+01   2.7240033836e+01     0.209587    0.1820034 -69.72  0.001346632    1.110    0.099
       315  -9.7971    191.7292     16.8615   6.6329779864e+01   3.5275261565e+01    0.2348717    0.2068711  73.21  0.001304556    1.079    0.073
       316  -9.1883    170.7927     17.5732   6.9414921150e+01   4.0353006032e+01    0.1777683    0.1183443  79.94 0.0003018551    1.480    0.324
       317  -8.5398     55.3277     17.2886   9.7339739760e+01   6.4351028701e+01    0.1216315   0.07622191   7.31 0.0007013659    1.615    0.381
       318 -11.6608      9.4946    166.7250   1.4546013440e+02   3.8962094205e+01    0.4865763    0.3228726 -78.52  0.002322859    1.149    0.130
       319 -11.5612     13.7293    157.7936   1.4369619308e+02   4.0583993142e+01    0.5025019     0.181366 -70.96 0.0009855982    2.127    0.530
       320  -9.4173    198.0973    167.8321   1.0301428668e+02   7.6284926531e+00    0.2163421     0.204603  86.97 0.0005177503    1.184    0.156
       321  -9.0486    149.4968    168.4773   1.1369946266e+02   1.7713091306e+01    0.1514523    0.1431924  71.44  0.000810162    1.020    0.020
       322  -9.7718     40.1665    166.0048   1.3876422879e+02   3.6136307773e+01    0.2112934     0.116548 -49.75  0.001084675    2.034    0.508
       323  -9.9674    219.0589     12.7741   6.2225575440e+01   2.9127392859e+01     0.347306    0.1277056  60.69  0.001488952    2.429    0.588
       324 -10.3993     28.5385    163.6232   1.4107005894e+02   3.7905085990e+01    0.4346837    0.1770306 -75.82  0.002019631    2.186    0.543
       325 -10.5534     81.4141     19.2162   8.9426943596e+01   5.9922143313e+01     0.314209     0.175045  41.97 0.0008027887    1.628    0.386
       326 -10.1743     18.7460    165.3448   1.4337977526e+02   3.8454135131e+01    0.2513567    0.2094665 -48.10  0.001485453    1.519    0.342
       327 -10.0021    188.8821    164.2468   1.0415315475e+02   1.0280882408e+01    0.2884056    0.2226865 -31.61  0.000842035    1.373    0.272
       328  -9.9371    205.0375    163.0806   1.0058139815e+02   7.0942848876e+00     0.360253    0.2642946  53.42  0.001757069    1.452    0.311
       329 -10.1799     80.8957    160.0582   1.2839130535e+02   3.2184315476e+01    0.4321462    0.2636924  36.04  0.002105709    1.833    0.455
       330  -9.1651    215.4515    158.5025   9.7526796772e+01   5.7942108209e+00    0.1459998    0.1385381 -10.35 9.748115e-05    1.016    0.016
       331 -10.4690    104.5984    154.0137   1.2150347305e+02   2.9711602948e+01    0.5690767    0.2800937 -63.79  0.002237911    2.230    0.552
       332  -9.2367    224.1969    156.5905   9.5441424384e+01   4.3529165097e+00    0.2020508    0.1337592  33.99 0.0005966026    1.640    0.390
       333 -10.4451     31.4279    154.1247   1.3930010511e+02   3.9783453828e+01    0.3581467    0.2456076  68.92  0.002164254    1.486    0.327
       334 -10.7063     30.4731    149.1486   1.3889910528e+02   4.1019939884e+01    0.3230039     0.223848  78.19 0.0008970148    1.440    0.306
       335 -11.9726      4.9098    148.2207   1.4466890626e+02   4.3416295841e+01    0.6469308    0.3375295 -60.32  0.003136287    1.610    0.379
       336 -10.9577      2.3912    141.3833   1.4453678129e+02   4.5111699406e+01    0.3350808    0.2815911 -75.11  0.002073576    1.158    0.136
       337 -11.4999      3.8408    136.5759   1.4368681367e+02   4.6076256765e+01    0.2332859    0.1905895 -67.79 0.0004991928    1.161    0.139
       338  -9.4306    141.1981    153.6353   1.1253452022e+02   2.2725380054e+01    0.2140792    0.1435073  34.78 0.0002501465    1.652    0.395
       339 -10.1192    214.8099    151.6663   9.6132432956e+01   7.2199694905e+00    0.2111322    0.1868449 -20.50 0.0006298716    1.135    0.119
       340 -11.1935     62.5283    149.9867   1.3124149342e+02   3.7166089732e+01    0.4486479     0.411878  82.98  0.002154644    1.112    0.101
       341  -9.8392     48.0792    151.7189   1.3503943525e+02   3.8545650603e+01    0.2852543    0.2009561  44.26  0.001002569    1.556    0.357
       342 -10.8832     46.8805    146.4164   1.3455865612e+02   3.9922370866e+01    0.5205804     0.272176 -73.23  0.001140153    1.771    0.435
       343  -9.7311     43.1515    148.3744   1.3575529686e+02   3.9883071270e+01    0.2933547     0.191449  63.79   0.00162694    1.676    0.403
       344 -10.2274     71.3212    151.1331   1.2924832939e+02   3.5696749943e+01    0.2716512    0.2000178  49.59  0.001490593    1.425    0.298
       345  -9.4387     85.9932    149.9904   1.2538219727e+02   3.3776020734e+01    0.1794349    0.1598056 -77.08 0.0008778836    1.012    0.012
       346 -10.2969     56.4090    149.2032   1.3263078494e+02   3.8133653303e+01    0.2393937    0.1910227  81.72 0.0007760392    1.227    0.185
