#   1 NUMBER                 Running object number                                     
#   2 MAG_AUTO               Kron-like elliptical aperture magnitude                    [mag]
#   3 X_IMAGE                Object position along x                                    [pixel]
#   4 Y_IMAGE                Object position along y                                    [pixel]
#   5 X_WORLD                Barycenter position along world x axis                     [deg]
#   6 Y_WORLD                Barycenter position along world y axis                     [deg]
#   7 A_WORLD                Profile RMS along major axis (world units)                 [deg]
#   8 B_WORLD                Profile RMS along minor axis (world units)                 [deg]
#   9 THETA_WORLD            Position angle (CCW/world-x)                               [deg]
#  10 FWHM_WORLD             FWHM assuming a gaussian core                              [deg]
#  11 ELONGATION             A_IMAGE/B_IMAGE                                           
#  12 ELLIPTICITY            1 - B_IMAGE/A_IMAGE                                       
         1 -11.4528    164.4913     49.2685   6.9749841364e+01   3.8045612349e+01      1.13957    0.9390401  -5.43  0.005667914    1.322    0.243
         2 -11.3470    180.1157     19.7951   5.7170350451e+01   3.7815076196e+01    0.9735832    0.8184615 -20.75  0.005140663    1.205    0.170
         3  -8.9097    120.4923      9.2454   6.3553209624e+01   5.4431696798e+01    0.2851048    0.2645043  30.36  0.001322387    1.035    0.034
         4  -7.2909    146.2397      3.0108   5.6166908018e+01   4.8545150064e+01    0.1805851    0.1202859 -17.39 0.0004698149    1.538    0.350
         5  -8.8144    134.8166    239.0617   1.1460112389e+02   1.1704180006e+01    0.3239155    0.2142208 -55.29  0.001476719    1.988    0.497
         6 -11.9825    235.7021    247.4502   9.9929636021e+01  -4.0241802501e+00    0.1989166    0.1543277  28.27 0.0005070039    1.166    0.142
         7  -8.7242    153.0797    249.0487   1.1270667790e+02   7.8015934758e+00    0.2844293    0.1603471  39.86   0.00137362    1.385    0.278
         8 -18.0823     64.3723    224.2643   1.2488941169e+02   2.3454003774e+01     3.461663     2.560013  78.96    0.0124763    1.182    0.154
         9  -9.5088    191.9526    192.4588   9.8870134120e+01   8.7081503647e+00    0.2588243    0.2171087 -57.90  0.001711021    1.595    0.373
        10  -8.5965    132.2424    231.5256   1.1425984658e+02   1.3088848651e+01    0.2459381     0.180755  23.55  0.001620218    1.821    0.451
        11  -9.4962    195.1476    199.2816   9.9402874917e+01   7.2698820168e+00    0.2485865    0.2030031 -67.10  0.001620167    1.830    0.453
        12  -8.4638    132.1978    190.3518   1.0941582979e+02   1.9297794993e+01    0.1631782    0.1562338  78.15 0.0003631178    1.183    0.154
        13  -8.2040    169.1647    189.7358   1.0248339041e+02   1.3078433118e+01    0.1782602    0.1638741 -84.22 0.0006256132    1.308    0.236
        14  -8.3771    167.7331    235.4188   1.0888911207e+02   7.2297964877e+00    0.2021279    0.1365586  63.62   0.00114376    1.759    0.431
        15  -8.4320    123.4552    186.6635   1.1058215228e+02   2.1348530221e+01    0.3223809    0.2211655  21.74  0.001756031    2.216    0.549
        16  -9.2953    113.5288    186.1308   1.1242030779e+02   2.3028482877e+01    0.4734315    0.2429566  63.03  0.001634072    2.259    0.557
        17  -9.6861    178.0573    224.6464   1.0588224651e+02   6.9210972037e+00    0.3653904     0.210999 -38.87  0.002302965    2.241    0.554
        18  -7.9141    212.6484    186.6492   9.4361893085e+01   5.8456556514e+00    0.1319438   0.08304431  16.72  0.000703521    1.833    0.455
        19  -8.0754    186.4783    186.4860   9.8857901073e+01   1.0486031589e+01    0.1246742    0.1061315  38.25 0.0002046618    1.027    0.026
        20  -8.5939    153.3353    185.6210   1.0476888522e+02   1.6475759137e+01    0.2047071    0.1883172 -78.19 0.0007656711    1.239    0.193
        21  -7.9360     10.0018    185.5067   1.3191315868e+02   3.5978562352e+01    0.1251561   0.08787026  46.31  0.000495963    1.477    0.323
        22  -8.7164    143.3901    183.8739   1.0638372169e+02   1.8480255746e+01     0.242618    0.1757893  67.27  0.001436368    1.480    0.324
        23  -8.7917      1.5302    178.8413   1.3311986729e+02   3.7938860629e+01    0.1403725   0.09516739  89.44 0.0002541668    1.191    0.160
        24 -10.0708    188.4316    176.3501   9.6786513932e+01   1.1572823260e+01    0.4026844    0.2811519 -49.92  0.001649319    1.776    0.437
        25  -7.6495    220.7695    175.9778   9.1102264300e+01   5.7501145939e+00    0.1506782    0.1003704 -26.87 0.0004573431    1.603    0.376
        26  -9.3099    134.4989    174.0340   1.0663261964e+02   2.1685754832e+01    0.2777439    0.1566374  56.80 0.0006722417    1.770    0.435
        27  -8.4478    166.0727    227.6767   1.0823532208e+02   8.4300725319e+00    0.1675429     0.148002  73.58 0.0007586316    1.359    0.264
        28  -9.2688    241.6297    170.2358   8.6636334877e+01   2.7740614915e+00    0.2612023    0.1802264  40.00 0.0005031962    1.351    0.260
        29  -9.2794    140.1040    170.5734   1.0498278183e+02   2.1309928382e+01     0.435368    0.1915145  34.17  0.001752396    2.921    0.658
        30  -9.1705    242.3480    165.4304   8.5597741200e+01   3.2134218620e+00    0.2355438    0.1996355  10.93 0.0002066939    1.041    0.040
        31  -9.9810    120.7601    164.6302   1.0796940976e+02   2.5746216487e+01    0.4138956    0.2485358  71.10  0.001758983    2.161    0.537
        32  -7.2431    150.2427    238.5933   1.1206476827e+02   9.4842248979e+00    0.1011418   0.07143707  70.71 0.0006924508    1.695    0.410
        33  -9.1679    161.2262    176.0535   1.0177177432e+02   1.6597689735e+01    0.2742942    0.2303925 -82.58  0.000854283    1.460    0.315
        34 -10.4607    147.5499    224.3460   1.1092383352e+02   1.1743789027e+01    0.2629608    0.2099361  52.49 0.0001346541    1.069    0.064
        35 -10.6589    153.7469    218.3491   1.0915970526e+02   1.1586592388e+01    0.7480111    0.3038114  43.67   0.00355296    1.941    0.485
        36  -8.3319    163.7490    162.1873   9.8891394487e+01   1.8400187544e+01    0.2125125    0.1694882  33.47  0.000353216    1.240    0.194
        37 -10.8397    184.2810    217.0061   1.0383441848e+02   6.8571037560e+00     0.611015    0.2636533 -45.28  0.003215404    3.025    0.669
        38  -8.7968    242.4668    160.5249   8.4615024947e+01   3.7780205242e+00    0.2144901    0.1761519   8.99 0.0001169171    1.046    0.044
        39  -8.7322    136.7425    160.2345   1.0396318693e+02   2.3759765951e+01    0.2640567    0.1897784  77.41 0.0009422424    1.687    0.407
        40 -10.0563    210.5296    158.3498   8.9487553462e+01   9.9845958754e+00    0.2343117    0.2080248  43.47 0.0002749382    1.175    0.149
        41 -10.0362    183.4379    208.7310   1.0281255293e+02   8.0311398095e+00    0.3131644    0.2150221 -48.74  0.001826238    1.893    0.472
        42  -9.1840    145.1322    155.9857   1.0149932499e+02   2.2991182406e+01    0.3889646    0.2391474  76.88  0.001658764    2.757    0.637
        43  -9.4110    167.2459    219.9299   1.0707269554e+02   9.2277285268e+00     0.329414    0.2622482   0.40  0.001760138    1.681    0.405
        44  -8.6538     11.7331    219.1777   1.3308341394e+02   2.9977250953e+01    0.2357494    0.1158215  54.04  0.001012315    1.452    0.311
        45  -8.0128      7.4919    154.5718   1.3071387261e+02   4.2135288928e+01    0.1506366      0.13128  27.75 0.0007505955    1.668    0.400
        46  -8.8241     11.2102    152.0847   1.2979234855e+02   4.2328797590e+01    0.2279261    0.1652359 -51.59  0.001449026    1.874    0.466
        47 -10.8737     11.6934    207.0314   1.3259872974e+02   3.2010389567e+01    0.4162128    0.2939317  68.07  0.002846533    1.086    0.079
        48  -7.6959    155.8627    154.2893   9.9004307221e+01   2.1260560303e+01    0.2118325     0.154105  61.23 0.0005675246    1.441    0.306
        49  -9.5855    134.1797    146.8993   1.0214403510e+02   2.6724681994e+01    0.4686359    0.3023875 -74.55  0.001909835    2.104    0.525
        50  -8.9991    135.6081    151.8196   1.0273448414e+02   2.5527163805e+01    0.2869935    0.2329188 -82.33 0.0008826414    1.367    0.269
        51  -8.2896    139.9250    151.5113   1.0177107312e+02   2.4784662767e+01    0.1995759    0.1231359  48.60 0.0005121639    1.503    0.335
        52  -8.3702    119.6526    148.4581   1.0556783413e+02   2.9046160705e+01    0.2419226     0.214503 -35.03  0.001465516    1.387    0.279
        53  -9.3422     14.3996    143.6687   1.2852488836e+02   4.3784448421e+01    0.3480739    0.2307099  -7.22  0.002038909    3.277    0.695
        54  -8.3084    176.7308    211.0621   1.0428299029e+02   8.8385473526e+00    0.1511538    0.1344235  34.09 0.0005272098    1.120    0.107
        55  -9.3912    158.4750    140.3481   9.5736556407e+01   2.3236351909e+01     0.526898    0.3464725  76.67   0.00152578    2.366    0.577
        56  -8.7146    229.8277    140.9525   8.2601760213e+01   8.6415036587e+00    0.2101025    0.1727026  31.67 0.0003207689    1.140    0.123
        57  -9.2362     31.4445    140.7839   1.2449035191e+02   4.2837906092e+01     0.323188    0.1618408  29.13  0.001787859    2.526    0.604
        58  -7.7307    215.5962    139.7643   8.4744389880e+01   1.1636133384e+01    0.1804031    0.1245247 -40.32 0.0007812417    1.575    0.365
        59 -10.8786    106.5335    132.8028   1.0573760020e+02   3.4503369321e+01    0.7547813    0.4892706  72.82 0.0008304674    1.901    0.474
        60  -8.5346    100.5221    137.1785   1.0792404629e+02   3.4591932686e+01    0.3695191    0.1734444  59.24  0.001081964    2.704    0.630
        61  -9.6997     43.6058    137.3397   1.2133017456e+02   4.2316649356e+01    0.2556516    0.1935895  32.22  0.001681858    1.654    0.396
        62  -8.9692    120.4656    141.8548   1.0421618813e+02   3.0213534051e+01    0.2601365    0.1909445  71.30 0.0006925214    1.475    0.322
        63  -8.2844      3.0586    130.5203   1.3009424825e+02   4.7414095852e+01    0.1746612    0.1143751 -84.67 0.0007749634    1.153    0.133
        64  -9.3317    165.8072    205.7655   1.0543085317e+02   1.1358337563e+01    0.3610339    0.1471025  37.98  0.001702133    2.280    0.561
        65  -7.7192      3.6534    126.3053   1.2965065175e+02   4.8260363901e+01    0.1167109   0.06173474  67.99 0.0007041852    1.695    0.410
        66 -10.0124     47.3448    124.4065   1.1883368380e+02   4.4723081519e+01    0.2596788    0.2127255  54.44  0.001746694    1.286    0.222
        67  -9.7759    121.4177    204.5277   1.1318040320e+02   1.8719295871e+01    0.6523821    0.2239326  53.69  0.002764974    3.029    0.670
        68  -8.1057    109.7070    122.8730   1.0305740402e+02   3.6041082527e+01    0.1950339    0.1785857 -47.68 0.0005623305    1.197    0.165
        69  -9.7385     81.1546    122.9737   1.1011577664e+02   4.0663771002e+01    0.4822626    0.1562035  46.26  0.001840323    3.137    0.681
        70  -8.2395      2.0411    117.0222   1.2931912712e+02   5.0349866603e+01    0.1746827      0.12356  86.10 0.0007224532    1.082    0.076
        71  -7.4097    185.4902    116.4525   8.4909485723e+01   2.1710582199e+01    0.1452457    0.1377261  19.11 5.116185e-05    1.028    0.027
        72  -7.4778    246.9861    115.2436   7.4121863350e+01   8.6716218667e+00    0.1626614    0.1127096  48.46 0.0004609483    1.519    0.342
        73  -8.6359    120.5552    127.7649   1.0148115190e+02   3.3056855286e+01    0.2615002    0.1889976  46.71  0.001075379    1.368    0.269
        74 -10.3666    186.1819    200.6008   1.0114182057e+02   8.6245737689e+00    0.5228408    0.2322354  55.40  0.002317322    2.849    0.649
        75  -9.7296    116.4847    134.8309   1.0380988539e+02   3.2346261269e+01    0.3506352     0.289902  -4.61  0.001590683    1.784    0.439
        76 -10.7693     64.4797    108.3627   1.1184984399e+02   4.6235856202e+01    0.5955172    0.4711387   8.93   0.00319297    1.870    0.465
        77  -8.6122    171.3107     93.6348   8.1865406542e+01   2.8931666266e+01    0.2553152    0.2350125  15.23 0.0003034704    1.138    0.121
        78  -7.7602    133.9804     92.9659   9.0020824887e+01   3.7499897919e+01    0.1717647    0.1635627 -53.44 -0.002661949    1.025    0.024
        79  -8.0294     54.0011     90.5502   1.1142121062e+02   5.1564101705e+01    0.1756554    0.1268303  39.01  0.001026232    1.589    0.371
        80  -9.6731    227.3797     85.7206   6.9774732547e+01   1.6965997995e+01    0.2523742    0.2324053   7.67 0.0002403973    1.070    0.066
        81  -8.0069     31.4448     86.0507   1.1742568789e+02   5.4940590059e+01    0.1677849    0.1546906  59.44 0.0007169155    1.272    0.214
        82  -8.8312    232.0372     81.9525   6.8099005849e+01   1.6431804823e+01    0.2224258    0.2033199 -15.37 0.0003272732    1.012    0.012
        83  -9.4075    186.0152    230.1014   1.0528998896e+02   5.0343220442e+00    0.3356907      0.14645 -51.47  0.001704623    3.829    0.739
        84  -8.7212    113.8965     75.0103   8.9993297080e+01   4.5301978719e+01    0.3032565    0.2440778 -82.70 0.0003972288    1.525    0.344
        85  -7.7106    229.2019     75.2132   6.6729181958e+01   1.8025347224e+01    0.2508493    0.1413574  21.48  0.000945965    2.764    0.638
        86 -10.5521    152.7590     63.4331   7.6824505928e+01   3.8703602248e+01    0.6846582    0.4254214  -9.84  0.002644924    2.359    0.576
        87  -8.0933    171.0665     66.9725   7.4151839012e+01   3.3574429749e+01    0.2252155    0.2179739 -11.05  0.001208208    1.027    0.027
        88  -9.8536    144.4147     58.7218   7.7133408773e+01   4.1535607366e+01    0.6118145    0.2597626 -27.15  0.002053582    2.816    0.645
        89  -8.2199    127.9471    247.0710   1.1645917652e+02   1.1657483889e+01     0.143827    0.1116145  54.32 0.0003973577    1.082    0.076
        90  -9.9412    169.4735     39.9966   6.5708539135e+01   3.8100490690e+01    0.4463479    0.4004984  18.02 0.0007996647    1.172    0.147
        91 -10.2580    127.2150     53.1202   7.9313320910e+01   4.6550645650e+01    0.2613647    0.2403064 -23.18 0.0002664672    1.058    0.055
        92  -8.5290    138.6531     49.9829   7.5456270601e+01   4.4390477526e+01    0.2096961    0.1927733 -22.16  0.000588869    1.065    0.061
        93  -9.4081    222.8081     37.3410   5.7063543814e+01   2.4580407054e+01    0.4164943    0.2663507 -15.90   0.00114535    1.653    0.395
        94  -7.6642    196.4438     30.0221   5.8232293574e+01   3.2274254911e+01    0.2145871    0.1430753 -24.96 0.0003032124    1.480    0.324
        95  -9.3586    112.0285    193.4029   1.1360039946e+02   2.2004937036e+01    0.4413699    0.2236079  71.35  0.001967583    3.129    0.680
        96  -8.5483    168.9917     20.6836   5.9124548821e+01   4.0687433271e+01    0.1979483    0.1900314  68.50 0.0004161074    1.040    0.038
        97  -8.1072    140.1884    242.1305   1.1404456972e+02   1.0524946472e+01     0.153087    0.1240502  38.96  0.001216258    1.236    0.191
