#   1 NUMBER                 Running object number                                     
#   2 MAG_AUTO               Kron-like elliptical aperture magnitude                    [mag]
#   3 X_IMAGE                Object position along x                                    [pixel]
#   4 Y_IMAGE                Object position along y                                    [pixel]
#   5 X_WORLD                Barycenter position along world x axis                     [deg]
#   6 Y_WORLD                Barycenter position along world y axis                     [deg]
#   7 A_WORLD                Profile RMS along major axis (world units)                 [deg]
#   8 B_WORLD                Profile RMS along minor axis (world units)                 [deg]
#   9 THETA_WORLD            Position angle (CCW/world-x)                               [deg]
#  10 FWHM_WORLD             FWHM assuming a gaussian core                              [deg]
#  11 ELONGATION             A_IMAGE/B_IMAGE                                           
#  12 ELLIPTICITY            1 - B_IMAGE/A_IMAGE                                       
         1 -14.8488     68.5883    144.2852   1.0880734638e+02   3.7210204095e+01     5.308676     2.590883  67.72  0.003433962    3.527    0.716
         2 -14.3270    196.4530     37.0978   4.9464303611e+01   3.1402516131e+01     1.663194     1.321045  -5.64  0.003846888    1.563    0.360
         3 -14.6751    206.9219     25.8961   4.5060248115e+01   3.0197318859e+01     1.921258     1.359264  12.81  0.002290515    2.108    0.526
         4  -9.9948    155.3166     10.9278   4.7565299533e+01   4.4965466374e+01     0.225539    0.1787194  83.78 0.0004116881    1.262    0.208
         5 -11.2476     41.7069      6.9763   7.7148190033e+01   6.9306743462e+01    0.1761523    0.1352558 -10.40  0.001184492    1.071    0.066
         6 -12.6334    230.5709      2.6732   3.6992238869e+01   2.7122300639e+01    0.7869192    0.3174258  75.17  0.003516214    2.331    0.571
         7 -11.8760     58.5341      3.0753   6.8107631661e+01   6.7162737933e+01    0.3424132    0.1836143  39.78  0.001876963    1.713    0.416
         8 -11.2690     28.8476      2.1871   8.0732619462e+01   7.1583811283e+01    0.2733269    0.1376327  37.23  0.001494244    2.216    0.549
         9 -10.2910     99.4348    180.6694   1.0691201905e+02   2.4107382395e+01    0.2372282     0.223823  63.38 0.0005722764    1.122    0.109
        10 -10.7797    139.5706    249.0022   1.0768198572e+02   4.8356415375e+00    0.2826834    0.1580562 -68.91  0.001493523    2.798    0.643
        11 -14.8778     85.6199    229.5673   1.1568218372e+02   1.6293462280e+01     1.877016      1.32735  75.15   0.00741096    1.321    0.243
        12 -14.6147     46.9585    220.5998   1.2215935128e+02   2.3110605456e+01     1.132338    0.8445357  83.45  0.003671406    1.129    0.114
        13 -16.4153     50.8100    200.0146   1.1972170500e+02   2.6810309510e+01     4.520772     3.380691  82.74   0.02986316    1.109    0.098
        14 -16.5312     60.5183    247.5159   1.2170716675e+02   1.6467213997e+01     8.189227     2.549648  31.12   0.02244247    8.100    0.877
        15 -10.0622    219.0117    177.4839   8.0692149400e+01   2.5699375449e+00    0.1990324    0.1273264  37.98 0.0003708668    1.515    0.340
        16 -11.2702    141.7427    175.0099   9.6309571708e+01   1.7839373827e+01    0.3380927    0.1805912  48.70  0.001330195    1.836    0.455
        17 -11.1750     47.0328    172.4433   1.1781353382e+02   3.3304070093e+01    0.4257726    0.2869335 -66.12  0.001870446    1.391    0.281
        18 -13.9123     53.2418    146.3584   1.1309543572e+02   3.8677375486e+01     5.618614    0.4390259  43.00   0.01355192    8.181    0.878
        19 -12.9639     83.9221    162.3848   1.0780234700e+02   3.0695245915e+01     1.266478    0.4889648  56.91 0.0003381047    3.973    0.748
        20 -13.7481     72.3079    157.6334   1.0993342622e+02   3.3507622392e+01    0.5623627    0.4831713 -41.08  0.002047262    1.414    0.293
        21 -10.5213    172.1599    238.8764   1.0031971695e+02   1.1521525765e+00    0.2567964     0.187003 -50.38  0.001614829    1.752    0.429
        22  -9.8233    161.4887    166.0102   9.0132972796e+01   1.5833286767e+01    0.2164178    0.1463405 -47.93 0.0005809083    1.553    0.356
        23  -9.4979     98.9390    186.0271   1.0780087678e+02   2.3019173242e+01    0.2278273    0.1461719  71.18 0.0007718308    1.777    0.437
        24 -11.1134     33.1883    165.6593   1.2024466089e+02   3.6372376996e+01     0.391847    0.1813463  83.97  0.001773757    2.464    0.594
        25 -10.4511     36.8216    162.3290   1.1906930038e+02   3.6758832873e+01    0.3524667     0.233462  13.22  0.001930861    2.373    0.579
        26 -12.0863     90.4651    155.3461   1.0504315152e+02   3.1329143648e+01    0.6007053    0.4278451 -29.58  0.002886613    2.020    0.505
        27 -11.2754    133.5884    143.9086   9.2002450727e+01   2.6195010761e+01     1.153649    0.2822122 -54.16  0.002720898    5.755    0.826
        28 -10.6813    174.3507    148.6593   8.3562913042e+01   1.6691621886e+01    0.3499013    0.3011006 -79.33  0.001774527    1.427    0.299
        29 -10.9661     41.3960    147.4559   1.1624550053e+02   3.9758971002e+01    0.2825802    0.2237139  87.72 0.0008786272    1.104    0.094
        30  -9.8641     40.9960    142.4475   1.1570311400e+02   4.0995046950e+01    0.2267286    0.1535046 -88.48 0.0003290924    1.368    0.269
        31 -10.8660    144.0534    146.1620   8.9954382613e+01   2.3571752157e+01    0.3847715    0.2575324 -65.76  0.001660621    1.847    0.459
        32  -9.1899     85.8456    144.8763   1.0439675123e+02   3.4544428425e+01     0.187663    0.1527682  77.24  0.001007557    1.255    0.203
        33 -10.9889    104.0128    140.0720   9.8719317816e+01   3.2674337732e+01     0.550648     0.361902 -26.18  0.002309581    2.338    0.572
        34 -12.4797     91.3978    140.2682   1.0208166593e+02   3.4765061657e+01    0.2867118    0.2516439 -49.63 0.0004908069    1.182    0.154
        35 -10.2210     79.0483    139.3077   1.0518934805e+02   3.6919574018e+01    0.1915836    0.1722628  68.48 0.0001830172    1.117    0.105
        36  -9.4803     38.8879    137.8050   1.1563399287e+02   4.2326029344e+01    0.1826224    0.1515865 -61.89 0.0002376239    1.187    0.158
        37 -13.0510     43.4103    127.6333   1.1295433154e+02   4.4303416896e+01    0.8850159    0.4915667  78.88  0.003992821    2.394    0.582
        38 -15.5485      9.5602    206.6709   1.2809280180e+02   2.9880925908e+01    0.7196644    0.6852418 -18.53  0.003839758    1.764    0.433
        39 -10.5957    105.9442    130.4305   9.6167717626e+01   3.4613920430e+01    0.3993697    0.2913776 -60.74  0.001931751    1.348    0.258
        40 -10.4113    112.4109    130.5950   9.4475302968e+01   3.3383125267e+01    0.2992913    0.2574994 -15.84 0.0005751906    1.409    0.290
        41 -11.1891    135.6870    127.7143   8.7759772417e+01   2.9414147833e+01    0.9164952     0.167686 -46.96  0.002131751    5.392    0.815
        42 -10.4782    160.6136    127.7207   8.1714204142e+01   2.4015855995e+01    0.3208994     0.252905 -54.52  0.001519241    1.332    0.249
        43 -11.1875     99.5847    126.8744   9.7113725041e+01   3.6590674660e+01     0.392236    0.2873718   6.24  0.001310148    2.042    0.510
        44 -11.4533    119.4026    123.8082   9.1040947741e+01   3.3620406105e+01    0.6321785     0.385361 -24.37  0.002349363    2.655    0.623
        45 -11.1364     24.5878    120.6645   1.1718448535e+02   4.7760275504e+01    0.2727261    0.1407606  62.47  0.001210717    2.431    0.589
        46 -10.0111    108.5788    119.2387   9.2876813844e+01   3.6767744374e+01    0.2343685    0.2060563  42.53 0.0003737261    1.190    0.160
        47 -12.8745     42.6284    113.9780   1.1094648961e+02   4.7685709361e+01    0.5542912     0.412791  87.33  0.002655561    1.409    0.290
        48 -11.8216     46.2271    109.9608   1.0914284703e+02   4.8273742276e+01    0.3478972    0.2763312  57.34  0.002050754    1.422    0.297
        49 -11.5438     41.5299    108.4998   1.1030317814e+02   4.9116750491e+01    0.3684071     0.196437 -65.20  0.001364795    1.589    0.370
        50 -10.0107    167.6993    112.7363   7.6254853453e+01   2.5529821124e+01    0.3582744    0.2615705 -69.13  0.001376283    1.791    0.442
        51 -10.7973    134.7915    111.8941   8.3990413200e+01   3.3137689139e+01    0.5210559     0.133683 -45.11  0.001410876    3.814    0.738
        52  -9.9769    134.5081    104.6513   8.2112098716e+01   3.4787455125e+01    0.5763711    0.1519404 -45.01  0.001580879    3.715    0.731
        53 -11.8906    118.3320    109.6508   8.7781360420e+01   3.7084567790e+01     0.641858    0.5378826 -86.99  0.003156972    1.412    0.292
        54 -10.0952    205.4712    110.1461   6.7812489823e+01   1.7268911776e+01    0.3135813    0.2199939  40.62 0.0009649239    1.528    0.346
        55  -9.8759     59.4232    108.2149   1.0476708418e+02   4.7155428201e+01    0.1954073    0.1225745 -71.55 0.0003985862    1.621    0.383
        56 -10.3236    230.3735    166.2081   7.6258324625e+01   2.3180637149e+00    0.1916448    0.1201559 -41.77 0.0004829066    1.673    0.402
        57 -10.9107    241.5618    100.4159   5.9366007446e+01   1.1018831339e+01    0.3392618    0.1219701 -36.84  0.001254086    2.412    0.585
        58 -11.1956     35.5487    101.0418   1.1078858803e+02   5.1480695789e+01    0.2323558    0.1743413  53.60 0.0008734046    1.566    0.361
        59 -11.6968     19.6585    110.8310   1.1722490747e+02   5.0488554813e+01     0.278709    0.1976691  54.78 0.0007449723    1.606    0.377
        60 -11.2582     53.1924     90.8794   1.0290011734e+02   5.2023547880e+01    0.3571371    0.2056677 -45.01  0.001341941    1.578    0.366
        61 -10.7147     58.6555     96.5742   1.0244261768e+02   5.0024859956e+01    0.3169196    0.2299334  85.98  0.001006713    1.804    0.446
        62 -11.5958     42.1151     91.3120   1.0669577518e+02   5.3138037257e+01     0.359513    0.2487685 -29.94  0.001330972    1.623    0.384
        63  -9.2449    161.6712     89.2882   7.1123620498e+01   3.1651945598e+01    0.1595298     0.125463 -79.74 0.0003046733    1.617    0.381
        64  -9.7019    157.4838     80.9762   6.9622048084e+01   3.4258156023e+01    0.2368526    0.1532776 -38.27 0.0004294622    1.524    0.344
        65  -9.3375    184.4885     77.0319   6.2843660521e+01   2.8282107664e+01    0.2345446    0.1503361 -34.51 0.0005933452    1.539    0.350
        66 -10.5027     60.5536     68.3219   9.4212445495e+01   5.6145856987e+01    0.2572293    0.2238458  71.14  0.001110566    1.530    0.346
        67 -13.7870    186.7685     44.7501   5.3091186983e+01   3.2820260815e+01     1.258038    0.8675632  35.85  0.000919655    1.743    0.426
        68 -17.8103      6.0168    240.1762   1.3028015912e+02   2.3896879159e+01     10.77772     1.513398 -77.68    0.0215567    5.986    0.833
        69  -9.5845    111.7534    217.7978   1.0928197917e+02   1.4538273556e+01    0.1765045    0.1572747  49.31 0.0004626438    1.135    0.119
        70 -10.8895    150.9764     54.4122   6.2750400090e+01   4.0500827639e+01    0.3043978    0.2564085 -76.74  0.000450845    1.376    0.273
        71 -11.5561    208.6244    197.0927   8.6493357806e+01   1.3073921046e+00    0.2862529    0.2429543 -30.69 0.0007730676    1.275    0.215
        72 -11.2530    152.1524     47.5645   6.0257862017e+01   4.1260683141e+01    0.3510511    0.2851169 -74.97 0.0009380568    1.448    0.310
        73 -10.2000     81.9233    194.9596   1.1270085691e+02   2.3707651909e+01    0.2657857    0.1668663  47.02 0.0007939391    1.450    0.310
        74 -11.3659     27.1297     35.5832   9.6765583757e+01   6.6435520417e+01    0.3167894     0.189575  39.23  0.001299688    2.254    0.556
        75 -12.3709     18.2434     33.6107   1.0017210554e+02   6.7552148457e+01      0.41942    0.2428261  25.84  0.002421654    2.017    0.504
        76 -11.3769     35.0251     16.1563   8.4848026968e+01   6.8894264562e+01    0.2223164    0.1372863  26.86   0.00124768    1.670    0.401
        77  -9.6867    189.6856     15.0292   4.4128063304e+01   3.5773529753e+01    0.1863872    0.1748887 -57.85 0.0005132037    1.104    0.094
        78 -10.5191    146.9165    184.3205   9.6837580763e+01   1.4969845050e+01    0.2307995    0.1640482  56.75 0.0009245814    1.466    0.318
        79  -9.4674     95.3857    188.6409   1.0895592367e+02   2.3019323131e+01    0.1755358    0.1506003 -18.88   0.00100744    1.678    0.404
        80 -12.2620    193.0575    194.8402   8.9104018239e+01   4.4496883061e+00    0.9525731    0.5140222 -62.96  0.003169895    5.039    0.802
        81  -9.6266    113.8024    208.1189   1.0762696210e+02   1.6059946854e+01    0.2025627    0.1578488  69.91 0.0008671739    1.258    0.205
        82 -10.3632    107.8548    203.3882   1.0824539444e+02   1.7961431781e+01    0.2164128    0.1682116 -85.92 0.0006587699    1.352    0.261
