#   1 NUMBER                 Running object number                                     
#   2 MAG_AUTO               Kron-like elliptical aperture magnitude                    [mag]
#   3 X_IMAGE                Object position along x                                    [pixel]
#   4 Y_IMAGE                Object position along y                                    [pixel]
#   5 X_WORLD                Barycenter position along world x axis                     [deg]
#   6 Y_WORLD                Barycenter position along world y axis                     [deg]
#   7 A_WORLD                Profile RMS along major axis (world units)                 [deg]
#   8 B_WORLD                Profile RMS along minor axis (world units)                 [deg]
#   9 THETA_WORLD            Position angle (CCW/world-x)                               [deg]
#  10 FWHM_WORLD             FWHM assuming a gaussian core                              [deg]
#  11 ELONGATION             A_IMAGE/B_IMAGE                                           
#  12 ELLIPTICITY            1 - B_IMAGE/A_IMAGE                                       
         1 -10.7657     32.8770     63.8383   1.0448553770e+02   6.0219557232e+01     1.627627    0.5252956 -35.76  0.005281836    4.754    0.790
         2 -10.3164     74.5703     55.3286   8.6094146667e+01   5.6745794572e+01     1.577033    0.6392563 -33.21  0.005787295    2.900    0.655
         3 -10.3132     10.2126     18.9514   9.9992397224e+01   7.0822407830e+01     1.338266    0.4115409 -27.15    0.0039786    7.346    0.864
         4 -10.6691     37.0902      9.4201   8.1989885975e+01   6.9705326536e+01    0.8202419    0.3074099 -38.51  0.002740136    2.467    0.595
         5  -9.5682      2.3462     14.4181   1.0238776056e+02   7.2115496832e+01    0.6820462    0.2104747 -59.30   0.00277894    4.013    0.751
         6 -10.0022     26.4723     24.2184   9.3977558025e+01   6.8568846195e+01     1.118263    0.3446671 -32.55   0.00398593    4.272    0.766
         7 -10.2554      4.8641     41.7931   1.1013279436e+02   6.6800114717e+01    0.6907809    0.2833681 -64.72  0.003491874    2.180    0.541
         8 -10.3650     26.0823     10.9948   8.8189377968e+01   7.0749522136e+01    0.7318715    0.3414567  27.33  0.003470129    2.275    0.560
         9 -10.0335      6.3037      5.4033   9.6217597371e+01   7.3363978990e+01    0.3786978    0.2559772 -25.66  0.001686929    1.103    0.093
        10  -9.7437      2.3654      3.1133   9.7427309352e+01   7.3999625674e+01    0.2568656     0.133373 -33.66  0.001098905    1.438    0.305
        11 -10.3222     73.4683     16.0493   7.0355878758e+01   6.3208544257e+01     1.523956     0.286013 -31.44  0.004666645    5.003    0.800
        12  -9.4686     77.9529      3.9387   6.3136943420e+01   6.3711381225e+01    0.5112332    0.3035079  -6.88  0.001945338    1.756    0.431
        13 -10.2119     69.5967     40.5507   8.2353500145e+01   6.0231262980e+01     1.280015    0.3933053 -40.81  0.004696038    3.026    0.670
        14  -9.5597     60.2121     33.7758   8.3194616497e+01   6.2826504173e+01    0.6069198    0.2398647 -40.70   0.00262425    2.336    0.572
        15 -10.0864     50.7202     15.1322   7.8716874793e+01   6.7060734671e+01     1.151582    0.6003389  -1.07  0.004875946    3.192    0.687
        16  -8.2856     59.0149      7.1748   7.1387296719e+01   6.6783624537e+01    0.4552479    0.3404558  72.62   0.00247437    2.665    0.625
        17  -9.9869     62.8403      2.9502   6.7793147870e+01   6.6601507262e+01    0.4051866    0.3589984  36.38  0.001690181    1.319    0.242
        18  -9.7747     63.2105     21.2304   7.6529739397e+01   6.4286109922e+01    0.6733604     0.294813 -40.30  0.002535807    2.396    0.583
        19  -9.8795     64.6172     13.5121   7.2368319898e+01   6.5080210664e+01    0.3855307    0.2663683 -11.49 0.0001957974    1.347    0.258
        20 -10.1984     46.2584     29.4899   8.7157741720e+01   6.5469161651e+01    0.4666833    0.3071335 -53.52  0.001255877    1.958    0.489
        21  -9.5500    102.7283     21.6897   6.3743345521e+01   5.6653661940e+01    0.5148425    0.2981568 -22.26  0.001420806    1.783    0.439
        22  -9.7170     91.6256     25.1182   6.8414960710e+01   5.8555954846e+01    0.8487152    0.3029648 -30.15  0.003147721    2.784    0.641
        23  -8.9608     95.8647     16.7303   6.3574559703e+01   5.8712670509e+01    0.2827585    0.1807933 -31.70   0.00100607    1.629    0.386
        24  -8.4932     97.2098     11.8039   6.1074841961e+01   5.8966868818e+01    0.3379686    0.1781134  20.45   0.00145152    2.454    0.592
        25  -8.2012    136.2639      1.5741   4.8515074894e+01   5.0774645086e+01     0.361228    0.1467859  53.33   0.00109594    2.053    0.513
        26  -9.2826    133.7144      4.6665   5.0080992763e+01   5.1141418803e+01    0.4875075    0.1586087  47.98  0.001818887    2.710    0.631
        27  -9.2321    125.7275      5.3655   5.1835446310e+01   5.3032173258e+01    0.3138511    0.2094744  16.39  0.001584593    1.703    0.413
        28  -8.7875    124.9980     13.0153   5.4898617982e+01   5.2482762815e+01    0.3563392    0.2255839  34.59  0.001219012    1.601    0.376
        29  -9.1249    126.8164      9.1962   5.3073907013e+01   5.2417129522e+01    0.5288564     0.196957  40.55  0.001651436    2.893    0.654
        30  -8.3202    155.6391     18.2865   5.1031564102e+01   4.4276100395e+01    0.2250704    0.1538363 -62.99  0.001081329    1.738    0.425
        31  -9.9247    135.4230     11.4017   5.2222036419e+01   5.0093847903e+01    0.5587589    0.2729923  37.97  0.002357029    2.225    0.551
        32  -9.4026    110.7075      5.5554   5.5072218776e+01   5.6565579574e+01    0.5193109     0.256634  -3.06  0.002203597    2.669    0.625
        33  -9.1359    115.3589      4.0836   5.3451657609e+01   5.5615423921e+01     0.267063    0.2200775 -43.86 0.0005738694    1.423    0.297
        34  -8.7970    105.1891      2.2967   5.4986919225e+01   5.8110625626e+01    0.4831989    0.2068887  53.05  0.002178855    1.959    0.489
        35  -9.5462    114.0398      9.9365   5.6092563538e+01   5.5383404395e+01    0.5016389    0.2254338  39.51 0.0003347938    2.216    0.549
        36  -8.1761     80.3499     12.3433   6.6325753298e+01   6.2357549715e+01    0.2419265    0.1434588 -28.21  0.001210883    1.681    0.405
        37  -8.2401    141.7302     12.0478   5.1297174285e+01   4.8456658185e+01     0.187679    0.1760447   3.17 0.0007133593    1.141    0.123
        38  -7.8242     67.8733      8.8726   6.8923358577e+01   6.5068470224e+01    0.1530785    0.1445344  -1.88  0.001037176    1.288    0.224
        39  -8.9523    102.3664      8.4333   5.8273568449e+01   5.8181531094e+01     0.355003    0.2318893 -42.80   0.00104537    1.865    0.464
        40  -8.7317     97.6990      5.9612   5.8405826975e+01   5.9442506553e+01    0.2678242    0.1988794   8.20 0.0008581184    1.344    0.256
        41  -8.2371     95.8222      2.6442   5.7435709592e+01   6.0152249650e+01    0.2291376    0.1555509  42.71 0.0005880394    1.280    0.219
        42  -7.6507     85.1136      6.8644   6.2317865809e+01   6.1999243248e+01    0.3332309    0.1018203  36.17  0.001083311    4.161    0.760
        43  -8.5559     89.0991      2.7640   5.9288958388e+01   6.1571366926e+01    0.3479211    0.1755587 -12.07  0.001343757    2.169    0.539
        44  -9.5384     85.3503     13.2566   6.5163634465e+01   6.1270801308e+01    0.4383001     0.254544 -49.13  0.001647671    2.618    0.618
        45  -7.9508    142.8169      4.6048   4.8496329907e+01   4.8880168993e+01    0.1853455    0.1228787  81.11 0.0001596666    1.593    0.372
        46 -10.2902     18.2735      4.8569   8.9219337609e+01   7.2445783516e+01    0.5614638    0.4862547 -66.39  0.003926714    2.170    0.539
        47  -7.5801    150.5756      1.4909   4.6220844137e+01   4.7191968508e+01    0.1341287    0.1221567  71.88 0.0001958844    1.037    0.036
        48  -8.2396    126.4493    129.5291   9.1643476888e+01   3.0974340093e+01    0.1521673    0.1468271 -79.69 0.0001110252    1.010    0.010
        49  -9.6585    201.3336    249.0396   9.7357980888e+01  -4.5220845783e+00    0.3224168     0.179391  15.80  0.001697847    2.290    0.563
        50 -10.1791    192.3138    249.0709   9.8962589403e+01  -3.1426492727e+00     0.335521    0.2500509 -19.85  0.002277044    1.597    0.374
        51 -10.0295    117.3379    125.5828   9.3101532900e+01   3.3682154410e+01    0.8317439     0.546602  85.50  0.001843268    2.511    0.602
        52 -11.2510    120.8213    109.5328   8.8213973141e+01   3.6665932151e+01     1.560995    0.7315087 -46.37   0.00471669    2.070    0.517
        53 -10.4318    123.0202     91.3614   8.2595349299e+01   4.0204908430e+01    0.6399289    0.5530763 -20.52   0.00116641    1.239    0.193
        54  -8.9672    126.2848     83.8309   7.9459962269e+01   4.1070045320e+01    0.6209203    0.3785844  15.95   0.00214956    3.091    0.676
        55 -10.0865    108.6990    114.5144   9.2800452489e+01   3.7905700979e+01    0.6990576    0.4330325 -80.42  0.001354376    2.773    0.639
        56 -10.8045    108.9567    100.8228   8.9204369457e+01   4.0995869831e+01     1.066771    0.7850031 -80.54  0.004801319    1.837    0.456
        57  -9.7713    127.6414    102.2458   8.4427772891e+01   3.6862233388e+01    0.5152561     0.377935 -55.85  0.001206912    1.418    0.295
        58  -9.3606    130.2168     96.7076   8.2194600687e+01   3.7504944131e+01    0.5028892    0.3363716  16.21  0.001977328    2.313    0.568
        59  -9.8096     41.8186    122.6230   1.1353511192e+02   4.5722801559e+01     0.609517    0.3039649  89.55  0.002521961    2.769    0.639
        60 -10.3842    140.6863    117.7715   8.5161955515e+01   3.0629781978e+01    0.7925716    0.4364044 -45.74  0.001234044    1.794    0.443
        61 -10.2157    139.4515    103.8437   8.1790163796e+01   3.3931285280e+01    0.8136247    0.5768349 -64.64  0.001679928    1.714    0.416
        62 -10.1764    135.0651    122.8216   8.7842704828e+01   3.0714787638e+01    0.5852202    0.3470481 -50.02  0.002447515    1.683    0.406
        63 -10.2241    130.3285    117.9671   8.7851844071e+01   3.2798759473e+01    0.6430093    0.3299952 -47.30  0.001551126    1.913    0.477
        64 -10.5628    133.7876    109.3253   8.4723746566e+01   3.3985174423e+01    0.9307412    0.4039845 -47.88  0.002815448    2.295    0.564
        65 -11.2773     20.9398    100.7976   1.1626303898e+02   5.2773719371e+01     1.716076    0.8342977  70.18  0.006513999    3.345    0.701
        66 -10.9576     24.7199     79.1856   1.1112222651e+02   5.7487973846e+01    0.9933519    0.5531471 -51.17  0.003345686    1.448    0.309
        67 -10.1171    163.6870    248.4457   1.0403397742e+02   1.4256077233e+00     0.287081    0.1816146  33.18  0.001753278    1.365    0.267
        68  -8.0304     23.4510     69.0672   1.0936733000e+02   5.9852504364e+01    0.2480964    0.1337419 -58.07 0.0003892136    1.456    0.313
        69  -9.9750     34.5626     90.6105   1.1009905191e+02   5.4034379228e+01    0.6037158    0.2634022 -78.10  0.001879103    3.319    0.699
        70 -10.1003     36.9339     80.9854   1.0723189692e+02   5.6035164997e+01    0.6734303      0.36337 -13.31  0.002630898    3.199    0.687
        71 -10.0485     26.8467    122.2052   1.1764054224e+02   4.7242319068e+01    0.8648167    0.3801064  78.05  0.003033352    3.941    0.746
        72  -7.8564    158.0441    122.2806   8.2096783912e+01   2.5811739302e+01    0.2230716     0.206332  53.19 0.0007472595    1.094    0.086
        73  -7.8914     98.5368    120.1253   9.6955623360e+01   3.8437441446e+01     0.347683     0.194876 -23.69  0.001083009    4.194    0.762
        74  -8.6168      1.5981    116.7502   1.2386112495e+02   5.0344918324e+01    0.3363684    0.1227619 -84.80  0.001097009    2.626    0.619
        75  -9.5136    152.1206    116.3502   8.1989995104e+01   2.8404870038e+01    0.4533141    0.2667157 -40.27 0.0004901495    1.710    0.415
        76  -9.0530    149.8519    110.1022   8.0898155204e+01   3.0249313202e+01    0.3872626    0.2484287 -51.14  0.000994319    1.617    0.381
        77 -10.2157     91.8357    112.9058   9.7191183783e+01   4.1297566828e+01    0.5791585    0.4132787 -84.10  0.001612018    1.787    0.440
        78  -9.0155     92.0192    104.2060   9.5027033457e+01   4.3310404715e+01    0.6251379    0.3954712   8.41  0.002423747    2.899    0.655
        79 -10.2556     78.1891    112.9675   1.0118588227e+02   4.3458044908e+01    0.5710427    0.3385609 -79.43  0.001790665    2.352    0.575
        80  -9.8904     81.1706     99.9428   9.7236826511e+01   4.6082907430e+01    0.9391308    0.3612652 -47.48  0.002617294    2.401    0.584
        81  -9.7392    208.3302    113.5891   6.9308355491e+01   1.6010299413e+01    0.2705126    0.2546856 -30.76 0.0002389779    1.015    0.015
        82  -8.8433     56.2712    113.8004   1.0784050984e+02   4.6228396364e+01     0.234863    0.2161333  77.07 0.0007493399    1.148    0.129
        83 -10.3150     14.2176    110.2263   1.1960589242e+02   5.1049368505e+01    0.7458943      0.30024 -82.68  0.003251049    2.586    0.613
        84  -9.7747      6.6845    104.0158   1.2099062288e+02   5.2980502956e+01    0.4976314    0.2848879  70.55  0.001660491    2.018    0.504
        85  -7.4680    167.2968    113.6864   7.7759510472e+01   2.5488015569e+01    0.1582123    0.1255541 -78.83 0.0002622456    1.602    0.376
        86  -8.7471     63.4928     81.5785   9.8184384149e+01   5.2873545221e+01    0.3039256    0.1619663 -61.24 0.0009309363    1.948    0.487
        87 -10.3897     66.0190    109.6486   1.0409431178e+02   4.5983984972e+01    0.9798077    0.5234522 -59.74  0.001587041    1.666    0.400
        88  -9.5164     59.3043    109.6888   1.0612757911e+02   4.6843987571e+01    0.4294749    0.2225527 -62.43  0.001720056    1.717    0.418
        89 -10.4464     63.0419     95.7655   1.0192028749e+02   4.9672270871e+01     0.681424    0.4058164 -81.49  0.001572395    2.513    0.602
        90  -8.8748     64.5008     86.4442   9.9134873738e+01   5.1635656002e+01    0.6397995    0.3643646 -16.48  0.002414955    3.430    0.708
        91  -8.6488    158.9670    111.9585   7.9218156296e+01   2.7771793238e+01    0.2413677    0.2270484 -60.62 0.0004750014    1.085    0.078
        92  -8.0336    213.1345    110.2911   6.7603385449e+01   1.5518904002e+01    0.2568127    0.1978231 -23.60 0.0006783056    1.322    0.243
        93 -10.9137     44.7162    102.3298   1.0914933489e+02   5.0280648092e+01    0.8088511    0.4270619  72.78  0.002965339    3.650    0.726
        94  -8.7296     40.6545    106.9843   1.1126970161e+02   4.9588651381e+01    0.2364388    0.1588554 -80.88  0.000685651    1.475    0.322
        95  -8.3792    165.9619    103.9665   7.5465411868e+01   2.7775482862e+01    0.3026968    0.2141849 -42.01  0.000556925    1.391    0.281
        96  -9.5797    149.3306    103.1890   7.9151464453e+01   3.1827569526e+01    0.4793774    0.3045868 -46.22 0.0008321371    1.566    0.361
        97  -9.2063    150.0223     95.2872   7.6766560410e+01   3.3301172560e+01     0.510035    0.3271106 -43.04  0.002177296    1.536    0.349
        98  -8.9588    150.5077     89.1080   7.4862054431e+01   3.4432378808e+01    0.2786639    0.2156421 -56.64 0.0005358878    1.398    0.285
        99  -8.2328     73.8456    102.9409   1.0021557637e+02   4.6486528260e+01    0.2566423    0.1758741 -62.29 0.0006536091    1.381    0.276
       100  -8.5463    158.9616    101.1158   7.6285372115e+01   3.0008422774e+01    0.2385429    0.2244205 -67.96 0.0004246647    1.103    0.093
       101 -10.4325    240.9074     96.1330   5.9562423478e+01   1.1806575694e+01    0.4316767    0.2706208 -25.67  0.002038165    1.615    0.381
       102  -9.4073     94.3716     97.2550   9.2523214322e+01   4.4506572614e+01    0.3402038    0.2730358 -72.06 0.0006574251    1.391    0.281
       103  -8.9935     95.9520     91.0629   9.0347814095e+01   4.5623800754e+01    0.5051305    0.3284889  -7.52  0.001947659    2.763    0.638
       104  -8.5850    164.6149     94.2134   7.3060192900e+01   3.0039066823e+01    0.3763625    0.2500829 -45.56  0.001078427    1.504    0.335
       105  -9.7683    138.7001     92.0433   7.8643862078e+01   3.6589957425e+01    0.6510163    0.3635215 -37.65   0.00182923    1.814    0.449
       106  -8.9544    140.5768     83.1766   7.5532022184e+01   3.7952341390e+01    0.4753477    0.2659423 -52.73  0.001403567    2.062    0.515
       107  -8.8716    140.2339     76.0451   7.3422115629e+01   3.9419700383e+01    0.6921757    0.3227845 -46.89  0.001909635    2.284    0.562
       108  -9.0918    157.5273     91.0538   7.3772899995e+01   3.2368586691e+01    0.4285971    0.2272593 -31.11  0.001595121    2.119    0.528
       109  -9.6434    110.5631     89.9420   8.5690349307e+01   4.3090373193e+01    0.7129884    0.3961151  24.48   0.00257382    2.839    0.648
       110  -9.9391     15.8882     70.6251   1.1251149343e+02   6.0035241762e+01    0.4833868    0.1820617 -57.90  0.001294123    1.913    0.477
       111 -10.2926      4.3891     89.0150   1.1966816135e+02   5.6555875549e+01    0.8113606    0.3305173 -87.69  0.002895706    3.143    0.682
       112  -9.6325      6.9173     78.1866   1.1713250486e+02   5.8873571522e+01    0.5109421     0.206778 -42.02  0.002505175    2.373    0.579
       113 -10.5586     48.1393     83.6779   1.0397991131e+02   5.4274458926e+01     1.139554    0.4068025 -56.25  0.002934035    2.297    0.565
       114  -9.5781    150.7007    247.1588   1.0623892879e+02   3.6643243175e+00    0.2540881    0.1789935  37.19  0.001195523    1.187    0.157
       115  -9.1903     87.4851     57.1783   8.2314794721e+01   5.4181563378e+01    0.6654227    0.2940819 -46.38  0.001866255    2.298    0.565
       116 -10.2802     85.1150     48.0894   7.9780223955e+01   5.6264585287e+01    0.5010189     0.379169 -89.58 0.0009402382    2.455    0.593
       117 -10.4955     55.1023     70.8706   9.8139228560e+01   5.6323624296e+01    0.5470105    0.4009983  65.13  0.001258877    2.004    0.501
       118 -10.2895     85.3652     86.6214   9.2384299813e+01   4.8451164907e+01    0.5551066    0.3860709  64.97 0.0008863608    2.019    0.505
       119  -9.4019     87.1830     78.9222   8.9552738087e+01   4.9832173039e+01    0.6088182    0.3919932   8.90  0.001569699    2.458    0.593
       120  -7.2728     78.2911     89.6759   9.5483468436e+01   4.8899673177e+01    0.1404629    0.1114187 -89.34 0.0007014414    1.613    0.380
       121  -8.2318    163.4963     87.4452   7.1371065514e+01   3.1625042141e+01    0.3182904    0.1539031 -38.58 0.0009814086    2.035    0.509
       122  -8.4813     28.7754     86.9170   1.1129430770e+02   5.5393275241e+01    0.2010431    0.1475468 -49.33 0.0006865769    1.191    0.161
       123 -10.2396    103.8223     82.5247   8.5471788765e+01   4.6013437073e+01    0.5116736    0.2929942 -52.65 0.0009558778    1.827    0.453
       124  -9.5837    104.8095     72.1060   8.1904087451e+01   4.7974303524e+01    0.8880343    0.3994015 -33.86  0.003225929    2.511    0.602
       125  -8.1547    237.6924     84.3483   5.7156703760e+01   1.4404335698e+01    0.1517283    0.1016208 -60.56 0.0004815604    1.705    0.413
       126  -8.6563    157.7059     83.6989   7.1579990662e+01   3.3755093839e+01    0.3108074    0.2034424 -47.85 0.0007511677    1.572    0.364
       127  -7.2206    170.3126     83.6612   6.8788006464e+01   3.0664284717e+01     0.164411    0.1225581 -71.36 0.0007046201    1.694    0.410
       128  -8.5927    149.9814     80.4584   7.2408701421e+01   3.6247919481e+01    0.4687191    0.2171175 -37.33  0.001344641    2.156    0.536
       129  -8.6441    241.0000     80.5013   5.5751248973e+01   1.4284676011e+01     0.325908   0.07393163 -33.76 0.0009397678    3.975    0.748
       130  -9.6763    119.1908     79.1847   7.9980220591e+01   4.3561696178e+01    0.6606864    0.3170569 -35.20  0.001987738    2.225    0.551
       131  -9.2542    130.0278     57.5623   6.9962513139e+01   4.5178185789e+01    0.7501644    0.2670791 -43.17  0.002172905    2.969    0.663
       132  -9.4724    127.4344     75.3511   7.6512440882e+01   4.2510595888e+01    0.4846567    0.3434485 -67.04  0.001081221    1.914    0.478
       133  -8.4007    128.9921     69.4721   7.4206667544e+01   4.3281637306e+01    0.4109363    0.2516308  22.00  0.001554696    2.491    0.599
       134  -8.3134    130.3983     65.1554   7.2420519510e+01   4.3753334387e+01    0.4204543     0.267277 -60.93  0.001318588    2.193    0.544
       135  -9.0971     74.1938     80.1372   9.4172805520e+01   5.1666158195e+01    0.3546523    0.2299422 -67.90 0.0009523872    1.940    0.485
       136  -8.4431     68.4066     79.4984   9.5939163638e+01   5.2657922519e+01    0.2807543    0.1611796 -55.05  0.001311728    1.633    0.387
       137  -8.1616    184.2132     78.0806   6.4366543433e+01   2.8212220116e+01    0.2365402    0.2108654   7.87 0.0006279383    1.270    0.213
       138  -7.8949    174.4087     78.5143   6.6435802681e+01   3.0586876227e+01    0.1543879    0.1500903 -43.80 0.0001482807    1.018    0.017
       139  -7.3637    166.4507     78.5583   6.8116006933e+01   3.2563233073e+01    0.1555069    0.1511529 -69.24 0.0001928793    1.037    0.035
       140  -8.6751    156.9769     75.9833   6.9427545056e+01   3.5382099423e+01    0.3852826    0.2148957 -33.45  0.001531202    1.842    0.457
       141  -9.3103     55.5685     63.0646   9.5630042382e+01   5.7930619209e+01    0.3938229    0.2850987   2.36  0.001399546    1.645    0.392
       142  -9.9555     81.6006     72.3350   8.9352402156e+01   5.2175292633e+01    0.4815209    0.3290567 -68.01  0.000976372    1.999    0.500
       143  -8.9976     83.4209     64.6570   8.6253170017e+01   5.3444999919e+01    0.5386512    0.3132534 -17.44   0.00211689    2.722    0.633
       144  -8.3258    162.7971     73.2496   6.7310856450e+01   3.4434605488e+01    0.2708154    0.2008621 -49.94 0.0007721288    1.400    0.286
       145  -9.5231    114.5430     72.1807   7.9066544905e+01   4.5953957904e+01    0.5450392     0.478685 -40.48  0.001797862    1.117    0.105
       146  -9.6339    121.6656     64.8246   7.4637726453e+01   4.5803969836e+01    0.8239793    0.3807854 -37.84  0.002243007    2.133    0.531
       147  -9.2516    109.7360     63.8193   7.7678993004e+01   4.8576293465e+01     0.391922    0.2773507 -55.09 0.0007501508    1.650    0.394
       148  -8.9459    110.6137     58.2417   7.5494614475e+01   4.9415410934e+01     0.388154    0.2831737  12.59 0.0009859717    1.689    0.408
       149  -7.3499    175.4795     72.5016   6.4455944886e+01   3.1381672049e+01    0.1561386    0.1485893 -68.77 8.157858e-05    1.057    0.054
       150  -8.2820    169.4318     70.8300   6.5181500972e+01   3.3197486289e+01    0.3044487    0.1413493 -40.60  0.001121655    2.109    0.526
       151  -9.3386    146.8160     69.0775   6.9627370250e+01   3.9131944099e+01    0.4424374    0.2794498 -53.05 0.0009011188    1.819    0.450
       152  -8.0277    146.6527     64.6554   6.8252385018e+01   3.9956916567e+01    0.3110618    0.2094855  -1.63   0.00106522    2.215    0.549
       153  -8.0839    156.6372     70.0195   6.7671182374e+01   3.6545403710e+01    0.2245057    0.1925009 -37.24 0.0004892446    1.164    0.141
       154  -9.7213     94.8152     68.4627   8.3800389325e+01   5.0638769506e+01    0.4006032    0.2534216 -50.38  0.000803572    1.636    0.389
       155  -9.3593     97.3574     58.7099   7.9667070714e+01   5.2037721597e+01    0.8483531    0.5013998 -31.43  0.003664007    1.717    0.418
       156  -8.9842    208.4769     65.5799   5.6665793703e+01   2.4254923513e+01    0.3893465    0.2501588 -33.27   0.00145391    1.518    0.341
       157  -9.0634    138.3116     64.8155   7.0306426633e+01   4.1948938859e+01    0.6064511    0.2916686 -28.00  0.001677381    2.451    0.592
       158  -9.2479    139.1846     57.1520   6.7556170461e+01   4.3062521287e+01    0.6175528    0.2964261 -45.86  0.001796035    2.291    0.564
       159  -9.0105    141.9958     48.4993   6.3976511530e+01   4.3766701685e+01    0.4051571    0.2932933   1.80  0.001077272    1.763    0.433
       160  -9.9529     62.4274     60.9382   9.2409476468e+01   5.7458983630e+01    0.6218899    0.3132519  30.94 0.0009530758    2.234    0.552
       161  -8.3298    170.8510     64.8740   6.3096863645e+01   3.3856449013e+01    0.2813355    0.2030251 -43.22  0.000624127    1.383    0.277
       162  -7.2867     81.7108    249.6906   1.1888606872e+02   1.3601390168e+01   0.09269594    0.0867851  27.51 0.0003504506    1.579    0.367
       163  -8.8777     40.8423     20.5027   8.5600586646e+01   6.7602920418e+01    0.2903576    0.1546205 -36.40 0.0009175523    1.631    0.387
       164  -9.7658     17.0809     61.0605   1.0992318583e+02   6.2052862256e+01    0.6845179    0.2420422 -57.90  0.003214877    2.068    0.516
       165  -7.5265    160.6062    127.7726   8.2864231741e+01   2.4079124746e+01    0.2190415    0.1465108 -52.93  0.000941007    1.592    0.372
       166 -10.1170    118.3246    244.9070   1.1190431201e+02   9.0641640820e+00    0.2049617    0.1854778  54.75 0.0003430549    1.189    0.159
       167 -10.5968     23.0874     34.4048   9.9514806535e+01   6.7031650204e+01    0.6124215    0.3855154 -12.76   0.00275125    1.699    0.411
       168 -10.0234    184.5783    248.7001   1.0029450257e+02  -1.8942049707e+00    0.3125121    0.2692808  80.11  0.002180885    1.717    0.418
       169 -10.8567     21.9094     53.4841   1.0603629598e+02   6.3323145019e+01    0.7939255    0.4680387  88.36  0.002801338    3.710    0.730
       170 -10.3243     12.1278     45.6844   1.0800910076e+02   6.5600676056e+01    0.8961536    0.4092497  -9.54  0.004256042    3.228    0.690
       171  -8.7372    165.5080    239.5003   1.0252672850e+02   2.4129128879e+00    0.1232042   0.09891056  38.77 0.0008106339    1.007    0.007
       172  -6.9169    235.3018    236.7109   8.9550601041e+01  -8.1308448004e+00   0.09940165   0.08733115  41.33 0.0003197666    1.564    0.360
       173  -9.4234    187.9630    233.7823   9.7548988745e+01  -4.2235700430e-01    0.2531198     0.184484 -32.16  0.001344004    1.616    0.381
       174  -8.3967    120.6319    230.7407   1.0990058096e+02   1.1062544331e+01    0.2280618    0.1441248  43.82  0.000629483    1.315    0.240
       175  -9.5716      6.9055     32.5141   1.0648354117e+02   6.8525613508e+01    0.2483174    0.1791054 -28.02 0.0008484991    1.224    0.183
       176  -9.9529      7.3227     28.2805   1.0489687450e+02   6.9308727740e+01    0.2765254    0.2465612  69.81 0.0009890934    1.703    0.413
       177  -8.2433    157.7802     63.1045   6.5259369805e+01   3.7460399896e+01    0.2388463    0.2041492 -65.50 0.0007304156    1.283    0.220
       178  -9.3625     49.3150     60.4329   9.7172241622e+01   5.9243166073e+01    0.3295315    0.1031523 -51.47  0.001255781    2.707    0.631
       179  -8.3077     10.0006     60.4655   1.1255453570e+02   6.2616608581e+01    0.2675359    0.1705428  80.70   0.00148421    2.295    0.564
       180  -7.9059    164.6128     60.3820   6.2974226512e+01   3.6187393106e+01    0.2245116    0.1728726 -68.77 0.0006789002    1.531    0.347
       181  -7.8241    152.4559     60.2479   6.5514194026e+01   3.9275177707e+01    0.2165702    0.1404436 -46.49 0.0009368643    1.618    0.382
       182  -7.6329    245.0000     59.0109   5.0020322580e+01   1.6654317571e+01    0.2296623   0.07154801 -32.83 0.0007981498    2.913    0.657
       183  -8.4948    146.5750     58.7568   6.6354981407e+01   4.0985291090e+01    0.3068269    0.1835374 -38.20 0.0009424786    1.671    0.401
       184  -9.1617    147.3162     55.3189   6.5056848291e+01   4.1368550640e+01     0.577009    0.2502245 -24.13  0.001904234    3.077    0.675
       185  -8.4642    122.1815     41.6730   6.6350917617e+01   4.9561040428e+01    0.5453631    0.3086395  13.57  0.001921734    3.264    0.694
       186  -8.8973    121.0830     46.9605   6.8561970193e+01   4.9001465732e+01    0.3004692    0.2170246 -39.53 0.0004927406    1.422    0.297
       187  -9.0914    118.1810     55.4521   7.2374138521e+01   4.8254596895e+01    0.3571392     0.295635 -79.08 0.0008027871    1.594    0.373
       188  -8.1383    118.8124     51.4210   7.0772727077e+01   4.8794941446e+01    0.3796483     0.178044  34.36   0.00134434    2.788    0.641
       189  -9.0063     53.6857     39.3311   8.8054075293e+01   6.2795099229e+01    0.2271731    0.1927654 -55.80 0.0008773251    1.483    0.326
       190  -8.6539     44.0424     54.0224   9.7200077395e+01   6.1162944924e+01    0.2250134    0.1578826 -44.20 0.0003520244    1.196    0.164
       191 -10.0161     50.0235     54.5950   9.5025777920e+01   6.0355184760e+01    0.4171921     0.339158  85.39  0.001175374    1.907    0.476
       192 -10.0797     54.9099     44.3922   8.9497814466e+01   6.1709953052e+01     1.200822    0.6155224  -3.26  0.003681771    5.847    0.829
       193  -8.8209    161.8685     53.5156   6.1373245682e+01   3.7987479227e+01    0.4714134    0.3030544 -86.72  0.001865357    2.360    0.576
       194  -9.1111    105.5367     52.1394   7.4807706761e+01   5.1561414878e+01     0.606293    0.2751298 -33.57   0.00195382    2.228    0.551
       195  -7.4236    172.5397     50.5536   5.8395285712e+01   3.5704747327e+01    0.1499204    0.1434386 -84.49  0.000328112    1.034    0.032
       196  -8.8558    157.0176     46.2307   6.0006770102e+01   4.0333884881e+01    0.5219546    0.2225621 -32.15  0.001200804    2.369    0.578
       197  -9.6315    130.5179     47.0224   6.6180074651e+01   4.6782907178e+01    0.8623524    0.3454902 -24.87  0.001838016    3.230    0.690
       198  -8.8663    132.9932     36.2082   6.1737116286e+01   4.7770850373e+01    0.3987456    0.2313298 -37.34 0.0006955751    1.778    0.437
       199 -10.8494    134.0779     31.0583   5.9637749996e+01   4.8193428307e+01    0.3848196    0.2830496  12.01            0    1.597    0.374
       200  -9.1221    149.7807     47.7181   6.1996940567e+01   4.1945107112e+01     0.372169    0.2000739 -37.73 0.0007331764    1.870    0.465
       201  -9.4586    152.4892     41.2312   5.9272930326e+01   4.2210568989e+01    0.4467042    0.3044714  40.02  0.001388313    1.534    0.348
       202  -8.5107    112.0111     46.8571   7.0996652362e+01   5.1055174943e+01    0.2425408     0.200208 -32.86  0.000457439    1.212    0.175
       203  -8.3559    113.2125     42.2070   6.8933343691e+01   5.1521429035e+01    0.3314956    0.1956385  12.47   0.00100597    2.792    0.642
       204  -7.2336    162.6610     46.3302   5.8928223568e+01   3.8875153410e+01    0.1595589    0.1136275 -69.00 0.0007051827    1.739    0.425
       205 -10.0258     37.5096     41.9816   9.5809343582e+01   6.4238959808e+01    0.4229839    0.3078306 -82.67  0.001848232    2.563    0.610
       206 -10.5806     35.9082     37.9969   9.5053610280e+01   6.5157877607e+01     0.649194    0.3498189 -17.29 0.0003622105    2.408    0.585
       207  -8.3902    230.1594    220.4245   8.7742209885e+01  -5.3815739766e+00    0.1850235    0.1501528  -7.76 0.0002673589    1.185    0.156
       208  -7.7113      2.6637    216.6950   1.3041235816e+02   2.8805190528e+01   0.09047626   0.07311131 -66.32 0.0004051788    1.670    0.401
       209 -10.0888     11.3270    207.1176   1.2843551888e+02   2.9852454847e+01    0.4496889    0.2629833  29.06  0.002888447    2.267    0.559
       210 -10.0446     76.2151     32.1528   7.6509761406e+01   6.0478657250e+01    0.4562464     0.353649  48.85  0.001864665    1.515    0.340
       211  -9.6419     79.5562     23.8728   7.1785754811e+01   6.1070286462e+01    0.5279448     0.275295  26.36  0.001448262    2.310    0.567
       212  -8.8446     84.6025     21.7374   6.9175471620e+01   6.0392522860e+01    0.2531341    0.2178272 -22.85 0.0005451422    1.200    0.167
       213  -8.4958    110.1189     27.2162   6.3985321813e+01   5.4328751870e+01    0.4340492    0.2275674  -1.82  0.001582629    3.268    0.694
       214  -8.4819    111.6180     21.8918   6.1475763365e+01   5.4648982328e+01    0.3639899    0.1869821 -33.78  0.001184987    2.012    0.503
       215  -9.0587    110.3499     33.2000   6.6275826526e+01   5.3475935477e+01    0.3263878    0.2324302 -44.00  0.000769785    1.579    0.367
       216  -9.1284    104.9786     41.1349   7.0861041162e+01   5.3480710439e+01    0.4529536    0.2489426 -49.07  0.001235406    2.309    0.567
       217  -8.2933    106.5383     36.2984   6.8542908458e+01   5.3872322216e+01    0.2765274    0.2007167  24.41 0.0006804784    1.447    0.309
       218 -10.3642     90.2736     38.1664   7.4215881916e+01   5.6941089254e+01    0.8707917    0.3369943  34.15  0.003007504    3.428    0.708
       219  -8.7712    139.2756     39.7358   6.1566788200e+01   4.5736944334e+01    0.4845027    0.3158103 -32.20  0.001767087    1.569    0.363
       220  -7.6372    160.3411     38.8030   5.6944427852e+01   4.0541495587e+01      0.20582      0.14109 -14.14 0.0006366997    1.731    0.422
       221  -9.1689    144.2843     36.5372   5.9372872163e+01   4.4934361908e+01    0.2809684    0.2253274 -56.43  0.000539607    1.404    0.288
       222  -8.8795    118.9565     34.5915   6.4540766277e+01   5.1328896183e+01    0.3112841    0.1996553 -28.62 0.0006237889    1.588    0.370
       223  -9.1013    228.5357    202.7407   8.4895834892e+01  -2.7595956381e+00    0.2793983    0.2487889 -87.42  0.001050582    1.913    0.477
       224  -9.2033    191.8466    194.1410   9.0238827434e+01   4.9545516291e+00    0.7731032    0.3966543 -61.96  0.002440042    5.567    0.820
       225  -8.9044    216.4867    197.3468   8.6102750489e+01   5.3765213918e-02    0.2373124    0.1948887  37.12 0.0002824229    1.228    0.186
       226 -10.4647    247.9246    195.2387   8.0091564966e+01  -4.8615274158e+00    0.2314814    0.1958121  14.42 0.0003011767    1.132    0.117
       227  -8.9134    217.5192    192.8136   8.5059048168e+01   5.5605686631e-01    0.2328193    0.1976807  21.07 0.0003523693    1.057    0.054
       228  -8.2910    218.0154    187.9501   8.4034562176e+01   1.2121838726e+00    0.1973288    0.1746326  13.05 0.0003572355    1.048    0.046
       229 -10.2877    185.8697    184.0358   8.9548044922e+01   7.7920000305e+00    0.2475594    0.2392201  10.51 0.0003477664    1.093    0.085
       230  -8.6410    153.0151     34.5171   5.6926369800e+01   4.2995482435e+01    0.2404844    0.2017128  29.94  0.001265888    1.264    0.209
       231  -8.0881     41.8742     28.3488   8.8590803897e+01   6.6203924536e+01    0.1605876    0.1047786  12.40            0    1.645    0.392
       232  -9.2173    101.1689     31.8496   6.8329391061e+01   5.5660472840e+01    0.4254692    0.2058999 -40.50 0.0009656873    2.234    0.552
       233  -8.0783    138.0776    184.4499   9.9762511269e+01   1.6753313924e+01    0.1884345    0.1795315  89.29  0.000294631    1.092    0.085
       234  -8.4519    244.3639    182.9946   7.8327978102e+01  -2.5897152944e+00    0.1981445    0.1732221  30.78 0.0005644324    1.277    0.217
       235  -9.1373     71.0569    180.9772   1.1420130124e+02   2.8469721633e+01    0.1880511    0.1613913  82.39  0.001192492    1.042    0.041
       236  -8.7120    206.4385    168.0059   8.2233376268e+01   6.6208067938e+00      0.23753     0.191398  34.40 0.0002549605    1.191    0.160
       237  -9.3646    152.6971     28.5164   5.4972747673e+01   4.3842932869e+01     0.423178    0.2099042 -12.76  0.001583515    2.864    0.651
       238  -7.8252    150.1223     25.1182   5.4300694997e+01   4.4910679891e+01    0.2003794    0.1920641 -12.56 0.0005516668    1.108    0.098
       239  -7.6128    148.0000     28.9979   5.6028139861e+01   4.4978852221e+01    0.2226247   0.08317962 -27.15 0.0006111888    2.828    0.646
       240  -7.6422    156.3293     27.6615   5.4024284166e+01   4.3017532134e+01    0.1529759    0.1069737 -66.22  0.000705186    1.735    0.424
       241  -8.7250    144.2507     25.5037   5.5549958283e+01   4.6352521818e+01    0.3303004    0.1988851 -20.72  0.001512705    1.837    0.456
       242  -8.9771    128.4263     25.8345   5.8982784696e+01   5.0225647919e+01    0.3425588    0.2342247 -49.51  0.001102912    1.732    0.423
       243  -7.7683    140.2978     22.6633   5.5327382479e+01   4.7678347319e+01    0.1443863    0.1069489 -63.97 0.0003417653    1.655    0.396
       244  -8.1535    192.1969    166.3820   8.4733310656e+01   9.7154222774e+00     0.332943    0.1916413 -56.72  0.001303103    2.483    0.597
       245  -7.7973    230.2979    167.3297   7.7617751339e+01   2.2217846902e+00    0.1417011   0.09816496   2.94 0.0003133923    1.639    0.390
       246  -9.4925    118.8250     21.3558   5.9495270619e+01   5.3046324062e+01    0.2842976    0.2484217 -36.26  0.000705041    1.254    0.203
       247  -8.6425    119.4394     16.7758   5.7568805401e+01   5.3415445347e+01    0.2956985    0.2186294   6.30  0.001489088    1.480    0.324
       248  -8.7095     71.4252    165.2921   1.1210801883e+02   3.1961581782e+01    0.2263774    0.1854269  73.99 0.0003905741    1.105    0.095
       249  -7.6924      3.6501    166.7075   1.2749783224e+02   3.8944722320e+01     0.105847    0.0751169 -55.78  0.000360375    1.673    0.402
       250  -7.7299    234.4826    161.4957   7.5639945221e+01   2.3777257913e+00    0.1387193    0.1203688  -3.12 0.0004216353    1.023    0.022
       251  -7.4072    134.5002    161.4635   9.6423405020e+01   2.2240860797e+01    0.1460964    0.1386089  63.52 0.0001213111    1.004    0.004
       252  -8.5287    128.9269     16.0276   5.5214790820e+01   5.1219542883e+01    0.2549728    0.2240928 -55.42 0.0004145234    1.304    0.233
       253  -9.2970    132.7083     17.0354   5.4812774986e+01   5.0186910020e+01     0.275504     0.231512  19.55 0.0007995922    1.231    0.187
       254  -7.7729    234.2961    156.6500   7.4633908482e+01   3.1848957931e+00    0.1318278    0.1088739 -62.24 0.0003421905    1.682    0.405
       255  -8.4204    133.7839    146.6624   9.3603817391e+01   2.5636994705e+01    0.6322776    0.1906056 -56.21  0.001681154    4.692    0.787
       256  -7.2670    227.5571    147.5054   7.3823955509e+01   5.9750244165e+00    0.1417268    0.1282248 -11.66 7.272293e-05    1.017    0.017
       257  -9.1125    237.1902    145.5892   7.1705927041e+01   4.4254044879e+00    0.1919534    0.1248302  31.81 0.0007292193    1.649    0.394
       258  -8.5387    112.3913     15.5750   5.8749477803e+01   5.5187023798e+01    0.2359116    0.2091139 -41.09 0.0005384436    1.292    0.226
       259  -9.2410     66.9637    143.7725   1.1006219151e+02   3.7634931597e+01    0.5020489    0.3051805  80.68   0.00233701    2.027    0.507
       260  -8.6838     45.4369     15.7318   8.1297309669e+01   6.7720283383e+01    0.2381918     0.149447  -8.55 0.0008366833    1.633    0.387
       261  -7.2865    189.5218     15.5436   4.5323198505e+01   3.5842843578e+01    0.1381159    0.1262435  76.05 0.0002597308    1.061    0.057
       262  -8.0160    167.9947     14.6430   4.7929427908e+01   4.1483395045e+01    0.1936089    0.1650402  71.57 0.0003933995    1.078    0.073
       263  -7.2049    225.4666    143.5146   7.3303046351e+01   7.0620707712e+00    0.1446891    0.1291756  -6.82 1.243194e-05    1.042    0.041
       264  -7.1107     95.6939    136.2863   1.0116487372e+02   3.5083291684e+01    0.1467278    0.1087071  77.57 0.0002566704    1.567    0.362
       265  -8.3543    139.2150     18.1017   5.3914280074e+01   4.8459068212e+01    0.2207773    0.1781612  35.05  0.001204365    1.231    0.188
       266  -8.5920    112.2423    133.9109   9.6308782366e+01   3.2713295433e+01    0.3533311    0.2355795 -83.26 0.0009172953    2.090    0.522
       267  -9.1815    135.6824    132.6568   9.0034099750e+01   2.8383681799e+01    0.5716444    0.2314075 -41.18   0.00192521    2.738    0.635
       268  -9.1185    132.3261    131.6533   9.0641989418e+01   2.9299973756e+01    0.4488044    0.2965527 -89.07  0.001712917    2.566    0.610
       269  -8.8375     83.2314    131.5849   1.0359566577e+02   3.8216301359e+01    0.6223519    0.3352722  70.36  0.002224126    3.335    0.700
       270  -7.6948    238.6762    132.6807   6.8542071944e+01   6.2501778173e+00    0.1454974    0.1046753   4.62 0.0002200293    1.674    0.403
       271 -10.5647     70.2462    126.5802   1.0622906624e+02   4.1326429135e+01    0.7610025     0.627613 -17.08  0.002680955    1.604    0.377
       272 -10.0510     58.2259    124.5840   1.0924144082e+02   4.3386599519e+01    0.6433851    0.3574061  79.03  0.002067184    2.776    0.640
       273  -9.7863     98.4369    128.5794   9.8843818672e+01   3.6448916133e+01    0.5945877    0.3652189  79.32  0.002229322    2.739    0.635
       274  -7.2174      1.3901    131.5199   1.2531749021e+02   4.6974409920e+01    0.1187822   0.08677576 -84.75 0.0001356607    1.035    0.034
