#   1 NUMBER                 Running object number                                     
#   2 MAG_AUTO               Kron-like elliptical aperture magnitude                    [mag]
#   3 X_IMAGE                Object position along x                                    [pixel]
#   4 Y_IMAGE                Object position along y                                    [pixel]
#   5 X_WORLD                Barycenter position along world x axis                     [deg]
#   6 Y_WORLD                Barycenter position along world y axis                     [deg]
#   7 A_WORLD                Profile RMS along major axis (world units)                 [deg]
#   8 B_WORLD                Profile RMS along minor axis (world units)                 [deg]
#   9 THETA_WORLD            Position angle (CCW/world-x)                               [deg]
#  10 FWHM_WORLD             FWHM assuming a gaussian core                              [deg]
#  11 ELONGATION             A_IMAGE/B_IMAGE                                           
#  12 ELLIPTICITY            1 - B_IMAGE/A_IMAGE                                       
         1 -13.2611     80.5453     57.8016   3.7519565438e+01   5.6077432497e+01     1.972225     1.219108 -15.03   0.00723586    2.841    0.648
         2 -14.0965     56.4424     64.3605   5.0082398915e+01   5.9181866573e+01     1.844271      1.14994 -23.49  0.007609097    2.263    0.558
         3 -14.9472      6.3426     71.2879   7.6712882178e+01   6.2727103766e+01     1.123291    0.8059652 -64.96  0.005282721    1.212    0.175
         4 -13.5480    135.7711     51.4239   1.9011059777e+01   4.3780583376e+01     1.617018    0.5318844 -33.71  0.005219509    3.047    0.672
         5 -12.9291    120.5605     26.0934   1.2836510865e+01   5.1420063827e+01    0.7443445    0.6025369  45.13  0.003570601    1.259    0.206
         6 -14.9629    166.8037     29.1482   6.4034641529e+00   3.8754859514e+01     1.121004    0.9888735  77.60   0.00378485    1.110    0.099
         7 -14.8052    124.6453     35.8086   1.5754730891e+01   4.9043215388e+01     1.716554    0.6567005  46.70  0.004949328    2.817    0.645
         8 -15.4924    217.8985     17.3600   3.5830570431e+02   2.7839070355e+01     2.110212     1.032462 -28.27   0.01056964    1.900    0.474
         9 -12.3597    232.3162      2.4863   3.5396534924e+02   2.6270842974e+01    0.4320335    0.2740876  58.36   0.00235069    1.951    0.488
        10 -15.0791    189.7405     24.1913   2.3880462630e+00   3.3587928537e+01     1.663834    0.9317176 -52.69  0.007489537    1.660    0.397
        11 -14.2786     26.8508     12.5061   4.3174933724e+01   7.4429738001e+01    0.9231046    0.5762517 -21.35  0.004073855    1.762    0.432
        12 -14.9759    147.7514     29.6361   9.2616484665e+00   4.3691992426e+01      1.57904    0.8365166  66.90  0.005791446    1.786    0.440
        13 -13.7044    242.2506     35.8369   9.2955358761e-01   2.0778197449e+01    0.7973872    0.4686104 -73.74  0.003532846    1.892    0.472
        14 -13.9251    188.1785     12.7152   3.5931827388e+02   3.5198941836e+01    0.8876325    0.4910566 -35.79  0.004459659    1.639    0.390
        15 -15.4669     99.6174     11.7460   1.1203196692e+01   5.8638543564e+01     1.724858     1.002228  57.58  0.004893528    1.527    0.345
        16 -11.8579     71.1023     16.2170   2.1849219095e+01   6.5271378411e+01    0.4395778    0.2464885 -19.53  0.001761849    2.069    0.517
        17 -12.3792     74.6504     10.0285   1.7179967185e+01   6.5169543356e+01    0.4347373     0.270825  -7.97  0.002044111    1.935    0.483
        18 -12.3304     60.2490     15.2634   2.5677484410e+01   6.7850117878e+01    0.5706969    0.3284031  30.85  0.002086349    1.952    0.488
        19 -12.0190     46.6763     12.8405   3.0788774246e+01   7.0994323705e+01     0.335546    0.2551819  50.30  0.001309448    1.391    0.281
        20 -11.7154    122.6422     10.1827   6.0726156621e+00   5.2620097267e+01    0.4233261    0.2196535 -59.51  0.001718406    2.333    0.571
        21 -12.2852    153.0111      8.5909   1.4079247072e+00   4.4591669612e+01    0.2987694    0.2707225  54.42  0.001054581    1.206    0.170
        22 -12.6758     85.4616     13.8063   1.5856019988e+01   6.2069205783e+01    0.4756841    0.4285666  -1.51   0.00216921    1.185    0.156
        23 -10.2543     60.3284      6.2862   2.0186833488e+01   6.8953481212e+01    0.1444054   0.09308416  29.52 0.0007010184    1.612    0.380
        24 -15.9804     11.4225     22.8682   6.0940660430e+01   7.4117829691e+01     2.123317     1.084987 -37.66   0.01032846    1.816    0.449
        25 -12.3191    120.1441      2.9932   3.5445819380e+00   5.3947488216e+01    0.6535721    0.2793928 -84.76  0.002218005    3.331    0.700
        26 -11.1321     67.7326      2.6726   1.5217182993e+01   6.7604749312e+01    0.3212828    0.1896879  33.01  0.001530118    1.763    0.433
        27 -14.1376     41.3676      5.2309   2.8608901404e+01   7.3080999837e+01     1.027438    0.6774702   8.46  0.004750891    1.793    0.442
        28 -12.1812     80.2927      1.7503   1.0913323298e+01   6.4592694959e+01    0.7219082   0.09821675  60.33  0.002056079    4.283    0.767
        29 -13.1331      6.3580      3.3830   5.4998433918e+01   7.8501743746e+01    0.7290435    0.4189333   7.93  0.003988225    1.823    0.451
        30 -11.4645     61.3744      1.4973   1.6742811255e+01   6.9220084965e+01    0.3983025    0.1275191  61.10  0.001426181    3.005    0.667
        31 -11.4438    179.9941    188.7351   4.3502838150e+01   9.8218880723e+00    0.1698132   0.09884398  33.26 0.0008362908    1.541    0.351
        32 -12.5200    109.3844    249.1002   6.6173772965e+01   1.0501450350e+01    0.4168751    0.2545013  41.61  0.002662764    1.323    0.244
        33 -12.3273    109.4171    243.0387   6.5587073709e+01   1.1418578884e+01    0.3300001    0.2124707  39.01  0.001281984    1.213    0.176
        34 -13.1064     57.1262    246.9214   7.6761330599e+01   1.7152930122e+01    0.5369775    0.2164281  32.69  0.002878943    1.844    0.458
        35 -11.9344     41.0355    248.0728   8.0111876590e+01   1.8710853311e+01     0.426096    0.1896552 -88.83  0.002371826    2.794    0.642
        36 -13.9015     28.0927    246.5760   8.2658450478e+01   2.0290089569e+01     1.112208    0.5406727  67.87  0.006773422    1.961    0.490
        37 -12.1902      2.9069    249.5408   8.7683080952e+01   2.2130659326e+01    0.3271557    0.1896559  40.10   0.00180545    1.244    0.196
        38 -14.0960      9.3705    245.5855   8.6342080667e+01   2.2234164242e+01    0.8969617    0.4025615  46.47  0.003921289    1.485    0.327
        39 -14.3063     26.2270    226.5510   8.2229347043e+01   2.4071006003e+01     1.022049    0.4779859 -68.74  0.005768113    2.463    0.594
        40 -14.2614     20.8218    224.3744   8.3306697155e+01   2.5009099042e+01    0.8563305    0.4563563 -75.80  0.005083814    2.079    0.519
        41 -12.3525     48.6572    181.2922   7.3969006480e+01   3.1025366268e+01    0.4439992    0.2927445 -49.35  0.002374726    1.872    0.466
        42 -13.7006    197.2739    179.0676   3.8477711624e+01   8.6238050579e+00    0.6459333    0.4487714 -64.72  0.003083698    3.216    0.689
        43 -11.2201    109.9787    183.0000   5.8238730214e+01   2.2059473491e+01    0.2402734   0.07035627  34.57  0.000409703    2.985    0.665
        44 -11.3495    121.7139    180.2943   5.4941265178e+01   2.0716158810e+01    0.3371392     0.187337  67.10  0.001160819    4.092    0.756
        45 -13.2839     84.9118    176.6365   6.3782522623e+01   2.7249298035e+01    0.9150518    0.3485551 -66.36   0.00344008    3.209    0.688
        46 -13.2673    124.8203    167.9781   5.2129797958e+01   2.2667817544e+01    0.4355689    0.3183314 -78.89  0.002130929    1.957    0.489
        47 -11.2812      2.0906    159.3452   8.5246833456e+01   4.0577665956e+01     0.233655    0.1923266 -82.48   0.00140508    1.218    0.179
        48 -12.0768     26.9241    158.7331   7.8119439183e+01   3.8660548582e+01    0.4461932     0.122713  34.12   0.00171853    2.800    0.643
        49 -12.5684     77.3061    156.9033   6.3122838704e+01   3.2892231295e+01    0.5053816    0.3981205  16.45  0.001390287    1.440    0.305
        50 -13.8291     74.0029    153.3002   6.3552784904e+01   3.4242920870e+01    0.7658344    0.5727398  29.09  0.002323046    1.338    0.253
        51 -12.7286    111.6016    155.5108   5.3312589552e+01   2.7606086902e+01    0.5686891    0.3597026  76.94    0.0022307    2.793    0.642
        52 -12.9611    208.5573    153.8595   3.1620013995e+01   1.0601079007e+01    0.6133605    0.4354264  30.77  0.003583341    1.399    0.285
        53 -12.9602    122.5441    153.9927   5.0154508424e+01   2.5984082064e+01    0.6419216    0.3145042 -42.34  0.002592047    2.294    0.564
        54 -11.7497     55.3623    156.1580   6.9467309004e+01   3.6113447615e+01     0.330817     0.198825   7.68  0.001421909    2.442    0.591
        55 -12.3071     85.8606    152.6462   5.9985407406e+01   3.2580892295e+01    0.5265334    0.2978964 -43.03  0.002255037    2.134    0.531
        56 -12.5294      7.7204    148.7848   8.3117219917e+01   4.2718421105e+01    0.5918531    0.3057223  67.03  0.002950305    1.770    0.435
        57 -10.9025     12.6735    148.6694   8.1627349245e+01   4.2371295654e+01    0.2068164    0.1905034  -0.50  0.001076791    1.340    0.254
        58 -12.0211    103.5675    149.6190   5.4425680977e+01   3.0328705888e+01    0.3897466    0.2952265 -22.20  0.001650464    1.705    0.413
        59 -12.1656     63.0015    146.0021   6.5803826886e+01   3.7600194995e+01    0.2518601    0.1580519  62.52  0.001149005    1.731    0.422
        60 -11.3208    155.4980    157.4944   4.2886090710e+01   1.9263140913e+01    0.2614203    0.1248372  48.98  0.001038016    2.378    0.579
        61 -10.4503     38.2140    145.6168   7.3496105848e+01   4.0754531674e+01    0.1781326    0.1320731  11.22 0.0004802738    1.618    0.382
        62 -12.9082    246.6172    132.8394   2.1527151196e+01   7.5594511213e+00    0.4551918    0.3100415 -34.63  0.002862252    1.311    0.237
        63 -15.0021    230.1497    127.6920   2.2767778249e+01   1.0865236070e+01     1.144336     1.024535 -42.63  0.007673482    1.292    0.226
        64 -10.6143     10.7763    133.8394   8.1232483907e+01   4.6224840042e+01    0.1843173    0.1276265  58.19 0.0004179883    1.316    0.240
        65 -13.0257    136.7589    131.8210   4.1879751359e+01   2.7955268470e+01    0.6869126    0.4605026  45.18  0.003177545    1.459    0.315
        66 -14.8689    104.7897    121.4499   4.8248066643e+01   3.6638015341e+01     2.007252     1.229103  35.07  0.008566753    1.648    0.393
        67 -15.2079    105.9810    105.3495   4.3910553372e+01   4.0143803079e+01     1.647048     1.402593  57.78  0.008185574    1.200    0.167
        68 -12.5146     78.8822    110.6607   5.4059145179e+01   4.4037189722e+01    0.4028737    0.3694012  71.76  0.002130741    1.098    0.089
        69 -13.2540     85.0989    114.8711   5.2924586171e+01   4.1900287711e+01     1.041534    0.5666443  23.32  0.003611432    2.437    0.590
        70 -12.3143     88.3438    109.4844   5.0583679307e+01   4.2631886608e+01    0.6408556     0.383446 -67.58  0.002575805    2.027    0.507
        71 -11.8254    186.1206    115.9023   2.7344892707e+01   2.0828719442e+01    0.2136063    0.1947175 -67.93  0.000622087    1.288    0.224
        72 -12.7147     32.6426    111.6215   7.1192064365e+01   5.0142109321e+01    0.5490278    0.3528055 -73.53  0.002702443    1.461    0.315
        73 -12.0451     42.5675     90.3461   6.3411222895e+01   5.4652403887e+01    0.4195976    0.2611532 -63.72  0.000534252    1.516    0.341
        74 -13.0653     21.2793     86.0274   7.1929206681e+01   5.7922110752e+01    0.7606214    0.4677312   8.73  0.002527295    1.911    0.477
        75 -14.3200     18.3546    110.7093   7.6500322314e+01   5.1648311702e+01      0.86249    0.7187279 -47.30  0.003411763    1.283    0.221
        76 -14.6427     25.3892     93.9391   7.1419638318e+01   5.5495800272e+01     1.618829    0.9612689   3.11   0.00743599    2.144    0.534
        77 -14.2018     11.0030    102.7073   7.8488980424e+01   5.4268827156e+01    0.8446811    0.7016482  40.62  0.005053922    1.259    0.206
        78 -13.6765      2.2782     96.9431   8.1442247772e+01   5.6264978254e+01    0.8952827    0.3354027 -80.17  0.003529599    2.338    0.572
        79 -13.0338    121.4838    111.8793   4.1098759665e+01   3.5414151326e+01    0.4093449    0.3176891  60.57   0.00125639    1.407    0.289
        80 -12.1615    177.1189    110.2681   2.7681420319e+01   2.3670895042e+01    0.3979892    0.2849177 -18.95  0.001932709    1.559    0.358
        81 -12.0478     62.9741    110.4032   5.9638324574e+01   4.6670008504e+01    0.8723788    0.3699407 -70.36  0.002950004    2.956    0.662
        82 -11.2408     64.6770    101.6891   5.7101140100e+01   4.8646186632e+01    0.3367487    0.2448788 -13.69 0.0006837204    1.902    0.474
        83 -12.3121     62.0281     98.7055   5.7415106109e+01   4.9818263600e+01    0.5748993    0.3876593  83.18  0.001930883    1.980    0.495
        84 -11.4432     45.9410    110.1538   6.5917060084e+01   4.9051570235e+01    0.3267775     0.196823 -58.97   0.00149981    1.581    0.368
        85 -12.6702     43.8381    132.8914   7.0148372572e+01   4.3368309213e+01    0.2677715    0.2224515 -36.91 0.0007651477    1.414    0.293
        86 -13.0356    135.7869    102.9377   3.4944739250e+01   3.4186662752e+01    0.9964538     0.358058  49.18   0.00322605    2.827    0.646
        87 -13.3006    137.4066     95.1891   3.2396969340e+01   3.5392296750e+01    0.5841679    0.4823872 -81.77  0.001722476    1.462    0.316
        88 -13.7423    120.1514    102.1970   3.8911842771e+01   3.7823915182e+01    0.7300874    0.4008665  43.53  0.002911963    1.796    0.443
        89 -12.1127     48.9361     93.1488   6.1358524456e+01   5.3118990690e+01    0.5041761     0.328402  68.44  0.001059035    1.942    0.485
        90 -12.6503     51.3879     98.7218   6.1582622434e+01   5.1344993678e+01    0.7685874     0.436156 -23.56  0.002830051    2.983    0.665
        91 -11.9266     46.3448     98.3029   6.3514627796e+01   5.2110258472e+01    0.2829408    0.2540807 -36.38  0.001224108    1.188    0.159
        92 -13.4578    248.4561     94.8325   1.3391885677e+01   1.2301101799e+01    0.8430443    0.2893268 -41.59  0.003671635    2.534    0.605
        93 -12.3624    163.5288     97.7382   2.7180521433e+01   2.8898083936e+01    0.3763141    0.3163472  61.42 0.0005721321    1.268    0.211
        94 -12.8419     28.3115    122.0613   7.4148119668e+01   4.7817293235e+01      0.51337    0.3335223 -58.63  0.002602465    1.513    0.339
        95 -11.8898    129.3044     95.9048   3.4670197892e+01   3.7109933032e+01     0.282871    0.2189023  60.10  0.001256462    1.369    0.270
        96 -11.0771     59.0306    125.0356   6.3795726369e+01   4.3462810094e+01    0.1794709    0.1618967 -80.67 0.0004511579    1.083    0.077
        97 -15.0171    214.2568     76.7971   1.3384977924e+01   2.1167218949e+01     4.229106     1.530093  71.18   0.01257272    5.948    0.832
        98 -13.6220    188.7741     83.8450   1.8854473369e+01   2.5574287134e+01    0.7193262    0.5904884  38.60    0.0024144    1.344    0.256
        99 -14.9129    198.9786     69.8708   1.3675440432e+01   2.5437362470e+01     2.409945    0.9693936  43.85  0.008833405    3.328    0.699
       100 -15.1345    160.3967     80.9440   2.3171354073e+01   3.2631476258e+01     2.248801     1.507069  -6.10  0.005367282    2.277    0.561
       101 -14.7777    169.4359     76.8278   2.0271685518e+01   3.1174332743e+01     1.074089    0.8724959  -1.85  0.003919441    1.501    0.334
       102 -12.7506    132.4734     85.6744   3.0870383271e+01   3.8446343984e+01    0.2894559    0.2635837  67.66  0.001163854    1.121    0.108
       103 -12.3997     36.6676     92.8222   6.6426392196e+01   5.4682368186e+01    0.4339461    0.3021635   1.16  0.001483724    1.791    0.442
       104 -12.4844    181.0212    120.0682   2.9296872494e+01   2.1145356706e+01    0.2617109    0.2157204  27.39   0.00110961    1.254    0.203
       105 -13.7502    239.7159     81.3651   1.1422136056e+01   1.5606968903e+01    0.7090302    0.4523254 -79.95  0.003674769    2.460    0.593
       106 -12.2874      4.2910    119.4103   8.2416416030e+01   5.0338277947e+01    0.5165898    0.2553187   9.41  0.002403238    2.455    0.593
       107 -12.2045     39.9144     67.4408   5.8927901994e+01   6.0814490532e+01     1.094475    0.3882823  27.09  0.003904595    2.984    0.665
       108 -11.7304    209.2193    249.6125   4.7395144530e+01  -1.9075344585e+00    0.1571994   0.07460355  21.81   0.00095449    1.689    0.408
       109 -14.7218    170.1672    242.1802   5.3397391888e+01   3.6530052300e+00     1.031446    0.6032061  21.19  0.006476542    1.386    0.279
       110 -14.0564     88.8123     62.6928   3.6314372848e+01   5.3280691655e+01     1.505541    0.8843086 -18.29  0.004963779    3.113    0.679
       111 -13.1347     70.8179     75.1819   4.7471901386e+01   5.4157201446e+01    0.6714709    0.4976163 -11.58  0.002061848    1.825    0.452
       112 -12.7049     77.7982     72.1396   4.3726603325e+01   5.3535937806e+01     0.751284    0.4276048 -26.28  0.002683785    2.796    0.642
       113 -13.0464     55.3419     80.8193   5.5599447552e+01   5.5362537397e+01    0.6236514     0.444809 -39.51  0.002333495    1.477    0.323
       114 -13.8982     61.1410     75.9170   5.1706501459e+01   5.5659920341e+01     0.867004     0.542859 -44.83  0.001398347    1.604    0.377
       115 -12.0690    113.9665     79.8492   3.4099433060e+01   4.3992653673e+01    0.5096219    0.4148997 -55.48  0.001875962    1.288    0.224
       116 -13.0558    135.3149     79.1261   2.8176211304e+01   3.9035569254e+01    0.8565784    0.4328969  52.74  0.003036884    1.968    0.492
       117 -11.6400     42.5230     79.4815   6.0911471497e+01   5.7460565256e+01    0.3607183    0.2654242 -77.66  0.001268149    1.448    0.309
       118 -11.4039     41.6970     75.9459   6.0392836205e+01   5.8462161714e+01    0.3512721    0.2205209 -68.97 0.0009321082    1.633    0.388
       119 -13.0882    147.5334    238.8731   5.7369022370e+01   7.0326580681e+00    0.2708755    0.2239855  74.96   0.00112098    1.980    0.495
       120 -14.1937      5.5191     63.2092   7.5895400363e+01   6.4833169314e+01    0.7254612    0.6567284  -3.85   0.00370439    1.224    0.183
       121 -11.3717     27.6227     76.3159   6.7143518890e+01   5.9902625923e+01    0.3036453     0.209442  65.57  0.001177782    1.706    0.414
       122 -12.7223    242.0523     71.1756   8.8973670891e+00   1.6511730040e+01    0.4442838    0.2511506 -60.77  0.002270481    2.187    0.543
       123 -13.3347    133.7582     65.9109   2.4347214222e+01   4.1857038403e+01    0.9870355    0.7617788  15.70  0.003927434    1.704    0.413
       124 -12.3589    100.4400     63.9725   3.2863316936e+01   5.0379370794e+01    0.4984684    0.4148847 -11.07   0.00241708    1.426    0.299
       125 -14.3846    177.9977     56.4765   1.3030969063e+01   3.2284912776e+01     1.037137     0.607439 -45.68  0.003144755    1.627    0.385
       126 -11.2694     34.4344     60.5737   5.9704053031e+01   6.3160896599e+01    0.3661683    0.1884329 -43.67  0.001586026    1.914    0.477
       127 -11.8397     38.9788     59.8923   5.7123268451e+01   6.2776291572e+01    0.3553524    0.2254307  67.22  0.001512963    2.432    0.589
       128 -12.4149     36.3351     54.3213   5.6702777799e+01   6.4437489929e+01    0.3940195    0.2350879 -34.14  0.001767191    1.832    0.454
       129 -14.2911    100.7630     49.6136   2.7348280262e+01   5.2998472833e+01     1.008211    0.8999115 -58.37  0.003109385    1.192    0.161
       130 -14.7785    119.2868     54.1721   2.3867803376e+01   4.7576107353e+01      1.14124    0.8098465  48.87  0.002302339    1.383    0.277
       131 -12.8682    144.7470    232.3356   5.7126028681e+01   8.3417433319e+00    0.2713534    0.2328251  -7.12   0.00194446    1.270    0.213
       132 -13.2926    237.3920    230.7736   4.0127739453e+01  -3.0620582826e+00    0.3570994    0.2528611  14.41  0.002772501    1.180    0.153
       133 -13.6117    157.1500     43.6520   1.2399167892e+01   3.9368633341e+01     0.958239    0.6543716  27.42  0.004191014    2.011    0.503
       134 -13.2590    140.5277     21.2949   7.4599189333e+00   4.6614899313e+01    0.8237953    0.3720918  68.38  0.001401686    2.051    0.512
       135 -14.7487     95.1986    235.4313   6.7856955764e+01   1.4472089654e+01     1.120564    0.6842547  64.52  0.006393357    2.080    0.519
       136 -13.9458    112.0094     39.8770   2.0313869587e+01   5.1764932276e+01    0.8992329    0.5650246  24.16  0.003602493    2.325    0.570
       137 -14.1983     66.7392    223.0317   7.3046113042e+01   2.0243560999e+01    0.8222283    0.5967304  36.05   0.00530156    1.136    0.120
       138 -13.2015    248.2763     52.0978   4.0859046221e+00   1.7737006440e+01    0.6907677    0.3380816 -30.21  0.003646257    1.721    0.419
       139 -13.4299     66.4284     48.7708   3.9668355112e+01   6.0808520420e+01    0.7740536    0.6538756 -55.87  0.003015619    1.288    0.224
       140 -11.3275     17.6125     55.0817   6.7458736709e+01   6.6131976511e+01    0.3302094    0.1870759 -70.24  0.001586725    1.700    0.412
       141 -12.0243    230.9270     54.8742   6.2586319862e+00   2.0724188266e+01    0.3657407    0.2143468  72.98  0.001965873    2.002    0.501
       142 -10.5832     23.5451     49.9524   6.2546687123e+01   6.6876283080e+01    0.1984646    0.1238222 -59.92 0.0004216562    1.477    0.323
       143 -11.8644    201.8434     46.8326   7.2716720294e+00   2.7976946111e+01    0.1963358    0.1909252 -10.71 0.0009675497    1.186    0.157
       144 -11.6906     38.8056     46.1757   5.2381414139e+01   6.5993685009e+01    0.2013566    0.1969206 -78.83   0.00115379    1.153    0.132
       145 -14.0604     64.2395    214.3675   7.2922335796e+01   2.2194108761e+01    0.5162033    0.3535041  36.40  0.002419307    1.199    0.166
       146 -13.5351     94.2660    218.3512   6.6384095552e+01   1.7557443681e+01    0.3859845    0.2694678  31.49   0.00161323    1.198    0.165
       147 -15.0051    212.5577     40.6922   4.5702750549e+00   2.6349855678e+01     2.136826    0.6993199  76.18  0.007476341    4.141    0.758
       148 -13.4574     59.3369    212.6742   7.3930027869e+01   2.3120357774e+01    0.5485366    0.3414985 -11.89  0.001193599    3.249    0.692
       149 -10.4656      5.4917    219.4927   8.6445412563e+01   2.7339540348e+01    0.1152162   0.08415139  53.76 -1.082416e-05    1.000    0.000
       150 -12.4440     85.6195    215.6206   6.8082690405e+01   1.9218356594e+01    0.2595786    0.1880831  47.93  0.001444754    1.190    0.159
       151 -13.3000      6.4840     42.8732   7.1217430026e+01   6.9835409865e+01    0.9537112    0.4347595  14.52  0.004439456    2.366    0.577
       152 -13.1195     45.9660     33.1775   4.2644404906e+01   6.7636136405e+01    0.8914306    0.5315779  31.89  0.004237407    1.706    0.414
       153 -12.0203     40.2766     40.1871   4.9085162713e+01   6.7096499524e+01    0.5278987    0.2753001  30.57  0.002353154    1.974    0.493
       154 -13.0733     32.8780     40.4145   5.3524158014e+01   6.8054561974e+01    0.4721813    0.3401546 -30.03 0.0005529117    1.392    0.281
       155 -12.8834     75.9408     36.9791   3.0506651743e+01   6.1025346973e+01     0.625733    0.3679498  49.85   0.00169166    1.653    0.395
       156 -11.5593     70.9610     36.0000   3.2041134872e+01   6.2288145066e+01    0.3350469    0.1945602  46.29  0.001073323    1.663    0.399
       157 -12.0550    181.6007    215.2228   4.7465711721e+01   5.7179515076e+00    0.1607076    0.1023083 -21.98 0.0009543577    1.667    0.400
       158 -12.4474    104.6770     36.0454   2.0692669839e+01   5.4232056524e+01    0.7235129    0.2896184 -21.19  0.002157785    4.095    0.756
       159 -11.9303     24.8276     59.2816   6.4499752212e+01   6.4479753866e+01     0.444233    0.2228513 -51.16  0.001821073    1.770    0.435
       160 -13.3920     56.6562     27.0451   3.3943101411e+01   6.6792705472e+01    0.9524738    0.3318802  45.75  0.002837335    2.792    0.642
       161 -11.9047     64.4826     24.5129   2.9011581729e+01   6.5581418816e+01    0.2893782    0.2449275 -17.97    0.0010023    1.211    0.174
       162 -12.2832    179.7384    196.7337   4.4903512642e+01   8.6452183297e+00    0.2601925    0.2021263  71.14  0.001406707    2.548    0.608
       163 -11.0511     98.0393     26.9992   1.8600117060e+01   5.7223955688e+01    0.3202669    0.1954255  59.28  0.001357715    1.536    0.349
       164 -12.4276     30.7932     25.2962   4.7853345450e+01   7.1496012683e+01    0.4316835    0.2465254  19.19  0.001587467    1.982    0.495
       165 -11.6866     36.1161     22.9274   4.3104716725e+01   7.1170677229e+01    0.3297443    0.2258445 -28.56  0.001356801    1.464    0.317
       166 -11.9205    136.7122    210.9084   5.6010841963e+01   1.2820343503e+01    0.2037998    0.1816188  85.93  0.001141389    1.549    0.354
       167 -12.4460     45.9714     20.0148   3.5565258988e+01   7.0009594286e+01    0.4663835    0.2357906  34.03  0.002051973    2.059    0.514
       168 -13.0124     46.6705    208.8613   7.6626709266e+01   2.5358523067e+01    0.5048465    0.2096636  66.30  0.002187606    2.912    0.657
       169 -13.3379     57.6003    201.7637   7.3460203397e+01   2.5529245708e+01     1.321674    0.4565035 -70.81  0.005556908    3.251    0.692
       170 -11.1262    151.7000    206.0097   5.2095339613e+01   1.1399414906e+01    0.2700698    0.1438143  13.35  0.001174473    2.644    0.622
       171 -12.1381    245.5123     29.5311   3.5929815446e+02   2.0855076755e+01    0.3706512    0.1867888 -35.83  0.002055608    1.557    0.358
       172 -11.2623    175.9675     13.7567   6.9675464133e-01   3.8124691749e+01    0.1880743    0.1574389 -75.66 0.0001978655    1.067    0.063
       173 -13.3881     16.4347    196.7168   8.3153097219e+01   3.0982099684e+01     0.637215    0.2568974 -59.69  0.002939024    2.970    0.663
       174 -11.8812     80.6440    208.4492   6.8529929994e+01   2.1246502211e+01    0.2985677    0.1534965  53.36  0.001461343    1.937    0.484
       175 -13.6666     39.1332    194.8681   7.7487429528e+01   2.9110933885e+01    0.9141769    0.2952277  45.69  0.003921074    2.395    0.582
       176 -11.4560    212.8624    199.8726   3.9311382596e+01   3.5031819694e+00    0.1951724    0.1332699   2.05  0.001243614    1.298    0.230
       177 -13.5892    164.4433    194.3034   4.7592412250e+01   1.1346799011e+01    0.5777895    0.3876202 -61.84  0.002965096    2.478    0.596
       178 -13.1654     21.4206    166.2951   8.0225846733e+01   3.7363396941e+01    0.4941232    0.3255452  -1.06  0.002161496    2.154    0.536
       179 -13.8311     30.2205    168.9136   7.7960388763e+01   3.5900300984e+01    0.8797156    0.5459859 -37.59  0.003326713    2.313    0.568
       180 -13.8164     22.3594    181.0090   8.0874262575e+01   3.3873660291e+01    0.8079028    0.4793124 -51.77  0.003757789    2.123    0.529
       181 -15.1950      8.3622    183.1121   8.4561054338e+01   3.4638687708e+01     1.194732    0.9988233  63.08  0.008233505    1.065    0.061
       182 -15.2181     15.6216    174.9721   8.2309287595e+01   3.5859125046e+01     2.079333    0.6410249  48.52  0.008797177    2.550    0.608
       183 -12.3825    201.1185    191.2145   3.9924992775e+01   6.3031450789e+00    0.3119968    0.2114958   4.57  0.001453534    1.419    0.295
