#   1 NUMBER                 Running object number                                     
#   2 MAG_AUTO               Kron-like elliptical aperture magnitude                    [mag]
#   3 X_IMAGE                Object position along x                                    [pixel]
#   4 Y_IMAGE                Object position along y                                    [pixel]
#   5 X_WORLD                Barycenter position along world x axis                     [deg]
#   6 Y_WORLD                Barycenter position along world y axis                     [deg]
#   7 A_WORLD                Profile RMS along major axis (world units)                 [deg]
#   8 B_WORLD                Profile RMS along minor axis (world units)                 [deg]
#   9 THETA_WORLD            Position angle (CCW/world-x)                               [deg]
#  10 FWHM_WORLD             FWHM assuming a gaussian core                              [deg]
#  11 ELONGATION             A_IMAGE/B_IMAGE                                           
#  12 ELLIPTICITY            1 - B_IMAGE/A_IMAGE                                       
         1 -12.3919    125.6692     28.2540   3.6599980317e+01   4.9634105549e+01    0.6788629     0.622647   4.85  0.004018201    1.061    0.057
         2 -12.5147    119.7917     37.7450   4.1440679218e+01   4.9665525946e+01    0.9108506    0.5359885 -53.51  0.002687001    2.443    0.591
         3 -12.2080    160.0038     29.9353   2.9994625805e+01   4.1146904852e+01    0.5494143    0.5025854  20.64 0.0004819598    1.119    0.107
         4 -11.7599    106.1091     20.8618   3.8716485931e+01   5.4839560223e+01    0.4643377    0.4248359 -61.81   0.00204735    1.412    0.292
         5 -12.1106     26.9928     27.7714   6.8868546997e+01   6.5939502382e+01    0.4587013    0.3422783 -28.96 0.0009264654    1.050    0.047
         6 -12.2887     20.2334     21.8851   6.9571220009e+01   6.7526537472e+01    0.5291513    0.2226167 -42.49  0.001950422    1.824    0.452
         7 -11.2898     36.3183     18.8191   6.1549450694e+01   6.6463506164e+01    0.7343215    0.3274505 -40.30  0.003905515    1.907    0.476
         8 -12.1429     48.3693     12.9928   5.4191036974e+01   6.5847879803e+01    0.5745596    0.2843466  37.92  0.003117634    2.169    0.539
         9 -10.7741     22.1394      4.4450   6.1505609485e+01   7.0066344329e+01    0.2638673    0.1502743 -45.26   0.00109477    1.893    0.472
        10 -12.5336     16.0823     14.3808   6.8526893402e+01   6.9098417714e+01    0.8140674    0.4431611 -25.49  0.003158092    1.641    0.390
        11 -11.8198     22.5002     11.2273   6.4333844504e+01   6.9033053357e+01    0.3985294    0.2457902 -14.47  0.001450723    1.527    0.345
        12 -11.0476    147.8927     16.3349   2.7762503128e+01   4.5732417494e+01    0.8760082    0.3006436  36.05  0.002478091    4.961    0.798
        13 -11.6085    122.2996      5.2690   2.8888026883e+01   5.2937642267e+01    0.3727289    0.3054973  -5.82  0.001237212    1.259    0.205
        14 -11.1214    121.1242     11.9212   3.1639724841e+01   5.2554429635e+01    0.8832053    0.2568168  53.82  0.002739587    2.840    0.648
        15 -11.7590    135.7084     22.5531   3.2324928251e+01   4.7989861110e+01    0.7940671     0.444666  45.79  0.003684484    1.650    0.394
        16 -11.2854    134.5662     14.7970   2.9821116841e+01   4.9124392046e+01    0.5616475    0.3520383  53.04  0.002819982    1.437    0.304
        17 -11.4067    127.6980     16.0853   3.1730727438e+01   5.0602056648e+01    0.4657452    0.3415625   6.22  0.001519629    1.477    0.323
        18 -11.0585     90.8868     21.9864   4.3426992372e+01   5.7746298181e+01    0.4708781    0.2581645 -25.14  0.001990065    1.793    0.442
        19 -11.8815     86.2483     14.0295   4.1550621772e+01   5.9607248804e+01    0.9002621    0.4196724 -36.39  0.003526339    2.273    0.560
        20 -11.0387    179.0069     20.8344   2.3983690056e+01   3.7397629237e+01    0.5673271    0.2584999  38.21  0.001821665    2.817    0.645
        21 -13.1258    163.9524     18.9119   2.5781645439e+01   4.1441294189e+01    0.4862479    0.2943872  36.83  0.001681553    1.794    0.443
        22 -12.0095     67.8671     18.0883   4.9207123341e+01   6.2296316747e+01    0.4761877    0.4015884  29.62  0.001963095    1.267    0.211
        23 -12.6255    245.4348     17.5218   1.5193710188e+01   2.1371384227e+01     0.629285    0.1559289 -36.53  0.002326546    3.164    0.684
        24 -12.1544    228.8037     15.9779   1.6445440609e+01   2.5461519537e+01    0.4573321    0.2687494  73.82 0.0004283453    1.646    0.392
        25 -10.9555    225.3315     12.6986   1.5987302517e+01   2.6661838885e+01    0.2607834    0.2150708 -69.35 0.0006720141    1.135    0.119
        26 -12.4089    104.7480     12.7984   3.5905044671e+01   5.6054163469e+01    0.5734216    0.3595447 -21.23  0.002241882    1.610    0.379
        27 -11.2976    106.0531      2.5723   3.1488887909e+01   5.6800097598e+01    0.4492127    0.3701641  72.70  0.001650695    1.477    0.323
        28 -11.5463    115.3349      2.5693   2.9360255619e+01   5.4762790975e+01    0.5309674    0.2700994  60.99  0.002505858    1.914    0.478
        29  -9.9634     98.2980     12.4831   3.7478627691e+01   5.7424731977e+01    0.3129281    0.1534933 -10.38  0.001337686    2.562    0.610
        30 -11.3983    192.3985      8.3308   1.8520958916e+01   3.5313360994e+01    0.6358519     0.356481   8.05  0.002629054    2.940    0.660
        31 -10.4725      5.0404     10.8824   7.2268103831e+01   7.0472786713e+01    0.3664257    0.1723499 -43.20  0.001746014    1.559    0.358
        32  -9.6989      1.0000      8.6716   7.3345592974e+01   7.1086620552e+01    0.2811271   0.04659734 -52.13  0.001031636    4.757    0.790
        33 -11.2411    211.8590      9.5768   1.6607376130e+01   3.0299123791e+01    0.5838985    0.3469453   8.79   0.00254104    2.809    0.644
        34 -10.3600     88.8499      7.4558   3.8015661181e+01   5.9845170319e+01    0.2998704    0.1927951  -2.16  0.001039023    1.608    0.378
        35 -11.9141    247.5810      5.4890   1.2243717281e+01   2.2208235081e+01    0.3803478    0.2566126  50.20  0.001726471    1.734    0.423
        36 -10.3425    169.3366      9.4314   2.1966660996e+01   4.1064384684e+01    0.4083396    0.1607633  49.84  0.001616353    2.333    0.571
        37 -10.7193    145.4359      9.5637   2.5915781216e+01   4.7027495904e+01    0.2682289    0.2028186  31.34  0.000541167    1.327    0.246
        38 -10.1404     65.4599     10.3464   4.6681191794e+01   6.3677041940e+01    0.2699384    0.1772178  46.72  0.001398158    1.749    0.428
        39 -10.0147     62.8234      6.6952   4.5960748262e+01   6.4537354274e+01    0.2428262    0.1562203  -0.04  0.001405012    1.543    0.352
        40 -11.5991    232.9650      7.6799   1.4023524650e+01   2.5371719289e+01    0.3026119    0.2320288  73.55   0.00108802    1.242    0.195
        41 -12.0516    237.1579      5.1874   1.3056337785e+01   2.4646111784e+01    0.3271044    0.2460143 -60.96  0.001262757    1.222    0.182
        42 -11.1589    233.3741      2.4066   1.2731512224e+01   2.5823114525e+01    0.2631637    0.2080465 -82.53 0.0001800694    1.146    0.128
        43 -11.1581    183.9925      5.6344   1.8809731926e+01   3.7710664049e+01    0.4130538    0.2632692 -52.44  0.001924778    1.715    0.417
        44  -9.6389     77.9962      7.4957   4.1277470430e+01   6.1871268642e+01    0.2182031    0.1199264  52.13 0.0009396428    2.005    0.501
        45 -11.2282     74.3876      3.6354   4.0699415268e+01   6.2932866092e+01    0.5072638    0.2729448  44.28  0.002733981    1.757    0.431
        46 -11.1425    176.8239      5.8236   1.9810193205e+01   3.9513048962e+01    0.3868386    0.2214365  79.31 0.0008607128    1.814    0.449
        47  -9.6922    163.6584      5.8608   2.1702193732e+01   4.2842493353e+01    0.2189547    0.1614373  26.79  0.001163202    1.500    0.333
        48 -10.3612    137.6920      4.3442   2.5517551488e+01   4.9398839374e+01    0.2138584    0.1870773  11.55 0.0004942151    1.174    0.148
        49 -12.3116    132.8467      2.7798   2.5865421962e+01   5.0697352987e+01    0.9159696    0.2780651  63.03  0.003294526    3.025    0.669
        50 -11.2222    223.8036      2.3262   1.3573939240e+01   2.8116177679e+01    0.2591192    0.2119492  67.03 0.0007211399    1.201    0.167
        51 -10.8554    218.5862      3.5657   1.4378512446e+01   2.9258425195e+01    0.2618579    0.2540427  14.18 0.0009852581    1.226    0.185
        52 -11.1120    206.3608      2.8306   1.5431429508e+01   3.2346243682e+01    0.4189565    0.2765001  85.09   0.00198691    1.465    0.317
        53 -10.5463    158.2068      2.5290   2.1468589686e+01   4.4514974419e+01    0.3437461    0.2189438  24.00  0.001689813    1.859    0.462
        54 -11.0867      2.5803      1.9343   6.9822438076e+01   7.2045088393e+01    0.2570617    0.1484285  -6.96  0.001468275    1.751    0.429
        55  -9.8208    152.2876      1.3845   2.2016883513e+01   4.6089713029e+01    0.2523321    0.1122903  61.64 0.0006174223    1.925    0.481
        56 -10.1271     41.4414      4.1930   5.2954396926e+01   6.7921626833e+01    0.2706367    0.1569974  -6.99  0.001178326    1.811    0.448
        57 -10.5286     82.1854      1.3270   3.7288648692e+01   6.1741960785e+01    0.1915408    0.1039527  47.68 0.0003270778    1.721    0.419
        58  -9.8559     12.6806      1.6035   6.4681983442e+01   7.1330912189e+01    0.1817026   0.09337283  16.26  0.001124319    2.117    0.528
        59 -10.4510    104.6070    154.5752   7.6320255215e+01   2.9402661811e+01     0.278754    0.2396095 -32.19  0.001609894    1.440    0.305
        60 -11.4545    248.7320    249.7176   6.4225474154e+01  -1.0527884635e+01    0.3197592    0.2713146  65.91  0.002259783    2.262    0.558
        61 -10.7084    242.4080    247.8116   6.4956891299e+01  -9.4257749348e+00    0.2276201    0.1245182   8.90  0.001160595    2.214    0.548
        62 -11.0627     50.3092    249.3183   9.7077679261e+01   1.9062169673e+01    0.2767018   0.09592341  56.53  0.001534325    2.300    0.565
        63 -12.2268     22.5734    149.2380   9.4162926649e+01   4.1067225443e+01    0.4676793    0.2734714 -38.92  0.002611519    2.629    0.620
        64 -10.2263    141.3607    152.3799   6.7563368326e+01   2.3162858535e+01    0.2999778    0.2064578  56.81  0.001185604    1.507    0.336
        65 -10.2553     30.8986    152.1520   9.2657768163e+01   3.9666126306e+01    0.2226372    0.1668955  76.06  0.001513777    1.199    0.166
        66 -10.0198      3.5164    153.0511   9.8507634349e+01   4.1842520335e+01    0.2048665    0.1190696  58.63  0.001363137    1.658    0.397
        67  -9.9500     64.1770    150.3176   8.4967415067e+01   3.6313791012e+01    0.2222198    0.1212953  26.14  0.001064725    2.566    0.610
        68 -11.2088     47.8523    146.6960   8.8227929748e+01   3.9069523246e+01    0.4312533    0.3739975 -30.43  0.002485514    1.565    0.361
        69 -10.2840      3.1679    147.3905   9.8122700157e+01   4.3040475602e+01    0.1827248    0.1149381 -73.35 0.0006226396    1.260    0.206
        70  -9.9799    250.2854    146.6530   4.4889572626e+01   1.9212361327e+00    0.1283581    0.1045593 -56.95 0.0006648282    1.651    0.394
        71  -9.6699     74.1285    146.0939   8.2020480122e+01   3.5913268351e+01     0.190028    0.1646714 -47.91 0.0005279163    1.308    0.235
        72 -10.8638    233.4203    143.8408   4.7132930071e+01   5.6291115160e+00    0.3809411    0.2707968  86.29  0.001664929    2.794    0.642
        73 -11.6334      5.8561    142.0742   9.7096950032e+01   4.3952657617e+01    0.2483039    0.1853054 -86.15 0.0003306542    1.015    0.015
        74 -11.0944      1.6917    141.8260   9.7968594708e+01   4.4306904009e+01    0.3566785    0.1158127 -70.12  0.001820693    2.251    0.556
        75 -11.0483     33.1509    144.3980   9.1296721452e+01   4.1113776720e+01    0.2475011    0.1923293  85.43 0.0007606071    1.122    0.109
        76 -10.1595    217.1336    138.7132   4.8908322610e+01   9.8079539377e+00    0.2355733    0.1965038 -41.79 0.0005904162    1.271    0.213
        77  -9.7412     79.2699    138.0271   7.9466174444e+01   3.6970442689e+01    0.1935693    0.1603933 -72.13  0.001113688    1.101    0.092
        78 -10.1378     40.1910    137.9366   8.8874167661e+01   4.1813974321e+01    0.2362637    0.1455173  61.40  0.001097921    1.743    0.426
        79  -9.9919     32.0690    137.5262   9.0728941282e+01   4.2711874098e+01    0.2176794    0.1802612  41.98  0.001060949    1.418    0.295
        80 -11.4441     22.4942    136.0201   9.2774692512e+01   4.3910240528e+01    0.4480703    0.3058815  53.18  0.002974479    1.548    0.354
        81 -11.2519     30.1599    133.1158   9.0635845493e+01   4.3854667499e+01    0.3326443    0.2179708 -52.24 0.0006742004    1.549    0.354
        82 -11.2291     12.4191    136.3869   9.5111188555e+01   4.4658637698e+01     0.404705    0.2409774 -56.61  0.002174431    1.607    0.378
        83  -9.4724     47.3908    135.1583   8.6776940782e+01   4.1657166469e+01    0.1785238    0.1027245 -78.43 0.0008521705    1.673    0.402
        84  -9.9771     73.4983    133.5345   8.0115513722e+01   3.8783318911e+01    0.2817489    0.1180837 -59.77  0.001211947    2.169    0.539
        85 -10.0260     39.5343    133.3798   8.8426707998e+01   4.2883498708e+01    0.1827916    0.1741033 -88.78 0.0004595324    1.208    0.172
        86 -10.8684     15.9921    147.8929   9.5451286114e+01   4.1924251192e+01    0.2263581    0.1852464  60.62  0.001035164    1.288    0.223
        87  -9.0503    103.7257    130.7027   7.2055095194e+01   3.4736625149e+01    0.1328964    0.1097011 -22.41            0    1.528    0.346
        88  -9.7047     93.1389    129.6341   7.4485532760e+01   3.6725811082e+01    0.2018466    0.1711119 -82.02  0.001151421    1.178    0.151
        89 -10.9000     10.1696    128.0226   9.4762169403e+01   4.6618576597e+01    0.4133533    0.1984214 -55.36  0.002313877    1.900    0.474
        90  -9.8340      2.0645    126.0512   9.6444825071e+01   4.7605259021e+01     0.177279    0.1049702  76.10 0.0007537275    1.667    0.400
        91 -12.5918    103.9165    122.4712   7.0281172784e+01   3.6510475812e+01    0.3009308    0.2994631  40.39 0.0004443509    1.092    0.084
        92  -9.4988     84.8473    123.3387   7.5355431195e+01   3.9416101163e+01    0.1767096    0.1291068  24.50 0.0003585344    1.708    0.415
        93 -10.4282     49.7839    123.1413   8.4371898335e+01   4.4061854649e+01    0.2222673    0.1850783   5.96   0.00140893    1.627    0.386
        94  -9.3798     56.3269    121.9730   8.2494405721e+01   4.3570509933e+01    0.1807608    0.1432255 -69.11 0.0004572595    1.093    0.085
        95 -10.2460     48.7277    112.2941   8.2834719398e+01   4.6596028338e+01    0.3579352    0.1867336 -54.28  0.001850609    1.650    0.394
        96  -9.8782     44.6852    120.3010   8.5231825101e+01   4.5247244705e+01    0.1893552    0.1468712  65.96 0.0008308783    1.385    0.278
        97 -10.4499     43.8144    116.7779   8.4895625939e+01   4.6122129265e+01    0.3120134    0.2162858 -83.73  0.001000337    1.430    0.301
        98 -10.3290      7.3761    114.9094   9.3980350839e+01   4.9631658621e+01      0.27495    0.1860888 -71.21 0.0007202192    1.130    0.115
        99 -12.1186      2.4652    111.7936   9.4846701137e+01   5.0617300549e+01    0.4468613    0.2077109 -75.77 0.0007614431    1.695    0.410
       100 -11.1716      4.3990    105.1150   9.3564963184e+01   5.1926107073e+01    0.3288931    0.2685604  57.32  0.002491097    1.421    0.296
       101  -9.8314     79.1462    114.5781   7.5081948911e+01   4.2214532739e+01    0.2556745    0.1780545 -57.42  0.001218479    1.308    0.235
       102  -9.6856     68.0975    115.1041   7.8145731640e+01   4.3631789186e+01    0.2633122    0.1679714  89.10  0.001253663    2.159    0.537
       103  -9.7903     66.2270    110.8217   7.7811082232e+01   4.4832572149e+01    0.2160278    0.1736286  55.40 0.0007615763    1.374    0.272
       104 -12.2862      7.1088     89.1979   9.0655860972e+01   5.5164002972e+01    0.5072405    0.3809172  13.50 0.0006344132    1.765    0.433
       105 -12.0241     17.5158    101.0258   8.9503772520e+01   5.1921652484e+01    0.4438656    0.3152628 -77.30  0.001240628    1.208    0.172
       106 -11.8833      9.4399     97.4521   9.1203034237e+01   5.3251505413e+01    0.3943193    0.3929923 -87.12  0.003240706    1.300    0.231
       107 -12.1696     25.1269    107.1957   8.8361560164e+01   4.9982148399e+01    0.8456556    0.6060684 -21.03  0.005332867    1.916    0.478
       108 -11.3293     28.1785    113.1330   8.8433953823e+01   4.8420261207e+01    0.4360986    0.2500767  15.14  0.002412197    2.557    0.609
       109 -11.5652     22.4986     94.4814   8.7077034412e+01   5.2965713078e+01     0.292331    0.2415185 -37.69  0.001218424    1.319    0.242
       110 -11.7746     18.0719     90.7460   8.7733406846e+01   5.4104669802e+01    0.4464524    0.2347021 -62.31 0.0005155844    1.458    0.314
       111  -9.7455     93.8759    112.3552   7.0669167716e+01   4.0427863679e+01    0.2503922    0.1843315 -65.05  0.001013323    1.381    0.276
       112  -9.8095    170.6462    110.2023   5.1330431484e+01   2.5318124588e+01    0.2636899    0.1974972 -26.56 0.0006899462    1.444    0.307
       113  -9.1635    120.2793    109.3478   6.3054604103e+01   3.6337754717e+01    0.1478558    0.1156941 -13.73 0.0007010223    1.639    0.390
       114 -10.4592    102.0845    109.1232   6.7742760782e+01   3.9746956549e+01    0.2179588    0.1942856 -15.54 0.0005004922    1.275    0.216
       115 -11.3776     79.8615    108.0744   7.3507334868e+01   4.3553325948e+01    0.4620732    0.2856829  29.58 0.0006752929    1.931    0.482
       116 -11.4506     21.4169    114.4671   9.0375296290e+01   4.8692629576e+01    0.3430743    0.2375704  -9.17  0.001298084    2.223    0.550
       117 -10.3341     13.4815    108.4765   9.1627428687e+01   5.0597435338e+01    0.1671383     0.130459 -68.83 0.0007301195    1.046    0.044
       118  -9.1924    175.6741    106.6896   4.9344474745e+01   2.4819859145e+01    0.1582831     0.120433  12.87 0.0007039655    1.658    0.397
       119  -9.5996    143.4757    105.9815   5.6445501659e+01   3.2247449982e+01    0.2330205    0.1479813 -44.55  0.001021601    1.571    0.364
       120 -10.4193     86.7555    104.1554   7.0728685165e+01   4.3369303984e+01    0.3813413     0.180764  45.05  0.001628665    2.312    0.568
       121 -10.7507     52.0048     99.0724   7.9436950163e+01   4.9164524154e+01    0.6028619    0.2339595 -47.15  0.002593652    2.404    0.584
       122 -11.5170     69.1758     95.6776   7.3741712316e+01   4.7787317385e+01      0.43136    0.3270576 -22.20  0.002397972    1.598    0.374
       123 -10.3939     49.2206     91.2364   7.8625771645e+01   5.1189969569e+01    0.2924436    0.2367464  62.93  0.001824661    1.483    0.326
       124  -9.6671     28.1159     99.8823   8.6383192536e+01   5.1333954493e+01    0.1884051    0.1184646 -42.29 0.0005439656    1.639    0.390
       125 -10.5273     30.8589     95.9083   8.4921808140e+01   5.1967026959e+01    0.3578185    0.2351715 -79.26  0.001633491    1.520    0.342
       126 -11.3428     27.4261     86.0622   8.4127699430e+01   5.4392121947e+01    0.4519956    0.4029269 -39.22   0.00167418    1.198    0.165
       127 -11.1276     34.8933     91.9610   8.3021450877e+01   5.2467424322e+01    0.6612162    0.2870196 -67.86  0.003092314    2.196    0.545
       128 -11.5319     44.1245     85.4471   7.8917234184e+01   5.2983634065e+01    0.4399771    0.4173269  72.69  0.002002707    1.228    0.186
       129 -10.5339     37.2810     85.9141   8.1106811677e+01   5.3556134189e+01    0.2491252    0.2060647  21.23  0.001241441    1.467    0.318
       130  -9.2019    145.6951     99.6593   5.4244044215e+01   3.3026046229e+01    0.1564169    0.1211616   2.57 0.0007040865    1.680    0.405
       131 -10.6110     80.8127     98.1861   7.0990099926e+01   4.5583439329e+01    0.5053849    0.2598662  57.35  0.002008575    3.029    0.670
       132 -11.1585     83.0356     93.0317   6.9100101270e+01   4.6360811019e+01     0.472908    0.3202595  54.64 0.0003398395    1.788    0.441
       133 -10.3394     77.4999     93.0000   7.0691801139e+01   4.7198274818e+01    0.4043307    0.2419474  37.35  0.001750945    1.842    0.457
       134 -10.5762     42.8074     94.9421   8.1276759366e+01   5.1054725300e+01    0.3572147     0.226458 -59.79  0.001763073    1.312    0.238
       135 -11.8330    125.7895     94.9506   5.7904875376e+01   3.8231608875e+01    0.2666121    0.2424458 -32.16 0.0002168191    1.090    0.082
       136 -10.2539    122.0000     93.9715   5.8619360625e+01   3.9203058721e+01    0.2755977    0.2102752 -42.92 0.0009852626    1.276    0.216
       137 -11.4088     98.5327     91.0722   6.4188736756e+01   4.4231699640e+01    0.2519452     0.241604  39.24  0.001485242    1.110    0.099
       138 -11.6168     89.4244     89.9056   6.6464953198e+01   4.6015622568e+01    0.4837945    0.3041987 -36.82   0.00201038    1.632    0.387
       139 -10.0676     66.3080     88.6387   7.2929705625e+01   4.9695725142e+01    0.3213854    0.1976003 -18.46  0.001382133    2.609    0.617
       140 -10.1361    104.1316     87.3821   6.1625214157e+01   4.3997707663e+01    0.2578933    0.1886849 -34.94  0.001297065    1.364    0.267
       141 -10.7007     80.5080     83.9813   6.7509076939e+01   4.8669772006e+01    0.3795769    0.3234861 -34.03  0.001865206    1.122    0.108
       142 -11.3347     74.7987     78.2879   6.7700010481e+01   5.0706658825e+01    0.5201824    0.4767688  64.59   0.00270708    1.294    0.227
       143 -10.9865    143.2262     84.5031   5.0619261711e+01   3.6520800777e+01    0.2645151    0.2480787 -29.70 0.0003386936    1.057    0.054
       144 -10.7070    113.0536     82.9566   5.7920462004e+01   4.3206213414e+01    0.4039279    0.3341507  88.29  0.002067866    1.582    0.368
       145  -8.9860    165.3369     83.6832   4.5319450936e+01   3.1512293961e+01    0.1581304    0.1224481 -77.13 0.0007048323    1.699    0.412
       146 -10.2216     67.1388     81.7301   7.0960066779e+01   5.1058034005e+01    0.3304447    0.2661102  -5.80  0.001931401    1.468    0.319
       147 -11.4398     58.2855     77.8259   7.2711922379e+01   5.3015375619e+01    0.3102494    0.2290468 -43.81 0.0008137357    1.184    0.156
       148 -11.6873     53.3965     76.5798   7.3943472979e+01   5.3859191340e+01    0.5136998    0.3449103 -58.35  0.002530669    1.370    0.270
       149  -9.2958    135.9163     78.0312   5.0513460396e+01   3.9374932849e+01    0.1794619    0.1629774  43.22 0.0003017894    1.109    0.098
       150 -11.8058     13.9755     74.3435   8.6068042504e+01   5.7876347762e+01    0.5029941    0.3187928 -69.83  0.002505657    1.374    0.272
       151 -10.3592     14.2087     67.5382   8.4648563302e+01   5.9278292470e+01    0.2787359    0.1940966  22.74  0.001888461    1.798    0.444
       152 -10.0728    233.5009     77.5207   3.1311403916e+01   1.6092102710e+01    0.1421657    0.1349965 -39.36 0.0004000471    1.001    0.001
       153 -12.5551     75.7796     52.8855   5.9693169233e+01   5.5517826072e+01     1.229501    0.7893709 -53.66  0.006273959    1.801    0.445
       154 -10.4641     95.1495     76.6137   6.1128652478e+01   4.7789166048e+01    0.4180372    0.2359178  49.40  0.001538986    2.050    0.512
       155 -11.6277     86.2704     73.3865   6.2819638319e+01   4.9933419689e+01    0.8509699    0.4324471  34.50  0.003771715    2.206    0.547
       156 -11.0664     79.6124     68.1678   6.3313584896e+01   5.2028581791e+01    0.5345718    0.3419697  59.75  0.002498382    2.396    0.583
       157 -11.0761      2.0305     71.6908   8.9373794070e+01   5.9134240649e+01    0.3501344    0.1407792 -61.76  0.001544079    1.758    0.431
       158 -11.4596    186.8216     71.0280   3.7369872813e+01   2.8417065772e+01    0.6674648    0.3925642 -38.46  0.002197023    1.685    0.406
       159 -10.1965     24.6737     73.6250   8.2495216562e+01   5.7257868094e+01    0.2356626    0.1839685 -37.99 0.0008018569    1.231    0.187
       160 -10.0842     29.0016     72.0000   8.0735942271e+01   5.7247906453e+01     0.218194    0.1635968  41.95  0.001071723    1.663    0.399
       161 -11.1433     34.9547     71.5681   7.8687295406e+01   5.6817088414e+01    0.4429629     0.265123  24.24  0.002565474    2.019    0.505
       162 -11.0283     41.0384     72.9892   7.7036759274e+01   5.5940259842e+01    0.2892776    0.2475988 -29.28  0.001189571    1.177    0.151
       163 -11.0167     39.8856     69.4745   7.6555743844e+01   5.6784715756e+01    0.2408885    0.1903164   8.95 0.0008622952    1.497    0.332
       164  -9.3715    153.2575     72.6330   4.4778707132e+01   3.6362466720e+01    0.2240193    0.1345483  41.79 0.0009405338    1.711    0.416
       165 -11.1870    122.9419     68.9976   5.1077543012e+01   4.3861492146e+01    0.4651784    0.3105952  37.76  0.001468581    1.552    0.356
       166  -8.9920     46.6907     70.3108   7.4519992786e+01   5.5912518468e+01    0.1175176   0.09540743  88.95 0.0001556962    1.622    0.384
       167 -10.7807    220.0059     66.7083   3.0573580939e+01   2.0914446194e+01    0.4312539    0.2601444  66.05   0.00193612    1.792    0.442
       168 -11.8776      9.8993     62.1533   8.4978483429e+01   6.0655209334e+01    0.4370113    0.2809616 -59.19    0.0015417    1.197    0.164
       169 -12.1402      4.6535     61.9988   8.6726094409e+01   6.0987362205e+01    0.4391272    0.2961925 -56.23  0.001683266    1.102    0.093
       170  -9.7667    103.8053     74.4931   5.8006810122e+01   4.6644419181e+01    0.2665894    0.1407336  48.02  0.001137429    2.074    0.518
       171  -9.9415    105.8892     63.8679   5.4117929701e+01   4.8259467832e+01    0.2276472    0.1912834   1.81  0.001235202    1.260    0.206
       172 -11.3051     92.8157     63.0250   5.7671804631e+01   5.0829840485e+01    0.6851043    0.3102431  49.79   0.00257651    2.701    0.630
       173 -10.4840     87.6716     56.6391   5.7165103404e+01   5.2898314919e+01    0.5076076    0.1781475 -35.32  0.001791167    3.091    0.677
       174 -10.2414     91.6721     57.1565   5.6110067843e+01   5.2109745944e+01    0.3199125    0.2216603  46.06 0.0007293388    1.588    0.370
       175 -10.4349     59.1459     63.1298   6.8417646097e+01   5.5910536508e+01    0.2901181    0.2284681 -64.29 0.0009322558    1.460    0.315
       176 -12.2334     26.8333     56.0083   7.7616331887e+01   6.0693910526e+01     1.140992    0.7195768  -2.92  0.006793829    2.029    0.507
       177  -9.2598     51.1536     56.3435   6.9121134625e+01   5.8213560797e+01    0.2898925    0.1824747  17.39  0.001008559    1.917    0.478
       178 -10.6574     51.6898     48.3945   6.6444962028e+01   5.9657576598e+01    0.3075677    0.2570592 -16.85 0.0008706878    1.117    0.105
       179 -11.2924     40.9190     57.0124   7.2894922825e+01   5.9200837975e+01    0.3560655    0.2146767  41.37  0.001914523    2.107    0.525
       180 -11.4170     45.3715     48.4444   6.8734226746e+01   6.0377667720e+01     0.419115     0.330095 -39.77  0.001755197    1.082    0.076
       181 -10.4936     51.6033     61.8243   7.0575298212e+01   5.7085177505e+01    0.2659899    0.2196812  43.79  0.001692801    1.492    0.330
       182 -11.3795     43.4804     62.4183   7.3509353911e+01   5.7860840672e+01    0.2996335    0.1913726 -52.76 0.0005575094    1.346    0.257
       183 -11.1606     46.3459     59.0168   7.1572908658e+01   5.8233345552e+01    0.3776239    0.2587138 -64.02  0.001245009    1.652    0.395
       184  -9.7552    158.1582     62.9838   4.0774706327e+01   3.6821824965e+01    0.5065367       0.1478  44.07   0.00143135    3.902    0.744
       185 -11.4740    234.9656     60.8475   2.6927066297e+01   1.8216429531e+01      0.41471    0.3670987  65.43  0.001718944    1.172    0.147
       186  -9.6782     65.2347     61.0951   6.5789324825e+01   5.5508910541e+01    0.3808049    0.1403213 -51.90  0.001495223    2.734    0.634
       187  -9.5046    142.6661    249.6880   8.2030296609e+01   5.9961505555e+00    0.1087999   0.08106909  23.49 0.0007044664    1.681    0.405
       188 -11.9099    117.1825     55.1570   4.8140180043e+01   4.7509713562e+01     1.331083    0.8494872 -67.01  0.005282662    2.906    0.656
       189 -10.9670    109.4954     41.7100   4.5579834000e+01   5.1271560744e+01     0.987363    0.3450225 -33.87  0.003614085    2.820    0.645
       190 -12.1695    117.8420     43.9636   4.4138351459e+01   4.9168328007e+01      0.60698    0.5728515  57.47  0.003254115    1.191    0.160
       191  -9.2818    229.4800    248.4271   6.7165178366e+01  -7.5668010783e+00    0.1149306    0.0841138  26.10 0.0001641195    1.021    0.020
       192  -9.5545    113.6061     60.7093   5.0941761292e+01   4.7293691591e+01    0.2871759    0.1354372 -34.02  0.001143386    2.151    0.535
       193 -10.9105    106.1648     58.5205   5.2300450942e+01   4.9167966960e+01    0.3075364       0.2459 -84.87  0.001210607    1.883    0.469
       194  -9.5125    135.6393     58.1594   4.4416314337e+01   4.2948842957e+01     0.214745    0.1379409 -20.50 0.0009395336    1.781    0.439
       195 -10.0322    156.9027     54.2337   3.8337520984e+01   3.8523996975e+01    0.6264302    0.3809462 -70.61  0.002286469    3.015    0.668
       196 -11.8763     42.8063     44.0420   6.8258960929e+01   6.1475876777e+01    0.5641732    0.2735879  28.50  0.002932787    2.354    0.575
       197 -10.0750     66.9088     54.3635   6.3115743985e+01   5.6559097708e+01     0.306511    0.1768668 -56.63  0.001467076    2.105    0.525
       198 -10.2223      7.5902     54.5706   8.4141155227e+01   6.2321990499e+01    0.1996763     0.153965 -61.36 0.0007343437    1.147    0.128
       199 -11.7433     60.5211     47.1990   6.2928782565e+01   5.8753246417e+01    0.9403194    0.3771655 -45.44  0.004167676    2.236    0.553
       200  -9.8621     59.5263     23.5592   5.4459235550e+01   6.2791663057e+01    0.2618631    0.1291107 -38.87 0.0009419498    1.909    0.476
       201 -11.4342     60.6878     36.3280   5.9016779860e+01   6.0617799745e+01    0.4059806     0.268581 -30.50  0.001307833    1.329    0.247
       202 -10.4438     67.1071     32.4253   5.5274107395e+01   6.0318510527e+01     0.427993    0.3863017 -49.79  0.002789305    1.434    0.303
       203 -10.3466     43.0880     28.1306   6.2515305377e+01   6.4215373380e+01    0.1789205    0.1411208 -21.70 0.0002607114    1.019    0.018
       204  -9.8565     54.3576     26.7607   5.7661187198e+01   6.3024719644e+01    0.2045357    0.1537188 -14.66 0.0006064301    1.164    0.141
       205 -11.8567     57.7147     30.1998   5.7768490963e+01   6.2026680883e+01    0.4415773    0.2980652 -11.28  0.001164204    1.518    0.341
       206 -11.5086     48.5492     30.6069   6.1349231159e+01   6.3156211387e+01    0.5396498     0.244116  28.17  0.002611626    2.516    0.603
       207 -10.4548    146.0376     47.6053   3.8572014570e+01   4.2171434191e+01    0.4893239    0.2493259 -14.95  0.001749464    2.945    0.660
       208 -10.5801    240.4298     50.7010   2.3702502088e+01   1.8362294397e+01    0.2375452     0.160918  41.67  0.001184994    1.741    0.426
       209 -10.3481    201.5282     48.9421   2.8632973975e+01   2.8075825994e+01    0.2693798    0.1473369 -24.10 0.0005778729    2.034    0.508
       210  -9.9091    171.4023     48.7492   3.3743251714e+01   3.5734607481e+01     0.247746    0.1764267  26.50  0.001140659    1.666    0.400
       211  -9.8188      2.2007     49.0147   8.4838073938e+01   6.3716736676e+01    0.1707891    0.1485183 -21.43  0.000920229    1.295    0.228
       212 -11.8242     20.8979     46.1583   7.7135898020e+01   6.3089461273e+01    0.3148305    0.2013555 -51.01 0.0008718103    1.244    0.196
       213 -10.1332     13.3805     46.7978   8.0142481498e+01   6.3497442322e+01    0.3230935     0.114882 -45.65  0.001634739    2.097    0.523
       214  -9.5796     89.9699     47.2206   5.3236883827e+01   5.4145275440e+01    0.1867706    0.1682207   6.66 0.0003039993    1.065    0.061
       215 -10.1943    133.9639     45.7403   4.0723845138e+01   4.5297657488e+01    0.2887374    0.1958252  51.35 0.0005878758    1.443    0.307
       216 -10.2069    138.7997     44.1788   3.9070896152e+01   4.4401278167e+01    0.3791438    0.2080529  29.21  0.001246767    2.413    0.586
       217 -10.8117     32.3583     43.9141   7.2135947533e+01   6.2550022215e+01    0.4950655     0.272317 -17.89  0.002572526    2.346    0.574
       218 -10.3928     26.4442     42.9359   7.4089234930e+01   6.3257659058e+01    0.2044755    0.1866395 -16.02 0.0007928854    1.216    0.178
       219 -10.5457     22.3216     37.2254   7.3940683418e+01   6.4658156475e+01    0.4144459    0.2129795  42.20  0.002229002    2.921    0.658
       220  -8.9258    101.3401     44.6848   4.8941099519e+01   5.2441647780e+01    0.1336173    0.1123419 -75.15 0.0007047888    1.703    0.413
       221 -10.6098    155.7545     42.4492   3.4840131828e+01   4.0548986053e+01    0.2990519    0.2597428  15.32 0.0009842757    1.213    0.176
       222 -10.6364     92.9074     41.3781   5.0246564540e+01   5.4568307745e+01    0.4179331    0.2441707  39.86   0.00184537    1.730    0.422
       223  -9.7545     17.3792     41.6872   7.7218615500e+01   6.4202099972e+01    0.2371842     0.113594 -33.18  0.001147372    2.002    0.501
       224 -10.6529     79.2582     38.6813   5.3544006926e+01   5.7394926034e+01    0.4495009    0.3276019  78.15  0.002122652    2.898    0.655
       225 -11.2711     79.9506     32.9077   5.1137826297e+01   5.8181760035e+01    0.5524322    0.3250961  24.21  0.002728185    1.941    0.485
       226  -9.8650    231.5126     38.5607   2.1772443097e+01   2.2081052082e+01    0.2999833    0.1287756 -31.29  0.001231313    2.246    0.555
       227  -9.5371    183.5157     38.0923   2.8406781814e+01   3.4132961558e+01    0.1997111     0.142936 -31.98 0.0003474493    1.436    0.304
       228 -10.0677    133.0712     37.1624   3.8007978933e+01   4.6743898929e+01    0.3313525    0.2270485 -83.32  0.001418196    2.479    0.597
       229 -11.1753      4.7417     35.9536   8.0598993958e+01   6.6089979222e+01    0.3052182    0.2506536 -20.89  0.001591926    1.255    0.203
       230 -10.1194     11.8818     30.2416   7.5988608053e+01   6.6699542066e+01      0.29805    0.1343741 -37.40  0.001690854    1.815    0.449
       231 -10.1180      7.4996     30.4876   7.7891277868e+01   6.6937005785e+01    0.2780502    0.1499481  -8.95  0.001665094    2.259    0.557
       232  -9.8678    153.4252     36.5214   3.3394082531e+01   4.1937841930e+01    0.2488001    0.2112992  64.44 0.0005872663    1.189    0.159
       233 -10.1241     35.2820     36.9326   6.8748388195e+01   6.3546229650e+01    0.1773691   0.09236436 -65.73 0.0007015278    4.109    0.757
       234 -10.0417    176.8267     36.0527   2.8916616773e+01   3.6106864409e+01     0.227381    0.1917468 -66.66  0.001031204    1.297    0.229
       235  -9.7018     94.0730     35.8075   4.7838211189e+01   5.5210869012e+01    0.1902684    0.1831792 -57.45 0.0006617254    1.314    0.239
       236  -9.2556    213.3450    248.3121   6.9831490710e+01  -5.0793054660e+00    0.1193141   0.07236719  19.71 0.0007046312    1.708    0.414
       237 -11.9905    164.2859     27.6683   2.8498438535e+01   4.0346171360e+01    0.3013375    0.2899242  69.92 0.0004463775    1.048    0.046
       238 -10.0115    174.9919    246.6689   7.6128770884e+01   1.2340308337e+00    0.1757306    0.1224774  41.80 0.0009805496    1.110    0.099
       239 -11.6585    107.6912     30.8867   4.2112821261e+01   5.3213196835e+01     0.557739    0.3172184   8.57  0.002240662    2.785    0.641
       240 -12.1921    113.5703     25.3431   3.8492085734e+01   5.2694272775e+01    0.7243853     0.308538  44.09  0.002440898    2.209    0.547
       241 -10.7707    239.9860     32.7000   1.9355114582e+01   2.0820386476e+01    0.2641188    0.2330634  38.90  0.001240686    1.326    0.246
       242 -10.0501     89.8341     29.4054   4.6674066658e+01   5.6938135707e+01    0.2300206    0.1908374 -37.52  0.001365241    1.331    0.249
       243  -9.7531     86.2773     30.3667   4.8142528488e+01   5.7450937567e+01    0.2709118    0.1957554  -0.89  0.001187894    1.439    0.305
       244 -11.9233    126.3143    242.2376   8.4006267350e+01   9.6409947174e+00    0.3418017    0.2719463  77.65   0.00244947    1.310    0.236
       245 -10.7540    131.1321    241.0476   8.3041020298e+01   9.0671154596e+00    0.2255551    0.1396315  45.93  0.001030009    1.282    0.220
       246  -9.8078     90.0024    250.4767   9.0890924266e+01   1.3733605975e+01    0.1372221    0.0894122  26.20 0.0008095706    2.534    0.605
       247 -11.2831     67.5624    240.8843   9.3764951062e+01   1.8285180262e+01    0.3747968    0.1392763  45.06  0.002064671    2.139    0.532
       248 -10.7284     74.2751    238.3736   9.2465325576e+01   1.7818778034e+01    0.3816591     0.168401  46.11  0.002223931    1.824    0.452
       249 -10.2082    234.7264    239.1868   6.4892784921e+01  -7.3826267939e+00    0.2285607   0.09702983 -29.24  0.001193568    2.752    0.637
       250 -11.3224    146.6311    237.6286   7.9926784469e+01   7.0960206219e+00    0.4326803    0.2684581  56.51  0.002529672    1.503    0.334
       251 -10.7288    189.0968     27.9287   2.4562108072e+01   3.3990739789e+01    0.3910415    0.3041856   6.30    0.0018284    1.573    0.364
       252 -10.3269     98.1474     28.5776   4.3896588757e+01   5.5462548737e+01    0.4546738    0.2157921 -46.62  0.001838459    2.898    0.655
       253 -11.2694    152.5543     25.5364   2.9958792075e+01   4.3541061947e+01    0.7020356    0.3206656  43.09  0.002802647    2.227    0.551
       254  -9.7446    167.6155    238.2539   7.6308417942e+01   3.5636951359e+00    0.1390536    0.1130562 -25.13 0.0007617109    1.597    0.374
       255 -11.4337    144.3887     24.8053   3.1310499383e+01   4.5635311646e+01     1.055096    0.2816944  43.30  0.003015905    4.395    0.772
       256 -10.5614    116.9129     16.5999   3.4373358533e+01   5.2999654224e+01    0.5985579    0.1389254  50.49  0.001988407    3.435    0.709
       257  -9.7344    233.3031    235.3309   6.4525897884e+01  -6.7431858053e+00    0.1201559   0.07385311  14.73 0.0007035303    1.653    0.395
       258  -9.5551    199.5220    234.5546   7.0189231355e+01  -1.2306123760e+00    0.1212981   0.09467556  32.05 6.826434e-05    1.019    0.019
       259  -9.2774     15.4890    233.5298   1.0147859962e+02   2.5513498142e+01   0.09943529   0.06934703  73.68  0.000809587    1.035    0.033
       260 -11.2874    247.0716    230.7614   6.1502265961e+01  -8.3541857208e+00    0.3556759    0.1168213  36.74  0.001638165    2.540    0.606
       261  -8.7867    190.2617    229.6805   7.1096239444e+01   9.4559980812e-01    0.1086969   0.08967826  66.39 0.0002811328    1.549    0.354
       262 -10.1583    230.5949     26.5852   1.8883958875e+01   2.3797661731e+01    0.2302168    0.2090731 -37.95 0.0006778496    1.143    0.125
       263 -10.9778    183.4485     25.2700   2.4630427366e+01   3.5751430751e+01    0.5568294    0.2239906  50.31  0.002139679    2.371    0.578
       264  -9.5914     80.3086     19.4191   4.5632568497e+01   6.0023124296e+01    0.3214887    0.1128301  44.32  0.001323786    2.762    0.638
       265  -9.2210     75.3322    224.6741   9.1113450365e+01   2.0012571394e+01    0.1216964   0.06756691  67.97 0.0007051143    1.710    0.415
       266  -9.8717    234.4484    223.4980   6.2415980654e+01  -5.5793641856e+00    0.1205774   0.09482221  20.91 0.0001129216    1.007    0.007
       267  -9.6465    214.0188     24.5502   2.0282925788e+01   2.8094940904e+01    0.2170602    0.1298173  69.64  0.001035176    1.614    0.380
       268  -9.8627    169.1637     23.9986   2.6510772116e+01   3.9545003041e+01    0.2815374    0.1620063  48.67  0.001279136    1.650    0.394
       269 -10.2217     13.8782     23.3427   7.2846180248e+01   6.7775829749e+01    0.1929878    0.1189179 -38.90 0.0004896836    1.218    0.179
       270  -9.1923     22.3370    223.6759   9.9886478615e+01   2.6513509048e+01    0.1120919   0.05341977  67.28 0.0007051135    1.718    0.418
       271 -10.2683    164.6380    211.9636   7.3129143635e+01   7.9594421283e+00    0.2376833    0.1619118  48.55 0.0006131925    1.282    0.220
       272  -9.9067    242.5083    211.5381   5.9002566736e+01  -5.4583180117e+00    0.1238125    0.0972297  16.95 0.0001992024    1.022    0.021
       273  -9.9997     74.5464     19.7191   4.7629421484e+01   6.0980293030e+01    0.2355764      0.17497  12.04 0.0005219571    1.275    0.216
       274 -10.4857    152.9086    207.0457   7.4620800248e+01   1.0830477850e+01      0.33263    0.2327033  81.12  0.001760264    2.054    0.513
       275 -10.3713    157.0593     20.1038   2.7349771349e+01   4.3044112697e+01    0.3856466    0.2029872  62.01   0.00170298    1.771    0.435
       276  -9.4626    170.0848     33.3704   2.9261513111e+01   3.8168220472e+01    0.3027081    0.1099693  53.40  0.001090882    2.452    0.592
       277 -10.1149     47.0075     19.4078   5.7482456771e+01   6.5105128110e+01    0.2713891    0.1763843 -23.93  0.001660717    1.321    0.243
       278  -8.6643    194.6776     19.3063   2.1314615195e+01   3.3570401610e+01    0.1463067    0.1002156 -66.68 0.0003162201    1.641    0.391
       279  -9.1710     61.4941    206.4955   9.1931917104e+01   2.5143835591e+01    0.1154889   0.09019583  73.75 0.0008106524    1.001    0.001
       280  -9.1240    235.3083    201.3061   5.8407765322e+01  -2.9931268107e+00    0.1295983   0.08430482  12.76  0.000481382    1.610    0.379
       281 -12.0957    238.8863     15.7477   1.5393234671e+01   2.3093121264e+01    0.3385027    0.2466147  64.35  0.001470019    1.377    0.274
       282 -10.5600    186.6441     15.1003   2.1197450459e+01   3.6076359928e+01     0.261315      0.21042  69.18 0.0004557247    1.150    0.131
       283 -10.4792    139.3488    198.9696   7.6053858187e+01   1.4612406191e+01     0.246803    0.1669715  63.36  0.001334366    1.574    0.365
       284 -10.4505    233.9562    196.5043   5.7762251146e+01  -2.1341393075e+00    0.2463314     0.183086 -20.94   0.00108446    1.366    0.268
       285  -8.9350     83.6968    196.2862   8.6684943091e+01   2.4088566703e+01    0.1246986   0.07898291  70.02 0.0004147099    1.561    0.359
       286  -9.8697    246.0000    192.0171   5.4845807513e+01  -3.6040601395e+00    0.1937314   0.06758182 -32.80 0.0008009503    2.932    0.659
       287  -9.8560    171.7959    190.3960   6.8248805140e+01   1.0175504776e+01    0.1972985    0.1144316  35.10 0.0009443258    1.688    0.407
       288  -9.6516     74.9809     13.5158   4.4858516364e+01   6.1700773841e+01    0.1824012    0.1180995  44.49  0.001025521    1.600    0.375
       289  -9.6503    162.3343    190.6736   7.0169195173e+01   1.1900684884e+01    0.1357253    0.1015169  74.27  0.000705151    1.717    0.418
       290 -11.6368      4.9791    185.8191   1.0052599819e+02   3.5167050431e+01     0.382515    0.2711535  83.27  0.002334791    1.016    0.016
       291 -10.8641      2.6223    181.7896   1.0069413193e+02   3.6147515823e+01    0.2589084    0.1328283 -69.70  0.001247994    1.691    0.409
       292  -9.3029    217.6556    186.7028   5.8835417202e+01   2.1399798117e+00     0.138763   0.09295912  14.93 0.0004003661    1.671    0.402
       293  -9.3734     86.2556    185.5719   8.4888489720e+01   2.5830252859e+01       0.1639    0.1164056  34.41 0.0009501058    1.630    0.387
       294  -9.1608    239.5287    184.5055   5.4517331614e+01  -1.4936425948e+00     0.130366     0.110043  11.88 6.918067e-05    1.005    0.005
       295  -9.8271    175.5131    180.0083   6.5649943991e+01   1.1239697765e+01    0.1962976    0.1377309 -43.25  0.001026153    1.573    0.364
       296 -10.4866    250.4410    177.3134   5.1240640814e+01  -2.4272877729e+00    0.2376613    0.1168891 -26.01  0.001128366    2.062    0.515
       297  -9.2958    113.4529    176.0294   7.7872270181e+01   2.3456201850e+01    0.1716268    0.1115575 -32.91 0.0008058971    2.370    0.578
       298  -9.3014     28.3700    175.8080   9.5443715468e+01   3.4980687785e+01    0.1539995   0.08388615 -67.18 0.0004680627    1.635    0.388
       299 -10.1190     51.6728    172.8951   9.0492521875e+01   3.3032914652e+01    0.3348166    0.1508299 -81.26  0.001586741    2.430    0.588
       300  -9.4998    207.1889    172.7738   5.8068847246e+01   6.2539331934e+00    0.1941004    0.1513119  13.21  0.001057789    1.335    0.251
       301  -9.3896    170.4912    172.0459   6.5171352709e+01   1.3627296024e+01    0.1963963    0.1399914 -42.45 0.0006068873    1.524    0.344
       302 -10.5714    244.6526    167.9898   5.0339081892e+01  -1.1531580314e-01    0.3253579    0.1481346 -50.29  0.001139128    4.329    0.769
       303  -9.6890     35.5138    169.4653   9.3444342868e+01   3.5550684283e+01    0.1170439    0.0904497  84.34 9.471937e-05    1.037    0.036
       304  -9.7256    198.1552    167.8764   5.8818350492e+01   8.8364711705e+00    0.2027244    0.1924147  60.80 0.0005480114    1.204    0.169
       305  -9.5687    187.4079    167.8051   6.0921088997e+01   1.1002425364e+01    0.1923422    0.1329199 -24.72 0.0006073583    1.683    0.406
       306 -11.3784      9.4665    167.0647   9.8409156349e+01   3.8499660614e+01    0.2408181    0.2211768  52.41  0.001438678    1.430    0.300
       307 -11.1886     13.3898    159.9249   9.7065569931e+01   3.9628826303e+01    0.3441034    0.1773963 -56.74  0.002068634    2.002    0.500
       308  -8.9362    152.3010    166.6795   6.7950020579e+01   1.8200097817e+01    0.1406697    0.1088755  81.09 0.0004675811    1.626    0.385
       309  -9.8923     18.9831    165.0047   9.6370334854e+01   3.8088831027e+01    0.1668642    0.1187625 -52.01   0.00114047    1.724    0.420
       310 -10.5861    205.0184    163.2904   5.6551874265e+01   8.2222204338e+00    0.2480139    0.2059557 -38.89 0.0006653954    1.298    0.230
       311 -10.7594    246.8152    160.6766   4.8457117607e+01   5.3175968247e-01    0.2459971     0.159619 -13.75  0.001268397    1.618    0.382
       312  -9.5633     28.2447    160.5935   9.4079526561e+01   3.8136686688e+01    0.1339029    0.1128425  23.53 0.0009585505    1.657    0.397
       313  -9.7017    223.9934    158.1249   5.1918317461e+01   5.2687604644e+00    0.2963557     0.182855 -59.18   0.00123739    2.843    0.648
       314  -9.6362    215.7633    157.1765   5.3231452455e+01   7.0592923113e+00    0.2004569    0.1561225  13.18   0.00106364    1.342    0.255
       315  -9.9628      9.2762    155.8948   9.7565096723e+01   4.0803752982e+01    0.2125693    0.1054692 -72.19  0.001282717    1.587    0.370
       316 -10.0663    197.6490     29.4909   2.3771609733e+01   3.1621161506e+01    0.2845936    0.2214771 -87.31  0.001216583    1.358    0.264
