#   1 NUMBER                 Running object number                                     
#   2 MAG_AUTO               Kron-like elliptical aperture magnitude                    [mag]
#   3 X_IMAGE                Object position along x                                    [pixel]
#   4 Y_IMAGE                Object position along y                                    [pixel]
#   5 X_WORLD                Barycenter position along world x axis                     [deg]
#   6 Y_WORLD                Barycenter position along world y axis                     [deg]
#   7 A_WORLD                Profile RMS along major axis (world units)                 [deg]
#   8 B_WORLD                Profile RMS along minor axis (world units)                 [deg]
#   9 THETA_WORLD            Position angle (CCW/world-x)                               [deg]
#  10 FWHM_WORLD             FWHM assuming a gaussian core                              [deg]
#  11 ELONGATION             A_IMAGE/B_IMAGE                                           
#  12 ELLIPTICITY            1 - B_IMAGE/A_IMAGE                                       
         1 -12.9167    131.4804     49.1540   4.2474624518e+01   4.5654773268e+01      3.08206     1.522053 -61.65  0.009790606    3.665    0.727
         2 -14.9964    190.1327     69.5827   3.8738089101e+01   2.8642979087e+01     1.493716     1.175186 -43.23   0.00834875    1.189    0.159
         3 -14.9727    206.2481     64.1966   3.5173468357e+01   2.5929138660e+01     3.456974     1.536654 -44.74   0.01508177    2.147    0.534
         4 -13.1892    151.3613     41.2363   3.5984522520e+01   4.1746178007e+01     1.635124     1.134424  12.30  0.007485149    1.954    0.488
         5 -12.6928     75.1992     21.8846   4.5587839403e+01   6.3658833360e+01     1.232108     1.030696  53.17  0.006712979    1.181    0.154
         6 -15.1544     38.2082     72.2827   8.3696292613e+01   5.9916509798e+01     2.759448     1.949115  76.48  0.009992543    1.793    0.442
         7 -11.5942     47.9225     19.8429   5.6105952296e+01   6.9893104876e+01     1.774346    0.6093414  42.51  0.006458282    2.947    0.661
         8 -12.3964     63.7556     13.6707   4.5039766146e+01   6.7418305415e+01     1.011248    0.5705755 -18.81  0.004549031    1.955    0.489
         9 -14.0261      6.9631     68.1326   9.8521473550e+01   6.3709847099e+01     1.772028    0.9044548 -36.26  0.005749541    2.119    0.528
        10 -14.1009      3.9156     54.4379   9.7866207532e+01   6.7410857531e+01     2.325712    0.9537034 -87.37  0.009105458    2.787    0.641
        11 -13.9515     79.3099     42.6111   5.4422226282e+01   5.9395174991e+01     1.244665     1.194682  58.83  0.006969578    1.095    0.087
        12 -14.0275     11.3130     36.2625   8.8364012016e+01   7.1505531183e+01     1.843568     1.599209 -87.05   0.01081058    1.282    0.220
        13 -13.1635     49.1044     28.8984   6.0789185993e+01   6.8091911313e+01     1.328845    0.5278022  38.73  0.003799714    2.661    0.624
        14 -14.0812     51.1477     46.2168   6.8228202746e+01   6.4255232986e+01     1.562446    0.9361243 -14.04  0.005868212    3.005    0.667
        15 -13.5508     59.9671     36.1280   5.9262914898e+01   6.4666901693e+01     1.758267    0.7554559  36.40  0.006482882    2.699    0.629
        16 -13.3018     79.1638     59.9731   6.1749106557e+01   5.6037982996e+01     1.868771    0.7157833  47.27  0.006441418    2.728    0.633
        17 -12.9997    175.4069     38.4928   3.1680515073e+01   3.6143525848e+01     1.529731    0.6845104  48.42  0.004713068    2.552    0.608
        18 -13.4053    162.9978     61.3325   4.0566397730e+01   3.6047664360e+01     1.287075    0.5999183 -40.16  0.001285693    1.994    0.499
        19 -11.1339     31.0127     19.1677   6.5850386106e+01   7.2979359565e+01     0.378792    0.3027017 -51.65  0.001341764    1.386    0.279
        20 -11.0295     34.1591     14.8281   6.0895531404e+01   7.3245278501e+01    0.3031464    0.2153755 -45.90 0.0009225721    1.506    0.336
        21 -10.8806    151.2074     13.6477   2.6395454635e+01   4.4931370120e+01    0.4306372    0.2049147 -63.44  0.001694513    2.533    0.605
        22 -10.7511    147.7278     10.8191   2.5778746605e+01   4.6098581752e+01    0.2383716    0.1811157  85.22 0.0002633813    1.288    0.223
        23 -10.2948    123.5141     12.9553   2.9804799501e+01   5.2287238651e+01    0.2469997    0.2052165 -29.45 0.0008770073    1.229    0.186
        24 -11.5278    116.6424      9.8743   2.9584505553e+01   5.4406197247e+01    0.4163674    0.3234342   7.13 0.0008761653    1.469    0.319
        25 -10.9989     88.9581     12.2030   3.6299602582e+01   6.1440021285e+01    0.2374806    0.2105617  48.67 0.0004321478    1.072    0.067
        26  -9.8185    173.5535     11.9361   2.3615355232e+01   3.9441966738e+01    0.1685357    0.1086896  20.79 0.0003107058    2.124    0.529
        27  -9.8545    140.6045     11.6748   2.6929388782e+01   4.7883824138e+01    0.2912996    0.1578861 -69.53  0.001223706    2.172    0.540
        28  -9.8790    129.8467     11.1672   2.8142686602e+01   5.0774212698e+01    0.1898126    0.1606528  35.82 0.0005071365    1.276    0.216
        29  -9.1575    168.3444      8.6915   2.3034728423e+01   4.1027118706e+01    0.1498272   0.08631998 -57.35 0.0007044146    1.698    0.411
        30  -9.9369     48.6551      8.3555   4.8077899727e+01   7.1434386774e+01    0.1944197    0.1595803 -64.26 0.0006781805    1.634    0.388
        31  -9.2578     50.4928      5.4622   4.5144157674e+01   7.1398726971e+01    0.2506197     0.143478  22.05 -4.450737e-05    2.210    0.548
        32 -10.0554     99.6048      6.9401   3.1256427285e+01   5.9187577205e+01     0.222539    0.1815427 -88.32 0.0004609718    1.283    0.221
        33  -9.8281     91.4606      7.2287   3.3105404092e+01   6.1289329793e+01    0.2021017    0.1205352 -38.36 0.0009303769    1.748    0.428
        34 -10.6291      2.5587      6.6937   8.2346321124e+01   7.8837331336e+01    0.2760049    0.1723637  -8.73 0.0008410187    1.720    0.419
        35 -11.0419     60.3686      4.9960   4.0752844695e+01   6.9219420720e+01    0.2318515    0.1894195  56.01 0.0003390574    1.206    0.171
        36  -9.9727    144.6831      4.0344   2.3640634549e+01   4.7479910463e+01    0.3213751    0.1511098 -81.82 0.0007157854    2.489    0.598
        37  -9.8517     74.3619      4.0024   3.5583405618e+01   6.5939656694e+01    0.2160786      0.16209  12.66 0.0006223283    1.428    0.300
        38 -10.4600     67.3101      3.8904   3.7632451805e+01   6.7681829000e+01    0.2396251    0.1829888  52.63 0.0003247808    1.221    0.181
        39 -10.2149     55.6408      2.4431   4.0802616603e+01   7.0580380891e+01    0.2843198    0.1581385  29.08 0.0007394989    2.029    0.507
        40  -9.3608    155.7866      2.0529   2.1906872977e+01   4.4764493712e+01    0.1627658    0.1055503 -24.51 0.0004103522    1.538    0.350
        41 -10.2022     95.8046      2.3054   2.9669405010e+01   6.0581157395e+01    0.1806142    0.1743347 -85.01 0.0004222992    1.066    0.062
        42  -9.5624     44.9881      1.4999   4.4767254981e+01   7.3047147718e+01    0.1791184    0.1210774  88.74 0.0008105297    2.583    0.613
        43 -13.8850    123.6307     84.5247   5.6306301176e+01   4.1295448655e+01      1.50554    0.9321383   8.48  0.005040121    3.492    0.714
        44 -10.4879    229.0130    249.5252   6.8088387253e+01  -8.4485187039e-01    0.1480152   0.09897546  -4.38 0.0004390197    1.183    0.155
        45 -13.2097    163.8747    248.7108   7.8821594431e+01   6.2933860755e+00    0.6806703    0.2482343  30.73  0.003682774    2.088    0.521
        46 -11.8993    153.4088    249.4041   8.0800592236e+01   7.4169188824e+00    0.4170762    0.1769548  21.21  0.002194978    2.302    0.566
        47 -12.2366    135.5892    248.6157   8.4032597769e+01   9.5894210055e+00    0.3666327    0.1912166  46.82  0.002143501    2.221    0.550
        48 -12.1251    140.5956    246.7244   8.2884935558e+01   9.2497143169e+00    0.2742108    0.1231997  20.06  0.001314486    2.273    0.560
        49 -12.2588    113.1697    244.7388   8.7970904443e+01   1.2741342897e+01    0.3157298    0.1929183  45.43  0.001896512    1.567    0.362
        50 -11.4120    110.4471    240.4821   8.8101624303e+01   1.3676432345e+01    0.2419364    0.1707482 -34.84  0.001085085    1.806    0.446
        51 -12.8918    110.3652    249.0038   8.8919112933e+01   1.2462594211e+01    0.5701262    0.2895076  44.89  0.003139002    1.835    0.455
        52 -11.9925     59.3044    247.8395   9.8946304639e+01   1.8231318729e+01    0.2399403    0.1580592  48.61  0.001267845    1.246    0.197
        53 -13.4833     60.5411    243.7331   9.8450563039e+01   1.8753810767e+01    0.6151181    0.1501941  32.25  0.002805972    2.726    0.633
        54 -13.7326     37.7564    248.8612   1.0326660469e+02   2.0188597837e+01     1.098012     0.337122  25.09  0.005211419    2.985    0.665
        55 -13.3450     40.1767    242.5276   1.0249838163e+02   2.0984595388e+01    0.4955382    0.3480352 -68.49  0.003672343    1.786    0.440
        56 -12.2841      3.4853    248.3671   1.0987347609e+02   2.3245725573e+01    0.8361682    0.2491991  84.06  0.004277401    3.750    0.733
        57 -11.2074     59.8509     96.8735   8.0669567497e+01   5.0749709524e+01    0.2285045    0.1962183  82.13 0.0002890035    1.243    0.196
        58 -12.4578     61.8473     92.8935   7.8934384874e+01   5.1452828063e+01    0.5520433    0.2915745 -63.51  0.001164177    1.957    0.489
        59 -10.5389     32.5253     97.4841   9.1661515707e+01   5.3982837606e+01    0.1412411      0.12974 -81.78 0.0001285354    1.007    0.007
        60 -10.4185     11.5074     97.5153   1.0031721052e+02   5.5706290330e+01    0.1357971    0.1197713 -87.90 -1.743846e-05    1.012    0.012
        61 -10.4218    157.6177     95.6991   5.1651874675e+01   3.1652599144e+01    0.2690958    0.1749372  37.49  0.001235456    1.674    0.403
        62 -11.8490    123.9965     95.4239   5.9447601292e+01   3.9032073830e+01    0.2880013     0.270579 -30.34  0.001545208    1.050    0.048
        63 -13.6019    106.8662     91.3530   6.3060015067e+01   4.3528791885e+01     1.114491    0.6479391 -61.14  0.004280569    2.257    0.557
        64 -12.9799     95.8915     70.8136   5.9886824997e+01   5.0232911546e+01      1.15478    0.8201144 -22.99  0.005152669    1.701    0.412
        65 -12.3005    105.7072     65.1696   5.4845706715e+01   4.9164830482e+01    0.8559859    0.6271811  15.49   0.00320848    1.835    0.455
        66 -12.0242     98.2359     80.5820   6.2400303074e+01   4.7664341512e+01    0.5911803    0.3667193 -31.77 0.0005390031    1.857    0.461
        67 -11.9894    104.0780     75.2168   5.8823962899e+01   4.7532221283e+01    0.5149646    0.3697472   2.75  0.001384281    2.085    0.520
        68 -10.4853     99.9932     74.2448   5.9756702611e+01   4.8628573826e+01     0.209099    0.2017358  35.77  0.001114767    1.051    0.049
        69 -11.5789    208.8441     94.2390   4.2441272544e+01   2.1320224729e+01    0.3483348      0.19056  46.58   0.00110527    2.032    0.508
        70 -14.2449    189.9161     86.7985   4.3394133115e+01   2.6186126963e+01      1.57385    0.8788798  28.85  0.006611024    2.602    0.616
        71 -10.0782    211.6567    249.6874   7.0818057576e+01   9.1351086568e-01    0.1079768   0.05805236   5.42 0.0007046629    1.705    0.413
        72 -12.7283    169.2810     79.7176   4.4921088790e+01   3.1753104879e+01    0.9585212    0.5359035 -54.76  0.003608743    2.265    0.558
        73 -12.2967     83.0689    248.2143   9.4234782903e+01   1.5649128816e+01    0.2836392    0.1871854  15.77  0.001905963    1.572    0.364
        74 -12.6562    182.6888     61.7319   3.7603990094e+01   3.1399206602e+01    0.6736496    0.5023869  40.50  0.002439512    1.517    0.341
        75 -11.7274     94.8225    247.5831   9.1851028910e+01   1.4436028138e+01    0.1980588    0.1469555  47.45  0.000521259    1.279    0.218
        76 -12.0406    123.7888     67.9093   5.0880619892e+01   4.4408276021e+01    0.7285404    0.4209639 -62.98  0.001659342    2.708    0.631
        77 -13.4733    117.4873     62.1078   5.0472522230e+01   4.6959820610e+01     1.157413    0.6265106 -31.00  0.004625183    1.960    0.490
        78 -12.5216    154.5539     64.2331   4.2977383542e+01   3.7626169323e+01    0.8173513     0.515651  36.50   0.00283833    1.897    0.473
        79 -12.5491    153.0301     57.7954   4.1203038636e+01   3.8983618395e+01    0.4228645    0.3520449  -7.21 0.0004024908    1.334    0.250
        80 -13.4963    179.7834    242.5132   7.5237292350e+01   5.1874023626e+00    0.5513591    0.3631326  22.50  0.004010266    1.149    0.129
        81 -12.8956    162.2303     38.5722   3.3451880451e+01   3.9362476042e+01    0.6785491    0.4797217  57.78  0.001547269    1.460    0.315
        82 -10.2130    166.1444     95.2299   4.9815539420e+01   2.9891438874e+01      0.20473    0.1851722  -1.17 0.0003317176    1.118    0.106
        83 -10.7997     68.7752     94.9116   7.6826966429e+01   4.9859925546e+01    0.2757859    0.2078541  44.23 0.0004704813    1.358    0.264
        84 -10.3135     27.4816     95.5047   9.3412389280e+01   5.4989641432e+01    0.1401831    0.1276906 -75.41 -2.331018e-05    1.017    0.017
        85 -14.1751    195.1208     48.6176   3.2279361991e+01   3.0316868142e+01     1.630126    0.9045506  71.91            0    2.068    0.516
        86 -12.6340    128.2394     90.1580   5.6815870714e+01   3.9159454739e+01    0.5849535    0.3067271 -32.96   0.00227948    2.083    0.520
        87 -12.7197    139.4149     82.1960   5.1719554019e+01   3.8147501814e+01     1.045254    0.3584985 -33.99  0.003309211    3.123    0.680
        88 -12.0632     95.0227     89.5156   6.6187616879e+01   4.6358140836e+01     0.594403    0.4121079  57.19  0.002666821    1.644    0.392
        89 -12.1368    175.3581     90.1254   4.6721538801e+01   2.8753466230e+01    0.3088321    0.2511708  46.15  0.001677983    1.309    0.236
        90 -11.1590    176.0728     85.6766   4.5386517321e+01   2.9307708297e+01    0.2980628    0.2403304  33.06 0.0006254481    1.351    0.260
        91 -11.1245    178.0000     81.9511   4.4033032034e+01   2.9470211428e+01    0.3061561    0.2445017 -28.55  0.000921405    1.163    0.140
        92 -11.2019     40.0033     90.0142   8.7114739486e+01   5.5132034774e+01    0.2562647    0.2050375 -89.35 0.0003170761    1.292    0.226
        93 -11.7319     38.7799     85.9579   8.6762204301e+01   5.6328709082e+01    0.3718165    0.3182181  -3.23 0.0005116866    1.338    0.253
        94 -11.6621     10.7785     92.8719   1.0008983054e+02   5.6976661587e+01    0.3228517    0.1292717  31.26  0.001367297    2.468    0.595
        95 -13.1355    137.2464     70.8164   4.8643062607e+01   4.0685660390e+01     1.362139    0.7235588  51.06  0.005599365    1.909    0.476
        96  -9.9768    166.0874     89.5554   4.8274758380e+01   3.0857590918e+01    0.2071783    0.1447692  53.87 0.0004176449    1.536    0.349
        97 -12.3563    148.5404     83.3487   5.0042164043e+01   3.5851626847e+01    0.8768178    0.4744037 -45.22  0.003642015    1.866    0.464
        98 -11.6609    236.1526     86.4345   3.7118968761e+01   1.7354639723e+01    0.4112237      0.29235  59.91  0.001769221    1.767    0.434
        99 -12.9011     66.5758     82.6346   7.4312695429e+01   5.3231140108e+01     1.146403    0.6713132  65.84  0.003546401    2.851    0.649
       100 -13.5386     53.5963     72.2528   7.6611693701e+01   5.7832689987e+01      1.04132    0.5677037 -60.58  0.001395948    1.850    0.459
       101 -13.1979     66.8839     73.5701   7.1403331095e+01   5.5346911032e+01     2.135412     0.612623  47.74  0.005623741    4.963    0.799
       102 -12.7729     26.4768     35.9872   7.7840749106e+01   7.0099169676e+01    0.4330884    0.3280427 -46.54 0.0009604261    1.195    0.163
       103 -13.5544    178.0742    236.1509   7.4720709900e+01   6.1333260178e+00    0.6630781    0.2912305  35.18  0.003811041    1.941    0.485
       104 -10.9357    226.9055    242.1488   6.7415835908e+01   6.5277133723e-02    0.1470848    0.1087167  12.75 0.0007434287    1.253    0.202
       105 -12.6116     58.7539     62.4031   7.1038318527e+01   5.9350197704e+01     1.083537    0.7710941  81.39  0.004741112    2.179    0.541
       106 -11.0072    219.4684    240.4607   6.8344564220e+01   1.0075552308e+00    0.2257131    0.1581693   8.41  0.001803508    1.046    0.044
       107 -12.8998     88.0162    238.6642   9.2480676757e+01   1.6560073577e+01    0.3914699    0.2245454  16.58  0.002293594    1.892    0.471
       108 -12.2982     53.0214     55.6934   7.1182716913e+01   6.1842721208e+01    0.8502884    0.5445406  -8.55  0.003425102    2.577    0.612
       109 -11.5076     37.4786     30.6487   6.8300459672e+01   6.9736087174e+01    0.4554242    0.3742483 -26.09  0.001090024    1.164    0.141
       110 -12.5656    104.8689    249.1980   9.0010141442e+01   1.3063721454e+01    0.4315811    0.2948196  41.62  0.002746378    1.266    0.210
       111 -13.0297     49.3544    233.6797   1.0015232014e+02   2.1560381554e+01     0.458758    0.2228839  49.10   0.00274276    1.676    0.403
       112 -12.6357     15.6785    238.4926   1.0725899526e+02   2.3878979638e+01    0.4814119    0.2969304 -18.97  0.002792437    3.230    0.690
       113 -12.3224     63.3053     45.5612   6.2222355335e+01   6.2178271909e+01    0.7768659    0.6781409  82.62  0.003082818    1.423    0.297
       114 -12.3569     11.1593    248.7077   1.0842162731e+02   2.2567950980e+01    0.4106234    0.2773985 -78.14  0.003190057    1.792    0.442
       115  -9.6670    209.7097    227.6832   6.8125380931e+01   3.4173490810e+00    0.1101961    0.0640598   2.26 0.0002246471    1.596    0.373
       116 -10.1061     16.3206    227.3325   1.0677502465e+02   2.5763953998e+01    0.0945907   0.08080265 -26.14 0.0005810944    1.698    0.411
       117 -11.5765    159.9227    219.5957   7.5869199630e+01   1.0505755327e+01    0.1906762     0.160374   5.43 0.0002870802    1.122    0.109
       118  -9.3969    162.3169    123.2801   5.7721652857e+01   2.5781725202e+01    0.1431025    0.1065462   6.06  0.000187328    1.576    0.366
       119 -10.1069      1.6414     88.3035   1.0353946757e+02   5.8678254265e+01    0.1425257   0.08491637  56.94 0.0007038807    1.721    0.419
       120 -10.9846     33.3878     85.7664   8.9085965159e+01   5.6971289113e+01    0.2422667    0.1979933  26.20 0.0002510109    1.321    0.243
       121 -10.5686    244.5020     85.0000   3.5879731550e+01   1.6098968878e+01    0.2366986    0.1807646  74.16  0.001295945    1.807    0.447
       122 -12.7257    171.3415     55.6602   3.7489193936e+01   3.4879466671e+01     1.059616    0.5809801  79.71  0.003522823    2.507    0.601
       123 -12.9509    172.7531     45.5594   3.4199219370e+01   3.5898393461e+01    0.9219859    0.6357268  56.12  0.003746952    1.529    0.346
       124  -9.6559    250.3466    118.6884   4.2485591782e+01   1.1076293208e+01    0.1129391   0.08205552 -47.95 0.0007045987    1.711    0.415
       125 -12.1834    162.0805     83.8459   4.7436588076e+01   3.2698255618e+01    0.4637608    0.3974325  59.95  0.001543405    1.265    0.210
       126 -12.7792    113.8586     81.1072   5.7888843004e+01   4.4162830809e+01    0.8324822    0.2702524 -39.51  0.002566798    3.155    0.683
       127 -12.0134    112.2428     74.8628   5.6312557485e+01   4.5776026781e+01    0.4770447     0.303204 -63.37   0.00191121    2.160    0.537
       128 -11.5768      5.2645     84.5684   1.0154627568e+02   5.9482133206e+01    0.2642582    0.1628729 -80.26 0.0007114885    1.429    0.300
       129 -12.0712     88.0839     55.2825   5.6697958089e+01   5.5072128486e+01    0.4771114    0.2603312  50.08 0.0009682583    1.874    0.466
       130  -9.7633    238.5060     81.0635   3.5627739662e+01   1.7607473185e+01    0.1875774    0.1004264 -29.79 0.0009011392    1.497    0.332
       131 -11.1128     19.0065     81.0554   9.4727824407e+01   5.9522783822e+01    0.2103846    0.1895433 -77.74 0.0003219804    1.022    0.021
       132 -12.0613     87.7848     73.2912   6.3459569765e+01   5.1419786107e+01    0.3830113    0.3047631  14.60 0.0004701608    1.522    0.343
       133 -11.4861     23.8472     77.8476   9.1853124594e+01   5.9965951557e+01    0.2759791    0.1945109 -77.64 0.0005229106    1.354    0.261
       134 -11.6137     20.1420     75.8599   9.3245611923e+01   6.0799145371e+01    0.2690424    0.2173589 -46.44 0.0006026995    1.210    0.174
       135 -10.5912    155.0273     77.0658   4.6831037425e+01   3.5437879881e+01    0.4801607    0.1954504  40.32  0.001603006    3.211    0.689
       136 -10.0183    248.6765     75.4121   3.3309917324e+01   1.6533600932e+01    0.2047421    0.1283696 -10.41  0.001162395    1.711    0.416
       137 -12.5047    229.2156     71.0197   3.4270513126e+01   2.0523304434e+01        0.397    0.2081532 -11.75  0.001803702    2.437    0.590
       138  -9.8965    152.1764     71.8567   4.5813352475e+01   3.6967865115e+01    0.2008405    0.1729641   3.49 0.0002775745    1.298    0.229
       139 -10.6105     78.1692     71.0641   6.6163230511e+01   5.3836351729e+01    0.3105696    0.2452602 -80.87 0.0008009811    1.611    0.379
       140  -9.7238    240.5391     71.0671   3.3117038045e+01   1.8455307211e+01    0.1922329   0.09853484 -30.09  0.001013333    1.548    0.354
       141 -11.0615    176.3125     69.8345   4.0899392197e+01   3.1684024512e+01    0.4145034    0.2552702 -36.74  0.001271616    1.479    0.324
       142 -10.1265    242.4051     65.5550   3.1665992295e+01   1.8771559026e+01    0.3055032    0.1100856  58.91  0.001405495    3.219    0.689
       143 -12.3980    233.3216     62.2739   3.1760086918e+01   2.0812630530e+01     0.461396    0.3903245  30.20  0.003056584    1.420    0.296
       144 -10.9366    230.3814     47.8351   2.8547684678e+01   2.3041654568e+01    0.4244133    0.2545317 -22.58   0.00143847    1.519    0.342
       145 -10.9112    226.6538     46.3253   2.8501292309e+01   2.3941602097e+01    0.3137112    0.1927082 -36.37 0.0008359851    1.322    0.244
       146 -10.2003    181.8178    115.7444   5.2086021342e+01   2.3278235571e+01    0.2107894     0.178873   0.65  0.001203961    1.166    0.142
       147  -9.3348    250.3147     63.3206   3.0445793831e+01   1.7643180073e+01    0.1152887   0.08443879   5.12 0.0004485736    1.656    0.396
       148 -11.7979    232.1412     56.4341   3.0472434886e+01   2.1719751001e+01      1.00825    0.3139887 -51.02  0.003361224    4.653    0.785
       149 -10.2124    223.8869     60.5023   3.2269594853e+01   2.2827426632e+01    0.1661903    0.1290289  70.99 0.0004158743    1.539    0.350
       150  -9.4338    248.7304     57.0050   2.9152526669e+01   1.8625844429e+01    0.1452451   0.08472245 -29.27 0.0004303227    1.350    0.259
       151 -10.2375    222.9848     55.9848   3.1240111044e+01   2.3546985919e+01    0.2176739     0.184159 -81.73 0.0004100704    1.361    0.265
       152 -11.1340    219.9705     52.4642   3.0654581551e+01   2.4566597365e+01    0.5999695    0.3401333  20.84  0.002568466    3.154    0.683
       153 -11.9537    101.0604     53.4040   5.1790708320e+01   5.2443397556e+01    0.5965809    0.3855919  38.10  0.001504582    1.691    0.409
       154 -11.6310    101.7476     46.6559   4.8868540104e+01   5.3453717086e+01    0.5938321    0.4307815  35.60  0.002698006    1.502    0.334
       155 -10.0230    237.5451     52.9314   2.9152861900e+01   2.1104977970e+01    0.3216391    0.1696135  -6.56   0.00138687    2.766    0.638
       156 -10.0066    111.1345     52.4635   4.8574248231e+01   5.0185702831e+01     0.224565    0.1475635  51.83 0.0009988266    1.518    0.341
       157 -12.3700    207.8638     43.5892   2.9544890396e+01   2.8128466256e+01    0.6467808    0.3250217 -41.32   0.00314104    1.702    0.412
       158 -10.3149    214.6459     43.0883   2.8763959478e+01   2.6750056635e+01    0.2705001    0.1671227 -75.90 0.0008989758    2.000    0.500
       159 -10.6293    136.1898     42.0401   3.8936563493e+01   4.5497784636e+01    0.2725096    0.2079019   2.06 0.0008322952    1.603    0.376
       160 -11.4075    132.3249     34.6731   3.6926656048e+01   4.7489661317e+01    0.5933102    0.4390047 -75.21  0.001709996    1.550    0.355
       161 -10.9712    221.7145     39.2074   2.7146401069e+01   2.5726474496e+01    0.4043967     0.183867 -21.70  0.001863053    2.133    0.531
       162 -11.5227     41.1601     39.5982   7.0554664998e+01   6.7294293217e+01    0.3822923    0.2539349  37.30  0.001188875    1.581    0.368
       163  -9.7434    237.0386     38.9118   2.5864115497e+01   2.2739013232e+01    0.1715418    0.1370571  14.39 0.0006471773    1.583    0.368
       164 -10.8874     34.5972     42.8883   7.5771818689e+01   6.7507944626e+01    0.4351274    0.2547407  34.79  0.001582024    1.801    0.445
       165 -10.0371    109.3254     39.0486   4.3667086447e+01   5.2786783651e+01    0.2111192      0.19018 -36.38   0.00051835    1.112    0.101
       166  -9.6787    113.4568     38.5105   4.2430357053e+01   5.1819535962e+01    0.1473438    0.1452394 -71.63 4.654221e-05    1.018    0.017
       167 -10.5873     92.5509     34.3266   4.6208015297e+01   5.7672044387e+01    0.4129126    0.3733608 -62.42  0.002234076    1.200    0.166
       168 -10.4485     86.1895     33.1411   4.7630783737e+01   5.9391709473e+01    0.2424748    0.2080356 -69.87            0    1.357    0.263
       169 -10.5609     86.4509     29.2713   4.5680237478e+01   5.9911535297e+01    0.4911717    0.3970003 -79.89  0.002480935    1.533    0.348
       170  -9.8960    111.9253     32.4865   4.0282306670e+01   5.3062742487e+01    0.2243438       0.2002 -24.54 0.0009426998    1.144    0.126
       171  -9.8969    206.0755     32.3221   2.6691318086e+01   2.9784359205e+01    0.1779328    0.1559021 -56.04  0.000468548    1.075    0.070
       172 -10.1284     29.5431     30.2641   7.3121721629e+01   7.0967057522e+01    0.2587689     0.131018 -57.11  0.001120616    2.111    0.526
       173 -10.8696    219.6933     29.3195   2.4798371444e+01   2.7201239539e+01    0.2952723    0.1586199 -54.10   0.00152786    1.779    0.438
       174 -10.7722    195.1252     27.9617   2.6464726470e+01   3.2704129024e+01    0.4560468    0.2016147 -44.27  0.001869178    1.988    0.497
       175 -10.9750    190.4584     25.8179   2.6278687533e+01   3.4008291515e+01    0.5866137    0.2249179 -43.29  0.002442308    2.263    0.558
       176 -10.0265    132.0765     24.6909   3.3137769967e+01   4.8779724458e+01    0.2779853    0.2065871  61.63 0.0003140823    1.316    0.240
       177 -11.0554    136.1300     22.8011   3.1760569975e+01   4.7928379245e+01    0.4001942    0.3377531  76.95  0.002179925    1.168    0.144
       178 -10.5436    141.3101     29.2931   3.3374866778e+01   4.5828262701e+01    0.3222855    0.2348167  64.46   0.00138261    1.359    0.264
       179 -10.7010    137.3235     27.0225   3.3169245275e+01   4.7134951078e+01    0.3265003    0.2459156 -38.74  0.001102381    1.295    0.228
       180 -11.0690    104.4355     28.3995   4.0286024908e+01   5.5535822413e+01    0.2871796    0.2753523  30.13 0.0007115013    1.051    0.049
       181 -10.4728    102.7015     22.7716   3.8145066744e+01   5.6699129409e+01     0.376258    0.1879403 -15.41  0.001003422    2.466    0.595
       182  -9.9555    112.9308     28.2035   3.8233798563e+01   5.3368716241e+01    0.3849739    0.1711429  58.24  0.001498462    2.106    0.525
       183  -9.3690    233.2782     27.3814   2.3363518063e+01   2.4660598865e+01    0.1166677   0.08830361  10.17  0.000700476    1.715    0.417
       184 -10.8904    148.1458     25.0536   3.0826900903e+01   4.4545279621e+01    0.4972234    0.3054645  14.99  0.002112886    2.365    0.577
       185  -9.7573    175.6267     24.7973   2.7427061349e+01   3.7651125320e+01    0.2099694    0.1066445 -37.02 0.0008488491    1.736    0.424
       186 -10.3882    112.7775     24.0829   3.6492460436e+01   5.3919975536e+01    0.2866219    0.2044625  56.87  0.000826362    1.350    0.259
       187 -10.1491     89.8775     22.2919   4.1214364035e+01   6.0025388586e+01    0.4328867     0.162745 -38.73  0.001561965    2.672    0.626
       188 -10.3640     97.8153     22.2940   3.9109303993e+01   5.8014338389e+01    0.2974191    0.2066408 -18.76  0.001014754    1.536    0.349
       189 -10.0488    181.6617     22.0294   2.5981396147e+01   3.6482122905e+01    0.1894579    0.1603788 -34.99 0.0004255476    1.111    0.100
       190 -10.8649    163.3443     21.7697   2.7792861077e+01   4.1016586634e+01    0.3652689    0.2363052 -59.00  0.001798606    1.570    0.363
       191  -9.7407    119.6385     21.7307   3.4132990798e+01   5.2392628523e+01    0.1540595    0.1026961  38.59 0.0002827379    1.649    0.394
       192 -11.8813    131.9212    111.4342   6.1753809518e+01   3.4118463296e+01    0.4748826    0.2752017  45.54  0.001402926    1.748    0.428
       193  -9.9562    216.7260    108.0392   4.4585570744e+01   1.7936200900e+01    0.1842438    0.1446298 -21.25 0.0004569112    1.086    0.079
       194 -10.2794    201.2715     19.5413   2.3602310691e+01   3.2177743232e+01     0.326738    0.1583554 -46.57  0.001572966    1.801    0.445
       195 -10.1393    138.5766     16.2826   2.8928778782e+01   4.7972540192e+01     0.385074    0.2030744 -80.68  0.001538478    2.413    0.586
       196  -9.9396    131.6269     19.4287   3.1155356727e+01   4.9479948374e+01    0.2666191    0.1404429  77.97  0.001106798    2.028    0.507
       197  -9.6601    211.9837     14.9715   2.1627886590e+01   3.0261899220e+01    0.1435359    0.1236713 -58.55 0.0003364164    1.076    0.070
       198  -9.6671    154.6917    108.2848   5.5626854751e+01   3.0017006824e+01    0.1397086    0.1170523 -78.57 0.0002651861    1.568    0.362
       199 -10.2700    183.7100    105.7544   4.9295159947e+01   2.4516568437e+01    0.2659217    0.2251274 -72.83  0.001471351    1.552    0.356
       200  -9.5905    102.7875     14.9916   3.4489029229e+01   5.7564225623e+01    0.1719192    0.1168825 -22.09 0.0003181768    1.530    0.346
       201 -10.4248    134.9320    105.0335   5.9326152982e+01   3.4774083734e+01    0.2266399    0.2176133 -12.61 0.0003737324    1.015    0.014
       202  -9.7555     88.0040    105.0213   7.2719099709e+01   4.4109839328e+01    0.1769956    0.1738185 -65.49 0.0009683478    1.009    0.009
       203 -11.3580    165.3201    102.5742   5.1932152279e+01   2.8810950962e+01    0.3928995    0.2451137 -41.69   0.00106977    1.557    0.358
       204  -9.7160     85.3998     12.5523   3.7406339162e+01   6.2307433668e+01    0.1956993    0.1249235  52.90 0.0002364768    1.462    0.316
       205 -11.3203     69.9125    101.9301   7.8147809250e+01   4.7939422913e+01    0.2227163    0.2148351 -67.21 0.0003295644    1.014    0.014
       206 -12.2717     53.7357     99.6297   8.3639045610e+01   5.0912838888e+01    0.3835332    0.3084452 -19.90 0.0003072805    1.493    0.330
       207 -12.5139     50.1292     95.5971   8.4168662408e+01   5.2431306399e+01    0.4855025    0.2967097  53.79 0.0005359554    1.861    0.463
       208 -11.1277    127.6190     58.7218   4.6763697111e+01   4.5085209661e+01     0.662679    0.3953466  47.70  0.002855919    1.713    0.416
       209 -12.6504     52.9668     90.4434   8.1840770801e+01   5.3368022480e+01    0.4530972    0.3807021  73.71  0.001810853    1.293    0.227
       210 -12.2302     52.9873     86.0652   8.0745448058e+01   5.4477699624e+01    0.4335594    0.2389344  31.23 0.0002998873    1.900    0.474
       211  -9.5316    234.2038    101.4234   4.0748107201e+01   1.5790241246e+01    0.1353605    0.1232019  88.16 0.0003628457    1.505    0.336
       212 -10.8912    218.3852    100.4547   4.2592101339e+01   1.8683024094e+01    0.2624004    0.1892707  -1.86 0.0006739319    1.510    0.338
       213 -12.2711    138.8811     97.9879   5.6445523420e+01   3.5304753865e+01    0.6467683    0.2884376  41.52            0    2.393    0.582
       214 -12.5858    127.0750     99.9853   5.9929887045e+01   3.7447146374e+01    0.5674165    0.2784784  33.99  0.001164752    2.543    0.607
       215  -9.1347    241.2660    100.3097   3.9645392245e+01   1.4756452657e+01    0.1192473   0.08279965  -2.66 0.0001784382    1.537    0.350
       216 -10.6950    195.0323     98.8688   4.5669480837e+01   2.3333943721e+01    0.3098843    0.1719052  33.74   0.00139464    2.232    0.552
       217 -10.6824    191.0351     99.1672   4.6392721571e+01   2.4083358691e+01    0.2497849    0.2079515  -5.12 0.0004831517    1.212    0.175
       218 -11.6519     81.6091     99.3014   7.3389433871e+01   4.6612892143e+01    0.3065343    0.2505786  55.61  0.001538726    1.294    0.227
       219 -11.5250    200.7323     97.1213   4.4345120445e+01   2.2473672098e+01    0.3983496    0.2113748 -41.45  0.001872716    1.787    0.441
       220 -11.0723    170.3573     97.9288   4.9728952188e+01   2.8539669061e+01    0.3635489      0.29386  11.37  0.001623794    1.385    0.278
       221 -11.3958     87.1964     97.6555   7.1064828628e+01   4.5992880977e+01    0.3643112    0.3236538  16.83  0.001015228    1.226    0.184
       222 -10.6095    150.9897     96.7195   5.3338643450e+01   3.2910542335e+01    0.2748383    0.1913859 -20.04  0.001027052    1.628    0.386
