#   1 NUMBER                 Running object number                                     
#   2 MAG_AUTO               Kron-like elliptical aperture magnitude                    [mag]
#   3 X_IMAGE                Object position along x                                    [pixel]
#   4 Y_IMAGE                Object position along y                                    [pixel]
#   5 X_WORLD                Barycenter position along world x axis                     [deg]
#   6 Y_WORLD                Barycenter position along world y axis                     [deg]
#   7 A_WORLD                Profile RMS along major axis (world units)                 [deg]
#   8 B_WORLD                Profile RMS along minor axis (world units)                 [deg]
#   9 THETA_WORLD            Position angle (CCW/world-x)                               [deg]
#  10 FWHM_WORLD             FWHM assuming a gaussian core                              [deg]
#  11 ELONGATION             A_IMAGE/B_IMAGE                                           
#  12 ELLIPTICITY            1 - B_IMAGE/A_IMAGE                                       
         1 -12.4702    158.8736     49.4425   5.7960066301e+01   3.9227020918e+01      4.86265     2.518955 -57.70   0.01766418    2.805    0.643
         2 -13.2086    233.4593     28.2473   4.1614088454e+01   2.3621172919e+01     3.997618    0.8935769  61.01   0.01379927    3.941    0.746
         3 -13.4784    231.4060     53.7708   4.8003430048e+01   2.0670995667e+01     10.33001          nan -38.50   0.02056109    9.223    0.892
         4  -9.6364    132.9575     17.9183   5.2415578738e+01   4.9735661469e+01    0.9267663    0.1806901 -31.11   0.00286249    4.388    0.772
         5  -8.8936    195.5464     11.1612   4.1156141156e+01   3.4675183097e+01    0.3521286    0.1773609 -66.62  0.001509266    2.360    0.576
         6 -10.7366    248.9224      1.8582   3.4444166229e+01   2.3215931749e+01    0.2542067    0.2091089  89.20 0.0007944774    1.185    0.156
         7  -7.4258    238.4020      2.8417   3.5373250681e+01   2.5412881946e+01    0.1378109    0.1154801 -29.38 0.0004612758    1.393    0.282
         8  -7.4297    124.6631      3.2239   4.8629045848e+01   5.3125933929e+01    0.1627647    0.1218581   1.48 0.0004426952    1.490    0.329
         9  -7.3394    209.2452      1.2372   3.7275789211e+01   3.2328367565e+01    0.1117728   0.09115231  53.12 0.0006669026    1.390    0.281
        10  -7.3499    221.2242    194.9643   8.2158184679e+01  -4.9044251521e-01    0.1636832    0.1024359 -33.44 0.0004568547    1.602    0.376
        11 -10.1346    110.3725    249.4786   1.1178318845e+02   9.0983049269e+00    0.2083353    0.1723801  51.36  0.000462998    1.078    0.072
        12  -8.7593    211.5113    194.5615   8.3902403468e+01   1.2397961759e+00     0.232766    0.2131973  25.58 0.0005398297    1.175    0.149
        13 -10.2967    179.0867    190.1063   8.9490884687e+01   7.8507000782e+00    0.2468794    0.2332255  15.30 0.0003176658    1.052    0.049
        14  -7.7682    238.1162    190.1430   7.8177600573e+01  -2.5791243643e+00    0.1596175    0.1443397 -20.64 0.0004450501    1.262    0.208
        15  -8.0704    131.3592    189.8522   9.9707836104e+01   1.6705276069e+01    0.1784011    0.1697824 -67.77 0.0003834985    1.126    0.112
        16  -8.6328    218.2394    186.2783   8.1027944671e+01   1.3745341632e+00    0.2498562    0.1555462 -29.45  0.001277467    1.594    0.373
        17 -11.4855     15.2725    173.1847   1.2373824149e+02   3.6518859962e+01     1.196794    0.3358414 -85.77  0.004061881    4.597    0.782
        18  -9.2932     64.0038    184.2088   1.1406689373e+02   2.8609431928e+01    0.2016342    0.1657753 -77.95 0.0002706219    1.155    0.134
        19 -11.9971     33.7316    169.4147   1.1931386374e+02   3.5581824845e+01    0.6430315    0.5963935 -79.63  0.001353359    1.260    0.207
        20  -8.6088     64.8556    168.8046   1.1196240244e+02   3.2017677146e+01    0.1807301    0.1647097 -72.88 0.0003309277    1.174    0.148
        21  -7.3948    128.1180    166.5952   9.6360202461e+01   2.2249834081e+01    0.1846599    0.1378346  29.01  0.000896812    1.489    0.329
        22 -11.7078     45.1497    162.5107   1.1589594383e+02   3.5936112802e+01    0.8626737    0.6913369 -73.09  0.002759716    1.145    0.126
        23  -8.7975    200.0559    174.2191   8.2108206611e+01   6.7241664048e+00     0.213513    0.1893387 -18.69 0.0003195963    1.101    0.092
        24 -10.6515    238.8617    147.4856   6.9175323572e+01   3.9365466075e+00    0.3375476    0.2605416 -18.55  0.001875237    1.203    0.169
        25  -8.0305    185.8851    172.3013   8.4592840155e+01   9.8076264189e+00    0.2349502     0.200921 -52.39 0.0006317206    1.326    0.246
        26  -7.2592    157.9923    146.2852   8.5092060027e+01   2.0699553841e+01    0.1817236    0.1351154  44.11 0.0002885476    1.335    0.251
        27  -9.3898     68.3971    144.6150   1.0749979421e+02   3.7302675545e+01    0.5861371     0.307499  59.25  0.002488369    2.372    0.578
        28  -8.2607    112.7669    235.0652   1.0978331011e+02   1.1179000077e+01    0.2220144    0.1379762  58.01 0.0005010649    1.503    0.335
        29  -7.5545    167.9821    113.5153   7.4767343327e+01   2.5359140537e+01    0.2200561    0.1422621  75.97 0.0008089047    2.496    0.599
        30  -9.3327    205.3214    110.4785   6.6375612578e+01   1.7337422329e+01    0.4958949    0.2142932  45.48  0.001825994    2.477    0.596
        31  -8.7205    230.9048    105.3380   6.0731108821e+01   1.2611634773e+01    0.1883147    0.1850241 -18.56 0.0003859373    1.089    0.081
        32  -9.4228    202.0760    102.3342   6.4890656289e+01   1.9566586276e+01    0.4387663    0.2857518 -41.42  0.001137559    1.455    0.313
        33  -7.5686    134.5193    103.5207   8.0125530000e+01   3.5085279765e+01    0.1563781    0.1528675 -51.19  0.000126473    1.017    0.016
        34  -8.2348    229.0676    101.4895   6.0087018988e+01   1.3656522381e+01    0.2083682    0.1453334  54.79 0.0005913765    1.578    0.366
        35  -8.8802    149.9592    100.3624   7.5377376668e+01   3.2248471269e+01    0.3432056    0.2849927  -8.58 0.0008496777    1.415    0.293
        36  -7.6045    149.5474     96.4768   7.4376954802e+01   3.3140109504e+01    0.1566784    0.1535965 -34.34 8.552762e-05    1.005    0.005
        37  -8.3532    135.8264     97.0859   7.7972218197e+01   3.6164177801e+01    0.2683764    0.2186929  69.16  0.001268392    1.419    0.295
        38  -7.8772     92.1742     97.1649   9.0351079100e+01   4.4987884402e+01    0.2036762    0.1856813 -28.27 0.0002891348    1.102    0.093
        39  -9.8039    161.7987     93.7232   7.0740006424e+01   3.0784846861e+01    0.6463444    0.3715642  36.70  0.002514646    2.055    0.513
        40  -9.1743    144.3169     90.2499   7.3845971608e+01   3.5621633208e+01    0.3513487    0.2749238 -47.49 0.0008223642    1.283    0.221
        41 -10.5023    159.8426     84.1741   6.8417035484e+01   3.3093100217e+01    0.4038835    0.2994561 -26.45  0.001846807    1.447    0.309
        42  -8.1559      2.0146     84.4893   1.1754823076e+02   5.7975841730e+01    0.1432663    0.1197512  13.82 0.0005150471    1.539    0.350
        43  -8.2365    125.2590     82.6398   7.6465785704e+01   4.1502146349e+01    0.3364886    0.2304686  19.90 0.0009622218    1.972    0.493
        44 -11.7804    219.2970     60.2493   5.1178232703e+01   2.2537256811e+01     1.026844    0.8371024 -75.32  0.004966306    1.251    0.200
        45 -10.1335    108.2821     76.9429   7.9470533602e+01   4.6279033049e+01    0.2480429    0.2354768   8.71 0.0002564519    1.055    0.052
        46  -7.7353    119.8701     75.1130   7.5570357368e+01   4.4180670106e+01    0.2029602    0.1750032   0.24 0.0002934909    1.266    0.210
        47 -10.2386    202.7573     70.4968   5.6330317110e+01   2.4910968544e+01     0.531308    0.4175495 -60.36  0.002240493    1.305    0.233
        48  -9.7478    196.5560     72.9584   5.8025484859e+01   2.6023069265e+01     0.390643    0.2625094  41.06 0.0008370022    1.698    0.411
        49  -8.7188    185.8694     69.2299   5.8846264885e+01   2.9285841238e+01    0.4673848    0.1937824 -47.28  0.001623167    2.606    0.616
        50  -9.9766    249.6983     64.5368   4.8424657600e+01   1.5067525746e+01    0.4066934    0.2397268 -43.93  0.002063563    1.457    0.314
        51 -11.5787    178.4018     69.2489   6.0221844118e+01   3.1150215252e+01    0.6450361    0.5018525 -28.01  0.001903048    1.338    0.252
        52 -11.1518    187.2800     39.9531   5.0226790795e+01   3.3331765281e+01     1.486987    0.4940278  54.22  0.004560254    2.828    0.646
        53 -12.1011    179.0112     83.5128   6.4196806539e+01   2.8515220757e+01     2.350974      1.12115 -57.51  0.007427405    3.356    0.702
        54 -10.3405    185.8119     78.9262   6.1596319803e+01   2.7653419971e+01    0.6264576    0.4168109  68.09 0.0005789958    1.689    0.408
        55  -8.0593    195.2792     51.5338   5.2298016416e+01   2.9688828122e+01    0.2762945    0.1524051 -43.52 0.0009249828    1.750    0.429
        56  -8.8295    223.0988    227.1245   8.7584684863e+01  -5.3428888130e+00    0.1930447    0.1643621  11.90            0    1.122    0.109
        57  -9.1912    248.0227     47.7762   4.4727690101e+01   1.7810761531e+01     0.403926     0.369182 -42.51  0.001953213    1.157    0.136
        58  -8.9711    221.6742    209.3912   8.4754261966e+01  -2.6931683839e+00    0.2398161    0.2199406 -74.62 0.0009460169    1.739    0.425
        59  -8.1714    247.1812     33.9257   4.1639359873e+01   1.9835430886e+01    0.2029971    0.1470403 -57.92 0.0005546314    1.198    0.166
        60  -8.0089    207.8698    116.9576   6.7526189561e+01   1.5581043231e+01    0.2243076    0.1932274  -2.35            0    1.261    0.207
        61  -8.9939    209.8405    203.9661   8.5972027522e+01   6.7284486654e-02    0.2393931    0.1688786  37.78 0.0004156934    1.337    0.252
        62 -10.5609    135.2757     29.3720   5.6024871785e+01   4.7863567790e+01     0.593381    0.3781269  51.31   0.00195407    1.446    0.308
        63 -10.2948    137.3071     23.6650   5.3600635822e+01   4.8036330090e+01    0.5217504    0.3141857 -49.22  0.002011669    1.970    0.492
        64  -7.5636    109.3142    117.0276   9.0503351388e+01   3.7247684181e+01     0.207702    0.1823711 -45.66  0.000284384    1.108    0.098
        65  -8.0367    165.5050     20.7504   4.7763530544e+01   4.1244369138e+01    0.2085996    0.1653525  45.20 0.0005009674    1.289    0.224
        66  -8.9459    183.8090    125.1862   7.4325705967e+01   1.9397266492e+01    0.2244756    0.1876284   6.54   0.00109195    1.374    0.272
        67 -10.4753    241.1562    202.2019   7.9947959821e+01  -4.7709486010e+00    0.2220266    0.1867395   3.71  0.001466501    1.073    0.068
        68  -8.6442    146.6236    122.3702   8.2071596772e+01   2.8317221356e+01    0.2672798    0.2487901 -12.83 0.0002429454    1.141    0.124
        69  -9.6400    203.0889    120.3169   6.9254703971e+01   1.6020270125e+01    0.2754618    0.2581475 -31.12 0.0002243402    1.018    0.017
        70  -9.2271    210.9149    199.2397   8.4896515650e+01   6.1123836840e-01    0.2226963    0.2031191  -4.89 0.0002699694    1.134    0.118
        71 -10.9374      2.4949    190.9913   1.2753260728e+02   3.3777607191e+01    0.4788096    0.2862984 -72.06  0.002501463    1.512    0.338
        72 -10.4909      2.2332    186.9976   1.2735257987e+02   3.4642517460e+01    0.4539697    0.2002396 -79.98   0.00192759    1.804    0.446
        73  -9.0709    160.4771    117.7876   7.7592077571e+01   2.6198015920e+01    0.3663705    0.2629638 -67.39 0.0009940196    1.793    0.442
