#   1 NUMBER                 Running object number                                     
#   2 MAG_AUTO               Kron-like elliptical aperture magnitude                    [mag]
#   3 X_IMAGE                Object position along x                                    [pixel]
#   4 Y_IMAGE                Object position along y                                    [pixel]
#   5 X_WORLD                Barycenter position along world x axis                     [deg]
#   6 Y_WORLD                Barycenter position along world y axis                     [deg]
#   7 A_WORLD                Profile RMS along major axis (world units)                 [deg]
#   8 B_WORLD                Profile RMS along minor axis (world units)                 [deg]
#   9 THETA_WORLD            Position angle (CCW/world-x)                               [deg]
#  10 FWHM_WORLD             FWHM assuming a gaussian core                              [deg]
#  11 ELONGATION             A_IMAGE/B_IMAGE                                           
#  12 ELLIPTICITY            1 - B_IMAGE/A_IMAGE                                       
         1 -12.0855     92.3182      8.2906   4.5599906953e+00   6.1159015527e+01    0.2538914    0.2448622 -27.94 0.0005298572    1.155    0.134
         2 -11.2169     86.1939     12.4119   8.0533709117e+00   6.2312571529e+01    0.1987591    0.1706636  71.25 0.0002676306    1.090    0.083
         3 -11.2732     89.3171     10.7236   6.4352253295e+00   6.1691521268e+01    0.1898755    0.1846011  38.65 0.0001841535    1.105    0.095
         4 -10.8222     55.4925      8.9283   1.6394067029e+01   7.0080506730e+01    0.1805966    0.1325254 -24.83 0.0003321413    1.462    0.316
         5 -12.0086     72.0848      6.9015   9.1201800852e+00   6.6400348630e+01    0.2033589    0.1839576  59.85 0.0004249004    1.035    0.034
         6 -10.5828    114.0115      6.0330   3.5953306394e+02   5.5682868846e+01    0.1642182    0.1457633  84.39 0.0002992168    1.006    0.006
         7 -10.7102     89.4949      3.0467   2.6169318818e+00   6.2362188864e+01    0.1837887     0.137979 -20.66 0.0004321017    1.500    0.333
         8 -10.9687     25.2929      1.8402   2.8671558692e+01   7.6993253761e+01    0.2121084    0.1568529  44.02 0.0009509713    1.383    0.277
         9 -10.8590      1.2119      2.0846   5.2912052704e+01   8.0048733450e+01    0.1490931    0.1082717 -59.30 0.0003568933    1.549    0.354
        10 -10.7588      4.4133      1.4257   4.8607784425e+01   7.9892045771e+01    0.1829417    0.1085531  19.08  0.000102721    1.618    0.382
        11 -11.3941    131.9959    245.3343   5.4841846287e+01   7.0516216960e+00    0.1671851    0.1232645  23.17  0.001111251    1.060    0.056
        12 -12.5716    139.3780    247.6257   5.3588136465e+01   5.8106511845e+00    0.3381099    0.2561264 -58.67  0.002043557    1.872    0.466
        13 -11.6622    114.6436    249.0655   5.8867101394e+01   8.5816085108e+00    0.2855924    0.2100217  65.74  0.001630808    1.878    0.468
        14 -12.5977     56.9567    249.0812   7.1277999931e+01   1.5289411684e+01    0.3607302    0.2037073  27.14  0.001848314    1.489    0.328
        15 -11.7351     49.6542    248.0980   7.2800414148e+01   1.6249958317e+01    0.2480963    0.2177035  81.55  0.001477245    1.322    0.243
        16 -11.2663     50.6725    243.0072   7.2284530716e+01   1.7066010574e+01     0.199508    0.1734984  18.77  0.001053927    1.299    0.230
        17 -12.8504     27.3804    206.5557   7.5677914394e+01   2.6862878090e+01    0.3147497     0.268662 -50.53 0.0004859772    1.493    0.330
        18 -14.7042     34.5211    247.0014   7.6008892722e+01   1.8010309380e+01     1.868383    0.6127973  38.81  0.009363667    2.000    0.500
        19 -15.5107     26.4191    183.0156   7.4550594782e+01   3.2381924275e+01     1.986285    0.9259853 -59.31  0.009054363    2.348    0.574
        20 -14.8069      5.0177    184.5847   8.0436216359e+01   3.3868477244e+01     1.107608     1.024379  81.94  0.005442583    1.195    0.163
        21 -13.9403      4.8832    212.2482   8.1373260950e+01   2.7659852103e+01    0.8115414     0.404543  71.91  0.004429689    1.795    0.443
        22 -12.9394      6.1327    191.2816   8.0387626186e+01   3.2216081762e+01    0.3876982    0.2307627  26.79 0.0007148235    1.605    0.377
        23 -13.3017     12.8915    189.3593   7.8546606255e+01   3.2104090271e+01    0.4156321    0.3363496 -51.10  0.001228091    1.543    0.352
        24 -12.8010      1.8315    227.0249   8.2454165924e+01   2.4858803576e+01    0.2545268    0.1872648  87.57 0.0008424619    1.403    0.287
        25 -13.8689      2.4393    220.3439   8.2156823053e+01   2.6165139652e+01     0.556536    0.2717206  68.63  0.002057685    1.773    0.436
        26 -16.3272      5.9255    243.4532   8.1960462806e+01   2.1335697024e+01     1.832806     1.214503 -24.24   0.01097146    2.687    0.628
        27 -14.9923      5.7943    234.1700   8.1760939395e+01   2.3115160883e+01    0.5473448    0.4470924  51.54  0.004054149    1.120    0.107
        28 -14.1571     15.0246    229.7093   7.9597396011e+01   2.3178757764e+01    0.6361061    0.2260552  32.12  0.002783079    2.067    0.516
        29 -13.7697     13.9683    224.7889   7.9667606541e+01   2.4262886585e+01    0.3507782    0.2394174  49.73  0.001557189    1.111    0.100
        30 -11.4970    205.9743    244.0946   4.0586596583e+01  -1.3317558939e+00    0.1663364    0.1214111   3.53 0.0004673587    1.018    0.017
        31 -11.8587    143.3017    242.5558   5.2194263736e+01   6.0886506563e+00    0.2293994    0.2043654 -42.97 0.0008990881    1.455    0.313
        32 -11.9901    126.9503    242.4707   5.5573467990e+01   8.1171170287e+00    0.2340926    0.1560642  45.31 0.0004772971    1.564    0.361
        33 -11.6258    117.6364    241.4445   5.7438330698e+01   9.4367866509e+00    0.1896788    0.1519773 -40.60 0.0007488034    1.511    0.338
        34 -10.5756     94.3075    242.6819   6.2622789856e+01   1.2097935363e+01    0.1240672   0.07580503  50.60 0.0004382502    1.634    0.388
        35 -11.4024    167.9499    241.4964   4.7169143115e+01   3.2676841344e+00    0.1750607   0.09200927  27.82 0.0007267751    1.544    0.352
        36 -11.2380    124.8100    249.9189   5.6831698774e+01   7.2224824456e+00    0.1717483    0.1360884   7.61 0.0007989944    1.212    0.175
        37 -10.7275    180.8179    240.2004   4.4558349376e+01   1.9394955331e+00    0.1482508    0.1017549   3.93  0.000228117    1.243    0.196
        38 -10.8514    100.4851    240.4532   6.1057067957e+01   1.1725470035e+01    0.1239702   0.09688488  32.29 -4.695986e-05    1.019    0.019
        39 -11.4714     65.5755    239.7837   6.8760150761e+01   1.6005959843e+01    0.3150344    0.1016996  49.82  0.001302486    2.995    0.666
        40 -12.6239     36.9367    239.4830   7.5127866286e+01   1.9163864517e+01    0.3306837    0.2535926 -75.92  0.002278099    1.555    0.357
        41 -13.5449     35.3847    231.5643   7.5078634487e+01   2.0849153916e+01     0.489259    0.3149983 -84.72   0.00239049    1.720    0.419
        42 -11.9349     35.3011    226.6392   7.4842217872e+01   2.1836976227e+01    0.3158198    0.1334238  57.13  0.001243441    2.160    0.537
        43 -11.6170    210.1806    235.7494   3.8696046993e+01  -7.6745165669e-01     0.195434    0.1698121 -43.23  0.001479003    1.916    0.478
        44 -12.4508     69.1697    235.8181   6.7653702680e+01   1.6324659222e+01    0.3362957    0.1890695  42.30 0.0004660999    1.410    0.291
        45 -12.6214     73.2941    231.5221   6.6367324802e+01   1.6644396694e+01    0.3871292    0.2966557 -45.66 0.0009594801    1.657    0.397
        46 -11.1719    137.8873    236.1752   5.2541015231e+01   7.7413931830e+00    0.1787313    0.1380056  35.86 0.0004589364    1.248    0.199
        47 -11.1421    103.6958    236.0736   5.9911855863e+01   1.2081145429e+01    0.1629575    0.1453766  22.74 0.0003861532    1.122    0.109
        48 -11.4539     47.0874    235.7597   7.2655861518e+01   1.8810470418e+01    0.2040159    0.1228483  47.24  0.001216902    1.315    0.239
        49 -11.9727    165.5885    234.3983   4.6689258976e+01   4.5567198365e+00    0.2101915    0.1728098  28.05 0.0001811523    1.276    0.216
        50 -11.5644    121.7224    235.0150   5.5846092546e+01   9.9803535997e+00    0.1623774    0.1394259  21.60            0    1.076    0.071
        51 -12.2820     57.4729    234.0927   7.0190433893e+01   1.7988809712e+01    0.7316303          nan  33.33  0.002181239    4.987    0.799
        52 -11.7980     61.6682    231.3341   6.9031889592e+01   1.8041205180e+01    0.2625572    0.1396665  57.06  0.001028646    1.868    0.465
        53 -12.3543     61.4827    228.4736   6.8862648923e+01   1.8616734366e+01    0.1755305    0.1590549  85.88 0.0006421934    1.264    0.209
        54 -12.7931    243.1990    233.4349   3.3048277125e+01  -3.8433027419e+00    0.1932606    0.1417967  -1.52 0.0004530466    1.129    0.114
        55 -10.4299    197.4122    234.4410   4.0734711266e+01   8.0155302417e-01    0.1127697   0.08414014   3.30 0.0001713886    1.016    0.016
        56 -12.3789    180.6129    230.3202   4.3232092991e+01   3.3117209835e+00    0.3102757    0.2211719  53.84  0.001821119    2.507    0.601
        57 -10.6485    158.5232    233.4962   4.7969834716e+01   5.5611830243e+00    0.1205608   0.09509604  14.16 5.932119e-05    1.002    0.002
        58 -11.2877    223.2280    231.9620   3.5971603849e+01  -1.6882801248e+00    0.1327398   0.07504352 -30.27 0.0007479339    1.644    0.392
        59 -10.8282    216.5748    231.5100   3.7003653329e+01  -9.3357132425e-01    0.1102963   0.08025552  -1.05 8.633727e-05    1.014    0.014
        60 -11.7400    194.8385    229.2257   4.0447530781e+01   1.7792989202e+00    0.2719503    0.1439843 -36.25  0.001513267    1.930    0.482
        61 -12.4002    149.6401    229.5004   4.9248264654e+01   7.2926901370e+00    0.2408995     0.213675 -87.28  0.001628922    1.760    0.432
        62 -12.2966    154.6823    227.8456   4.7990677908e+01   6.9036483893e+00    0.3759515    0.2044057   1.75  0.001754469    2.678    0.627
        63 -11.1817    141.5044    229.4926   5.0944855244e+01   8.3413694689e+00    0.1240817    0.1001467  19.52 2.537842e-05    1.009    0.009
        64 -12.6306    127.6055    227.1582   5.3633829939e+01   1.0538858115e+01    0.2272062    0.1805082  28.81 0.0003075364    1.068    0.064
        65 -13.6458    124.6353    220.8849   5.3506650240e+01   1.2018428752e+01    0.6914615    0.3669599  52.83  0.003197186    2.576    0.612
        66 -11.6058     85.8661    228.1072   6.3162196272e+01   1.5754154818e+01    0.2034979    0.1499057  48.36  0.001249144    1.243    0.195
        67 -11.2436    138.1688    226.9352   5.1323425409e+01   9.1905588690e+00    0.1806815    0.1504717  38.11 0.0005432465    1.256    0.204
        68 -12.7130    116.5689    225.1899   5.5839322035e+01   1.2332891999e+01     0.440368    0.2766621  77.21  0.001594689    3.146    0.682
        69 -12.1943    106.2909    226.4755   5.8307313213e+01   1.3449553322e+01    0.2573503    0.1993339  -7.32   0.00128169    1.517    0.341
        70 -12.2791     80.9214    225.1366   6.4034156489e+01   1.6934099463e+01    0.3930893    0.2754102 -29.79  0.001680349    1.955    0.489
        71 -13.3731     49.1712    221.7331   7.1284295533e+01   2.1354963595e+01      0.57998    0.3950859 -26.82  0.003169652    2.253    0.556
        72 -12.6879     49.9362    215.6256   7.0674915425e+01   2.2533109820e+01    0.3852008    0.2695957  30.19  0.001284083    1.275    0.216
        73 -12.1872     42.5419    226.5717   7.3154461733e+01   2.1095231188e+01    0.2934217    0.1446477 -80.38  0.001525861    2.317    0.568
        74 -12.0338     40.7567    222.0064   7.3302407548e+01   2.2209881488e+01    0.2653787    0.1864205  33.81  0.001629426    1.214    0.176
        75 -10.5509    188.5147    226.4415   4.1197960785e+01   2.9017861866e+00    0.1189556   0.08911033   4.11  0.000108997    1.067    0.063
        76 -11.9813    100.4709    224.4713   5.9419382650e+01   1.4572622103e+01    0.2207258    0.1775077  28.59  0.001395807    1.050    0.047
        77 -11.8028     92.2277    224.0931   6.1289441718e+01   1.5706820021e+01     0.289891    0.2113739 -20.87   0.00166105    1.816    0.449
        78 -12.5205    160.7105    222.7461   4.6057407462e+01   6.9162461111e+00     0.399186    0.1651734  37.05    0.0019083    2.202    0.546
        79 -12.2689     57.4824    220.8500   6.9234168738e+01   2.0596410960e+01    0.3463646     0.196423 -48.40  0.001009434    2.309    0.567
        80 -12.8829    173.8432    219.4978   4.2970097911e+01   5.7180954722e+00     0.306769    0.2111912 -38.33  0.001403991    1.583    0.368
        81 -11.5771    238.4938    220.4965   3.1834800606e+01  -1.9043146221e+00    0.1083133   0.07750501  -5.71  0.000810654    1.003    0.003
        82 -10.5109    197.3035    220.2830   3.8677608674e+01   2.6970593336e+00    0.1173809   0.07346748  -1.46 0.0002145177    1.555    0.357
        83 -12.4076    190.1413    220.0919   3.9956669093e+01   3.5899339618e+00    0.2048651     0.139516  13.39 0.0003352611    1.246    0.198
        84 -12.2361    165.7645    219.0575   4.4507641734e+01   6.8299112356e+00    0.2167085    0.1483134  18.37 0.0002689963    1.255    0.203
        85 -12.8800    144.6671    216.5628   4.8537173442e+01   1.0049573775e+01    0.4461505    0.2811888  49.03  0.002389694    1.947    0.486
        86 -12.9979    140.8869    210.6470   4.8520739610e+01   1.1587358323e+01    0.4805275    0.2661167 -64.81  0.002186766    3.052    0.672
        87 -11.9790     62.3723    216.3742   6.7698074682e+01   2.0941182638e+01    0.3995182    0.1777553  57.64  0.001264966    2.504    0.601
        88 -11.9997    225.9524    216.2899   3.3164590703e+01  -6.6056813948e-02     0.182312    0.1413554 -11.01 0.0003764236    1.142    0.124
        89 -11.2464    205.2839    217.0552   3.6765294341e+01   2.1874085686e+00    0.1593615    0.1245976  -7.37 0.0005132846    1.079    0.073
        90 -11.2647    138.1722    216.8296   4.9980975749e+01   1.0889168146e+01    0.1882404    0.1558052  36.09 0.0005134543    1.204    0.170
        91 -11.7156    134.2352    214.2268   5.0491306355e+01   1.1883115203e+01    0.2427386    0.1445932  49.43  0.001226069    1.998    0.500
        92 -12.4716    129.2885    217.1088   5.1979846028e+01   1.2054095037e+01     0.348308    0.1613615  27.06 0.0007519582    1.945    0.486
        93 -12.7485    107.7665    214.7709   5.6612125677e+01   1.5424008010e+01    0.3471673    0.2594675  73.39  0.001605138    1.778    0.438
        94 -11.9577     93.1523    217.2333   6.0349240539e+01   1.6903543554e+01      0.49897    0.1237988  35.00  0.001620844    2.956    0.662
        95 -11.4775     87.0161    215.4903   6.1632768654e+01   1.8048254982e+01    0.2237056    0.1805349  13.32 0.0008152031    1.299    0.230
        96 -11.3579     83.4677    213.4767   6.2282686809e+01   1.8912447315e+01    0.3284668    0.2325997 -86.67  0.001383711    1.749    0.428
        97 -11.5155    233.2324    214.0532   3.1656052466e+01  -5.7792207797e-01    0.1942665    0.1171874   1.60 0.0007574214    1.515    0.340
        98 -12.6665     76.2180    219.3121   6.4607566790e+01   1.8659785440e+01    0.5137593    0.2144327  43.97  0.001594061    2.031    0.508
        99 -11.6166    156.3485    213.4941   4.5621987803e+01   8.9707560956e+00    0.2490173     0.157581 -61.25  0.001191682    2.489    0.598
       100 -11.5473    248.0112    213.5089   2.9322358640e+01  -2.0507368355e+00    0.1432115    0.0890049  22.58 0.0007800795    1.562    0.360
       101 -10.6925     75.9478    212.3768   6.4012214306e+01   2.0099922155e+01    0.3696459    0.1594572  54.41   0.00152485    2.679    0.627
       102 -10.7181     70.3407    210.7682   6.5243435393e+01   2.1138012256e+01    0.4673559    0.1037919  48.05  0.001312284    5.316    0.812
       103 -12.5016     42.0627    211.7109   7.2339614862e+01   2.4229270481e+01    0.6432502    0.2819391  27.95  0.003028268    1.987    0.497
       104 -13.9851     35.9596    204.6136   7.3407189207e+01   2.6424133660e+01    0.4748709    0.3848999  81.12  0.001140527    1.227    0.185
       105 -11.5699     47.5994    206.6310   7.0599108754e+01   2.4720845622e+01    0.2556282    0.1771331  62.36 0.0008240116    1.344    0.256
       106 -12.4332    170.9111    209.7691   4.2082588498e+01   7.5998098236e+00    0.3399817    0.2303666  59.88  0.001105254    2.897    0.655
       107 -11.2414     96.9140    210.0504   5.8638135367e+01   1.7818736988e+01    0.2564979    0.1804136 -77.47  0.001074061    1.813    0.448
       108 -11.8168     90.7887    210.2499   6.0150527372e+01   1.8602823723e+01    0.1998386    0.1800058  89.69 0.0005173005    1.274    0.215
       109 -11.0914     59.2485    211.0941   6.8029083810e+01   2.2416359033e+01    0.1845153    0.1677775   3.72 0.0006994188    1.305    0.234
       110 -12.8684    161.5070    207.3958   4.3632014614e+01   9.2662792886e+00    0.4465127    0.2898162 -60.40 0.0008407997    2.387    0.581
       111 -12.3041     53.4431    209.3504   6.9336864927e+01   2.3467037049e+01    0.4070348     0.270548  35.35  0.001398351    1.265    0.210
       112 -11.7240    104.5908    205.7957   5.6260989378e+01   1.7611078630e+01    0.2664743    0.2210308  22.96  0.001598927    1.112    0.100
       113 -12.2909    180.1871    207.4617   3.9894847726e+01   6.7190455697e+00    0.2540065    0.1934542  24.57 0.0003006522    1.214    0.176
       114 -12.9098    145.2965    201.3527   4.6172064166e+01   1.2606348882e+01    0.3458691     0.327456  70.02  0.000919577    1.368    0.269
       115 -11.0334     89.1719    204.4136   5.9886702231e+01   2.0017922896e+01    0.2332482    0.1623035  53.03 0.0006436679    1.426    0.299
       116 -12.1569     84.1983    200.1938   6.0655060757e+01   2.1581951984e+01    0.7578544    0.5861064 -72.41  0.004349838    1.475    0.322
       117 -11.9136     92.0210    193.7214   5.7868572874e+01   2.1893777876e+01    0.3166231    0.2666642 -68.51 0.0008792311    1.337    0.252
       118 -10.9635     91.4027    189.5049   5.7484586799e+01   2.2902305223e+01     0.211177    0.1741812  25.31 0.0004822607    1.163    0.140
       119 -11.8104    225.5287    203.8031   3.1246928643e+01   1.5819641353e+00    0.1926395    0.1329888 -15.62 0.0007017532    1.172    0.147
       120 -11.4273    230.3760    208.3516   3.1204856095e+01   4.4585042033e-01     0.253986   0.09170413  36.66  0.001273093    3.008    0.668
       121 -11.4173    113.4601    205.5006   5.4091669290e+01   1.6419807836e+01    0.1340051    0.1161008  27.49 4.106603e-06    1.007    0.007
       122 -10.8053    110.4466    202.4806   5.4413405280e+01   1.7444479015e+01    0.1347229     0.117948  27.06 0.0001340951    1.021    0.020
       123 -11.5907    212.9783    200.7361   3.2826520300e+01   3.4941678643e+00    0.1801904     0.159047 -40.42 0.0007331808    1.604    0.377
       124 -12.2088    135.9458    199.2191   4.7946080582e+01   1.4363672455e+01    0.4203159    0.2826903 -88.62  0.001863845    3.129    0.680
       125 -12.0336    138.3176    196.7162   4.7023088614e+01   1.4480527636e+01    0.3191386    0.1766721  45.22  0.001514548    1.922    0.480
       126 -13.3102    121.7138    197.6862   5.1039575557e+01   1.6756963189e+01     0.520874    0.2991864 -46.06  0.002572998    1.921    0.480
       127 -12.2969    177.2483    198.9741   3.9103447799e+01   8.4524193535e+00     0.360882     0.205501  39.66  0.001787257    1.836    0.455
       128 -13.2920    172.6113    195.7399   3.9495308327e+01   9.6322595663e+00     0.345861    0.2334708  27.08 0.0005151398    1.357    0.263
       129 -12.6169    149.3538    196.9475   4.4591868056e+01   1.2803569324e+01    0.2974351    0.2040482 -64.35  0.001539822    2.140    0.533
       130 -12.1028     37.0943    191.1945   7.2202179891e+01   2.9360234343e+01    0.4328024    0.1617497 -75.25  0.001782461    2.765    0.638
       131 -11.6358     37.2801    196.8467   7.2552457859e+01   2.8033970815e+01     0.398399    0.1960438  40.25  0.001949747    1.646    0.392
       132 -12.6619     32.9700    195.5303   7.3595138328e+01   2.8783901015e+01    0.3228603    0.2131778 -61.33  0.001778589    1.716    0.417
       133 -12.3540    192.8282    194.5222   3.5373324203e+01   7.0099008353e+00     0.321019    0.2254665   1.57  0.001109553    1.370    0.270
       134 -11.0376    102.3213    196.3269   5.5592712607e+01   1.9867349286e+01    0.1374394    0.1030915 -11.26 0.0004908594    1.686    0.407
       135 -11.1206    212.0212    193.9963   3.1861981449e+01   4.5627732907e+00    0.1552285     0.150285 -50.05 0.0006161992    1.641    0.391
       136 -11.0351     45.2086    199.6512   7.0686622479e+01   2.6537062708e+01    0.2700174    0.1001594  31.14  0.001136383    2.207    0.547
       137 -11.3564    160.5324    192.5015   4.1456171887e+01   1.1940051669e+01    0.2794839    0.1679936 -52.23  0.001414136    2.024    0.506
       138 -12.7257    132.8216    191.8303   4.7531304647e+01   1.6237539986e+01    0.4044817    0.2560835 -23.85  0.001533375    2.030    0.507
       139 -11.0202     64.1243    193.2982   6.5141079584e+01   2.5733963293e+01      0.18169    0.1428683  41.14 0.0002379802    1.102    0.092
       140 -12.8779    110.4894    188.6424   5.2467553037e+01   2.0274801827e+01    0.3416089    0.2667155 -66.11  0.001297522    1.493    0.330
       141 -11.8425     51.0600    190.3314   6.8366127039e+01   2.8005848443e+01    0.3626567    0.1575195  42.98   0.00112924    1.926    0.481
       142 -10.6197     42.5025    191.4391   7.0767368763e+01   2.8719464876e+01    0.1333729    0.1164163  50.91 0.0001923346    1.046    0.044
       143 -11.2706    174.5415    188.9775   3.7963805625e+01   1.0480717923e+01    0.2016535    0.1541155  23.34 0.0004599369    1.208    0.172
       144 -11.8687    197.9067    188.1557   3.3346768312e+01   7.2940087096e+00    0.2169376    0.1495545  21.71 0.0006153371    1.375    0.273
       145 -11.6567    186.1153    187.3526   3.5408612688e+01   9.0733430262e+00    0.2000854    0.1506755 -18.11 0.0003001927    1.225    0.184
       146 -11.2483    104.0872    188.1246   5.4015470280e+01   2.1345746708e+01    0.2102796    0.1793715   2.59 0.0002840658    1.278    0.218
       147 -13.6428    126.3604    185.6161   4.8085920183e+01   1.8464570677e+01    0.6347843    0.2533488  31.19  0.002297277    2.396    0.583
       148 -12.3089     91.5158    199.2129   5.8681412747e+01   2.0788936671e+01    0.3555837    0.2743841 -23.16  0.001239652    1.629    0.386
       149 -11.3301    227.8951    185.8462   2.7852746231e+01   3.7117681117e+00    0.1862558    0.1266079  -9.98 0.0007883098    1.298    0.229
       150 -11.1587    209.3133    186.3098   3.1003453866e+01   6.0301961519e+00    0.1252896   0.08039544  -4.95 0.0002681524    1.629    0.386
       151 -12.3437    156.1981    186.0974   4.1307590046e+01   1.3737433408e+01    0.2078245    0.1672762  -3.76 0.0005207647    1.231    0.188
       152 -12.3468     32.5906    184.4009   7.2940650709e+01   3.1436656467e+01    0.3931981    0.1987704  73.78  0.001783674    2.099    0.524
       153 -12.0959    163.4942    184.8230   3.9523917590e+01   1.2850163964e+01    0.2320168    0.1985809  52.88 0.0006859128    1.478    0.323
       154 -12.4784    105.1367    182.9978   5.2998660086e+01   2.2296772000e+01    0.2857288    0.2029413 -57.25 0.0005334475    1.548    0.354
       155 -12.1175     94.6862    182.0602   5.5605638900e+01   2.4079429184e+01    0.4306739    0.2305884 -62.33  0.001669396    2.084    0.520
       156 -10.1414     54.4331    184.5500   6.6903852440e+01   2.8965218777e+01    0.1377936    0.1212494  52.75 0.0004996444    1.014    0.014
       157 -12.9331    134.2727    182.0086   4.5599220597e+01   1.7947384507e+01    0.2665217    0.2522908  -4.08  0.000451531    1.075    0.069
       158 -13.0594    154.9830    177.3021   4.0034949349e+01   1.5555189365e+01      0.37209    0.2919257 -61.42  0.001115143    1.638    0.389
       159 -12.7996    116.0852    178.3988   4.9475133471e+01   2.1587384632e+01    0.3547571    0.2320837  21.50  0.001356584    1.609    0.379
       160 -11.4987     48.9676    178.8024   6.7882252209e+01   3.0997448335e+01     0.197655    0.1840046 -24.85 0.0006119929    1.302    0.232
       161 -11.7309    171.7559    178.0303   3.6597520139e+01   1.2781033534e+01    0.2092261    0.1740031  18.23 0.0003718754    1.120    0.107
       162 -13.0016    137.6258    177.1147   4.3969823629e+01   1.8389923720e+01    0.4102371    0.3184554  81.21  0.001358281    1.946    0.486
       163 -11.7312    191.3742    177.1929   3.2598809242e+01   9.9565616193e+00    0.1734991    0.1131115 -45.14 0.0007805857    1.673    0.402
       164 -13.3724    128.2176    175.5853   4.5973721538e+01   2.0230901172e+01    0.4307744    0.3619208  53.07  0.001298981    1.295    0.228
       165 -11.4034     63.2010    176.6446   6.3600825012e+01   2.9763636261e+01    0.3105836    0.1966992  22.01  0.001481215    1.656    0.396
       166 -10.8989     66.5326    175.4645   6.2512337482e+01   2.9611483646e+01    0.2216067    0.1241692 -54.57 2.350541e-05    1.933    0.483
       167 -11.4334    241.5510    175.7754   2.4016688731e+01   3.4045175223e+00     0.191646    0.1218921  15.69 0.0005832097    1.662    0.398
       168 -10.8974    214.4383    176.5199   2.8390858182e+01   6.7908864128e+00    0.1226747   0.09883752 -12.29 6.898207e-05    1.008    0.008
       169 -15.1743     16.5055    214.0444   7.8679208009e+01   2.6268109202e+01     1.849857    0.7112643  33.00  0.009035179    1.988    0.497
       170 -12.1194    106.8205    175.1171   5.1347123718e+01   2.3773014020e+01    0.3090688    0.1942802  30.54 0.0007669824    1.502    0.334
       171 -11.7629     74.5378    169.5534   5.9457787685e+01   2.9948899719e+01    0.2248031    0.2105196  53.10 0.0006696054    1.031    0.030
       172 -13.3870     81.0039    172.5903   5.8027573190e+01   2.8288878211e+01      0.53668    0.2761537  28.22  0.001484657    1.900    0.474
       173 -13.4201     89.6762    169.7552   5.5176081114e+01   2.7672069706e+01    0.6465176    0.3428885  51.98  0.002677448    2.057    0.514
       174 -10.8821    186.4739    171.9848   3.2565225973e+01   1.1553842662e+01    0.1925019    0.1186989 -37.62 0.0004395618    1.544    0.353
       175 -13.9727     16.3687    166.6148   7.6398912642e+01   3.7340217788e+01     0.706243    0.5440817  17.68  0.004058626    1.444    0.307
       176 -12.9570     13.4718    161.9787   7.6987682631e+01   3.8754614029e+01    0.4678044    0.2780599  36.47  0.001137803    1.529    0.346
       177 -12.4381      3.1449    159.9152   7.9977201931e+01   4.0051237649e+01     0.337104     0.217647  53.53 0.0008825074    1.339    0.253
       178 -13.6658      3.9385    166.5737   8.0028494470e+01   3.8322523479e+01    0.5267085    0.3072467  64.22  0.002028579    1.486    0.327
       179 -12.3571      7.2940    163.6827   7.8918829641e+01   3.8801504933e+01    0.2507957    0.1757607  65.36 0.0004519928    1.228    0.186
       180 -11.8918    197.6817    170.4460   3.0189695713e+01   1.0116292483e+01    0.2424409    0.1945452  -7.47 0.0008637521    1.122    0.108
       181 -11.1529    163.5049    171.5323   3.7130083012e+01   1.5258506997e+01    0.1348398    0.1237728   3.56 0.0005889403    1.043    0.041
       182 -12.2433    153.3286    170.1021   3.9088575042e+01   1.7195758730e+01    0.2473797    0.2328099  53.39 0.0006792323    1.244    0.196
       183 -12.9549    152.9355    164.8843   3.8192526979e+01   1.8275595551e+01    0.3344463    0.3083591   0.30  0.001091716    1.011    0.011
       184 -11.2559     63.1384    170.8109   6.2931216720e+01   3.1197542972e+01    0.2297152    0.1710311  54.42 0.0009548036    1.260    0.206
       185 -12.7337     53.4270    170.3743   6.5729601667e+01   3.2540062864e+01    0.3612152    0.2280237 -62.86 0.0001070675    1.645    0.392
       186 -12.4041    127.1913    166.4749   4.4622475186e+01   2.2326331537e+01    0.4388944    0.2731318  15.05   0.00151471    2.089    0.521
       187 -11.3406    122.6934    168.3037   4.6086434139e+01   2.2688541425e+01    0.2164975    0.1832599 -78.52 0.0003200949    1.428    0.299
       188 -13.1721    118.3889    167.3971   4.7031033231e+01   2.3605029539e+01    0.4084996    0.3778804  34.20   0.00136385    1.026    0.025
       189 -11.8325    145.1924    169.1776   4.0771429873e+01   1.8731868565e+01      0.18187    0.1654343  59.28 0.0003511454    1.287    0.223
       190 -12.4039     41.2490    168.5266   6.9150907740e+01   3.4425449317e+01    0.3972942    0.1928328  22.82  0.001694607    2.132    0.531
       191 -14.0797     18.7016    203.8871   7.7711211297e+01   2.8276227650e+01    0.7205762    0.5101155 -47.86  0.004235371    1.864    0.463
       192 -12.4754    199.1596    164.3100   2.8761508727e+01   1.0887754699e+01    0.2569609    0.1959777 -33.46 0.0004770769    1.221    0.181
       193 -12.6150    111.1203    163.8764   4.8326408524e+01   2.5605437816e+01    0.4648663    0.2722074 -40.19   0.00202179    1.958    0.489
       194 -11.5977     96.8172    164.6016   5.2366136989e+01   2.7775660164e+01    0.2585806    0.1785463  30.58  0.000448269    1.396    0.284
       195 -12.9221     91.8543    162.5982   5.3441543033e+01   2.9039885381e+01    0.4796709    0.3450836  27.68 0.0009771585    1.383    0.277
       196 -10.9866     78.2929    165.3178   5.7774168875e+01   3.0443539458e+01    0.1437822    0.1129194 -24.42 0.0001878404    1.603    0.376
       197 -12.5172    132.1805    169.0901   4.3858908397e+01   2.0932130426e+01    0.3248367      0.30435  53.70  0.001226057    1.161    0.139
       198 -12.7866     45.8924    163.0296   6.7199329145e+01   3.5296172424e+01    0.7576348    0.3835736 -17.68   0.00225711    5.311    0.812
       199 -12.9085     47.7510    156.6265   6.5913886043e+01   3.6729654068e+01    0.2944395    0.2460575  67.81 0.0004914008    1.117    0.105
       200 -11.3185    141.7317    162.9814   4.0419547769e+01   2.0573406327e+01    0.1914146    0.1764236 -23.03 0.0003073064    1.085    0.078
       201 -12.5219    169.7626    160.5060   3.3695761958e+01   1.6263333552e+01    0.2941593    0.2476563  15.60 0.0009231432    1.157    0.136
       202 -11.1658    167.9761    156.9922   3.3369899189e+01   1.7220235240e+01    0.2031158    0.1920522  -2.81 0.0003451308    1.066    0.062
       203 -14.5570      4.9945    201.1641   8.1009499804e+01   3.0066099501e+01    0.8693307    0.7029271  -0.53  0.005538597    1.620    0.383
       204 -12.6042     26.0324    159.0182   7.2945867127e+01   3.8419804992e+01    0.4315529     0.252834 -68.87   0.00143808    1.673    0.402
       205 -11.5578    250.0551    158.2047   1.9671965553e+01   4.7151048997e+00    0.1903564    0.1278893 -26.95 0.0004098107    1.152    0.132
       206 -11.8514    190.4710    156.0268   2.8727733078e+01   1.3633509106e+01    0.2881716    0.1185649 -45.61 0.0008501854    2.514    0.602
       207 -12.5136    105.1397    158.6415   4.9029620364e+01   2.7813955393e+01    0.4767407    0.2822752  59.08  0.001799241    2.186    0.542
       208 -11.8064     69.0323    158.9763   5.9622793097e+01   3.3354695871e+01    0.2169075    0.2060151  53.80            0    1.046    0.044
       209 -12.1428    133.4368    157.4340   4.1362672460e+01   2.3183709490e+01    0.3336037    0.2874347  77.32  0.001004043    1.431    0.301
       210 -12.1335    118.5884    157.3325   4.5147734024e+01   2.5813055820e+01     0.303231    0.2335299  45.77  0.001315536    1.284    0.221
       211 -12.3305     31.7138    157.6148   7.1056396643e+01   3.8231664833e+01    0.2761933    0.1933293 -39.06   0.00105652    1.779    0.438
       212 -11.6495    213.0220    156.9729   2.4964705788e+01   9.9696790963e+00    0.1785899    0.1524782 -61.06 0.0005717002    1.651    0.394
       213 -12.2276    141.2965    155.5431   3.9072363813e+01   2.2188696950e+01    0.2381103    0.2206168 -44.52 0.0003168575    1.127    0.113
       214 -11.1806    112.9590    156.5074   4.6498798326e+01   2.6976968697e+01     0.230454     0.140317  37.38  0.001018805    1.557    0.358
       215 -13.7681     82.4604    151.8799   5.4441915713e+01   3.3149856893e+01    0.6911843     0.384046 -34.57   0.00262764    2.618    0.618
       216 -13.2840     75.5654    151.0155   5.6414173213e+01   3.4426355790e+01    0.5051479    0.2964607  47.75  0.001695268    1.672    0.402
       217 -10.5704     62.6701    155.2689   6.1062496655e+01   3.5180921944e+01    0.1559587    0.1008608  57.35 0.0002685837    1.582    0.368
       218 -10.8647     20.3901    154.7311   7.4378978591e+01   4.0044311612e+01    0.2469928    0.1393861  39.49 0.0006898448    1.602    0.376
       219 -13.0777      3.9823    154.1187   7.9459814742e+01   4.1472888581e+01    0.4566356    0.3471837  45.08  0.001689878    1.216    0.178
       220 -11.9276      4.9983    149.9996   7.8939708713e+01   4.2468091831e+01    0.2629466    0.1805727  38.12 0.0007227329    1.379    0.275
       221 -12.0303     67.0979    153.8138   5.9474977646e+01   3.4943141105e+01    0.2819417    0.1747144 -39.46 0.0008024891    2.020    0.505
       222 -12.5764     52.7575    153.3658   6.3934381412e+01   3.6968296833e+01     0.410192    0.1739323  43.63  0.001591396    2.172    0.540
       223 -10.9621     99.2671    153.6504   4.9789361532e+01   2.9983968300e+01    0.1524451    0.1144788  73.44 0.0003105486    1.619    0.382
       224 -11.3666    154.2004    150.8865   3.5122727883e+01   2.0825904617e+01    0.2029605    0.1943332 -87.82 0.0004724255    1.227    0.185
       225 -12.0496     27.9553    150.2052   7.1586146051e+01   4.0543568030e+01     0.345832    0.2458924  -2.96  0.001499059    1.819    0.450
       226 -12.3501    109.9049    149.0438   4.5916266866e+01   2.9245337814e+01    0.4874084    0.2703534  39.89  0.001702753    1.720    0.418
       227 -12.6085     96.3759    148.9830   4.9775319341e+01   3.1602021245e+01    0.2712312    0.2623518  79.15 0.0003211751    1.045    0.043
       228 -11.1502     19.9536    148.6311   7.4054604899e+01   4.1683231736e+01    0.1967347    0.1729896  -5.75 0.0004918406    1.377    0.274
       229 -14.4597     11.8699    143.4328   7.6328779076e+01   4.3704544187e+01    0.9047063    0.7623991 -31.91  0.005264211    1.434    0.303
       230 -11.8951    157.3124    145.4387   3.3284245136e+01   2.1345820748e+01    0.2935219    0.2326813  14.49 0.0007683437    1.383    0.277
       231 -12.7735     53.5140    143.9945   6.2438884854e+01   3.9342404080e+01    0.5774002    0.2639596  71.88  0.001793726    3.787    0.736
       232 -12.5798     47.9855    141.6471   6.3969514543e+01   4.0659173486e+01    0.4954956    0.2300784  29.02  0.001986504    2.089    0.521
       233 -11.2027    232.7549    145.1959   1.9632678816e+01   8.8630790292e+00    0.1637966    0.1211835  -9.59 0.0004176726    1.322    0.243
       234 -12.9549    103.0128    143.6162   4.6810151487e+01   3.1758767750e+01    0.5960618     0.380573  71.62   0.00234796    2.369    0.578
       235 -11.6521    142.9920    143.0938   3.6088379845e+01   2.4491338554e+01    0.4494191    0.2605731 -27.76   0.00132196    2.283    0.562
       236 -11.5141     85.6204    143.7758   5.2057511173e+01   3.4687032533e+01    0.1996761    0.1460197 -75.94 0.0002931261    1.514    0.339
       237 -13.1147     19.9861    137.8458   7.3150196229e+01   4.4559591126e+01    0.4388196    0.2207711  63.40  0.001598434    2.036    0.509
       238 -11.1400    205.3153    142.6977   2.3396112940e+01   1.3451042592e+01    0.1212327    0.1010051 -64.72 0.0002926454    1.617    0.382
       239 -11.0910    201.2991    142.3127   2.3998237952e+01   1.4173922419e+01      0.13275   0.09490066  -6.06  0.000344054    1.605    0.377
       240 -11.0589    150.9651    141.4889   3.3868858413e+01   2.3323785503e+01    0.2078717    0.1423736  39.42 0.0003370034    1.472    0.320
       241 -11.2114    186.9942    143.9854   2.6913121406e+01   1.6307785917e+01    0.1992204    0.1787966 -20.19            0    1.013    0.013
       242 -12.1345     59.8742    140.4554   5.9795718357e+01   3.9439933850e+01    0.3216484    0.1699929 -50.50  0.001310897    2.009    0.502
       243 -12.5151     72.5124    139.1913   5.5405107118e+01   3.7941437897e+01    0.2717333    0.2123281  36.10 0.0005541921    1.249    0.200
       244 -12.4862     68.2755    137.0531   5.6431806448e+01   3.9140676176e+01    0.3093731    0.2277141  55.43 0.0005820595    1.370    0.270
       245 -12.7730     40.4303    137.6368   6.6033448384e+01   4.2620971234e+01    0.3888161    0.2658494  56.32 0.0005943161    1.434    0.303
       246 -12.9754     59.4161    134.6320   5.9023350531e+01   4.1055866237e+01    0.4791515     0.311258  57.04  0.001357774    1.620    0.383
       247 -12.8888     45.4099    135.3152   6.3989356555e+01   4.2674952864e+01    0.4611946    0.3012941  84.04  0.001333329    1.653    0.395
       248 -10.9559     31.9579    136.9590   6.8902241843e+01   4.3701738054e+01    0.2283613    0.1604359 -41.04   0.00100529    1.660    0.398
       249 -13.3921    123.1756    134.7757   3.9301230236e+01   3.0102133696e+01     0.445519    0.3516847  26.66  0.001235743    1.346    0.257
       250 -11.7796    174.9075    134.2321   2.7141189560e+01   2.0245643704e+01    0.2484195    0.1900373 -36.27 0.0007247702    1.225    0.183
       251 -12.4048     86.5104    134.7374   5.0057895267e+01   3.6833487643e+01     0.280841    0.2699802  47.88 0.0004407954    1.034    0.033
       252 -13.2182     18.0575    131.0976   7.3226015185e+01   4.6542887208e+01    0.5165078    0.2461632  29.28 0.0009266858    2.027    0.507
       253 -11.3093    210.2577    133.9924   2.0779613298e+01   1.4055684428e+01    0.1853133    0.1539391 -27.35 0.0005758766    1.029    0.029
       254 -11.0885    196.7691    134.5735   2.3150177911e+01   1.6246195635e+01     0.169639    0.1311957  58.54 0.0009409644    1.648    0.393
       255 -11.5712    102.4486    133.4512   4.4883072650e+01   3.4331988595e+01    0.1544432    0.1479643  64.75 -8.240872e-06    1.032    0.031
       256 -12.6469     77.8725    132.7534   5.2464073736e+01   3.8777185278e+01    0.3374797    0.2564696 -46.85 0.0005108588    1.396    0.284
       257 -13.2848     82.9154    128.5689   4.9972356427e+01   3.9024615919e+01    0.5611978     0.337747 -37.88  0.002257086    2.053    0.513
       258 -12.7940     52.6447    136.2696   6.1612867552e+01   4.1520675147e+01    0.3341742     0.315372  86.57  0.001013475    1.036    0.035
       259 -10.5624    147.2483    148.6553   3.6256627085e+01   2.2541938578e+01    0.1384396     0.115562 -82.22 0.0002622214    1.575    0.365
       260 -12.2234     50.2547    130.4467   6.1562109744e+01   4.3399638662e+01    0.2845075    0.2243058  19.23 0.0006861794    1.391    0.281
       261 -11.6780      8.8481    131.3918   7.6527201427e+01   4.7136569655e+01    0.1741007    0.1319503  -6.85 0.0003702672    1.622    0.383
       262 -12.1893    104.7859    129.7752   4.3386835769e+01   3.4792674348e+01    0.2702979     0.241118  50.78  0.000223363    1.107    0.096
       263 -10.7949     34.4836    130.4569   6.7234041209e+01   4.5214671113e+01    0.1466713    0.1335883  76.24 7.467497e-05    1.011    0.011
       264 -10.8902    247.0298    130.0000   1.4744608897e+01   9.0047770116e+00    0.1618198   0.06841753  47.65 0.0008073386    2.977    0.664
       265 -10.8278    228.4648    129.4367   1.7104830807e+01   1.1845190430e+01    0.1244095    0.1024365 -31.24 2.034993e-05    1.051    0.049
       266 -11.5826    130.3873    128.7214   3.6021997180e+01   3.0052549105e+01    0.2407598    0.2199098  80.35 0.0004635038    1.206    0.171
       267 -11.7767    122.4677    128.3776   3.8042608981e+01   3.1702962478e+01    0.3066483    0.2590912 -27.54  0.000906857    1.296    0.228
       268 -13.1519     56.9432    128.1972   5.8812944600e+01   4.3126253405e+01    0.4609657    0.2200501  47.92  0.001756217    2.172    0.540
       269 -13.6628      9.5463    126.3438   7.5903462385e+01   4.8453969460e+01    0.6009486    0.3512155  28.21  0.002945125    1.732    0.423
       270 -10.8991      1.3339    127.5022   7.8941937047e+01   4.8639831642e+01    0.2366316    0.1133796 -82.83  0.001052467    1.854    0.460
       271 -11.2618     41.6095    125.0733   6.3889069899e+01   4.5910671174e+01    0.3094483    0.1406124 -82.45  0.001107082    2.590    0.614
       272 -12.1335     26.6353    125.6198   6.9529089666e+01   4.7305948028e+01     0.276759    0.2202036 -52.12 0.0007189045    1.315    0.240
       273 -11.4094    125.3057    123.4590   3.6119653340e+01   3.2254559961e+01    0.3344545    0.2520202  74.34  0.001503736    1.723    0.420
       274 -11.0013    121.6351    124.1918   3.7287980221e+01   3.2828040137e+01    0.2133086    0.1888442  -4.65 0.0004078454    1.289    0.224
       275 -13.5388     73.7061    114.0790   5.0019312034e+01   4.4348701971e+01    0.6814409    0.3967147 -54.83 0.0001522436    1.689    0.408
       276 -12.6083     77.5347    113.1102   4.8437436957e+01   4.3951028182e+01    0.5433145    0.2363035 -62.83  0.000263875    2.539    0.606
       277 -13.1807     75.8419    123.8108   5.1364150690e+01   4.1443406354e+01    0.4223593    0.3234535 -70.14 0.0004330841    1.341    0.254
       278 -12.9215     78.3508    119.3598   4.9555948190e+01   4.2186419908e+01     0.386919    0.3496143  17.45  0.001326407    1.208    0.172
       279 -13.1515     82.1457    116.0353   4.7506699846e+01   4.2389248179e+01    0.5849254    0.3644946 -54.70  0.001043684    1.594    0.373
       280 -11.3516     45.8301    128.5910   6.2867728602e+01   4.4452006027e+01    0.2173017    0.1247199  41.32 0.0009381637    1.676    0.403
       281 -12.8348      4.0682    112.3846   7.6904876187e+01   5.2575670101e+01    0.3594411      0.20174 -66.89  0.001506287    1.603    0.376
       282 -13.6851     10.7343    111.8423   7.4207495418e+01   5.2331365711e+01    0.4296713    0.3753381  79.65   0.00196606    1.055    0.052
       283 -14.1544     13.3548    119.3841   7.3891196143e+01   5.0090396692e+01      0.66088    0.4351724  41.09  0.002645568    1.499    0.333
       284 -13.0088      8.5339    117.9673   7.5613913942e+01   5.0796422048e+01     0.398369     0.257249  -4.57   0.00196368    1.921    0.479
       285 -11.4478    179.0462    121.9337   2.3551946556e+01   2.1734517573e+01    0.2118624    0.1933862 -27.14 0.0004155477    1.026    0.025
       286 -11.3048    188.8791    121.1756   2.1576419206e+01   1.9995327940e+01    0.1843426    0.1557297  -2.96 0.0003591134    1.294    0.227
       287 -12.3853    104.8982    121.3040   4.1413090923e+01   3.6826383607e+01    0.3777356    0.2503822  66.65  0.001530026    2.009    0.502
       288 -12.3356    193.6412    122.0682   2.0946926165e+01   1.8953033377e+01    0.2134582    0.1972126  79.13  0.001295353    1.309    0.236
       289 -10.7371    227.3776    119.1697   1.5133772882e+01   1.3567215531e+01    0.1740426   0.09737388 -42.38 0.0001504599    1.558    0.358
       290 -10.0187     46.2937    119.5892   6.1270096167e+01   4.6855718021e+01    0.1670729    0.1048511  67.42            0    1.836    0.455
       291 -12.0411     29.5862    117.5835   6.7403016287e+01   4.9240575572e+01    0.3896653    0.1951555 -58.02 0.0008154771    1.877    0.467
       292 -10.7846    116.8242    117.8347   3.7086023682e+01   3.5269425924e+01    0.2080769    0.1811885 -88.58 0.0002609303    1.285    0.222
       293 -11.8927     22.7095    118.1015   7.0146293382e+01   4.9719130293e+01    0.2471726    0.1824458  42.67  0.000645007    1.346    0.257
       294 -12.9413     99.0055    113.9996   4.1464883862e+01   3.9756087751e+01    0.5639358    0.3900821  -3.20  0.001477924    2.445    0.591
       295 -11.7338     93.5041    116.5012   4.3831451655e+01   4.0194068885e+01    0.2754767     0.229187  70.92 0.0007424134    1.315    0.239
       296 -10.9560    196.7887    115.3734   1.8901352346e+01   1.9515103192e+01    0.1720014    0.1267582  35.63 0.0004252456    1.555    0.357
       297 -12.5158     67.8682    114.2179   5.2164171328e+01   4.5262994040e+01    0.3181978    0.2550948 -55.61 0.0003395417    1.241    0.194
       298 -13.4169     62.5245    111.1011   5.3483030280e+01   4.6923884821e+01    0.6392515    0.3530421 -61.12  0.001791309    1.766    0.434
       299 -10.5460    125.6056    115.5068   3.4086066423e+01   3.3985044727e+01    0.1537694     0.148203 -69.19 0.0008007022    1.041    0.039
       300 -11.9982    114.9254    113.3154   3.6494393231e+01   3.6709160657e+01    0.3400612    0.2695008 -32.07  0.001600306    1.403    0.287
       301 -10.7442     36.4277    109.9601   6.3544214199e+01   5.0644795463e+01    0.1913999    0.1136818  71.34  0.000482789    2.008    0.502
       302 -11.7629     20.2116    110.0553   7.0176085058e+01   5.2141824574e+01    0.2894863     0.194945  29.98  0.000728951    1.530    0.346
       303 -11.6424     76.7061    107.6353   4.7438712723e+01   4.5513159370e+01    0.3351467    0.2166395  78.96 0.0009071282    2.314    0.568
       304 -10.9067    139.9358    107.4793   2.8363885742e+01   3.2667002471e+01    0.2307461     0.151814  48.62 0.0009369992    1.556    0.357
       305 -11.3230    121.7764    106.9576   3.2913455642e+01   3.6715155142e+01    0.2730165     0.211032 -65.27 0.0009959424    1.429    0.300
       306 -12.2003     11.8566    104.8714   7.3040893387e+01   5.4170287866e+01    0.3743283    0.2240919 -40.23  0.001725948    1.832    0.454
       307 -11.6837    104.0495    103.3938   3.7137271157e+01   4.1294503306e+01    0.3710304    0.2835229 -10.84  0.001249901    1.838    0.456
       308 -11.6874     78.6788    101.9113   4.5292020751e+01   4.6629436788e+01    0.3140373    0.2282994  48.21  0.001193127    1.392    0.281
       309 -12.2028     55.8594    101.1639   5.3901137672e+01   5.0574800954e+01    0.3056806    0.2173686 -64.03 0.0006106055    1.373    0.272
       310 -12.3774     57.8450     97.6363   5.2269525545e+01   5.1218490640e+01    0.3217923     0.264928  42.40 0.0008661223    1.224    0.183
       311 -10.5461    184.6681    101.6502   1.7703972801e+01   2.4250107238e+01    0.1438199    0.1095597   2.05 0.0007047978    1.773    0.436
       312 -13.3278      6.1222     99.8288   7.4966787141e+01   5.5887153105e+01    0.4388018    0.2764333  40.19  0.002210671    1.632    0.387
       313 -10.9309     85.7096    100.0361   4.2286148724e+01   4.5787669990e+01    0.2242206    0.2085774 -54.79 0.0007770345    1.078    0.072
       314 -11.3880    115.6894     98.8521   3.2408471129e+01   3.9854581325e+01    0.2821656    0.1988719  75.36 0.0006150847    1.918    0.479
       315 -12.5303     93.8648     98.5701   3.9093576894e+01   4.4538049938e+01    0.4405563    0.2862371  49.62  0.001263305    1.573    0.364
       316 -11.1792     68.5876     98.7474   4.8267778535e+01   4.9209775715e+01    0.2158862    0.1500763 -71.71  0.000940858    1.579    0.367
       317 -10.8803    233.6228     98.1653   9.8845493086e+00   1.5652711101e+01    0.1771405    0.1009877 -27.79 0.0005440632    1.637    0.389
       318 -11.1495    190.5196     98.4609   1.5950886233e+01   2.3609588124e+01    0.1402319    0.1240985 -47.32 5.913175e-05    1.046    0.044
       319 -11.2419     74.6636     97.3039   4.5571202080e+01   4.8525007428e+01    0.1640114    0.1205589  71.01 0.0007038693    1.668    0.400
       320 -11.1062     62.3074     97.2962   5.0378864076e+01   5.0616528799e+01    0.1555084    0.1194914 -24.34 0.0002638846    1.588    0.370
       321 -11.8102     82.0900     95.8314   4.2428467843e+01   4.7523669399e+01    0.3058327    0.2024798 -28.77 0.0008464495    2.026    0.506
       322 -10.9237    118.4254     95.5796   3.0706268081e+01   3.9977337644e+01    0.1542168     0.151607 -85.51 8.882522e-05    1.016    0.016
       323 -12.8070     77.6863     92.4138   4.3096369771e+01   4.9203173146e+01    0.4352585    0.2508527  48.03  0.001373539    1.806    0.446
       324 -12.4253     73.9943     90.2573   4.3890353928e+01   5.0422397811e+01    0.3147345    0.2548454  20.63  0.001050288    1.388    0.280
       325 -12.4038     62.9894     92.0910   4.8767936774e+01   5.1861161984e+01    0.2420901    0.2332885 -88.75 0.0009571813    1.028    0.027
       326 -11.2249    121.2110     89.9729   2.8307310195e+01   4.0563504298e+01     0.252829    0.2054227 -75.46   0.00119317    1.396    0.284
       327 -10.8037     28.2402     90.5958   6.3708693861e+01   5.6785512688e+01    0.1947809     0.141096  -0.30 0.0008680882    1.621    0.383
       328 -12.7581      3.3260     88.5442   7.5082596299e+01   5.9088573023e+01    0.4101703    0.2339705 -83.84  0.001966187    1.604    0.377
       329 -11.3853    125.1763     87.2937   2.6452489266e+01   4.0216073645e+01    0.3327402    0.2561418  -4.57   0.00146654    1.862    0.463
       330 -12.4882     54.8338     85.4742   5.0444548772e+01   5.4856661974e+01    0.5185997    0.4542693  -5.15  0.002152295    1.282    0.220
       331 -11.4646    134.6198     84.1095   2.3130680872e+01   3.8657714351e+01    0.2369086    0.2085721  74.30 0.0003644678    1.169    0.144
       332 -11.9484     95.3371     83.2283   3.4064135048e+01   4.7828583376e+01    0.3957033    0.2951528 -29.50  0.001269924    1.582    0.368
       333 -11.0920    183.6581     83.3014   1.3264198931e+01   2.7596070393e+01    0.1468746     0.102588 -68.02 0.0007037897    1.675    0.403
       334 -11.7026     79.3186     82.8508   3.9651989522e+01   5.1224077245e+01    0.2439934    0.1945066 -70.12  0.000452641    1.379    0.275
       335 -11.0325     10.2919     81.6585   7.0861577942e+01   6.0586700185e+01    0.2722436    0.1819026 -77.29  0.001064416    1.373    0.272
       336 -11.6749      9.1083     77.5850   7.0862301997e+01   6.1746035632e+01    0.3488627    0.1892961 -79.72  0.001337571    1.741    0.426
       337 -12.0450     66.1532     81.4983   4.4466036506e+01   5.4005399527e+01     0.279397    0.1830858 -50.35  0.001232955    1.504    0.335
       338 -12.1844     88.4719     79.4334   3.5214992978e+01   5.0156915005e+01    0.3685859    0.2744878 -32.99  0.001050299    1.515    0.340
       339 -12.0718    111.8837     77.9772   2.7231023296e+01   4.5247237420e+01    0.4945961     0.337427 -89.22  0.001476829    2.238    0.553
       340 -12.0369    215.6573     81.1378   8.2620901880e+00   2.1398658703e+01     0.269436    0.1939919 -47.50 0.0006933419    1.199    0.166
       341 -11.3889    163.6507     78.2852   1.5333727674e+01   3.2932057463e+01    0.1524475    0.1095882 -73.82 0.0003478571    1.655    0.396
       342 -12.2823    102.3924     77.1236   2.9813972840e+01   4.7612472365e+01    0.2700196    0.2429718  45.12 0.0003735794    1.121    0.108
       343 -10.9031     55.8966     78.5325   4.8008170692e+01   5.6460602029e+01    0.2159286    0.1506738  29.77 0.0004265864    1.487    0.328
       344 -11.9702     86.6965     74.0580   3.4070675660e+01   5.1744668997e+01    0.3670273    0.2079878 -49.52  0.001486175    1.791    0.442
       345 -11.2420    105.8836     73.1497   2.7421090948e+01   4.7646528572e+01     0.246755    0.2131175  88.87 0.0007928518    1.263    0.208
       346 -10.9869     45.0071     73.5200   5.1623370677e+01   5.9344669989e+01    0.2130645    0.1439311  33.26 0.0004910983    1.506    0.336
       347 -10.3299    124.0034     72.2060   2.2074277975e+01   4.3521869131e+01    0.1995737    0.1224456  54.17 0.0004079808    1.623    0.384
       348 -11.1747     78.7999     71.8663   3.6263963564e+01   5.3883803323e+01    0.4204019    0.1832451 -43.59  0.001492529    2.384    0.581
       349 -11.6464     46.7998     62.7313   4.7320191289e+01   6.1746249170e+01    0.2897668    0.1908825  40.17 0.0007354061    1.558    0.358
       350 -11.9996     48.9782     66.9802   4.7654703763e+01   6.0392097734e+01    0.4948186    0.3250205  10.04  0.002163009    1.973    0.493
       351 -12.8379     61.0385     68.1651   4.2384822305e+01   5.8126504678e+01     0.554868    0.3856209 -85.44  0.001726025    2.141    0.533
       352 -13.7273     55.0493     68.9483   4.5393356723e+01   5.8957787153e+01    0.4266067    0.3747146  -6.55 0.0007949761    1.246    0.197
       353 -11.6045      2.9272     71.5142   7.3248411076e+01   6.3658192084e+01    0.3168871    0.1778598 -76.35  0.001268529    1.598    0.374
       354 -11.3649    154.3695     68.4688   1.4236932148e+01   3.6819266354e+01    0.2490101    0.2179172 -36.40 0.0001867638    1.170    0.145
       355 -11.5226     71.8627     68.5799   3.7880923232e+01   5.6015197706e+01    0.4155394    0.2630717   8.06  0.001485339    2.977    0.664
       356 -10.8717    120.9953     68.0400   2.1480762485e+01   4.5049154679e+01    0.1926039    0.1707388 -48.33 0.0006024103    1.128    0.113
       357 -11.5816      7.8379     66.8062   6.9814835648e+01   6.4664956896e+01    0.1901409    0.1548315  65.01 0.0007900792    1.339    0.253
       358 -11.3872     39.0173     65.1079   5.2126713819e+01   6.2257821992e+01    0.2089551    0.1990805 -41.88 0.0003871533    1.005    0.005
       359 -10.3223    164.6989     64.3060   1.1186857541e+01   3.5035398953e+01    0.1513774    0.1039519 -66.59 0.0002392595    1.595    0.373
       360 -11.4950     13.5093     60.1472   6.5195678481e+01   6.6048292344e+01     0.319173    0.2420946  83.37  0.001680372    1.473    0.321
       361 -11.0805    136.4818     61.5313   1.5685436751e+01   4.2399616081e+01    0.1523654    0.1418859 -78.68 0.0002494983    1.017    0.017
       362 -10.7931    123.9365     61.5009   1.8545958148e+01   4.5530239904e+01    0.2223902     0.148504  58.19 0.0003179018    1.476    0.322
       363 -10.5834     21.2739     61.3143   6.0896648969e+01   6.5147493289e+01    0.1464946    0.0937513 -37.90 0.0003616014    1.560    0.359
       364 -13.2777     38.2131     56.0628   4.9568608997e+01   6.4559456143e+01     0.783268    0.6840785  82.44  0.004319211    1.356    0.263
       365 -10.2648     27.3174     60.6641   5.7224172410e+01   6.4734105686e+01    0.1451295    0.1059442  64.29 0.0007048442    1.698    0.411
       366 -12.6928    153.4095     56.9900   1.0951863899e+01   3.8945331900e+01    0.2999787    0.2441051 -49.09 0.0004324433    1.163    0.141
       367 -11.4194    179.6844     56.0972   6.6034891138e+00   3.2781553257e+01    0.2162378    0.1769232 -79.33 0.0002958581    1.206    0.171
       368 -12.0982    110.5470     55.8639   2.0012724799e+01   4.9863359003e+01    0.3164618    0.2049735  74.84  0.001324427    1.891    0.471
       369 -12.3299     23.3711     54.9053   5.7853732404e+01   6.6558659521e+01    0.2889264    0.1789294  -9.85  0.001334778    1.966    0.491
       370 -10.6587    126.2990     54.3047   1.5521824559e+01   4.6185152212e+01    0.1483794    0.1192577  24.11 0.0001850341    1.588    0.370
       371 -11.1913    115.9588     54.0436   1.7924487976e+01   4.8834940797e+01    0.2171897     0.174595 -71.22 0.0004135974    1.351    0.260
       372 -12.1893    114.0229     50.9525   1.7291198291e+01   4.9849038750e+01     0.328749    0.2126452  48.95 0.0009523403    1.548    0.354
       373 -12.5961    107.2268     51.1244   1.9162536199e+01   5.1519977727e+01    0.5133378    0.2187521  56.59  0.001345194    2.289    0.563
       374 -11.6901    172.9777     49.6437   5.7177345723e+00   3.5299282983e+01    0.3700286    0.2036718 -64.74  0.001084023    2.125    0.529
       375 -11.3575    150.9925     50.9868   9.5120135315e+00   4.0480470223e+01    0.2199212    0.2024445 -68.25 0.0003457762    1.023    0.023
       376 -13.1680     30.1424     50.1380   5.2156714614e+01   6.6981826490e+01    0.3149888    0.3000847 -19.69   0.00107834    1.032    0.031
       377 -12.2275     99.5034     49.5425   2.0774243262e+01   5.3699193636e+01    0.3070075    0.2590214 -83.78 0.0008068995    1.312    0.238
       378 -11.4651     19.2184     49.0220   5.8656770386e+01   6.8379854532e+01    0.2237748    0.1677136 -34.63 0.0004260594    1.277    0.217
       379 -10.7035     16.3049     49.7183   6.0762433869e+01   6.8455566420e+01    0.2061524    0.1319211 -68.09 0.0003858975    1.535    0.348
       380 -12.3592    194.3740     44.2316   1.6328355891e+00   3.1102536963e+01     0.251788    0.2001096 -62.74 0.0002599517    1.110    0.099
       381 -11.2930     49.6651     43.9644   3.8468733559e+01   6.5485796977e+01    0.2253284    0.1860949  21.46 0.0002973635    1.228    0.186
       382 -11.5395    167.0932     41.9254   4.2801153094e+00   3.7805494963e+01    0.2091555    0.1839124 -65.24 0.0003203454    1.012    0.012
       383 -12.6985    155.2153     41.2565   5.7763385315e+00   4.0841617148e+01    0.2984564    0.2615035  77.78 0.0004811965    1.122    0.109
       384 -10.5849    130.2471     42.3310   1.0486251418e+01   4.7065662996e+01    0.1399316    0.1157407  20.32 0.0002986365    1.547    0.354
       385 -12.2912    120.5350     39.2019   1.1378733395e+01   5.0037116900e+01    0.3149095     0.262093  71.33 0.0004602764    1.140    0.123
       386 -13.5709     34.4220     40.3250   4.5611437288e+01   6.8651084492e+01    0.4800075    0.3182768  37.71   0.00222547    1.555    0.357
       387 -10.8431      2.5455     42.4693   6.8258323483e+01   7.1077118052e+01    0.1324283     0.112902 -46.76 7.783201e-05    1.026    0.025
       388 -11.7969     80.0487     36.8770   2.1771562049e+01   6.0510796311e+01    0.3916571    0.2186769 -36.66  0.001100102    1.876    0.467
       389 -11.9294     23.5322     42.4857   5.3554367332e+01   6.9506596755e+01     0.137228    0.1236842 -28.73 6.390838e-05    1.017    0.017
       390 -12.5763     23.0727     37.3675   5.1840181368e+01   7.0716765129e+01     0.272267    0.1536828  39.70  0.001224793    1.960    0.490
       391 -12.0438      9.4228     36.7835   6.1578266371e+01   7.2060428374e+01     0.228667    0.1777073  13.00 0.0007688336    1.335    0.251
       392 -11.1284    100.2735     35.6495   1.4904975910e+01   5.5759228584e+01    0.1520352    0.1101913 -67.27 0.0003142424    1.634    0.388
       393 -11.7107     42.0952     33.7373   3.7841736364e+01   6.8828682633e+01    0.2487613    0.1931344 -31.29 0.0003064112    1.293    0.227
       394 -12.8418     30.6621     31.5692   4.3964764092e+01   7.1014266484e+01    0.2842947     0.247965  24.11  0.001144993    1.147    0.128
       395 -12.3096     85.8258     33.8512   1.8417816456e+01   5.9614399646e+01     0.234389    0.2039366 -71.37  0.000757858    1.275    0.216
       396 -10.9112      3.2159     30.4413   6.4408460320e+01   7.3905095360e+01    0.2362983    0.1207726   2.16  0.001139681    2.090    0.521
       397 -12.3158     81.7295     28.8756   1.7447900463e+01   6.1348878532e+01    0.2633026    0.1810194  47.39 0.0007917608    1.378    0.274
       398 -12.0668     75.8077     29.0433   1.9586725230e+01   6.2733842834e+01    0.2175843     0.193587 -75.55 0.0005679299    1.278    0.218
       399 -12.4260     44.9713     25.8778   3.1991050077e+01   6.9771007547e+01    0.3459757    0.2342718 -33.00  0.001780769    1.524    0.344
       400 -10.8803      1.4715     25.9879   6.4411521795e+01   7.5012604473e+01    0.1903786    0.1138662 -64.39  0.001019566    1.555    0.357
       401 -12.3123     84.8928     24.4623   1.4324920565e+01   6.1191826781e+01    0.2651043    0.2141084 -69.25 0.0006200081    1.429    0.300
       402 -12.3529     74.2733     24.6901   1.7963810330e+01   6.3728392930e+01    0.3094363    0.2244827  54.27  0.000827172    1.285    0.222
       403 -10.7320    113.2908     23.3140   6.7249549515e+00   5.4054816055e+01    0.1442557    0.1059595  35.59 0.0002532831    1.591    0.371
       404 -11.5043     66.2204     23.2232   2.0266719701e+01   6.5799556744e+01    0.1838368    0.1624839 -87.88 0.0003441405    1.338    0.252
       405 -11.3420     70.4754     21.0480   1.7455530114e+01   6.5123947571e+01    0.2044064    0.1403593 -29.13 0.0009960267    1.565    0.361
       406 -11.4377    138.8886     19.3204   9.1108412786e-01   4.7796166677e+01    0.2162099    0.1979279 -50.17 0.0006850272    1.141    0.123
       407 -10.7918     92.7357     19.6605   9.8423583292e+00   5.9827275767e+01    0.1429729    0.1045849  29.23  0.000246169    1.593    0.372
       408 -11.6754     81.1943     19.2289   1.2888784099e+01   6.2780044664e+01    0.1967542    0.1655698 -74.19  0.001071451    1.348    0.258
       409 -11.1742    124.0000     16.2199   1.9986132960e+00   5.2042257065e+01    0.1936785    0.1688905  86.42 0.0003092087    1.030    0.029
       410 -11.7418    101.9477     15.4372   5.7539724574e+00   5.7927730189e+01    0.2235974     0.205016  -3.46  0.001297299    1.251    0.201
       411 -10.8040     65.9543     16.0042   1.6392399419e+01   6.6837319797e+01    0.1733928     0.149977  49.19 0.0007290589    1.062    0.058
       412 -11.0465    237.1315    249.1568   3.6206716026e+01  -4.9722948796e+00    0.1599188   0.09764475  -3.72 0.0005638833    1.237    0.192
       413 -11.7383    190.1186    249.0105   4.4032212693e+01  -2.3438404366e-01    0.1593345    0.1180247   6.50            0    1.023    0.022
       414 -11.9645     69.4469    248.0620   6.8499586092e+01   1.4082078593e+01    0.3332764    0.1726108  62.02  0.001284982    2.262    0.558
       415 -11.4359    177.9911    247.2705   4.6018992868e+01   1.3303135261e+00    0.1946608    0.1185521  12.72 0.0009360993    1.387    0.279
       416 -11.6305     99.3216    246.8596   6.1918610763e+01   1.0787598385e+01    0.2228591    0.1432091  23.95 0.0004816393    1.312    0.238
       417 -10.8819     64.3861    246.7597   6.9512366601e+01   1.4881235432e+01    0.1415833    0.1086693 -56.31 0.0005039899    1.677    0.404
       418 -11.0168    163.2842    246.4305   4.8700573673e+01   3.1353852167e+00    0.1615449   0.08668766  34.13 0.0009486458    1.632    0.387
       419 -10.6362    182.0000    244.8866   4.4964768682e+01   1.1877612595e+00    0.1568298   0.06014859 -42.03 0.0007996405    2.923    0.658
       420 -10.8973    147.0587    245.3023   5.1762761756e+01   5.2257199466e+00    0.1627969    0.1190401  23.01 0.0003969258    1.074    0.069
