#   1 NUMBER                 Running object number                                     
#   2 MAG_AUTO               Kron-like elliptical aperture magnitude                    [mag]
#   3 X_IMAGE                Object position along x                                    [pixel]
#   4 Y_IMAGE                Object position along y                                    [pixel]
#   5 X_WORLD                Barycenter position along world x axis                     [deg]
#   6 Y_WORLD                Barycenter position along world y axis                     [deg]
#   7 A_WORLD                Profile RMS along major axis (world units)                 [deg]
#   8 B_WORLD                Profile RMS along minor axis (world units)                 [deg]
#   9 THETA_WORLD            Position angle (CCW/world-x)                               [deg]
#  10 FWHM_WORLD             FWHM assuming a gaussian core                              [deg]
#  11 ELONGATION             A_IMAGE/B_IMAGE                                           
#  12 ELLIPTICITY            1 - B_IMAGE/A_IMAGE                                       
         1 -11.4381     25.3204     20.0941   1.1481573593e+02   6.8355501668e+01    0.6212558    0.2707223 -21.14  0.002565439    3.692    0.729
         2 -11.1496     26.1203     13.5478   1.1155921933e+02   6.9321111907e+01    0.2084012    0.1459425 -24.12 0.0003761483    1.114    0.102
         3 -10.2686    104.1965     18.6288   8.6175944656e+01   5.5929692412e+01    0.4335331    0.2141857  -2.79  0.001645443    3.072    0.674
         4 -10.9734    217.3349     16.1290   6.6429701010e+01   2.8211694807e+01    0.4964449    0.2190714  52.04   0.00177054    2.346    0.574
         5 -11.0683     19.9214     18.3514   1.1653018720e+02   6.9151135358e+01    0.3290087    0.1787339 -41.78  0.001291794    1.453    0.312
         6 -10.8874    130.8253     15.1719   7.8711040726e+01   5.0210227294e+01    0.3182719    0.2382597  18.44 0.0009174404    1.382    0.276
         7 -11.1565    133.4256     11.7293   7.6908204496e+01   4.9924684735e+01    0.2551893    0.2221997  22.72 0.0008673184    1.103    0.093
         8 -10.3006     60.5527     15.2645   9.8174215721e+01   6.4550649721e+01    0.2450974    0.1045779 -36.34  0.001141758    2.228    0.551
         9 -10.4736     99.4991     13.1427   8.5091380128e+01   5.7543998028e+01    0.3925363    0.1989057 -40.29   0.00176836    2.325    0.570
        10  -9.9965    118.8139     10.4807   7.9400510562e+01   5.3519802662e+01    0.3461335    0.1577886 -40.92  0.001428462    2.616    0.618
        11 -11.7713     81.0844      6.6123   8.7307981269e+01   6.1958081026e+01    0.3921628    0.2383564  11.28 0.0004941541    1.760    0.432
        12  -9.7948      9.0421      8.1698   1.1730972902e+02   7.1723492410e+01    0.1860627   0.09666491 -17.21 0.0009182312    2.079    0.519
        13 -10.8017     75.1539      5.1076   8.8402434726e+01   6.3235209040e+01    0.3244319    0.1766852 -13.86 0.0008924431    1.815    0.449
        14  -9.8873    126.9996      4.9995   7.5588784262e+01   5.2094000794e+01    0.1629054     0.146617  31.75 0.0009767669    1.020    0.020
        15 -10.0718     91.7462      4.3682   8.3288882458e+01   6.0052084487e+01    0.2232908    0.1630347 -12.50 0.0006110261    1.319    0.242
        16  -9.5918     60.1175      5.2421   9.3491524547e+01   6.5854636339e+01    0.3257155   0.09058638  45.47  0.001289013    3.487    0.713
        17 -11.6583     26.7099      3.2735   1.0625710495e+02   7.0753869868e+01    0.3332781    0.2368555  12.66  0.001276785    1.362    0.266
        18  -9.2892     85.9989      1.1695   8.3377147722e+01   6.1519854864e+01    0.1603888   0.08769478  52.77  0.000313391    1.769    0.435
        19  -9.8301    135.3676    237.2870   1.3111812219e+02   9.8581426727e+00    0.1111269   0.08243451  23.35 0.0007021498    1.702    0.413
        20 -10.7532    247.0543    250.1156   1.1420924248e+02  -8.9534533240e+00    0.3241513    0.1215425  39.14  0.001250578    2.088    0.521
        21 -10.7798    250.3835    244.9385   1.1290327129e+02  -8.9435724468e+00    0.3968872    0.1429607 -30.69  0.002098279    3.119    0.679
        22  -9.7743    243.0481    247.4940   1.1444470830e+02  -8.1394816549e+00    0.1592219    0.1369338   1.39 0.0005078907    1.339    0.253
        23 -12.3424    226.6552    246.5030   1.1691427118e+02  -5.6427008627e+00    0.5482914    0.3796828  23.21  0.003885867    1.147    0.128
        24 -11.4519    180.5021    244.1766   1.2423173097e+02   1.7684830784e+00    0.3680718    0.1640829  54.05  0.001752748    2.720    0.632
        25  -9.3743    168.4468    250.5718   1.2707251245e+02   2.8690589119e+00    0.1135895   0.08615173  38.60 4.891237e-05    1.050    0.048
        26 -10.4127    127.9400    249.6337   1.3373365317e+02   9.2141290409e+00    0.1557193    0.1533792 -64.05  0.001093451    1.372    0.271
        27  -9.8601     72.6019    250.1398   1.4279146064e+02   1.6879882284e+01    0.1246606   0.08930711 -62.53 0.0009387736    1.783    0.439
        28 -10.4193     32.4187    249.3020   1.4890664767e+02   2.1775060761e+01    0.2215364    0.1455107 -61.16  0.001708969    2.107    0.525
        29 -11.5245     27.8721    246.0907   1.4941653099e+02   2.2773828682e+01     0.330308    0.1454999 -80.35  0.002174317    2.120    0.528
        30 -12.3920     21.3535    248.9802   1.5051801861e+02   2.2997224803e+01     0.436792     0.150524  50.41  0.002788328    2.034    0.508
        31 -11.7169     14.2303    244.3551   1.5134417718e+02   2.4454509407e+01    0.2544652    0.1162146  81.85  0.001341536    1.849    0.459
        32 -10.7994    159.9949    235.8943   1.2666517407e+02   6.1384275964e+00    0.2420191    0.1433176  37.91 0.0009496259    1.427    0.299
        33 -11.0555     73.7626    232.9780   1.4126203725e+02   1.9479893885e+01    0.2159992     0.164019  77.54 0.0009471547    1.137    0.121
        34 -10.5774    167.1051    233.8738   1.2516011183e+02   5.2622247464e+00    0.2057607    0.1643602  41.24 0.0008490634    1.003    0.003
        35 -10.8935    153.3978    233.7800   1.2754603737e+02   7.5003837462e+00    0.2090964     0.164104   9.88 0.0009401648    1.690    0.408
        36  -9.6902     53.6670    234.7012   1.4471517051e+02   2.1718745389e+01   0.08399827   0.08303111  70.24 0.0006556868    1.648    0.393
        37  -9.4236    240.5825    231.4854   1.1235011758e+02  -6.1846113814e+00    0.1159348   0.08644575  18.65 0.0001140934    1.036    0.034
        38 -10.0583     79.5171    231.2832   1.4014424005e+02   1.8997357783e+01    0.1971072     0.120676  48.96 0.0006157255    1.345    0.256
        39  -9.5794    235.8918    230.2251   1.1291080258e+02  -5.3392114294e+00    0.1610771    0.1078537  16.43  0.000550743    1.313    0.238
        40 -10.1702    169.9772    229.0034   1.2399132094e+02   5.4597042519e+00    0.1826912    0.1311726  18.49  0.001101425    1.627    0.385
        41  -8.9375    159.3080    229.3483   1.2592553064e+02   7.1702617511e+00    0.1160294   0.08628997  15.14 0.0004655223    1.706    0.414
        42 -10.7741    144.5893    227.5016   1.2830395949e+02   9.8466787685e+00    0.2483096    0.1169988 -57.94  0.001245673    2.855    0.650
        43 -10.8103    116.2483    228.9834   1.3352693188e+02   1.4088929518e+01    0.2052944     0.106584 -68.23  0.001109844    2.493    0.599
        44  -9.3525     59.2855    229.3744   1.4340168608e+02   2.1931890162e+01   0.09065428   0.08147828 -52.77 0.0003593876    1.715    0.417
        45 -10.4850    129.8476    226.8639   1.3086182470e+02   1.2309842753e+01    0.3561065    0.1634522  55.79  0.001629151    2.235    0.553
        46 -10.2936    190.5175    226.4640   1.2001392677e+02   2.3917924817e+00    0.2046149     0.178796  21.46  0.000684221    1.118    0.106
        47 -10.5699     86.2839    233.6535   1.3920251297e+02   1.7684889669e+01     0.194195    0.1197834 -89.81    0.0012441    1.773    0.436
        48 -10.4678     88.1383    227.1118   1.3827789562e+02   1.8513346300e+01    0.1598389    0.1442292  55.12  0.001225696    1.295    0.228
        49 -10.8095     66.5904    226.5081   1.4194291633e+02   2.1502943623e+01    0.2655465    0.1350988  51.30  0.001457932    1.576    0.366
        50 -10.5861     81.4463    224.7617   1.3922597635e+02   1.9836832804e+01    0.2194037    0.1621552  73.23 0.0009129829    1.157    0.135
        51  -9.5477     24.9580    226.0000   1.4878424918e+02   2.6417759412e+01    0.1489499   0.04834243  38.58 0.0007957987    2.897    0.655
        52 -10.2969    181.9993    222.9860   1.2099556042e+02   4.2804583230e+00    0.2550127    0.1523245 -22.53  0.001356728    2.425    0.588
        53 -10.8484     13.1494    222.1946   1.5045094475e+02   2.8261711383e+01     0.163473    0.1285078  84.96 0.0003695198    1.247    0.198
        54 -10.8432    141.4412    221.4062   1.2808422717e+02   1.1295175551e+01    0.2840833    0.1965624  28.13    0.0012744    1.644    0.392
        55 -10.8752    146.4070    217.5942   1.2666628726e+02   1.1070226853e+01    0.2846791    0.2214681 -18.04  0.001753899    1.855    0.461
        56  -9.2508    134.8643    223.0000   1.2948326426e+02   1.2115237862e+01    0.1961859   0.05739496  42.78 0.0007865893    2.834    0.647
        57 -11.0508    123.4042    221.4247   1.3136952628e+02   1.4198099060e+01    0.2703643    0.1979415  46.58  0.001022099    1.161    0.138
        58  -9.2160     51.6638    222.6935   1.4417975602e+02   2.4012491909e+01   0.08839562   0.08440862 -50.93 0.0004016862    1.673    0.402
        59 -10.6124    174.3039    219.8003   1.2189832201e+02   6.0267606267e+00    0.2460663    0.1721523  25.10 0.0007683514    1.481    0.325
        60  -9.9094    165.8147    220.2203   1.2349247565e+02   7.4056891454e+00    0.1608333    0.1295154  21.71 0.0003607509    1.316    0.240
        61 -10.1489     21.9757    220.2373   1.4893543435e+02   2.7727441571e+01    0.1376387   0.09792045  67.82 0.0003446167    1.078    0.072
        62  -9.8699    250.3206    219.0698   1.0871882833e+02  -6.3490367333e+00    0.1603356    0.1242667   3.37 0.0006401496    1.125    0.111
        63 -10.7192    181.3120    248.5166   1.2466417982e+02   1.1111976096e+00    0.2854176    0.1328989 -38.10  0.001591071    2.811    0.644
        64 -10.9685    192.5030    216.6954   1.1816124115e+02   3.3554723061e+00    0.3602404    0.2188908  17.34   0.00187093    2.114    0.527
        65  -9.8008     50.3216    218.1577   1.4406697459e+02   2.4973885918e+01    0.1465029    0.1142498  59.76 0.0006413371    1.179    0.152
        66 -10.7045     10.0898    217.0347   1.5067334162e+02   2.9457339963e+01    0.2644328    0.1355764  62.74  0.001434498    1.492    0.330
        67 -10.6803    201.7586    215.8734   1.1638997346e+02   1.8894546933e+00    0.2503629    0.1786631  35.68  0.001026753    1.160    0.138
        68  -9.5207    137.1874    215.6342   1.2810429138e+02   1.2913560557e+01    0.1777894    0.1005121  36.35 0.0009435132    1.722    0.419
        69  -9.1195    115.0000    214.9668   1.3213400551e+02   1.6595489310e+01    0.1709026   0.06767358 -57.30 0.0005443111    2.879    0.653
        70 -11.0196    208.9953    212.1501   1.1450455390e+02   1.1463661091e+00    0.2101652    0.1690711  24.84 0.0004739097    1.034    0.032
        71 -10.1781    170.2217    213.1780   1.2164676356e+02   7.6914443222e+00    0.1680753    0.1372578  60.61  0.001037685    1.330    0.248
        72  -9.6019    142.7897    213.3865   1.2675845057e+02   1.2345017652e+01    0.1717022    0.1025498  36.58 0.0004624927    1.594    0.372
        73 -10.3388    217.8676    207.8415   1.1222155576e+02   1.9416755726e-01     0.363753    0.1678961 -17.59  0.001460446    3.746    0.733
        74 -11.6048      5.2601    207.6481   1.5097441802e+02   3.1580896387e+01    0.3946395    0.1614131  86.89  0.002354516    2.127    0.530
        75 -10.0296      1.4806    207.4820   1.5158278372e+02   3.1947674122e+01    0.1849903   0.07632767 -84.57  0.000920211    1.973    0.493
        76 -10.1083     10.5433    208.9464   1.5017444716e+02   3.0860277887e+01    0.1686328    0.1130063 -36.15  0.001041303    3.477    0.712
        77  -9.1157    139.7010    208.3065   1.2663089767e+02   1.3697163602e+01     0.123652   0.08866309  69.88 0.0005697329    1.592    0.372
        78  -9.8988    206.0000    205.9806   1.1398999027e+02   2.4793957391e+00    0.1839114   0.07107504 -37.01 0.0007996785    2.923    0.658
        79 -11.4237     20.4927    211.2598   1.4865492932e+02   2.9478706652e+01    0.3093439    0.1399397  78.82 0.0007370228    2.033    0.508
        80  -9.4703     27.5559    205.4798   1.4708694014e+02   2.9818912808e+01     0.108821   0.07708248  75.26 0.0004436318    1.051    0.049
        81  -9.5140    238.7647    201.3824   1.0750262583e+02  -2.5046494136e+00    0.1703936    0.0962333  31.20 0.0004980722    1.563    0.360
        82 -10.7440    210.3065    200.8957   1.1233809995e+02   2.4164587725e+00    0.1816918    0.1616779 -47.80 0.0008176715    1.479    0.324
        83 -10.9269    227.3508    196.6837   1.0858689364e+02   9.2322701211e-03    0.3055445    0.1915107   5.10  0.001066774    1.894    0.472
        84 -11.6655    231.8371    191.7718   1.0690158593e+02  -1.2771537934e-01    0.4047458    0.2214195  16.56  0.001887294    2.347    0.574
        85  -9.8646    203.0290    195.9746   1.1277257228e+02   4.3956817195e+00    0.1987524    0.1710661  21.82 0.0007040111    1.023    0.023
        86 -10.1014    163.4233    191.1636   1.1940647686e+02   1.2380519596e+01      0.23552    0.1285688 -39.50  0.001137585    2.128    0.530
        87  -9.2195     60.0106    192.7529   1.4009788133e+02   2.8536144218e+01    0.1389698    0.0877578  46.11 0.0002666108    1.497    0.332
        88 -10.6634    250.2798    190.1099   1.0349356785e+02  -3.0353738861e+00    0.2072204    0.1602282 -34.12 0.0008903118    1.535    0.348
        89 -11.5420    215.5259    193.9775   1.1016259073e+02   2.4395463166e+00    0.3532464    0.1818258 -33.78  0.001750413    2.096    0.523
        90 -11.5947    187.4606    189.4514   1.1448732761e+02   8.2145496964e+00    0.3366778    0.2179115 -30.39  0.001571046    1.758    0.431
        91  -9.2730    205.5242    190.4589   1.1131614429e+02   4.7364810231e+00    0.1322963    0.1120909  22.25 0.0003399514    1.028    0.028
        92  -9.5428    179.3234    189.3401   1.1601582202e+02   9.7429693682e+00    0.1362096   0.09831136  11.13 0.0007050912    1.724    0.420
        93 -10.1562    218.0067    187.3679   1.0848787543e+02   2.9098311524e+00    0.2589505    0.1282127 -43.68   0.00119045    2.489    0.598
        94  -9.9341    166.5365    183.4705   1.1746132032e+02   1.3100680048e+01    0.1885742    0.1711538  43.40 0.0008214132    1.033    0.032
        95  -9.4895     61.7566    185.0139   1.3896372677e+02   2.9845221208e+01    0.1527794   0.08914037 -72.08 0.0007479229    1.600    0.375
        96 -12.0497     16.3708    183.0276   1.4755014232e+02   3.5215743907e+01    0.3358125    0.2121676  83.72  0.001907746    1.244    0.196
        97 -10.1865    236.4674    182.4689   1.0432547047e+02   2.8521713066e-01    0.1295257    0.1089278  11.66 0.0002404208    1.013    0.013
        98  -9.1888     58.3518    182.3061   1.3935728570e+02   3.0816920573e+01     0.106507   0.09100448 -38.29 0.0007042072    1.710    0.415
        99 -11.8947    192.1101    194.8721   1.1458324451e+02   6.5341625898e+00    0.3191174    0.2840205  72.14  0.002000377    1.438    0.305
       100 -10.5623      2.2596    180.1759   1.4996029540e+02   3.7012280101e+01    0.1877137    0.1250709  69.38  0.000540578    1.209    0.173
       101 -11.8615    224.1836    178.3310   1.0564201919e+02   3.0539324603e+00    0.3152671    0.2640261  22.44 0.0005416686    1.054    0.052
       102 -11.9821    244.6735    177.9402   1.0204929750e+02  -5.5357032476e-01    0.3620895    0.2053624   2.04  0.001679991    2.363    0.577
       103 -11.1322    200.3349    176.4668   1.0961810148e+02   7.8045288547e+00    0.2445851    0.2087562  -1.01 0.0008014711    1.174    0.148
       104  -9.2329     70.1997    177.6057   1.3641458708e+02   3.0243383852e+01    0.1438709      0.11403  35.07 0.0004058661    1.505    0.336
       105  -9.9864    100.9765    175.9988   1.2974555125e+02   2.6068580647e+01    0.1802998    0.1603397  75.93            0    1.012    0.012
       106 -10.0404    211.2862    175.0493   1.0730866433e+02   5.9347608659e+00    0.2093379    0.1025294 -14.71 0.0007015627    4.076    0.755
       107 -10.5939    241.5384    173.4895   1.0168128463e+02   5.8525253309e-01    0.2277389    0.1150602 -18.80  0.001028097    2.273    0.560
       108  -9.8162    183.3298    173.3209   1.1226326600e+02   1.1597567385e+01    0.1421098    0.1029471  11.62 0.0007048664    1.692    0.409
       109 -11.8010    248.9764    182.4175   1.0222106042e+02  -1.8651008198e+00    0.4462068    0.2359176  15.02  0.002025319    2.517    0.603
       110  -9.7839    193.3264    172.3389   1.1013450446e+02   9.8112024654e+00    0.1439498    0.1016512  10.57 0.0007051555    1.728    0.421
       111  -9.3803     59.7628    172.0095   1.3793136543e+02   3.2749693351e+01    0.1584224   0.08988586 -70.38  0.000879397    1.613    0.380
       112  -9.6934     74.4821    171.4966   1.3475682152e+02   3.0920953104e+01    0.1239737    0.1070969  83.60  8.42629e-05    1.028    0.028
       113 -10.2646    197.1752    169.1947   1.0877021777e+02   9.5657642362e+00     0.182906     0.164878  64.51 0.0007226356    1.327    0.247
       114  -9.8886      4.5927    167.7443   1.4871745562e+02   3.9287838933e+01    0.2108907   0.07693855 -73.16  0.001144748    2.131    0.531
       115  -9.8768    210.0032    166.3305   1.0577739846e+02   7.5084927889e+00    0.1964827    0.1643708  27.68 0.0005195081    1.094    0.086
       116 -10.6779     52.1092    164.1352   1.3864530313e+02   3.5334202647e+01    0.3681904    0.1923849 -42.78  0.001741543    3.022    0.669
       117 -10.7449     40.9523    165.0522   1.4112117156e+02   3.6407636758e+01    0.1767756    0.1365395  84.80  0.001208542    1.061    0.058
       118  -9.2848    229.4974    164.5331   1.0190242949e+02   4.0358925539e+00    0.1371147    0.1167157   9.51 0.0001347935    1.040    0.038
       119 -11.5370    246.5006    162.4697   9.8585672741e+01   1.1854366319e+00    0.2398008    0.2027297  -0.45 0.0007835676    1.023    0.023
       120 -11.4709    247.6965    158.9405   9.7645826087e+01   1.4508453842e+00    0.4041988     0.276771 -35.08  0.002240195    1.503    0.335
       121  -9.4285    200.0196    162.9589   1.0694974996e+02   1.0010172191e+01    0.1705208    0.1506221  27.78 0.0004214043    1.046    0.044
       122 -10.6656     36.0184    161.1613   1.4176239837e+02   3.7752947832e+01    0.3217551    0.1577699 -74.42  0.001770151    1.753    0.430
       123  -9.4973    213.3128    162.3288   1.0433466123e+02   7.4800532051e+00    0.1443796    0.1003118  10.18 0.0004174366    1.671    0.401
       124 -10.4172    238.1908    158.8173   9.9202699661e+01   3.2213965086e+00    0.1941072      0.14372   8.89  0.000703558    1.346    0.257
       125  -9.4812      7.8111    158.4115   1.4739453675e+02   4.0932042793e+01    0.1144002     0.108122  19.13 0.0004162872    1.564    0.361
       126 -10.6536     22.6210    156.3500   1.4413713853e+02   4.0083112405e+01     0.311199    0.1865264  48.46  0.001994825    1.675    0.403
       127  -9.1629     23.7106    152.6591   1.4354988914e+02   4.0764735924e+01    0.1877096    0.1117515 -65.34 0.0005913025    1.475    0.322
       128  -9.3139    217.8048    154.6988   1.0188671239e+02   7.7733010685e+00    0.2885433    0.1090594  40.75  0.001083794    2.630    0.620
       129  -9.9885    221.9883    151.9916   1.0054507186e+02   7.3586684546e+00    0.3510545    0.1621476 -52.39   0.00115507    4.251    0.765
       130 -10.1467    205.4710    152.5308   1.0369177404e+02   1.0605560615e+01    0.2533415    0.1330619 -23.65  0.001032966    2.337    0.572
       131  -9.9250    197.0489    153.5199   1.0551322071e+02   1.2167093530e+01    0.2225982    0.1345732  45.85  0.001035089    1.601    0.375
       132  -9.0452    151.6378    153.3188   1.1478656830e+02   2.1487182799e+01    0.1481258    0.1119931  81.44 0.0007041832    1.771    0.435
       133 -10.5880     11.0475    152.7474   1.4626395460e+02   4.1847340695e+01    0.3081834    0.1588297  45.06  0.001575616    1.968    0.492
       134 -10.5024    178.3563    151.4257   1.0876987054e+02   1.6393062082e+01    0.3049391    0.2525502  64.10  0.001619569    1.376    0.273
       135  -8.9155    154.6610    150.6955   1.1359051454e+02   2.1388258228e+01     0.145704    0.1131513   8.33 0.0007040089    1.675    0.403
       136  -9.4152     92.6729    148.2955   1.2720644155e+02   3.3183088328e+01     0.138106   0.09729433  75.91 0.0004008631    1.628    0.386
       137  -9.4172    233.5375    146.9947   9.7426743662e+01   5.8318999768e+00    0.2084918    0.1277203 -29.17  0.001022238    1.568    0.362
       138 -10.4308    207.0119    145.9842   1.0195259820e+02   1.1359096465e+01    0.2681262    0.1952985  44.02 0.0007341288    1.350    0.259
       139  -9.4311     37.5355    146.4695   1.3980497633e+02   4.0748686030e+01    0.1202853   0.09708573 -85.55 0.0002040085    1.003    0.003
       140  -9.7056    215.6743    145.6822   1.0028445486e+02   9.6200976134e+00    0.1488175    0.1043288  11.37 0.0006199954    1.675    0.403
       141 -11.1126      7.3975    145.1367   1.4639092384e+02   4.3739969692e+01    0.2894868    0.1676795  79.31  0.001831213    1.550    0.355
       142 -10.5839      2.9705    143.8362   1.4723854891e+02   4.4346572414e+01    0.2094118    0.1415395 -65.55 0.0009169325    1.359    0.264
       143 -10.6068    212.1881    141.7429   1.0003171202e+02   1.0974049580e+01    0.4470494     0.219216  37.23  0.001832994    2.162    0.538
       144  -9.4418     37.5070    142.4510   1.3932721533e+02   4.1629049838e+01     0.120955   0.09775379 -86.14 0.0001898986    1.018    0.017
       145 -11.5144     12.2071    140.4425   1.4490082379e+02   4.4362808528e+01    0.4854009    0.2951415  -7.49  0.002638621    3.459    0.711
       146 -11.6603      9.2466    136.7240   1.4521262455e+02   4.5390452784e+01    0.2141401    0.1764392 -72.68 0.0002018319    1.192    0.161
       147 -10.9001      2.9848    136.3431   1.4659122542e+02   4.5931913793e+01    0.3132243    0.1336445 -67.60  0.001033055    1.794    0.443
       148 -10.4263      5.9792    133.5361   1.4565422976e+02   4.6316939259e+01    0.1820717    0.1200621 -85.88 0.0003288871    1.188    0.158
       149 -11.8765     57.6811    138.5221   1.3399113105e+02   4.0233248330e+01    0.3428706    0.2184265  68.98 0.0005957058    1.763    0.433
       150 -10.7199     42.6901    136.7944   1.3737072730e+02   4.2332635546e+01    0.4423686    0.2275762  75.10  0.002039086    2.667    0.625
       151  -9.8101    235.8312    138.6399   9.5164250797e+01   6.6250644934e+00    0.1821972    0.1318478  56.19  0.000937322    1.641    0.391
       152  -9.2039    230.2539    137.3407   9.5814138025e+01   7.9441523479e+00    0.1424047    0.1016976   2.68 0.0002688565    1.577    0.366
       153  -9.9029     22.2496    136.5319   1.4219488152e+02   4.4370797044e+01    0.1980007    0.1007623  39.82  0.001133158    2.128    0.530
       154  -9.8424    138.3295    135.2726   1.1390867011e+02   2.7751902749e+01    0.2709581    0.1741511  34.31 0.0008011803    1.722    0.419
       155 -10.4984     67.7115    133.8548   1.3078548425e+02   3.9995173412e+01    0.2078216    0.1846113 -70.86 0.0004431326    1.068    0.064
       156 -10.0033     79.4958    133.0623   1.2770842598e+02   3.8531288137e+01    0.1961882    0.1214124 -60.55 0.0002991286    1.486    0.327
       157 -11.9449     36.2793    130.5507   1.3808931828e+02   4.4378862949e+01    0.4344201     0.246412 -76.64   0.00210237    1.558    0.358
       158 -10.4197    249.5176    130.1612   9.1011372047e+01   5.1696612972e+00    0.2563719    0.2425968  20.99  0.001594505    1.167    0.143
       159 -10.1827    125.2964    129.9889   1.1579657177e+02   3.1416203976e+01    0.4002623    0.1934486  28.36  0.001332603    3.570    0.720
       160 -10.4130     74.2917    129.1065   1.2830228626e+02   4.0158911510e+01    0.2276066    0.2097991 -40.16 0.0006476301    1.242    0.195
       161  -9.2506     29.2917    130.3557   1.3977800814e+02   4.5093100346e+01    0.1204921   0.07659982 -49.22 0.0007029055    1.685    0.406
       162  -9.4890    242.9889    128.4624   9.1655578878e+01   6.7092221277e+00     0.190178    0.1355943  47.26  0.000446328    1.495    0.331
       163  -9.4657      1.1667    126.6470   1.4611600451e+02   4.8129315780e+01    0.2155527   0.06583505 -76.71 0.0009735387    2.635    0.620
       164 -10.6519     44.5647    125.8042   1.3533218801e+02   4.4580683751e+01    0.1887249    0.1742396  54.64 0.0004433091    1.249    0.200
       165 -10.6022    219.5906    124.5683   9.4672047878e+01   1.2183091978e+01    0.2642544    0.2418488  -5.11 0.0005542596    1.016    0.015
       166 -11.7095     10.0116    122.5036   1.4356567191e+02   4.8410156324e+01    0.3688259    0.2927864 -20.22  0.002195937    1.812    0.448
       167 -10.8097     17.2427    116.8582   1.4107911432e+02   4.9102859091e+01    0.2692175    0.1849914 -61.13  0.001775062    1.255    0.203
       168  -9.9196     20.8077    121.8790   1.4080921658e+02   4.7708748318e+01     0.167226    0.1265211 -67.83 0.0003039734    1.120    0.107
       169  -9.2470     56.4919    121.4957   1.3154792492e+02   4.4190956351e+01    0.1296055    0.1105081 -76.43 0.0008104085    1.032    0.031
       170  -9.5642     41.0596    120.4734   1.3541829021e+02   4.6144710999e+01    0.1560743    0.1230902  37.03  0.000366822    1.493    0.330
       171  -9.4717    166.4928    119.0287   1.0371524138e+02   2.4987966292e+01    0.2228529    0.1487208 -37.77 0.0005021713    1.505    0.336
       172  -9.9763     16.6253    125.2249   1.4225326199e+02   4.7311869638e+01    0.1694247    0.1368137  75.17 0.0004114024    1.219    0.180
       173 -10.2186    179.2804    116.1678   1.0028601501e+02   2.2637117982e+01    0.2471116    0.2018695  33.78 0.0003977664    1.249    0.199
       174  -9.3441     38.2980    111.3139   1.3468884491e+02   4.8479081880e+01    0.1559136    0.1111211  47.62 0.0003258816    1.590    0.371
       175 -10.0547     35.3150    114.2025   1.3595921078e+02   4.8122825689e+01    0.3706624    0.1593831 -76.12   0.00163368    2.500    0.600
       176 -10.6284     35.3079    108.4662   1.3503738291e+02   4.9408253866e+01    0.4455287    0.1239143 -71.48  0.001352197    5.062    0.802
       177 -10.3332    103.4814    113.4526   1.1746905796e+02   3.9016003768e+01    0.1416084    0.1342945 -58.58 -9.239035e-06    1.013    0.013
       178 -10.1645     66.7931    113.0507   1.2721852695e+02   4.4790438074e+01    0.1907103    0.1587876 -81.05 0.0002723483    1.182    0.154
       179 -10.0269     19.7884    113.0028   1.3990938864e+02   4.9753864868e+01    0.1845666    0.1331934 -59.88 0.0006151217    1.218    0.179
       180 -12.3552     16.5998    108.4311   1.4013168143e+02   5.1012392923e+01    0.3463383    0.2629006 -64.49 0.0005768742    1.111    0.100
       181  -8.8803    212.6742    112.6531   9.2973769844e+01   1.5647111483e+01    0.1572964    0.1120568  11.52 0.0007049923    1.748    0.428
       182  -9.8396     90.7082    112.6476   1.2066133259e+02   4.1356208127e+01    0.1416255    0.1057595 -26.39 0.0003018552    1.677    0.404
       183 -10.1482     42.3476    110.5103   1.3344540778e+02   4.8248947404e+01    0.2140029     0.159586 -63.74 0.0003257846    1.118    0.105
       184  -9.9825    167.4669    108.9968   1.0092403114e+02   2.6671330127e+01    0.2898911    0.2106729  31.72 0.0007840741    1.511    0.338
       185  -9.9047    241.9958    108.2414   8.7026026299e+01   9.9291333111e+00    0.1780929    0.1199251  51.66 0.0006370295    1.604    0.377
       186  -9.6751    133.1699    107.7917   1.0851716565e+02   3.4473912704e+01    0.2107287    0.1799329  -4.64 0.0008981919    1.367    0.268
       187 -11.0085     23.2915    106.8506   1.3808773366e+02   5.0835085614e+01    0.2547845    0.1592047 -61.01 0.0007097505    1.291    0.225
       188 -10.2875     76.2797    106.9949   1.2332911548e+02   4.4829395242e+01    0.2036043    0.1543065 -56.58 0.0004391278    1.185    0.156
       189 -10.4994      5.8542    106.1782   1.4271152827e+02   5.2260015597e+01    0.2427681    0.1615973 -53.84  0.001039053    1.398    0.285
       190 -10.8755      2.5385    105.4443   1.4350323281e+02   5.2628891277e+01    0.1987376    0.1368205 -56.39 0.0006458195    1.322    0.244
       191 -10.0054     81.0446    106.2124   1.2183041540e+02   4.4296903636e+01    0.2106596    0.1770882 -33.14 0.0007987245    1.284    0.221
       192  -9.7249    223.3083    103.9471   8.8951574002e+01   1.4662452517e+01    0.2075453    0.1759969 -25.56 0.0004528051    1.112    0.101
       193 -10.6636     93.0326    103.8481   1.1796314242e+02   4.2909738179e+01    0.3199004    0.2039945 -60.69  0.001521513    1.618    0.382
       194 -11.5390     70.0929    102.7792   1.2412949059e+02   4.6644815021e+01    0.3626981    0.1989124  29.89  0.001166857    2.226    0.551
       195 -10.6037    247.6129    102.1914   8.4721521482e+01   9.6437351716e+00    0.2034353    0.1246032 -19.32 0.0009466871    1.682    0.405
       196 -10.0374    120.3271    101.3788   1.1005254976e+02   3.8425321841e+01    0.2824537    0.2081233  17.62 0.0007355969    1.773    0.436
       197 -10.8360     61.9900     98.5150   1.2551214801e+02   4.8671432232e+01    0.2860817    0.2071915   0.67  0.001521247    2.000    0.500
       198  -9.7940      9.9720    102.4638   1.4111469116e+02   5.2800710633e+01    0.1415203    0.1175984  20.41  0.001029286    1.594    0.373
       199  -9.9274     37.0059    101.4819   1.3335220501e+02   5.0807869458e+01    0.1629073    0.1233398  34.67 0.0007385944    1.578    0.366
       200 -10.0480     27.9264    100.9755   1.3586021494e+02   5.1751499728e+01    0.1722014    0.1438185 -69.26 0.0003257651    1.042    0.040
       201 -10.6387      4.1622    100.7143   1.4247603913e+02   5.3558813482e+01    0.2558563    0.1610597  44.78  0.001674337    1.887    0.470
       202 -10.8305     20.9777     98.7839   1.3748570321e+02   5.2809628246e+01    0.2972212     0.146907 -75.15 0.0009840328    1.847    0.459
       203  -9.3886     49.5592     97.8736   1.2901083959e+02   5.0305117275e+01     0.174644    0.1102013 -73.18 0.0003880218    1.619    0.382
       204 -10.1926     92.5255     97.0136   1.1638856318e+02   4.4479282933e+01    0.2268747    0.1307704 -50.16  0.001036631    1.606    0.377
       205 -10.4267     15.7786     94.8370   1.3835670689e+02   5.4071351309e+01    0.3386627    0.1266995 -77.58  0.001410996    3.030    0.670
       206 -12.3953      8.5571     94.4077   1.4037669150e+02   5.4658390757e+01    0.3455027    0.1640462 -55.22  0.001962102    1.683    0.406
       207  -9.4942     31.3516     93.7668   1.3359029139e+02   5.3051995612e+01    0.1772787   0.08874919 -56.69 0.0005666422    1.582    0.368
       208 -10.5055      1.9073     93.0454   1.4208842255e+02   5.5360843519e+01    0.3502602    0.1012476 -57.16   0.00166595    2.412    0.585
       209 -10.4058    109.5097     92.5609   1.1050929075e+02   4.2372427712e+01    0.3147545    0.1382418 -45.50  0.001204071    2.159    0.537
       210  -9.4264    115.6945     91.2973   1.0849719045e+02   4.1428841043e+01    0.1447648    0.1175043 -83.81 0.0002907604    1.587    0.370
       211 -10.7531     96.5184     90.6572   1.1357614453e+02   4.5151120154e+01    0.3221463    0.2239828 -17.11  0.001487503    1.971    0.493
       212  -9.1052      7.2704     88.6136   1.3988504630e+02   5.6003090561e+01    0.1162444   0.07478119  83.68 0.0006991151    1.709    0.415
       213 -10.5731     48.7147     85.3257   1.2651923782e+02   5.3173596532e+01    0.3051742    0.2002049 -69.74 0.0006934736    1.560    0.359
       214 -11.2553     46.3086     83.2978   1.2680200914e+02   5.3881184008e+01    0.6427978    0.1661393 -52.74  0.002412328    2.929    0.659
       215  -9.9896     24.0436     85.2975   1.3421567323e+02   5.5538555982e+01     0.163207    0.1414686 -57.30  0.001032087    1.104    0.095
       216  -9.3450      1.4350     85.4711   1.4114982213e+02   5.7026614763e+01    0.1146447   0.08576073 -69.94 -1.222625e-05    1.028    0.027
       217 -11.3661    118.2643     82.8889   1.0536959193e+02   4.2600573209e+01    0.3749795    0.2729714 -17.45  0.001102845    1.645    0.392
       218 -10.4263     85.9417     82.9588   1.1449515372e+02   4.8564219923e+01    0.2201751    0.1733961 -88.41  0.001132336    1.739    0.425
       219  -9.3350    130.3207     82.3165   1.0207797287e+02   4.0162733615e+01    0.1548842    0.1183361   5.44 0.0006962324    1.660    0.398
       220 -11.2088     77.8718     72.1010   1.1378097398e+02   5.2094879691e+01    0.3868744    0.2981714  53.17 0.0006475017    1.582    0.368
       221 -11.2303     75.5281     81.2795   1.1716210505e+02   5.0549172188e+01    0.3677927    0.1782371 -53.69  0.001605022    1.959    0.489
       222 -11.9125     72.4166     78.3773   1.1731251366e+02   5.1620528538e+01    0.4865408    0.3038311 -21.28  0.000953915    2.245    0.555
       223  -9.6639     20.4594     82.4578   1.3479461784e+02   5.6438345792e+01    0.1205673   0.09453632 -61.25 0.0001372332    1.001    0.001
       224 -11.0381     18.7677     79.4444   1.3475284065e+02   5.7219451232e+01    0.2022096    0.1496233 -41.89  0.001347506    1.310    0.237
       225 -10.0937      7.3852     79.8962   1.3844179070e+02   5.7884692531e+01    0.2971181    0.1536016  64.66  0.001197911    3.055    0.673
       226 -12.4384      5.2960     74.1389   1.3810735027e+02   5.9244459727e+01    0.4888076    0.3871771 -40.89  0.001736827    1.289    0.224
       227 -10.5548     66.5752     73.1364   1.1766848457e+02   5.3547757237e+01    0.3935907    0.2477824   0.48  0.001774232    2.640    0.621
       228 -11.2493     62.1131     71.9000   1.1875686443e+02   5.4411304098e+01    0.2908991     0.208817 -49.71 0.0004373205    1.221    0.181
       229 -11.4365     23.8883     78.2342   1.3286358333e+02   5.7089306640e+01    0.2451858    0.1387356 -56.86 0.0009059703    1.367    0.269
       230 -10.2428    150.4798     78.0447   9.5943613239e+01   3.6371898125e+01    0.2620809    0.2216885  84.63 0.0008833619    1.433    0.302
       231 -11.0287     58.9255     76.4295   1.2104644721e+02   5.3874569220e+01    0.4200989    0.2964851 -64.13  0.001705703    1.470    0.320
       232 -10.3251     88.1723     77.1933   1.1215856277e+02   4.9385925049e+01    0.1861898    0.1663143 -79.47 0.0004437111    1.329    0.248
       233 -11.4639    108.8020     74.7043   1.0543801816e+02   4.6103912029e+01    0.5218597    0.3312186 -19.33  0.001495048    2.067    0.516
       234 -11.4519     94.7621     68.8141   1.0760260533e+02   4.9901102249e+01    0.3818915    0.2638474 -11.32   0.00118506    1.893    0.472
       235 -11.6445     98.5536     66.0000   1.0557233774e+02   4.9740916273e+01    0.4467717     0.202029  44.81  0.001570291    2.361    0.576
       236  -9.6476     40.7273     73.3764   1.2621598106e+02   5.6608682505e+01    0.3087055    0.1918086 -71.00  0.001645457    1.799    0.444
       237 -11.2319    151.7158     72.0707   9.3831068634e+01   3.7130576939e+01    0.3574141    0.2218102  52.56  0.001552695    1.630    0.386
       238 -10.3212    115.8957     71.0567   1.0234146156e+02   4.5364929721e+01    0.3392608    0.2048732 -38.81  0.001059252    1.586    0.370
       239 -10.2658     54.7501     72.5334   1.2134625469e+02   5.5217278622e+01    0.2163955    0.1562754 -57.99 0.0003980691    1.297    0.229
       240 -12.0284     49.6192     69.4888   1.2221765412e+02   5.6464350408e+01    0.4515863    0.3128696 -30.61  0.002485492    1.477    0.323
       241  -9.1034    215.3164     70.6758   8.1518493845e+01   2.1682961342e+01    0.1541552    0.1098018 -62.26  0.000618701    1.668    0.401
       242  -9.1367    175.2755     70.6925   8.8479665067e+01   3.1593682005e+01    0.1524126    0.1178296 -64.28 0.0001833414    1.550    0.355
       243 -10.4676    137.0193     70.4856   9.6755836852e+01   4.0852227246e+01    0.2242523    0.1492224  50.09 0.0005799306    1.530    0.347
       244 -10.6617     42.8225     67.8633   1.2408065630e+02   5.7555893503e+01    0.2318124     0.148843 -61.40  0.001293371    1.483    0.325
       245 -11.0911     37.3050     67.9517   1.2599452825e+02   5.8099874094e+01    0.5862399    0.1887632 -42.81   0.00232417    2.990    0.666
       246  -9.8394     41.4866     64.4895   1.2362221705e+02   5.8398761424e+01     0.209687    0.1051732 -54.60 4.241544e-05    1.678    0.404
       247 -11.2534     25.9883     68.5199   1.3002237583e+02   5.9001265931e+01    0.2827935    0.1416297 -41.47  0.001498455    1.838    0.456
       248 -10.8385     31.1215     66.4731   1.2775241275e+02   5.8991150265e+01    0.2815828    0.1821282 -55.65 0.0008209365    1.251    0.201
       249  -9.3140    219.7466     68.6315   8.0297177890e+01   2.0916000138e+01    0.1472813    0.1113346   9.15 0.0006962004    1.633    0.388
       250  -9.2087    171.3218     68.2760   8.8530238605e+01   3.2969942761e+01    0.1559985    0.1160375  23.63 0.0004214543    1.578    0.366
       251 -10.8897    130.6306     66.1696   9.6935023205e+01   4.3064390203e+01    0.5336099    0.1814262 -42.74  0.001738944    3.006    0.667
       252 -10.0594      6.9280     68.0007   1.3642210768e+02   6.0455339651e+01    0.1727671    0.1344221 -53.44  0.001240113    1.085    0.079
       253 -10.5848     68.7603     67.2417   1.1521096020e+02   5.4445432021e+01    0.2998824     0.228804 -27.56  0.001268861    1.290    0.225
       254 -10.2500     15.0056     66.0119   1.3324167127e+02   6.0361376264e+01    0.1666493    0.1304431 -56.47 0.0003415144    1.021    0.020
       255  -9.9712    156.4955     66.4971   9.1042766717e+01   3.6919974140e+01     0.151123    0.1482334  -4.26 0.0008106183    1.016    0.016
       256  -9.0685    146.6913     66.2623   9.3138001741e+01   3.9324128738e+01    0.1460726    0.1203305 -76.98 0.0002241279    1.529    0.346
       257 -10.6149    119.0431     65.7489   9.9775011853e+01   4.5678025076e+01    0.3465629    0.2416261  23.31 0.0003501952    1.720    0.419
       258 -10.1332    121.6939     61.6902   9.7728022246e+01   4.5825515198e+01     0.240622    0.2064583  -0.25 0.0007724437    1.210    0.174
       259 -10.6896     21.3415     66.0855   1.3105843747e+02   5.9885819787e+01    0.2178279    0.1573132  38.42 0.0009477459    1.749    0.428
       260 -11.1805      2.4768     64.8226   1.3732354605e+02   6.1375834458e+01    0.3262358    0.1175154 -52.36   0.00170119    1.974    0.494
       261 -11.5555    174.2107     63.8600   8.6627134852e+01   3.2951655703e+01    0.3127115    0.2765453 -66.62 0.0004937548    1.247    0.198
       262 -10.3940    165.8857     65.0080   8.8619128064e+01   3.4849490735e+01    0.2258842    0.2175277 -13.09 0.0003342754    1.026    0.026
       263 -10.4729    137.9417     65.1712   9.4826568392e+01   4.1567218344e+01    0.2237862    0.2055515 -77.03 0.0006021549    1.256    0.204
       264 -11.3950     84.2615     63.1960   1.0897036933e+02   5.2819073733e+01     0.473873    0.3209016 -50.11  0.002135034    1.496    0.332
       265 -10.0404     86.2844     58.6171   1.0680287334e+02   5.3337122144e+01    0.2593836    0.2260158 -69.67 0.0008212505    1.459    0.315
       266 -10.9577     76.9733     65.2552   1.1193958179e+02   5.3605027777e+01     0.406538    0.1840326  44.91  0.001720835    2.582    0.613
       267  -9.9785    109.2926     63.3224   1.0161631564e+02   4.8142450487e+01    0.1478137    0.1107858   0.15  0.000376604    1.612    0.380
       268 -10.1623     51.6893     62.5227   1.1951392200e+02   5.7655974230e+01    0.2706707    0.1598974 -32.89  0.001251293    1.714    0.416
       269 -10.9082     11.2010     62.1484   1.3372576757e+02   6.1424951675e+01    0.2946072    0.1666478 -44.81 0.0009415353    1.478    0.324
       270 -11.1107     64.9004     59.9469   1.1419575775e+02   5.6445963220e+01    0.5304421    0.2063513  44.61  0.002120446    3.259    0.693
       271  -9.5040     71.5724     61.5395   1.1249180880e+02   5.5162985117e+01     0.208356    0.1859248 -29.43 -3.121996e-05    1.026    0.025
       272 -10.3226     70.5411     58.0935   1.1169788644e+02   5.5983989801e+01    0.3116588    0.1906716 -39.34 0.0003079587    1.449    0.310
       273 -10.8414     27.0754     61.2412   1.2784520509e+02   6.0436319309e+01    0.3079776    0.1890942  18.35  0.001822853    2.031    0.508
       274 -10.2206     32.9556     60.2488   1.2547193723e+02   6.0117682080e+01    0.3081331    0.1745834 -25.73   0.00134125    2.148    0.534
       275 -11.4648     58.2342     59.2229   1.1623644528e+02   5.7494880886e+01    0.5146317    0.1933316 -44.51  0.002164114    2.270    0.559
       276 -10.2525     18.1164     59.3036   1.3058551790e+02   6.1544380533e+01    0.2232225    0.1419489 -65.46 0.0003640548    1.419    0.295
       277 -11.5577    137.6186     55.6649   9.1757784509e+01   4.3219868788e+01    0.6056198    0.3521981 -12.14  0.002359076    2.398    0.583
       278 -11.1930    135.1899     49.7944   9.0323625903e+01   4.4711890482e+01    0.3967482     0.284277 -72.94  0.001759961    2.100    0.524
       279 -10.8626    122.9893     56.8257   9.5741300435e+01   4.6371624340e+01    0.4392949    0.2859215  78.46  0.001517989    2.709    0.631
       280 -10.1867    114.0329     57.3599   9.8285220131e+01   4.8215464320e+01    0.3915832    0.1557823  40.81  0.001099489    2.749    0.636
       281  -9.6757     80.7538     57.0382   1.0800762484e+02   5.4568646743e+01     0.188536    0.1587193 -30.82 0.0003749228    1.062    0.059
       282 -10.5889     98.9062     56.0152   1.0208065915e+02   5.1500235935e+01    0.3475799    0.2054808  33.52  0.001587404    1.875    0.467
       283 -10.0704     96.2611     52.9707   1.0178530730e+02   5.2538861997e+01     0.209665    0.1892632  -8.77 0.0002629753    1.028    0.027
       284  -9.1324     74.5290     56.5401   1.0985532993e+02   5.5666606843e+01    0.1346177    0.1202695 -32.05 9.377197e-05    1.065    0.061
       285  -9.6170    117.5965     54.3542   9.6288580309e+01   4.7962780885e+01    0.2689003    0.1325487 -38.74 0.0006861782    1.976    0.494
       286 -11.4254     38.3670     51.6227   1.2096254890e+02   6.1322731804e+01    0.5731341    0.2635609 -39.42   0.00282225    1.931    0.482
       287 -10.7897    157.2546     53.0988   8.6603810368e+01   3.8853408282e+01    0.2760564    0.2349303   8.61 0.0005068122    1.262    0.207
       288 -12.3786    127.9191     51.4302   9.2635272822e+01   4.6142549843e+01     0.380614    0.2981099 -16.34 0.0003315658    1.306    0.234
       289 -10.0371    108.2229     53.9961   9.8704643994e+01   4.9998293739e+01    0.2414869    0.1599469  -3.88  0.001062069    2.029    0.507
       290 -12.0684      3.6260     52.8353   1.3439039532e+02   6.3799219767e+01    0.6355331    0.2604417 -39.88  0.002155508    2.211    0.548
       291 -11.6284     13.3123     49.7729   1.2995479032e+02   6.3828637618e+01    0.4709813    0.2117348 -52.99  0.001622841    1.623    0.384
       292 -11.4356      8.5092     45.3891   1.3066495153e+02   6.5017056131e+01    0.3618038     0.279631 -44.12  0.001775641    1.066    0.061
       293  -9.5711      7.0000     41.0145   1.3007648210e+02   6.5973026669e+01    0.2257179    0.1118632 -54.56 0.0009335756    1.489    0.328
       294  -9.6772     86.9744     52.5357   1.0446144418e+02   5.4319951450e+01    0.1971647    0.1354474  39.87  0.001016805    1.550    0.355
       295  -9.9827     83.1261     51.3254   1.0524140612e+02   5.5206469846e+01    0.2432833    0.1688767 -27.07 0.0007699784    1.373    0.272
       296  -9.9876     72.6433     51.6539   1.0878204805e+02   5.6868008036e+01    0.2713628    0.1752477  46.81  0.001401543    1.864    0.464
       297 -11.9420     51.5982     49.1101   1.1525374189e+02   6.0298795385e+01    0.5985901    0.3623109 -44.34  0.002409099    1.408    0.290
       298 -10.0068     52.2700     42.3204   1.1259884045e+02   6.1468324883e+01    0.1730355    0.1505889  -9.87 0.0001805986    1.118    0.106
       299 -10.0883     44.9440     51.0851   1.1835292092e+02   6.0713767859e+01    0.2438566    0.1768816 -29.73  0.001124524    1.252    0.201
       300 -10.1438     46.3085     47.0052   1.1648391738e+02   6.1336948285e+01    0.2471742     0.134282 -48.65 0.0007729341    1.614    0.380
       301 -10.8502    114.7015     49.5651   9.5360550659e+01   4.9370047048e+01    0.3815233    0.2663226  14.45  0.001396605    1.744    0.427
       302 -11.2671    101.9483     49.5393   9.8883474347e+01   5.2015830525e+01    0.3634155    0.2779306  73.58  0.001811715    1.913    0.477
       303 -10.3860     76.9770     50.0260   1.0676318814e+02   5.6469580661e+01    0.2162252    0.1520073  -9.81  0.001115889    1.637    0.389
       304 -12.4165    143.1681     46.3185   8.7323213471e+01   4.3324735878e+01    0.6410265    0.4825884  86.40  0.003033791    1.768    0.434
       305 -10.7368    162.9506     47.7746   8.3747833574e+01   3.8205218868e+01    0.2443662     0.213603 -27.35 0.0004005501    1.152    0.132
       306 -11.9854    155.8970     47.3997   8.5014027499e+01   4.0031195812e+01    0.5337692    0.2244678  46.02  0.001429425    2.391    0.582
       307  -9.8833    233.1503     45.1614   7.2301527115e+01   2.0934998107e+01    0.1966667    0.1836553   0.67 0.0004685377    1.180    0.153
       308  -9.7565    123.5076     38.4657   8.9070311913e+01   4.9092500462e+01     0.242542    0.1384501 -15.11 0.0001010299    2.072    0.517
       309 -10.7518    122.1514     45.1311   9.1836086505e+01   4.8424529828e+01    0.3010125    0.2244024  39.20 0.0004087762    1.326    0.246
       310 -11.0266    121.5188     41.5368   9.0688011506e+01   4.9102415472e+01    0.3777822    0.2908367 -75.69  0.001496266    1.900    0.474
       311  -9.7647     86.0308     44.9754   1.0198424893e+02   5.5791213797e+01     0.162996    0.1470783  -0.78 0.0003656435    1.053    0.051
       312 -11.2186     63.9911     41.5400   1.0804989826e+02   5.9984842432e+01    0.2542045    0.1940205 -33.57  0.001513412    1.151    0.131
       313 -10.9774     68.5582     38.5018   1.0527465787e+02   5.9806620202e+01     0.384203    0.2152087 -28.50    0.0019024    1.713    0.416
       314 -10.4084     91.7555     46.3583   1.0072989504e+02   5.4512542406e+01    0.2457973    0.1588625 -45.00 0.0006164837    1.631    0.387
       315  -9.3403    104.3223     46.3163   9.7025319797e+01   5.2064703183e+01    0.1479925    0.1054047   9.14 0.0006804956    1.664    0.399
       316  -9.8032     56.4758     42.0275   1.1093927669e+02   6.0964372015e+01    0.2010708    0.1114072 -44.02  0.001029581    1.617    0.382
       317 -10.2195     23.8511     41.3695   1.2333347091e+02   6.4679886903e+01    0.1972185    0.1388441 -55.28  0.001267807    1.320    0.242
       318 -10.0343    226.5320     40.9210   7.1983785618e+01   2.3062823469e+01    0.2091338    0.1875306  79.96  0.000552839    1.133    0.118
       319 -11.0603     95.7357     40.4698   9.7304192847e+01   5.4701302136e+01    0.3133997     0.245404  71.78   0.00116964    1.845    0.458
       320 -10.0155     44.0871     39.8727   1.1480276524e+02   6.2917420451e+01    0.2362397    0.1502931 -43.93  0.001113292    1.350    0.259
       321 -10.2256    195.2950     38.9705   7.5580482831e+01   3.1116536128e+01     0.346399    0.1936068 -78.59  0.001281075    2.875    0.652
       322 -11.6647     82.7161     36.6037   9.9796595896e+01   5.7738251965e+01    0.3425697    0.3290664  24.54   0.00123864    1.228    0.185
       323  -9.5766     19.6195     37.8312   1.2391470621e+02   6.5702481601e+01    0.1594504    0.1203829 -29.66  0.000707132    1.160    0.138
       324  -9.7470      1.3171     37.8604   1.3154544910e+02   6.6913145354e+01    0.1680215   0.06684446 -51.97 0.0004431948    1.721    0.419
       325  -9.3144    204.7234     36.9854   7.3683109090e+01   2.8967483696e+01    0.1732992    0.1250131 -27.90 0.0002969445    1.394    0.283
       326 -10.7786    110.9919     33.7779   9.0461975462e+01   5.2536886539e+01    0.4444533    0.2705182 -28.34  0.001415592    1.605    0.377
       327 -11.0196    102.1286     36.7659   9.4026833722e+01   5.3982239344e+01    0.3215842    0.2180978  52.47 0.0007252236    1.599    0.375
       328 -10.9947    105.6724     34.0997   9.2007625466e+01   5.3629360538e+01    0.2893122    0.2412608  22.42 0.0005078591    1.148    0.129
       329 -11.1228     24.4595     35.5173   1.2112513461e+02   6.5729315103e+01     0.221933    0.2063634  -4.69 0.0007189261    1.288    0.224
       330 -10.4113     76.2506     33.8263   1.0078877715e+02   5.9299993859e+01    0.2773603    0.2089862  -4.06   0.00101537    1.319    0.242
       331 -10.6096     81.8177     29.5477   9.7213239063e+01   5.8962014158e+01    0.2502883    0.2264728 -14.28 0.0008285266    1.125    0.111
       332 -10.0908     78.4616     30.0004   9.8485784020e+01   5.9495379906e+01    0.2529913     0.118741 -28.71 0.0006277985    2.055    0.513
       333 -11.1693      9.0023     33.9936   1.2715670142e+02   6.7199979570e+01    0.3561339    0.2395351  24.12  0.002439808    1.852    0.460
       334 -11.7104      6.0334     29.9894   1.2717010631e+02   6.8142197000e+01    0.4184203    0.2292439 -12.66  0.001763748    2.199    0.545
       335 -10.9364      8.5838     26.1686   1.2474387308e+02   6.8680278789e+01    0.4043896    0.1786248 -27.27  0.002092616    2.500    0.600
       336 -10.4253    150.3390     33.6420   8.1483192483e+01   4.3286871290e+01     0.326831    0.2009652 -70.68  0.001285708    2.664    0.625
       337 -10.0787     53.3752     34.1252   1.0904844817e+02   6.2752833776e+01    0.2705116    0.1376386  20.22  0.001233182    2.709    0.631
       338 -10.4125     57.0355     29.2878   1.0569571277e+02   6.3034796974e+01      0.29429    0.1540577 -23.73 0.0007089318    2.026    0.507
       339 -10.8154     31.7999     33.9577   1.1752509992e+02   6.5321797282e+01    0.2586248    0.1649749  13.00  0.001004099    1.823    0.452
       340 -11.2810    145.1470     31.6588   8.1821862784e+01   4.4828745378e+01     0.270054    0.2485459  60.33 0.0003039206    1.109    0.098
       341 -10.8778     97.9653     31.6237   9.3179561524e+01   5.5568436715e+01    0.2443899    0.2036103 -20.61 0.0003464361    1.141    0.123
       342  -9.2083     90.3965     31.4765   9.5343622537e+01   5.7081852222e+01     0.136856    0.1180029  -3.45 0.0002024297    1.033    0.032
       343  -9.9937     63.4847     30.5418   1.0385417128e+02   6.1879784244e+01    0.2286608     0.152369  -3.14 0.0005852087    1.693    0.409
       344 -10.3510     50.0268     28.1057   1.0787395105e+02   6.4194272713e+01    0.2866916    0.1373403 -25.98  0.001062396    2.259    0.557
       345  -9.7290    124.2399     28.1361   8.5039407531e+01   5.0297199480e+01     0.218573    0.1738222  20.92  0.001166306    1.255    0.203
       346 -10.0710    172.2111     27.1530   7.5475844264e+01   3.8502277261e+01    0.1985268    0.1632857 -62.37 0.0003911569    1.332    0.249
       347 -11.0550    151.2937     26.6132   7.8881329887e+01   4.3904720037e+01    0.4890284     0.186458  61.40  0.001795015    2.509    0.601
       348 -10.9087     70.8850     26.3508   9.9480383497e+01   6.1329718597e+01    0.4106573    0.1905174  34.04  0.001863856    2.352    0.575
       349 -10.3848    130.3352     25.5802   8.2715052238e+01   4.9173325215e+01    0.4117043    0.2306277 -51.51  0.001713545    2.446    0.591
       350 -10.9588    113.1912     24.3503   8.6215881609e+01   5.3280644264e+01    0.4474666    0.2091948 -32.17  0.001305486    2.109    0.526
       351  -9.4490     90.7613     26.6226   9.3237561170e+01   5.7688339706e+01    0.1702205    0.1285315  55.84 0.0002934736    1.569    0.363
       352 -11.1865     60.7804     23.7864   1.0195021658e+02   6.3322121779e+01    0.4633899    0.2019034 -46.01  0.001971283    2.902    0.655
       353 -10.2179     54.0382     23.4168   1.0431304112e+02   6.4373917825e+01    0.2292232    0.1467355 -18.60 0.0006017396    1.471    0.320
       354 -10.4639     17.6723     23.8430   1.1977807664e+02   6.8410206520e+01    0.1758101    0.1477993  -5.61 0.0003289638    1.260    0.206
       355 -10.4259    100.0753     22.8187   8.9003439485e+01   5.6300753920e+01    0.2738466    0.2596963  28.10  0.001295009    1.159    0.137
       356 -10.4629     84.0719     22.4966   9.3518879286e+01   5.9520218644e+01    0.2389072    0.1788473  10.18 0.0005966695    1.300    0.231
       357  -9.6112     86.5292     18.9648   9.1241411919e+01   5.9502300620e+01    0.2407656    0.1679299  -4.17 0.0006287912    1.424    0.298
       358 -10.1558    137.2725    246.9936   1.3188828534e+02   8.1718077858e+00    0.1485805    0.1281237  53.63 0.0007266404    1.124    0.110
       359 -11.1172    156.1845    246.0929   1.2858969567e+02   5.3626334147e+00    0.1738793    0.1322699  32.40 0.0007776245    1.254    0.202
       360 -11.0105    123.9616     21.5703   8.2601707789e+01   5.1146899741e+01    0.3165708     0.219483  49.61 0.0003681999    1.354    0.261
       361 -11.0323     66.6719     21.5981   9.8868327717e+01   6.2704144432e+01    0.3478758    0.2205931  26.70   0.00127033    1.617    0.382
       362 -10.2541    137.1476     20.0798   7.9269828941e+01   4.8155836866e+01    0.2355474    0.1940155  57.30 0.0003210102    1.181    0.153
       363 -10.7914      6.3849    245.2810   1.5251627868e+02   2.5070730225e+01    0.2052952     0.102732  74.40 0.0009120594    1.484    0.326
       364  -9.8922    108.1807     17.1723   8.4568107773e+01   5.5228141019e+01     0.218184    0.1740847  -7.57 0.0003666123    1.215    0.177
       365  -9.8094     45.0380     20.5234   1.0657603865e+02   6.6039909799e+01    0.1653508    0.1138651  27.90 0.0004839071    1.548    0.354
       366  -9.9414    211.0132     19.4985   6.8020592459e+01   2.9423373381e+01    0.2865955     0.104438  58.78  0.001104967    2.508    0.601
       367 -11.8212      8.5300    241.5523   1.5205239492e+02   2.5463360380e+01     0.331443     0.158904  69.80  0.002412077    1.551    0.355
       368 -10.2345    167.0006     19.0301   7.3674236643e+01   4.0745428838e+01    0.2240321     0.205354  67.39 0.0009293462    1.055    0.052
       369 -10.7347    159.8622     18.4977   7.4631012969e+01   4.2631443898e+01    0.2403437    0.2202331  -6.35 0.0003395863    1.141    0.124
       370  -9.8275     81.5741     18.1978   9.2417921634e+01   6.0539918711e+01    0.2989944    0.1202226 -19.78  0.001148976    2.984    0.665
       371  -9.5075     34.7324     19.6459   1.1048972597e+02   6.7432257998e+01    0.1460433    0.1069722  32.35 0.0005674281    1.636    0.389
       372  -9.8491    115.3837    244.5017   1.3531107330e+02   1.1825212369e+01    0.1538295    0.1051771 -64.94   0.00105799    1.761    0.432
       373 -10.2595    188.4698     16.9880   7.0006760339e+01   3.5426069662e+01    0.2076992    0.1823573  72.47 0.0003561928    1.085    0.079
       374  -9.8216     57.1055     16.8612   1.0019195819e+02   6.4869528714e+01     0.172541    0.1515081 -16.75    0.0011604    1.205    0.170
       375 -10.1437      9.8145     16.7563   1.2062222087e+02   7.0250545497e+01    0.1658438     0.112719 -31.41 0.0004178494    1.120    0.107
       376 -11.2163    147.1456    244.0417   1.2988070654e+02   7.0547808657e+00    0.2151073    0.1345158  43.88  0.000830104    1.251    0.200
       377 -10.4550    109.9133    243.2666   1.3610832799e+02   1.2812761466e+01    0.2385644    0.1427731  75.65  0.001437288    2.034    0.508
       378  -9.7557     76.1327     16.4703   9.3371886806e+01   6.1755382225e+01    0.1827628    0.1198453  41.57  0.001008752    1.525    0.344
       379 -10.3311     71.9052    243.8932   1.4243505932e+02   1.7947558221e+01    0.1489041     0.128239  60.42 0.0007774261    1.296    0.228
       380  -9.9534    166.0135     14.4874   7.2345025438e+01   4.1466873429e+01     0.216786    0.1325533  66.55 0.0005864209    1.551    0.355
       381 -11.3482     34.0982    241.6858   1.4824057299e+02   2.2812559960e+01    0.3176555    0.2189188  44.53  0.002519283    1.529    0.346
       382  -9.5739     71.3132     14.7130   9.4155710426e+01   6.2829902047e+01    0.1128695    0.1008804 -52.82 0.0002756665    1.582    0.368
       383  -9.9009    115.0287     13.0135   8.1252285246e+01   5.4137941761e+01    0.2036862    0.1874155  22.87 0.0005165977    1.047    0.045
       384  -9.2485     90.2620     12.9880   8.7534080868e+01   5.9468252599e+01    0.1529433    0.1061811 -18.71 0.0003111925    1.376    0.273
       385 -10.5073     31.6068    237.2106   1.4837294562e+02   2.3818108122e+01    0.2510176    0.1146174  71.86 0.0009580905    1.938    0.484
       386  -9.5209     35.4709     14.7744   1.0796275421e+02   6.8095904139e+01    0.1518786    0.0920481 -26.25 0.0009038378    1.378    0.274
       387 -10.5172     28.7630    232.8118   1.4856809346e+02   2.4857335221e+01    0.4010642    0.1223988  43.49   0.00225377    2.550    0.608
       388 -12.0890    155.6949    241.5032   1.2811512131e+02   6.0571081924e+00    0.3679379    0.2091459  34.22  0.001602695    1.655    0.396
       389 -11.6379     19.8127    238.0868   1.5022170373e+02   2.4911291059e+01    0.4241235    0.1781013  44.42  0.002822682    1.978    0.494
       390 -10.6614    174.7589    238.5944   1.2446706478e+02   3.3935598489e+00    0.3599517    0.1840564  31.70  0.001930949    1.947    0.486
       391 -11.5357    177.5666    234.9615   1.2348928669e+02   3.4123636103e+00    0.2880536    0.2054172  12.80  0.001236176    1.720    0.419
       392 -11.5338     74.0664    238.6085   1.4166999312e+02   1.8515447324e+01     0.472696    0.2121837  49.83  0.002838671    1.728    0.421
       393  -9.5308     50.0459    240.4842   1.4568635411e+02   2.1195450315e+01    0.1452384   0.08086377  47.20 0.0006116286    1.504    0.335
