#   1 NUMBER                 Running object number                                     
#   2 MAG_AUTO               Kron-like elliptical aperture magnitude                    [mag]
#   3 X_IMAGE                Object position along x                                    [pixel]
#   4 Y_IMAGE                Object position along y                                    [pixel]
#   5 X_WORLD                Barycenter position along world x axis                     [deg]
#   6 Y_WORLD                Barycenter position along world y axis                     [deg]
#   7 A_WORLD                Profile RMS along major axis (world units)                 [deg]
#   8 B_WORLD                Profile RMS along minor axis (world units)                 [deg]
#   9 THETA_WORLD            Position angle (CCW/world-x)                               [deg]
#  10 FWHM_WORLD             FWHM assuming a gaussian core                              [deg]
#  11 ELONGATION             A_IMAGE/B_IMAGE                                           
#  12 ELLIPTICITY            1 - B_IMAGE/A_IMAGE                                       
         1 -12.5803      4.9486     39.4994   8.7145334756e+01   6.9723687600e+01    0.5069306    0.1833729 -60.12  0.002104771    3.155    0.683
         2 -10.4938     40.7730     14.0353   5.5297688805e+01   6.9046217470e+01    0.1701621    0.1383932  17.87 0.0003439621    1.066    0.062
         3 -10.8890    192.2504    226.0136   6.9556919317e+01   7.2832006734e-02     0.161207   0.09646552 -38.04 0.0008832404    1.568    0.362
         4 -11.0094    162.0229    224.7820   7.5585788142e+01   4.2295622960e+00    0.2293929    0.1391664  -1.80  0.001085343    2.035    0.509
         5 -10.4687    126.4640    220.5100   8.2999816739e+01   1.0065508770e+01    0.1382933    0.1251722  15.10 0.0001373765    1.021    0.021
         6 -10.7620    143.8171    216.8231   7.8364498725e+01   8.3125216117e+00    0.1836468    0.1660598  50.97  0.001081888    1.339    0.253
         7 -10.6471    116.6676    210.3364   8.3826782383e+01   1.3662907353e+01     0.146154    0.1079751  61.97  0.000705211    1.738    0.425
         8 -10.7845     99.4943    206.0024   8.7516824225e+01   1.7171847683e+01    0.2001507     0.127242  85.24 0.0008105818    2.588    0.614
         9 -11.8486    186.2486    204.1491   6.7019576092e+01   4.6875943413e+00    0.2327357    0.1769008  57.19  0.001246969    2.076    0.518
        10 -12.8531    165.3539    202.1532   7.1042946708e+01   8.0677095922e+00    0.5124326    0.3936059  87.77  0.002485445    2.433    0.589
        11 -12.9309    178.3959    198.0624   6.7533483687e+01   6.9406211059e+00    0.3527037    0.2741281  63.79  0.001848275    2.077    0.519
        12 -11.8225    149.3379    198.1251   7.3925906207e+01   1.1309938826e+01    0.3576165    0.2542703 -84.31   0.00156606    2.620    0.618
        13 -11.5817    124.4893    197.5023   7.9801224657e+01   1.5319522027e+01    0.2636404     0.201958  64.42  0.001268972    1.713    0.416
        14 -11.1549    113.2649    197.9668   8.2720518470e+01   1.6956160667e+01    0.3173329    0.1618003  53.05  0.001176615    2.720    0.632
        15 -13.2354    163.3916    194.1534   7.0032253657e+01   9.9558785699e+00    0.4589314    0.3400084  65.56  0.002219917    2.191    0.544
        16 -10.5766    206.4914    191.4957   6.0844383013e+01   4.1727121256e+00    0.1299492    0.1093154 -22.25 0.0008101421    1.048    0.046
        17 -11.7258    172.6935    191.1103   6.7456413603e+01   9.1381565970e+00     0.214594    0.1740049 -56.02  0.001075199    1.465    0.317
        18 -11.8196    139.3221    189.6631   7.4771709179e+01   1.4701694011e+01    0.3034507    0.2468782  72.32  0.001411116    1.695    0.410
        19 -10.9275    192.6041    187.7963   6.2783476131e+01   6.8006530707e+00    0.1877673    0.1185802 -49.93 0.0009466505    1.698    0.411
        20 -11.3707    129.8301    188.3111   7.6858065011e+01   1.6536944850e+01    0.2411425    0.1843314  49.86  0.001193917    1.469    0.319
        21 -11.3073    165.8588    186.7406   6.8112453884e+01   1.1073041707e+01    0.2544331    0.1947213 -77.15  0.001238492    2.065    0.516
        22 -11.6386    186.7918    193.8103   6.5045324986e+01   6.5228820341e+00    0.1720442    0.1672199 -64.12  0.001084545    1.368    0.269
        23 -12.4134     95.6217    184.7316   8.5224500871e+01   2.2835969297e+01    0.6620581    0.4563486  82.59  0.002868627    2.073    0.518
        24 -11.4919    109.6543    185.6773   8.1592156809e+01   2.0402640969e+01    0.3115148    0.2141184  68.17  0.001341943    2.073    0.518
        25 -10.8417     74.4780    183.4901   9.0948883550e+01   2.6275183999e+01    0.2650891    0.1470595 -78.98  0.001031898    2.344    0.573
        26 -11.3675    174.6640    183.3742   6.5581835045e+01   1.0365605853e+01    0.2038945    0.1768619  82.90  0.001118069    1.686    0.407
        27 -12.2208    148.0784    179.7547   7.0820440292e+01   1.5431443532e+01    0.3113146    0.2393801 -86.58  0.001458744    2.013    0.503
        28 -11.3199    138.0274    179.0089   7.3096377728e+01   1.7279154300e+01     0.232052    0.1886431  77.98 0.0008521095    1.699    0.411
        29 -11.4223    192.9664    178.1546   6.0886829152e+01   8.5540234722e+00    0.2043046     0.162794  70.00  0.001086404    2.017    0.504
        30 -11.9223     77.9802    175.5199   8.8703381494e+01   2.7816136876e+01    0.3769621    0.2389092  66.63  0.001557363    2.097    0.523
        31 -11.1457    183.8348    175.5862   6.2187743032e+01   1.0458922387e+01    0.1840258    0.1305283  47.53 0.0008884164    1.718    0.418
        32 -11.0606    159.8027    175.2145   6.7231747148e+01   1.4446956854e+01    0.2338087    0.1652833  81.66 0.0009548574    2.821    0.645
        33 -10.8277    183.3997    184.1933   6.3932968063e+01   8.8551028250e+00    0.1912208    0.1236074 -51.42 0.0009443788    1.681    0.405
        34 -11.7221    135.2920    171.6605   7.2343091570e+01   1.9409981008e+01    0.3223808    0.2538504  75.60  0.001466102    1.770    0.435
        35 -11.8305    177.4375    170.8706   6.2562412896e+01   1.2420010099e+01    0.2600414    0.2328562  89.52  0.001468805    1.505    0.335
        36 -12.5380    122.1788    168.6133   7.5104298624e+01   2.2391261831e+01    0.5940393    0.4060549 -74.87  0.002527572    2.040    0.510
        37 -11.3497    150.1171    169.2592   6.8268878424e+01   1.7378306848e+01    0.2800137    0.2044527 -79.21  0.001242371    2.125    0.529
        38 -11.4508    168.3562    168.7291   6.4051391221e+01   1.4366128912e+01    0.2953959    0.2451352 -88.87  0.001525553    1.735    0.423
        39 -12.0385    120.7214    184.8412   7.8545014220e+01   1.8813492934e+01    0.4381301    0.2158067 -64.53  0.001578182    2.812    0.644
        40 -10.6652    192.5903    165.7777   5.8537818284e+01   1.0967967987e+01    0.1964314    0.1200625 -50.64 0.0009474433    1.679    0.405
        41 -12.9445    139.7040    164.5038   6.9805335511e+01   2.0267235010e+01    0.5143707    0.3574828 -75.58  0.002192097    2.162    0.537
        42 -11.1944     80.2774    164.0249   8.6080124901e+01   3.0452698426e+01    0.4977845    0.2757775  79.08  0.001522926    3.957    0.747
        43 -11.6846    205.9131    162.1272   5.5372043804e+01   9.5634101375e+00    0.2034939     0.176197 -55.92  0.001172106    1.322    0.244
        44 -11.5009    178.0276    160.2733   6.0294806856e+01   1.4453115446e+01    0.3731098    0.2631212 -72.86  0.001702007    2.248    0.555
        45 -10.8883    153.1883    161.3720   6.5932963686e+01   1.8563791114e+01    0.2132258    0.1373042  47.62 0.0009562556    1.744    0.426
        46 -11.6489     93.1128    159.8276   8.1487833859e+01   2.9502268019e+01    0.3517089    0.2730609  70.79  0.001630093    1.572    0.364
        47 -10.8891    128.8219    158.7330   7.1357722160e+01   2.3550352242e+01    0.2942313    0.2102883 -81.73   0.00124053    2.093    0.522
        48 -12.3857    197.1461    157.3050   5.5986675369e+01   1.1849942250e+01    0.3302904    0.2468101 -66.81  0.001519665    1.805    0.446
        49 -11.7599    189.2290    157.5465   5.7519401425e+01   1.3105182889e+01    0.2685128    0.2203152 -66.74  0.001479575    1.515    0.340
        50 -12.0178    168.2704    157.0852   6.1672021682e+01   1.6799640663e+01    0.3594792     0.257383 -67.34   0.00168702    1.875    0.467
        51 -11.2404    105.8679    157.8022   7.7399865750e+01   2.7856596263e+01    0.3718405    0.2347683  64.26  0.001432562    2.348    0.574
        52 -10.9008    157.9875    156.0120   6.3706476176e+01   1.8864304483e+01    0.2352665    0.1888675 -89.12  0.001139658    1.761    0.432
        53 -11.3739    119.9903    155.6902   7.3053121999e+01   2.5869611116e+01    0.3209122    0.2065714 -81.88  0.001176602    2.733    0.634
        54 -10.8278     49.6936    154.7068   9.4051568000e+01   3.7164790328e+01    0.3115741    0.1767447  84.13   0.00117586    2.515    0.602
        55 -10.7266    145.0136    154.5122   6.6411389229e+01   2.1560903249e+01    0.2111388    0.1298765  61.78 0.0008100528    2.506    0.601
        56 -12.2501    133.6670    152.6418   6.8816702055e+01   2.4083333114e+01    0.4438033    0.2953817  87.20   0.00162095    2.987    0.665
        57 -11.2592     81.4679    153.8374   8.3841125837e+01   3.2925711870e+01    0.3173499    0.2278674  87.87  0.001375373    1.819    0.450
        58 -11.4767     68.2066    152.7730   8.7793105576e+01   3.5209865809e+01    0.3393411    0.2690691  66.98  0.001613974    1.421    0.296
        59 -12.9138    189.9073    149.6647   5.5763887405e+01   1.4522042250e+01      0.41924    0.2788287 -53.07  0.001586638    1.553    0.356
        60 -10.9664    182.4812    150.9606   5.7463951291e+01   1.5550398191e+01    0.2000543    0.1185453 -63.20 0.0008096587    2.523    0.604
        61 -10.9724    162.6765    150.3489   6.1449372500e+01   1.9220455070e+01    0.2253279    0.1808909 -86.41  0.001041988    1.728    0.421
        62 -12.3029    200.4957    148.3243   5.3556476922e+01   1.2993779848e+01    0.3081609    0.2130277 -54.99    0.0015296    1.544    0.353
        63 -11.1528     39.2882    147.1015   9.6293240698e+01   4.0433862420e+01    0.3865433    0.2007717  63.67  0.001426621    2.730    0.634
        64 -11.9695    107.5293    145.0980   7.4246235860e+01   3.0712751456e+01    0.6234835     0.400515  73.85  0.002274265    2.736    0.634
        65 -11.8354     56.0185    145.1794   9.0396360388e+01   3.8927761138e+01    0.5970137    0.3341165  69.77  0.002131181    2.877    0.652
        66 -10.9804    175.9650    145.9858   5.7706064654e+01   1.7705417800e+01     0.226895    0.1793485 -79.20  0.001138743    1.725    0.420
        67 -12.7196    149.4957    144.3481   6.3119121494e+01   2.2977767646e+01    0.6031305    0.4217955 -84.57  0.002480023    2.420    0.587
        68 -11.4647    166.0118    143.7655   5.9292680278e+01   1.9988668220e+01     0.277865    0.1861842 -57.53  0.001284628    1.652    0.395
        69 -12.0802    124.9559    142.1336   6.8757029324e+01   2.8175684178e+01    0.5645322    0.3438242 -74.55  0.002004772    2.863    0.651
        70 -11.4532     87.8173    143.1085   7.9714796756e+01   3.4673647233e+01    0.4091058    0.2220739 -68.20  0.001501725    2.326    0.570
        71 -11.1257    182.0491    141.0294   5.5432806350e+01   1.7598041435e+01    0.2252971    0.1739607 -74.58  0.001129998    1.717    0.418
        72 -11.3647    172.7001    137.7393   5.6568503777e+01   1.9979521077e+01     0.300938    0.1694856 -61.67   0.00118216    2.497    0.599
        73 -11.7623     22.6766    136.5136   1.0041875727e+02   4.4944067426e+01    0.5632864    0.2529475  84.69  0.001852678    3.585    0.721
        74 -11.2134    179.8397    133.5188   5.4220749164e+01   1.9489508288e+01    0.3048745    0.1769618 -56.62  0.001331606    1.955    0.489
        75 -10.9205    112.8600    132.7722   6.9915717206e+01   3.2716356470e+01    0.3050299    0.2151624 -82.03  0.001244543    2.088    0.521
        76 -11.1101    143.1125    131.2130   6.1620053286e+01   2.7111269348e+01    0.3659862    0.1969474 -56.10    0.0014233    2.100    0.524
        77 -11.6541    132.2119    130.7964   6.4223867512e+01   2.9379562102e+01    0.4872561    0.2700227 -62.20   0.00180473    2.410    0.585
        78 -12.1628     83.2945    130.1278   7.8303875103e+01   3.8761481666e+01    0.7453389    0.3231082 -61.65  0.002493622    2.701    0.630
        79 -11.2150    152.9220    128.6021   5.8720524109e+01   2.5715652466e+01    0.4188014    0.2037364 -58.36  0.001470141    2.770    0.639
        80 -11.4904    168.8402    129.0346   5.5399495634e+01   2.2483687308e+01    0.2509297    0.1674539 -68.43  0.001097079    2.050    0.512
        81 -12.0180     98.5122    126.4064   7.2625040427e+01   3.6975362057e+01    0.7084712    0.3617707 -66.79  0.002336917    3.004    0.667
        82 -10.9507     72.8144    128.3274   8.1373458963e+01   4.0946789767e+01    0.3807638    0.2220174 -75.57  0.001417173    2.416    0.586
        83 -11.8875     12.2824    126.1918   1.0270700708e+02   4.8541892556e+01    0.7169566    0.2111249 -72.21  0.002411585    3.097    0.677
        84 -11.9315     58.9561    122.6637   8.4955518467e+01   4.4505272560e+01    0.7701267    0.4008891 -83.00  0.002368509    3.885    0.743
        85 -10.8568    180.1542    124.2761   5.2100388271e+01   2.1240879990e+01    0.2848728    0.1753777 -63.38   0.00124093    2.113    0.527
        86 -11.3458    117.4362    124.4632   6.6625221053e+01   3.3781146563e+01    0.3812506    0.2630531 -72.93  0.001303119    1.979    0.495
        87 -12.4295     42.7488    119.8794   9.0319727257e+01   4.7349954003e+01     1.022787    0.4369421 -79.72  0.002855166    4.701    0.787
        88 -12.3143     27.9731    121.2675   9.6136147860e+01   4.8556491991e+01    0.7749801    0.3564435  72.14   0.00213036    5.497    0.818
        89 -10.5408    188.7145    123.1502   5.0286404003e+01   1.9831785835e+01    0.2348119    0.1625275 -56.06  0.001191518    1.465    0.318
        90 -11.0277    158.7744    121.1850   5.5678867438e+01   2.6085543363e+01    0.2516102     0.163829 -82.66 0.0009548378    2.823    0.646
        91 -10.5325    172.4128    120.2266   5.2660683437e+01   2.3542015204e+01    0.2150976    0.1263869 -52.50 0.0009518907    1.709    0.415
        92 -11.5518     70.9053    119.2542   7.9950873390e+01   4.3574901507e+01    0.3896992    0.2161808 -76.23  0.001334492    2.967    0.663
        93 -11.1103    131.0699    118.2360   6.1441819357e+01   3.2416165128e+01    0.3044015     0.207425 -74.50  0.001243868    2.134    0.531
        94 -11.9849      2.4020    114.2532   1.0481157953e+02   5.2323734479e+01    0.6882513    0.2375016 -81.45  0.002373775    3.288    0.696
        95 -10.4704    203.3240    121.6494   4.7496657578e+01   1.7429329885e+01    0.1394083    0.0980754 -68.26 0.0007048485    1.753    0.430
        96 -11.6258    108.7796    112.4141   6.6025408093e+01   3.8292979393e+01       0.6821    0.3202031 -59.70  0.002258278    2.934    0.659
        97 -10.8724    193.0000    113.9986   4.7523644892e+01   2.0723522856e+01    0.2367962   0.07071854 -41.66 0.0008062366    2.969    0.663
        98 -11.7732     92.2069    110.3702   7.0559495170e+01   4.2016265372e+01    0.7817962    0.2942798 -56.91  0.002387335    3.319    0.699
        99 -10.7621    122.3205    111.8412   6.2091827858e+01   3.5640286060e+01    0.3216174    0.1375675 -53.03  0.001089021    2.618    0.618
       100 -11.5218    141.7382    118.4230   5.8859390740e+01   3.0163998617e+01    0.4763881    0.2553905 -61.14  0.001737355    2.575    0.612
       101 -11.4234     66.2039    109.6443   7.9291338466e+01   4.6735317423e+01    0.3988711    0.2102825 -63.27  0.001532611    2.183    0.542
       102 -11.8908     14.1427    109.2082   9.9471076013e+01   5.2895098409e+01    0.4810809    0.2558754 -73.14  0.002160747    1.818    0.450
       103 -11.8990     78.6175    111.1321   7.5275356072e+01   4.4307014877e+01    0.7429264    0.3784947 -70.32   0.00234138    3.534    0.717
       104 -12.6267     44.7500    100.6621   8.5302549800e+01   5.2039481524e+01    0.8245614     0.483256  84.40  0.002834219    3.660    0.727
       105 -10.5033    139.5118    104.0216   5.5732264047e+01   3.3641823073e+01     0.219698    0.1264147 -64.64 0.0008102726    2.543    0.607
       106 -13.3598     21.7139     98.9092   9.4466851669e+01   5.4944400509e+01     1.059407    0.4978237 -79.94   0.00392741    2.975    0.664
       107 -11.0189    150.4135    102.1825   5.2802384508e+01   3.1659547922e+01     0.363677     0.124452 -49.83  0.001149519    3.232    0.691
       108 -10.8165    128.4838    101.5029   5.7752715658e+01   3.6539164632e+01     0.287504    0.1386373 -54.36  0.001039163    2.429    0.588
       109 -12.4127      6.7635    100.1364   1.0099800547e+02   5.5727507299e+01    0.5585633   0.09249379 -62.68  0.001752327    3.638    0.725
       110 -11.1253     81.7356     98.8602   7.0908621746e+01   4.6653542816e+01    0.4501451    0.2135384 -59.64  0.001569464    2.732    0.634
       111 -11.8959    108.1336     96.7023   6.1936449108e+01   4.1893530307e+01    0.6143241    0.2888559 -56.53  0.002131362    2.762    0.638
       112 -11.3691     94.6770     95.2030   6.5589180049e+01   4.4980447084e+01    0.5182661    0.1800358 -48.97  0.001672174    2.982    0.665
       113 -12.1599     63.1377     93.9245   7.6276992445e+01   5.1015289404e+01    0.6829156    0.3117963 -62.58  0.002352681    2.999    0.667
       114 -10.4395     57.8604     91.8980   7.7761130716e+01   5.2318115137e+01    0.1933448    0.1751697  65.43 -0.0006383859    1.300    0.231
       115 -11.8107     34.5990     87.1450   8.6184784181e+01   5.6562357757e+01    0.7956601    0.2572672 -59.26   0.00274718    3.005    0.667
       116 -13.0060      5.1614     88.2504   9.9626738028e+01   5.8811045894e+01    0.6973897    0.2090094 -54.09  0.002722633    2.453    0.592
       117 -11.4866     86.2365     85.6221   6.5506249256e+01   4.8709684837e+01    0.4483242    0.2690801 -64.87  0.001753117    2.482    0.597
       118 -12.3907     47.9588     82.3124   7.9068697650e+01   5.5986181378e+01     0.635922    0.3328873 -63.76   0.00254593    2.454    0.593
       119 -13.0727     25.1129     76.1079   8.7590231445e+01   6.0167491832e+01    0.9924257    0.2977126 -47.97  0.003618983    2.793    0.642
       120 -10.8636     74.4316     79.1901   6.7630839363e+01   5.2313890001e+01    0.3488065    0.1427415 -55.31  0.001150899    3.304    0.697
       121 -11.1916    124.1429     89.4246   5.5528376663e+01   3.9923259647e+01    0.3858371    0.1611852 -49.11  0.001369403    2.576    0.612
       122 -12.1246     62.8584     69.7826   6.8956359031e+01   5.6317333245e+01    0.8370327    0.1835888 -43.31  0.002325295    4.733    0.789
       123 -10.8837    127.6617     73.1891   5.0003295059e+01   4.2142178094e+01    0.3730965    0.1383711 -37.15  0.001306826    2.898    0.655
       124 -11.7227     81.9776     70.5965   6.2171267807e+01   5.2570174325e+01    0.6323014    0.2270445 -49.30  0.002109353    3.318    0.699
       125 -11.7218    104.3004     81.7171   5.8662285361e+01   4.5771044008e+01    0.4959214     0.246227 -52.73  0.001895357    2.378    0.580
       126 -11.0727     94.7054     69.4933   5.7684349935e+01   5.0140973214e+01    0.4149673    0.1660325 -49.76  0.001437956    3.067    0.674
       127 -11.5623      5.6223     69.9997   9.5610686553e+01   6.3156499387e+01    0.3027709    0.1133115 -64.16  0.001250493    2.451    0.592
       128 -10.2204    140.6655     82.3288   4.9666747652e+01   3.7565195951e+01    0.1531464    0.1115469 -79.00 0.0007051951    1.723    0.420
       129 -11.8694     50.9847     66.8612   7.2890601849e+01   5.8866875477e+01    0.6676142    0.2110512 -53.30  0.002131508    3.912    0.744
       130 -12.0570     16.5461     68.2528   8.9640210148e+01   6.2750711792e+01    0.4153472    0.1312188 -55.83  0.001607843    2.648    0.622
       131 -11.5255     37.1378     62.3400   7.7647285174e+01   6.1785820141e+01    0.4656002    0.1910988 -51.43   0.00189808    2.446    0.591
       132 -11.4973     73.0870     56.5472   6.0417342742e+01   5.6886532166e+01     0.624211    0.2080078 -39.08  0.002196095    3.219    0.689
       133 -11.1179     24.7466     57.5348   8.2185344450e+01   6.4271248624e+01    0.3013021    0.1288899 -41.94  0.001304666    2.165    0.538
       134 -13.0054      7.7411     53.7692   9.0168693227e+01   6.6614476188e+01    0.7108733    0.1712401 -54.33  0.002680558    3.110    0.678
       135 -12.1910     44.7200     50.7038   6.9855806447e+01   6.2946830044e+01    0.6271732      0.23127 -36.34  0.002334947    3.107    0.678
       136 -11.2236     53.7891     51.1527   6.5991376383e+01   6.1385095444e+01    0.6167974    0.1674959 -47.42  0.001920184    4.522    0.779
       137 -11.0772     20.0005     50.1747   8.2183769044e+01   6.6267737199e+01      0.27131    0.1200043 -46.60  0.001246641    2.043    0.511
       138 -11.0701     92.0028     48.0936   5.1195764071e+01   5.4280796587e+01    0.4662291    0.1443845 -41.97  0.001602456    3.549    0.718
       139 -11.2838     62.6860     51.3350   6.2403292058e+01   5.9766141254e+01    0.5570272    0.1560422 -39.42  0.001836858    3.838    0.739
       140 -11.4111     16.7621     42.2422   8.1094341988e+01   6.8140438276e+01    0.4602351    0.1153361 -45.86  0.001707373    3.370    0.703
       141 -10.8260     82.4259     43.4009   5.2382533999e+01   5.7050577225e+01    0.5525618    0.1923128 -26.08  0.001632557    5.272    0.810
       142 -10.5303     66.4843    226.9956   9.8533159141e+01   1.6851642292e+01    0.1879215    0.1059728  74.06 0.0006887081    2.450    0.592
       143 -10.8623     36.6283     39.0352   6.9035386834e+01   6.6204635330e+01    0.2894414    0.1195486 -42.81  0.001259784    2.503    0.600
       144 -11.6379     27.5748     29.9791   6.9792259548e+01   6.8972998029e+01    0.4281836     0.160072 -30.19  0.001617084    3.630    0.724
       145 -11.4892     12.8828     27.8893   7.7499951897e+01   7.1115814096e+01    0.4158622   0.07843142 -50.23  0.001271345    5.932    0.831
       146 -11.6130     30.7323     48.9162   7.6013077799e+01   6.5264928723e+01     0.517446    0.1727621 -52.82  0.001891739    3.522    0.716
