#   1 NUMBER                 Running object number                                     
#   2 MAG_AUTO               Kron-like elliptical aperture magnitude                    [mag]
#   3 X_IMAGE                Object position along x                                    [pixel]
#   4 Y_IMAGE                Object position along y                                    [pixel]
#   5 X_WORLD                Barycenter position along world x axis                     [deg]
#   6 Y_WORLD                Barycenter position along world y axis                     [deg]
#   7 A_WORLD                Profile RMS along major axis (world units)                 [deg]
#   8 B_WORLD                Profile RMS along minor axis (world units)                 [deg]
#   9 THETA_WORLD            Position angle (CCW/world-x)                               [deg]
#  10 FWHM_WORLD             FWHM assuming a gaussian core                              [deg]
#  11 ELONGATION             A_IMAGE/B_IMAGE                                           
#  12 ELLIPTICITY            1 - B_IMAGE/A_IMAGE                                       
         1 -12.3714    220.6093     32.4150   3.1857540239e+01   2.7545264663e+01     0.904547    0.7300475  44.30  0.005970825    1.775    0.437
         2 -12.6046    207.1815     43.8175   3.5619322168e+01   2.8869396112e+01     1.075324    0.9540984  31.18  0.007019619    1.600    0.375
         3 -10.1769      1.9778     12.1971   8.4271765276e+01   7.3231136083e+01    0.4207398    0.1353065 -48.44  0.001907507    3.425    0.708
         4 -10.7138    248.6169     11.3826   2.5792798779e+01   2.4613827998e+01    0.8095018      0.31211 -31.07  0.003978139    3.375    0.704
         5 -10.9980    243.9865      8.2535   2.5521468577e+01   2.5806038770e+01    0.6616166    0.3932638 -28.21  0.004154018    2.287    0.563
         6  -9.1074      2.2215      2.8923   7.9424106587e+01   7.4513688030e+01    0.2304876    0.1145808 -39.30  0.001386652    2.016    0.504
         7  -9.6500     94.1103    237.0535   1.0102493568e+02   1.0886445918e+01    0.4289243    0.1789398 -72.77  0.001535961    3.898    0.743
         8 -14.6393      7.0172    139.8352   1.1258726409e+02   4.4908457399e+01     15.50601       3.7936 -81.93   0.03521824    7.829    0.872
         9 -13.2323     55.8208    234.4801   1.0952276396e+02   1.6551330936e+01     2.016645      1.04562 -87.70  0.007091519    2.343    0.573
        10 -15.0466      7.6082    245.4343   1.2045676967e+02   1.9469781338e+01     6.187926     2.350457  15.33  0.007873344    7.019    0.858
        11 -10.2233    128.7722    229.7036   9.1937411543e+01   7.2979628062e+00    0.2713824    0.2070037 -70.28  0.001444772    1.669    0.401
        12  -8.5364     73.4339    206.2020   1.0219869147e+02   2.0800156783e+01     0.246776    0.1749127 -79.96  0.001106552    1.505    0.336
        13 -12.0288     15.9428    248.7501   1.1899972049e+02   1.7967549688e+01    0.3334631    0.2285401  73.62 0.0006971211    1.227    0.185
        14  -8.0419     99.3843    180.7712   9.1459293304e+01   2.3225668372e+01    0.2094703    0.1384215 -47.78 0.0004666453    1.526    0.345
        15 -10.4531     61.5228    171.9126   1.0064661580e+02   3.1101605918e+01    0.5067931    0.3144931 -28.80  0.002142387    2.213    0.548
        16 -10.2152     66.5745    167.0157   9.8421448054e+01   3.1717053703e+01    0.3711022    0.2731068 -31.75 0.0008327296    1.583    0.368
        17  -9.0567     84.8161    172.1470   9.4018579283e+01   2.7729468694e+01    0.4047104    0.2790476 -22.18  0.001749292    1.940    0.485
        18  -9.1869    103.2075    172.3776   8.8878252153e+01   2.4713261248e+01    0.2302246    0.1384172  43.26 0.0009560946    1.696    0.410
        19  -8.6095     48.3089    168.9113   1.0400533410e+02   3.3523828067e+01    0.2419403    0.1862541  51.84 0.0006229526    1.342    0.255
        20  -8.4352    110.7890    167.7620   8.5881132257e+01   2.4578873768e+01    0.2553339    0.1775746  73.66  0.001033374    2.108    0.526
        21  -7.8491     43.5459    164.5333   1.0477835785e+02   3.5220594728e+01    0.1438029    0.1302095 -81.82 0.0001082207    1.022    0.021
        22 -10.1762     32.6101    157.6372   1.0706228543e+02   3.8182889001e+01    0.5792554    0.2181888 -72.45  0.002142696    2.555    0.609
        23 -11.4915     58.5765    132.4656   9.4701152051e+01   4.1929225829e+01     1.296641    0.5604228 -76.73  0.003551026    4.771    0.790
        24 -11.8523     68.6497    144.6466   9.3829492518e+01   3.7351119387e+01    0.9014627    0.6432401  71.32  0.002949853    1.807    0.447
        25 -10.8599     83.8831    151.8605   9.0525767004e+01   3.3169753569e+01    0.6769967    0.4617382 -29.21    0.0016469    1.761    0.432
        26  -7.8195    127.4994    151.9819   7.7953079550e+01   2.5428316871e+01     0.234583    0.1447274 -74.75 0.0008097788    2.753    0.637
        27  -9.4380    133.8631    145.5046   7.4771339591e+01   2.5752960918e+01    0.9031681    0.2313012 -54.16  0.002018124    5.729    0.825
        28 -12.3294      5.9904    185.8007   1.1712369663e+02   3.3260553168e+01     1.238347    0.6901384  84.53  0.002653924    1.672    0.402
        29  -8.5921     31.8004    143.3103   1.0532032766e+02   4.2051539219e+01    0.2803304    0.1069015  32.33  0.001091105    2.678    0.627
        30  -9.0580     98.2070    139.5900   8.3561769715e+01   3.3946719739e+01    0.3751375    0.2764315  -0.72  0.001224971    1.761    0.432
        31  -7.9363    101.0003    136.5231   8.2012871460e+01   3.4223522645e+01    0.2759816    0.1954175 -11.74   0.00113589    1.922    0.480
        32 -10.7293     86.1291    137.6078   8.6847000555e+01   3.6515202957e+01     0.348308    0.2944205 -26.30 0.0004906339    1.244    0.196
        33  -8.9712    108.6616    129.6901   7.8083830487e+01   3.4498544530e+01    0.3712561    0.2604405   4.89  0.001515418    1.981    0.495
        34  -7.9904     82.7793    129.6930   8.6130786728e+01   3.9093633680e+01    0.2436472    0.1284135 -65.48  0.000746745    2.320    0.569
        35  -8.6911    105.6216    130.8087   7.9264382019e+01   3.4797877829e+01    0.3665347    0.2434949 -53.30  0.001314953    1.502    0.334
        36  -8.6463     96.8518    124.8358   8.0491291507e+01   3.7888594970e+01    0.2745406    0.2143458  11.95  0.001263333    1.467    0.318
        37  -8.2144    115.3510    124.3055   7.4776303403e+01   3.4497258998e+01    0.1663385    0.1256855  -6.73 0.0007041819    1.707    0.414
        38  -9.1665    161.7726    118.8397   6.1397867865e+01   2.5980061783e+01      0.63507    0.3544931 -69.03  0.001985241    3.774    0.735
        39 -13.4767     35.1868    194.9577   1.1063803637e+02   2.8276430231e+01     3.354176     1.186133  54.53  0.003897101    3.489    0.713
        40  -8.1055    134.7487    118.9988   6.8038632125e+01   3.1734740521e+01    0.2094618    0.1335336 -45.10 0.0005594931    1.538    0.350
        41  -8.1867    106.4313    118.2969   7.5882172554e+01   3.7675453930e+01    0.2003378    0.1531301 -57.95 0.0003159161    1.392    0.281
        42 -11.3623     75.9026    157.5022   9.4014345673e+01   3.2904884943e+01    0.8408142    0.5250956  77.39  0.001284996    2.471    0.595
        43  -8.8889    231.3509    113.8204   4.7577386069e+01   1.3020826050e+01    0.2374005    0.2211093 -76.64 0.0009963951    1.174    0.148
        44  -7.5295     77.6971    112.7067   8.3710788698e+01   4.4169702105e+01    0.1569108    0.1152043 -19.05 0.0002685642    1.574    0.365
        45 -11.8447     63.5834    153.9473   9.7119727317e+01   3.5583423915e+01    0.5556611    0.3788842 -26.92  0.001044605    1.816    0.449
        46  -8.3897    205.5231    110.4669   5.0855014313e+01   1.8504359631e+01    0.1417034    0.1260544 -50.80 0.0003432202    1.007    0.007
        47  -7.6458    134.6620    104.6791   6.4268049580e+01   3.4875800205e+01    0.1610086      0.12423   2.80  0.000705019    1.712    0.416
        48 -12.5980     44.6217    186.3273   1.0724952405e+02   2.9419571481e+01      1.63885     1.007628  60.23   0.00541141    1.736    0.424
        49 -10.2236     13.3578     60.1987   9.5564939246e+01   6.3760947759e+01     0.293588    0.1869208 -53.04 0.0007155682    1.423    0.297
        50 -14.3177      9.0410    208.0963   1.1798723325e+02   2.7617054302e+01      2.65686    0.9582505 -69.15   0.01191991    2.385    0.581
        51  -8.5458    102.0000    249.0190   1.0065353784e+02   7.3311382341e+00    0.1863467    0.1337193 -41.56  0.001042469    1.656    0.396
        52 -11.7249    198.0947     50.0673   3.8091307706e+01   2.9974651798e+01    0.5544766    0.4097171  45.54  0.001652821    1.697    0.411
        53  -9.3053    101.3496    243.2513   1.0011242429e+02   8.5765914658e+00    0.3977734    0.1877077 -67.17  0.001722687    2.745    0.636
        54 -10.0946      1.8637     27.7686   9.1001373943e+01   7.0736048070e+01    0.4161861   0.06214385 -51.58   0.00144058    4.806    0.792
        55  -8.4103     32.4925     31.4760   7.5704067798e+01   6.7143274791e+01    0.1274395    0.0997947  -1.83 0.0001050444    1.019    0.019
        56  -8.0502     82.6649    249.3154   1.0498867015e+02   9.9336843774e+00    0.1377252   0.08475357  58.16 0.0006131818    1.692    0.409
        57 -10.8393     73.0516    245.5799   1.0673708918e+02   1.1976849708e+01    0.4539957    0.2932401  33.81  0.001964056    1.404    0.288
        58 -10.6672     78.9473    239.1396   1.0474638496e+02   1.2544714678e+01    0.4392128    0.2354938 -54.44  0.001499413    2.056    0.514
