#   1 NUMBER                 Running object number                                     
#   2 MAG_AUTO               Kron-like elliptical aperture magnitude                    [mag]
#   3 X_IMAGE                Object position along x                                    [pixel]
#   4 Y_IMAGE                Object position along y                                    [pixel]
#   5 X_WORLD                Barycenter position along world x axis                     [deg]
#   6 Y_WORLD                Barycenter position along world y axis                     [deg]
#   7 A_WORLD                Profile RMS along major axis (world units)                 [deg]
#   8 B_WORLD                Profile RMS along minor axis (world units)                 [deg]
#   9 THETA_WORLD            Position angle (CCW/world-x)                               [deg]
#  10 FWHM_WORLD             FWHM assuming a gaussian core                              [deg]
#  11 ELONGATION             A_IMAGE/B_IMAGE                                           
#  12 ELLIPTICITY            1 - B_IMAGE/A_IMAGE                                       
         1 -14.3214    157.4526     54.9853   8.1010094190e+01   3.9037474951e+01     1.365767     1.096581  55.69  0.001192228    1.172    0.147
         2 -14.6600    169.6311     39.5516   7.4292974138e+01   3.8231764512e+01     1.191344     1.063397  17.14  0.004400339    1.341    0.254
         3 -14.6101    188.5331      7.2556   6.2980059422e+01   3.7324462649e+01     2.134065    0.7554611  63.15  0.009127079    2.289    0.563
         4  99.0000     13.2786    244.1146   1.4936365805e+02   2.2643769522e+01    0.2664183   0.09690364 -67.44  0.001460356    2.588    0.614
         5 -19.9062     63.8001    168.7496   1.3243294169e+02   3.2791052720e+01     19.05857     6.230906 -66.28   0.07023927    2.917    0.657
         6  -9.3968    116.2697    211.3214   1.2683710889e+02   1.4781975865e+01    0.3942543    0.1810252 -67.29  0.001588602    2.730    0.634
         7  -9.7763    130.2393    212.5396   1.2406786032e+02   1.2033998956e+01    0.1431342   0.09859969  84.61  0.000293063    1.816    0.449
         8 -12.4882    107.1579    206.9477   1.2814666397e+02   1.7290303148e+01    0.6317854    0.3635985 -66.84  0.003049261    1.835    0.455
         9 -10.7836     30.0022    205.5854   1.4377322430e+02   2.8593123648e+01    0.1810714    0.1675769   2.62  0.001236684    1.778    0.437
        10 -12.3072    163.7000    202.8567   1.1537434046e+02   7.6724795658e+00    0.3266086    0.2589944  82.74 0.0007310789    1.560    0.359
        11 -12.7263    157.3648    200.7777   1.1635506826e+02   9.3144282870e+00    0.7272009    0.4548461  84.81  0.002776351    3.120    0.680
        12 -11.9622    153.8100    194.9783   1.1608872220e+02   1.1191435374e+01    0.4139015     0.272986 -63.47  0.001936712    1.777    0.437
        13 -10.3861    140.4155    200.2071   1.1991390510e+02   1.2691835717e+01    0.3053844    0.1826228  29.59  0.001322245    2.085    0.520
        14  -8.5997    133.5673    249.9140   1.2854885685e+02   4.4143765953e+00    0.1577983    0.1236102 -53.47 0.0009853285    1.551    0.355
        15 -10.7852    112.3615    196.4315   1.2545870739e+02   1.8675840174e+01    0.4503977    0.3023921   7.97  0.001779775    3.351    0.702
        16 -11.9737    170.1380    184.0099   1.1047551024e+02   1.0188650422e+01    0.3602395    0.2978848 -87.05  0.001839923    1.461    0.315
        17 -13.9561    174.4901    188.0714   1.1033230068e+02   8.4829941454e+00     1.087938     0.493108 -45.57   0.00429287    2.320    0.569
        18 -13.4184    165.7139    188.7210   1.1234420976e+02   1.0116288465e+01    0.5896906    0.4518449  23.41  0.002930255    1.517    0.341
        19 -10.7966    104.5081    193.6658   1.2677590131e+02   2.0662818610e+01    0.6223106     0.414845   1.26  0.002271333    4.157    0.759
        20 -12.8361    206.3568    178.4758   1.0180407299e+02   3.9461770749e+00     0.602926    0.4952003  -9.00  0.003202728    1.345    0.257
        21 -11.1360    203.2827    170.7088   1.0079483369e+02   6.0498689849e+00    0.5223091    0.2734962  33.63  0.002084395    2.236    0.553
        22 -11.5553    154.0031    187.0461   1.1458935832e+02   1.2813127230e+01    0.3357492     0.208278 -76.77    0.0013217    2.590    0.614
        23 -11.8822    151.2017    182.0671   1.1427040892e+02   1.4438758372e+01    0.2752345     0.224235  62.36  0.001226661    1.238    0.192
        24 -10.4243    131.9327    236.5067   1.2713397208e+02   7.0808475489e+00    0.1862209    0.1577243  79.75 1.803839e-05    1.197    0.165
        25  -9.9635    135.1827    234.9494   1.2628198459e+02   6.8013989848e+00    0.1843783    0.1511194  73.03 0.0004999874    1.218    0.179
        26 -10.1420     15.4300    237.2390   1.4861745372e+02   2.3726694535e+01    0.2014629   0.09242371  57.17  0.001189539    1.732    0.423
        27 -12.8823    195.5178    169.1410   1.0204343443e+02   7.9588612620e+00    0.4924259    0.4337937 -50.02 0.0005608916    1.172    0.147
        28 -11.8723    192.9974    164.2772   1.0152142895e+02   9.4609023093e+00    0.4609737    0.3337142  39.77  0.001848825    1.395    0.283
        29 -11.8556    164.3828    171.1381   1.0915069468e+02   1.4080929803e+01    0.4102171    0.2614012 -78.14  0.001201361    2.652    0.623
        30 -11.6714    230.1692    166.6553   9.4755855359e+01   1.4593526892e+00    0.3516004    0.1804418 -52.44  0.001419702    2.434    0.589
        31 -11.5013    122.7362    165.7633   1.1773781044e+02   2.3745459678e+01    0.2722192    0.2304181  73.96 0.0002787713    1.185    0.156
        32 -10.9479    200.6890    162.8425   9.9630953747e+01   8.1274271382e+00    0.4007194    0.3109913  59.03  0.001987625    1.425    0.298
        33 -12.6885    121.8189    157.8128   1.1638985048e+02   2.5781005963e+01    0.5332621    0.3127013  60.56  0.002172401    2.040    0.510
        34 -10.8479    189.4732    158.1596   1.0092091067e+02   1.1458459611e+01    0.2539544    0.2103212  20.79 0.0007407376    1.371    0.270
        35 -14.5026    134.0067    145.9639   1.1087972068e+02   2.6104408674e+01     1.615582    0.5793812 -56.15  0.004898628    3.343    0.701
        36 -13.5866    135.7897    128.7310   1.0643821748e+02   2.9689406505e+01     1.489781    0.3078323 -51.26  0.003278505    6.049    0.835
        37 -12.8391    135.2239    119.9699   1.0441509859e+02   3.1784516880e+01    0.5645831    0.4013809  47.96  0.002577414    1.424    0.298
        38 -12.3407    180.4642    193.5481   1.1012284424e+02   6.2086697117e+00    0.3470498     0.283043  86.23  0.001792115    1.581    0.367
        39  -9.7671    176.8270    154.8143   1.0289039265e+02   1.4905680075e+01     0.209143    0.1797853 -89.52 0.0004899782    1.329    0.248
        40  -9.5509     18.7118    235.7028   1.4798254820e+02   2.3667465295e+01    0.1604921   0.08340466 -71.42  0.000577283    1.774    0.436
        41 -11.4106    174.2971    148.6875   1.0206510162e+02   1.6771679084e+01    0.3739862    0.2845787 -73.48  0.001333242    1.612    0.380
        42 -13.8058    144.3179    145.7537   1.0832207594e+02   2.3984312011e+01    0.7831832     0.630655 -85.01  0.003727605    1.434    0.303
        43 -13.4312    142.8801    139.9005   1.0733192236e+02   2.5625925323e+01    0.6078735    0.5024574  76.93  0.002944466    1.340    0.254
        44 -11.0843     20.6826    141.1757   1.3914111962e+02   4.4084407143e+01    0.1888583    0.1516647  61.94 0.0005925997    1.345    0.256
        45 -11.8621    152.5732    139.3301   1.0487149235e+02   2.3644364175e+01    0.3387203    0.2689571  81.51  0.001197223    1.493    0.330
        46 -11.7753      6.5476    139.9461   1.4244179231e+02   4.5483419066e+01    0.2307709    0.1701057  35.08 -1.422361e-05    1.681    0.405
        47 -12.1726      2.6641    125.6490   1.4174830467e+02   4.8966624058e+01     0.308986    0.1714737 -62.46  0.001309482    1.380    0.276
        48 -12.2696      2.4862    122.0000   1.4134714803e+02   4.9793128752e+01    0.3512276    0.1494901 -73.76  0.001611801    1.879    0.468
        49 -12.0031    160.4240    127.8312   1.0026570815e+02   2.4425514775e+01    0.4451208    0.3107487 -61.22  0.001933004    1.599    0.375
        50 -10.4974    150.6987    249.3777   1.2521934271e+02   1.5870514605e+00    0.1886015     0.163652 -61.66 0.0004952545    1.374    0.272
        51 -11.0373    168.2994    113.1694   9.4780972254e+01   2.5722035283e+01    0.4119054    0.2769513 -89.28  0.001251719    2.339    0.572
        52 -12.0554    134.7440    111.8783   1.0245933615e+02   3.3674921131e+01    0.5278808     0.151369 -45.24  0.001527998    3.443    0.710
        53 -11.6460      2.9364    112.2161   1.3995117473e+02   5.1938734474e+01    0.2498809    0.1885519 -54.13 0.0008861558    1.196    0.164
        54 -12.2276     10.4897    111.0222   1.3768565487e+02   5.1723940431e+01    0.5180101    0.2236225   2.14  0.002206439    4.583    0.782
        55 -13.2853    118.0409    110.1107   1.0637697217e+02   3.7578396352e+01    0.6664784    0.3115557  49.53  0.002496041    2.308    0.567
        56 -10.8103    205.4576    110.1871   8.6450530027e+01   1.7519345992e+01    0.3279284    0.2196228  45.92 0.0009798796    1.597    0.374
        57 -10.2211    219.1344    223.9336   1.0803641101e+02  -6.1861186209e+00    0.1762299    0.1703415  31.36 0.0004184628    1.252    0.201
        58 -10.7358    110.0545    222.7068   1.2968758265e+02   1.3509025427e+01    0.2628329    0.1786102 -84.04  0.001407012    1.631    0.387
        59 -10.4596    124.9930     81.6439   9.6572955161e+01   4.2023124626e+01    0.2142155    0.1866779  45.28 0.0007168761    1.144    0.126
        60 -10.4532    146.9796     80.4692   9.0752772947e+01   3.7259128733e+01    0.2316461    0.1471978  52.14 0.0005099453    1.544    0.353
        61 -10.5136     95.2584     79.8623   1.0442158636e+02   4.8299807729e+01    0.2391773    0.1851428  50.00 0.0008044128    1.426    0.299
        62 -11.9487     20.1469    219.4594   1.4665905052e+02   2.6762453981e+01    0.2250467    0.1498064  57.96 0.0009463679    1.323    0.244
        63 -11.0065    125.0862    247.3179   1.2983871240e+02   6.2954975772e+00     0.190513    0.1389639 -60.28  0.000828315    1.593    0.372
        64 -10.7467     16.7332    217.2992   1.4711221300e+02   2.7569591187e+01    0.2611736    0.1779763  35.23    0.0017558    1.890    0.471
        65 -12.8183    173.5974     32.3936   7.1643596499e+01   3.8171421090e+01    0.3738519    0.3230183  12.99 0.0009261032    1.453    0.312
        66 -10.7333     13.4924     59.6387   1.2660133226e+02   6.2302108437e+01    0.1970763    0.1520931 -42.91 0.0004281923    1.023    0.023
        67 -10.5095    112.0651    214.3967   1.2815482957e+02   1.4871085102e+01    0.1785768    0.1513727  85.45  0.000243729    1.120    0.107
        68 -10.2700    132.2085     29.1490   7.8310896870e+01   4.8537835659e+01    0.2491917    0.1681276  85.76 0.0009353636    2.022    0.505
