#   1 NUMBER                 Running object number                                     
#   2 MAG_AUTO               Kron-like elliptical aperture magnitude                    [mag]
#   3 X_IMAGE                Object position along x                                    [pixel]
#   4 Y_IMAGE                Object position along y                                    [pixel]
#   5 X_WORLD                Barycenter position along world x axis                     [deg]
#   6 Y_WORLD                Barycenter position along world y axis                     [deg]
#   7 A_WORLD                Profile RMS along major axis (world units)                 [deg]
#   8 B_WORLD                Profile RMS along minor axis (world units)                 [deg]
#   9 THETA_WORLD            Position angle (CCW/world-x)                               [deg]
#  10 FWHM_WORLD             FWHM assuming a gaussian core                              [deg]
#  11 ELONGATION             A_IMAGE/B_IMAGE                                           
#  12 ELLIPTICITY            1 - B_IMAGE/A_IMAGE                                       
         1 -12.4916    214.4134     51.9916   3.0593509498e+01   2.6703704851e+01    0.5056626     0.374114  -4.99  0.002864297    2.502    0.600
         2 -11.5707     81.6340     39.7845   5.0913709706e+01   5.7806818511e+01    0.6336234    0.3723815 -39.61  0.003135818    1.902    0.474
         3 -10.7740     39.5446      7.9440   5.2727246094e+01   6.9989879716e+01    0.3999195    0.2185476 -20.11  0.002069947    2.091    0.522
         4 -13.0352     44.8669     23.1936   5.7862516697e+01   6.7256903105e+01    0.9614488    0.7806453 -56.77  0.005835267    1.847    0.459
         5 -11.2512     78.2359     13.9147   4.1738213212e+01   6.1574716231e+01    0.4110159    0.2521049  10.26  0.002096313    2.275    0.560
         6 -12.6104    156.1966     11.6141   2.7357608284e+01   4.3819995405e+01    0.6661219    0.5121226  58.47  0.004333413    1.369    0.270
         7 -13.4016    164.7425     11.8875   2.6534310394e+01   4.1873861140e+01    0.9960843    0.4250607  64.90  0.005018303    2.044    0.511
         8 -12.8625    158.9179      3.7421   2.5081353818e+01   4.3936698188e+01    0.9655374    0.3668934  72.79  0.004640924    2.193    0.544
         9 -13.2071    169.7171      2.2723   2.3754117333e+01   4.1680442687e+01     1.692632     0.616215 -86.71   0.00684416    3.434    0.709
        10 -10.2658     20.9718     14.0763   6.5860727058e+01   7.2242105068e+01    0.3408931    0.1784743 -15.41  0.001670972    2.483    0.597
        11 -10.5684    192.8661      6.0850   2.2801037411e+01   3.6399066385e+01    0.2787933    0.1186367 -45.73    0.0015004    2.014    0.503
        12 -11.8268    144.9502      4.4039   2.6690541247e+01   4.7040898779e+01    0.4425292    0.3110701  78.10  0.002750016    1.178    0.151
        13 -11.0936    131.2351      3.8313   2.8159087798e+01   5.0251159835e+01    0.5971287    0.1937829  58.11  0.002616856    2.517    0.603
        14 -10.9373    121.3683      4.2545   2.9618472292e+01   5.2510804498e+01    0.3981777     0.321389 -82.79  0.002620719    1.188    0.159
        15 -10.4956     71.0664      5.7734   4.0311128121e+01   6.3869070196e+01    0.4061216    0.1682014  58.73  0.001918154    1.972    0.493
        16 -10.4456    208.5798      4.2150   2.1363262565e+01   3.3419942702e+01    0.1854564    0.1557795  83.87  0.001008091    1.296    0.228
        17 -11.0553    204.2579      4.6116   2.1716157406e+01   3.4234670950e+01    0.2632395    0.1295968  82.61  0.001551751    1.800    0.444
        18  -9.1207    112.3101      5.6433   3.1441265067e+01   5.4509056240e+01    0.1281401   0.08443554 -69.85 0.0007042969    1.733    0.423
        19 -10.0993    106.5382      5.0350   3.2203430465e+01   5.5901700298e+01    0.2645799    0.1282058 -73.70  0.001049662    3.567    0.720
        20 -11.7888     84.0286      3.6434   3.6155782454e+01   6.1173305061e+01    0.7615666    0.2639201  65.11  0.003193683    2.471    0.595
        21  -9.6876    217.9741      2.2167   2.0421688388e+01   3.1804770547e+01    0.1396538   0.07290564  83.73 0.0008738372    1.699    0.411
        22 -10.1259     62.5089      1.7394   4.1009882082e+01   6.6026971419e+01    0.2836635   0.09924823  49.08   0.00128894    2.162    0.537
        23 -10.8160      6.3391     35.4673   8.4901040676e+01   7.0362689410e+01    0.2319456    0.1946399  19.56  0.001387208    1.325    0.245
        24 -11.1096    219.6273    155.8885   5.1004727953e+01   9.0277587882e+00    0.3664861     0.303471  83.96  0.002213867    1.834    0.455
        25 -10.2514     20.6577    155.8365   1.0304098765e+02   4.0040636825e+01    0.2350249     0.200976  -7.73  0.001319832    1.334    0.250
        26 -10.9572    163.5587    150.7580   6.0536685216e+01   1.9316822878e+01    0.5372514    0.3183244 -35.75  0.002394854    1.703    0.413
        27  -9.7548    173.5737    144.7683   5.7129165888e+01   1.8732659771e+01    0.2045424    0.1297654 -52.75 0.0008259871    1.623    0.384
        28 -10.0495     53.6481    143.4665   9.0316620679e+01   3.9877726822e+01    0.2807315    0.2400637 -76.21  0.001192372    1.188    0.159
        29 -12.8943      9.9134    140.6329   1.0489317083e+02   4.4934184715e+01    0.6150587    0.5519877 -55.39  0.003683625    1.086    0.079
        30 -10.1850     39.7159    140.6185   9.4620202777e+01   4.2293764078e+01    0.2711093    0.2473734 -58.47  0.001497049    1.042    0.040
        31 -10.0804    220.7932    137.2049   4.7187645218e+01   1.2102346838e+01    0.1778489    0.1417325 -18.37  0.001083593    1.353    0.261
        32 -10.0102    165.2275    135.2824   5.6794478632e+01   2.2216846005e+01    0.3644927    0.2041549 -56.59  0.001513573    2.071    0.517
        33 -13.4524    240.9467    125.3473   4.2086495007e+01   1.0991363296e+01      1.06736    0.8834668  73.66  0.007319386    1.575    0.365
        34 -13.7381    244.8809    110.5015   3.8813134163e+01   1.2750618699e+01     1.620857      0.83097 -50.35  0.008938412    1.675    0.403
        35 -11.1771     17.9066    127.4837   1.0043158206e+02   4.7860306669e+01    0.2365126    0.1907243  74.46  0.001209732    1.340    0.254
        36 -11.8927     11.8001    125.0076   1.0234086597e+02   4.8964208979e+01    0.2917957    0.2458897 -60.23  0.001627138    1.063    0.060
        37 -10.6985      4.3455    124.3564   1.0499886972e+02   4.9605884372e+01     0.284283    0.1657977  57.70  0.001330252    2.008    0.502
        38  -9.5813    208.7313    123.3886   4.6253680397e+01   1.6511159550e+01    0.2081787    0.1715325  33.49 0.0008481867    1.464    0.317
        39 -10.4384    154.1942    120.8172   5.5853660944e+01   2.7363240754e+01    0.2069972    0.1799618  -5.68  0.001026999    1.334    0.251
        40 -11.5510    189.5982    115.5949   4.7720328049e+01   2.1385181381e+01    0.7149226    0.4034516 -20.68  0.002762855    3.159    0.683
        41 -11.0559    212.9337    112.7732   4.3425432640e+01   1.7619855989e+01    0.4239598    0.2389328 -47.12  0.002191392    1.533    0.348
        42  -9.8096    224.5161    112.0083   4.1653249340e+01   1.5765044999e+01    0.2936193    0.1045634 -41.58  0.001139507    2.318    0.569
        43 -11.2889    222.9736    107.1545   4.0886608963e+01   1.6823230320e+01    0.4190525     0.225912  52.69  0.002214929    2.199    0.545
        44  -9.9141    148.5039    111.4887   5.4865037375e+01   3.0440754879e+01     0.308822    0.1420176 -45.09  0.001190695    2.108    0.526
        45  -9.9269    155.9822    109.0000   5.2617048440e+01   2.9372530512e+01    0.2373769   0.08366077  48.75 0.0008035779    2.950    0.661
        46 -10.7199     17.0582    104.3625   9.7113329790e+01   5.3982868655e+01    0.3126324    0.2542113  21.26  0.001759374    1.325    0.245
        47 -10.1353     30.6444    101.9995   9.0992506773e+01   5.3390529880e+01    0.2816385     0.185234 -23.71  0.001335451    1.662    0.398
        48  -9.5533    208.8584     94.2127   4.0114705064e+01   2.1459975885e+01    0.1681339    0.1481265 -23.16 0.0005930003    1.340    0.254
        49 -10.0616    178.8790     92.6040   4.4314221573e+01   2.7630947235e+01    0.2851678    0.1886814 -50.84  0.001456573    1.418    0.295
        50 -10.6815     12.8487     89.8584   9.6222049132e+01   5.7938030571e+01    0.2245952    0.1673735 -37.26  0.001242449    1.214    0.176
        51 -11.5120      2.4265     86.8582   1.0038971518e+02   5.9304671409e+01    0.8120935     0.258331 -70.43  0.003024363    2.949    0.661
        52 -12.7519      5.2196     76.5567   9.7100750928e+01   6.1637066311e+01    0.7983885    0.5528713  66.11  0.004197231    2.004    0.501
        53 -13.1562     14.8608     73.1733   9.1575933141e+01   6.1775924196e+01    0.9492977    0.6241189  27.83   0.00508877    1.624    0.384
        54 -10.4726    192.4284     86.9848   4.0874783488e+01   2.5822638686e+01    0.4560276    0.1968391  60.53    0.0019563    2.601    0.615
        55 -12.4089     41.7330     82.2416   8.1370463503e+01   5.6908109012e+01    0.9788378    0.6899552  15.69  0.004973968    1.447    0.309
        56 -10.7806     47.1655     76.1819   7.7208589703e+01   5.7530583421e+01    0.3509062    0.3233862 -24.99  0.001854891    1.065    0.061
        57  -9.2527    100.5161     83.5015   5.9764952139e+01   4.6354638359e+01    0.1483092    0.1431241  32.81  0.000233023    1.006    0.006
        58  -9.8693    145.0014     80.7210   4.7692206014e+01   3.7050914050e+01    0.2123861    0.1882651  65.01  0.001184395    1.107    0.097
        59 -10.0956    215.1411     79.7753   3.6274960155e+01   2.2571767781e+01    0.2338867    0.1430681 -52.88  0.001312173    1.419    0.295
        60 -10.0132    220.7140     77.9229   3.5240843733e+01   2.1824727368e+01    0.2584422    0.1484516 -64.44  0.001370795    1.867    0.464
        61 -10.1944    169.7211     76.3363   4.1937106466e+01   3.2320350835e+01    0.2724969    0.2361922 -80.18  0.001377166    1.106    0.096
        62  -9.8529    226.7705     71.9998   3.3385063922e+01   2.1602221407e+01    0.2163577    0.1444336 -86.64  0.001304134    1.674    0.403
        63 -12.2395    214.9990     67.0594   3.3649723823e+01   2.4489933497e+01    0.4560239    0.2040371 -45.51  0.002285166    1.865    0.464
        64 -10.4631     75.3297     69.1928   6.3595300170e+01   5.4230447363e+01    0.4345737    0.3116406  14.11  0.002090628    1.665    0.399
        65  -9.7795     83.4998     69.0126   6.0661531693e+01   5.2656909458e+01    0.2178369    0.1438874 -41.95   0.00103335    1.592    0.372
        66 -11.1553     25.5019     65.2308   8.4060829765e+01   6.2584013700e+01    0.4294521    0.2549686 -51.66  0.002117174    1.606    0.377
        67  -9.6862    178.9917     66.4841   3.8095727446e+01   3.1868680293e+01    0.1995034    0.1254157  65.96  0.001037545    1.608    0.378
        68 -11.2520    233.3431     64.0946   3.1178765701e+01   2.1555312913e+01    0.2818652    0.1645395  65.49  0.001709116    1.921    0.479
        69  -9.2385    250.4672     63.4668   2.9537182654e+01   1.8735682002e+01    0.1144515    0.0839443 -57.48 0.0008085566    1.037    0.035
        70 -10.8285    218.8494     62.0420   3.2205666428e+01   2.4478844142e+01    0.2212583    0.1505193 -40.57  0.001361879    1.380    0.276
        71  -9.0911    132.4766     63.5176   4.5552720082e+01   4.2786518212e+01    0.1406392    0.1310517  78.79 0.0008099487    1.008    0.008
        72 -11.1652    228.6896     60.3351   3.0887929095e+01   2.2904835952e+01    0.1983772    0.1366485 -60.41  0.001139402    1.205    0.170
        73 -11.0105      3.5125    230.2319   1.1319648711e+02   2.3020406207e+01    0.2733564    0.1840638  35.51  0.001672072    1.362    0.266
        74  -9.8762    164.4464     54.2740   3.7246661105e+01   3.6860868325e+01     0.238227     0.131317 -31.28  0.001083551    2.073    0.518
        75  -9.9762     35.1009     52.8353   7.5086080300e+01   6.3977053445e+01    0.1974806    0.1821257  21.19  0.001136862    1.207    0.171
        76 -10.9054     85.3532     48.0988   5.2806677832e+01   5.5805033178e+01    0.5394931    0.2966047  53.24  0.002483742    1.736    0.424
        77 -11.4481    248.6587    224.4876   5.8401217003e+01  -5.4571060500e+00    0.4654375    0.2402821 -31.95  0.002878678    1.505    0.336
        78 -11.0712    196.7061     43.8933   3.0679092181e+01   3.1305274214e+01    0.2069151    0.1564717  67.26  0.001202005    1.381    0.276
        79 -10.0190    242.0141     43.0165   2.6470710843e+01   2.2822696836e+01      0.14129    0.1036546 -58.45  0.001019197    1.037    0.035
        80 -11.6047      3.2887     41.1605   8.8828894451e+01   6.9490981886e+01    0.4130695     0.401096  14.77  0.002528895    1.340    0.254
        81 -11.7733    183.0701     40.3385   3.1378097559e+01   3.4634167175e+01     0.488458    0.3198417  88.79  0.002806418    1.486    0.327
        82 -11.2598    198.3099     53.1014   3.2532282411e+01   2.9748353180e+01    0.4556928    0.3128083 -20.81  0.002521563    2.078    0.519
        83 -10.0287     31.7912    227.3797   1.0640978562e+02   2.0998359753e+01    0.1723422    0.1189146  15.54  0.000645928    1.627    0.386
        84 -11.3875     49.9313     36.8294   6.1658438417e+01   6.4446201904e+01    0.7676622    0.5480901 -82.92  0.003308029    3.633    0.725
        85 -11.8688     40.0726     29.5188   6.3049887836e+01   6.7195561275e+01    0.5145981    0.3017926 -34.77  0.002735941    1.809    0.447
        86 -12.9630    208.0756    215.8473   6.3904720947e+01   2.7799383751e-01    0.7313758    0.4332442   3.70  0.003908961    1.914    0.477
        87 -10.8568    197.9741     34.3060   2.8453342099e+01   3.2248173697e+01    0.2390343     0.134905 -60.03  0.001346449    1.606    0.378
        88 -11.3052    191.2460     37.6020   2.9855138626e+01   3.3240411207e+01    0.3953153    0.1338844 -47.17  0.001734986    2.590    0.614
        89  -9.6860    138.0099     56.2316   4.2326275724e+01   4.2626337472e+01    0.1913291    0.1081141  59.89 0.0007732275    1.664    0.399
        90  -9.3044     12.3132     32.6359   8.0014810391e+01   7.0347103733e+01    0.1125236   0.09709486  54.20 0.0007040078    1.760    0.432
        91 -10.4984    145.1805     27.5901   3.3018611597e+01   4.4684557911e+01    0.3793152    0.2063875 -82.39   0.00173988    2.319    0.569
        92  -9.9561     90.0428     28.0139   4.4041118887e+01   5.7457230491e+01    0.2111285    0.1840999  49.01 0.0009955049    1.019    0.018
        93  -9.4863     67.3084     28.3444   5.1149598872e+01   6.2314500076e+01    0.1374965   0.09138133  21.72 0.0005702069    1.697    0.411
        94 -12.0797    178.5321     23.6417   2.7965655838e+01   3.7605648702e+01    0.3990358    0.3333212  81.01  0.002728183    1.153    0.133
        95 -11.5393    173.2983     20.7867   2.7824605389e+01   3.9062236746e+01    0.3446692     0.175959  71.82  0.001231772    1.748    0.428
        96 -10.1962    168.4888     26.5161   2.9738222160e+01   3.9493271997e+01    0.1250393    0.1045692 -84.02 0.0008103666    1.003    0.003
        97  -9.5137    102.7994     26.1412   4.0236947658e+01   5.4758724580e+01    0.1844628    0.1413613  39.55  0.001066023    1.325    0.245
        98 -11.4240    158.2148    225.2794   7.5585992692e+01   5.0723193557e+00    0.2494056    0.1914226 -53.42  0.001190947    1.586    0.369
        99 -10.9622     75.6376     25.4251   4.7185808001e+01   6.0922007980e+01    0.2475228    0.2039082  -1.78  0.001403312    1.361    0.265
       100 -11.0939     77.3469     21.0067   4.4876673809e+01   6.1048095246e+01     0.314862    0.1662163 -35.05  0.001171385    2.160    0.537
       101  -9.3992    224.3242     22.6831   2.3929014658e+01   2.8439300112e+01    0.1208415   0.06228904 -64.25 0.0007043879    1.669    0.401
       102 -10.1567    187.1209     19.1787   2.6125774952e+01   3.6253069603e+01    0.1743976    0.1515804  79.23 0.0008894724    1.237    0.191
       103 -10.4556    128.5847     18.2774   3.2821502238e+01   4.9551117553e+01    0.2774473    0.2045393  83.47  0.001292069    1.239    0.193
       104 -13.7102    183.5357    217.2282   6.8903504546e+01   3.1443422048e+00    0.9838901    0.5664619 -20.93  0.004896001    1.895    0.472
       105 -10.3459     76.9250    220.3632   9.4470011042e+01   1.7315939471e+01    0.2805466    0.1767029  11.38  0.001315088    1.873    0.466
       106 -11.3049     50.5178    218.1126   1.0097458668e+02   2.1089517784e+01    0.4009895    0.1919423  27.62  0.001792273    1.955    0.489
       107 -10.4414     66.9006    216.7797   9.6629470801e+01   1.9422761565e+01    0.2795896    0.1677536  69.78  0.001258268    2.132    0.531
       108  -9.9132     94.2263     17.1006   3.8951979234e+01   5.7674680252e+01    0.2481513    0.1561812  89.72  0.001226994    2.121    0.529
       109  -9.8536    227.7458     15.5196   2.2350192598e+01   2.8598001607e+01    0.2844322    0.1188148 -87.71  0.001493058    2.552    0.608
       110  -9.3776    111.4913    229.4870   8.7036883281e+01   1.0680422160e+01    0.1373268    0.1216735  20.24 0.0008104896    1.001    0.001
       111  -9.9267    129.8615     12.6970   3.0959130991e+01   4.9790873745e+01    0.2091083     0.131083  55.30  0.001175786    1.486    0.327
       112  -9.9059    141.4614    206.4999   7.6347782661e+01   1.1155655712e+01    0.2898984    0.1372321 -50.54  0.001217541    2.202    0.546
       113  -9.7514    123.9574    205.9785   8.0505593081e+01   1.3891990590e+01    0.1967958    0.1814529   3.88  0.001128174    1.019    0.018
       114 -11.6440    243.8050    202.0601   5.5476567352e+01  -1.6615222993e+00    0.4992781    0.3422027 -41.10  0.003293239    1.427    0.299
       115 -10.7461    202.9160    197.0229   6.1598624223e+01   4.1350031253e+00    0.2758801    0.1973267 -44.96  0.001309511    1.446    0.309
       116 -11.3856    204.5112    192.4656   6.0482362551e+01   4.7214406814e+00    0.4231005    0.2386109  22.49  0.002149255    2.005    0.501
       117 -10.1697     23.5092    198.5084   1.0627793532e+02   2.8696850530e+01    0.1353789    0.1196411  68.20 9.093131e-05    1.019    0.018
       118 -11.6789    194.3951    185.3017   6.1081178030e+01   7.4350439772e+00    0.5616282    0.4087607  32.95  0.003200956    1.486    0.327
       119 -10.2578     37.0514    185.4975   1.0131729993e+02   3.0639793630e+01    0.2141619    0.1366721  25.23  0.001035633    1.598    0.374
       120 -10.5128    101.0300    175.9453   8.1465992153e+01   2.4458296935e+01    0.2106644    0.2056967   8.20  0.001151474    1.006    0.006
       121 -10.4175    172.3035    163.3553   6.1277679856e+01   1.5180380196e+01    0.3501846    0.2058269  34.28  0.001620131    1.822    0.451
       122 -10.9681    173.1609    159.1233   6.0232048623e+01   1.5894403303e+01    0.2924138    0.2459975  76.74  0.001492199    1.625    0.385
       123 -10.1093    116.4454     16.9429   3.4418323387e+01   5.2530110487e+01    0.2615086    0.1674912 -64.02  0.001393763    1.850    0.459
       124 -10.8814    215.1450    157.8748   5.2120425147e+01   9.3455039989e+00     0.283697    0.2165742 -50.78  0.001646769    1.345    0.256
