#   1 NUMBER                 Running object number                                     
#   2 MAG_AUTO               Kron-like elliptical aperture magnitude                    [mag]
#   3 X_IMAGE                Object position along x                                    [pixel]
#   4 Y_IMAGE                Object position along y                                    [pixel]
#   5 X_WORLD                Barycenter position along world x axis                     [deg]
#   6 Y_WORLD                Barycenter position along world y axis                     [deg]
#   7 A_WORLD                Profile RMS along major axis (world units)                 [deg]
#   8 B_WORLD                Profile RMS along minor axis (world units)                 [deg]
#   9 THETA_WORLD            Position angle (CCW/world-x)                               [deg]
#  10 FWHM_WORLD             FWHM assuming a gaussian core                              [deg]
#  11 ELONGATION             A_IMAGE/B_IMAGE                                           
#  12 ELLIPTICITY            1 - B_IMAGE/A_IMAGE                                       
         1 -11.1604    247.9673     18.0915   3.5417657818e+02   2.4770049054e+01    0.4931827    0.1607778 -47.40  0.002824173    1.966    0.491
         2 -11.6597    236.1142      6.5217   3.5245677682e+02   2.7904429743e+01    0.5362095    0.2235748 -46.40  0.003337453    1.610    0.379
         3 -10.8446    243.3109      4.1325   3.5174651213e+02   2.6932649693e+01    0.5598011    0.2165333 -71.68  0.003240266    2.430    0.588
         4  -9.3541    250.1502     11.1425   3.5280452056e+02   2.5131112291e+01    0.2242388    0.1286979 -43.03  0.001506745    1.257    0.205
         5 -10.4252    246.0321     10.0547   3.5275604441e+02   2.5902678508e+01    0.2633509    0.1148198 -52.76   0.00128538    1.585    0.369
         6  -9.5324    249.8655      4.5141   3.5160041046e+02   2.5831168650e+01    0.3645245     0.126402 -39.81  0.002197562    1.881    0.468
         7  -8.6899    227.6694     10.6745   3.5361549249e+02   2.8954119760e+01   0.08984085   0.08344899  29.34 0.0007050713    1.705    0.414
         8  -8.8190    194.4030    237.6590   4.0762412149e+01   1.5225863136e+00    0.3280208    0.1261381 -26.15  0.001573789    2.904    0.656
         9  -9.3322    192.7734    248.7058   4.2557148038e+01   2.1453542450e-01    0.2812303    0.1535102  -7.95  0.001754552    1.711    0.416
        10  -8.9532    194.8823    243.6693   4.1506035075e+01   6.7783257361e-01    0.2828482     0.200064 -20.93   0.00162364    1.233    0.189
        11  -9.4756    183.3464    236.8388   4.2650470110e+01   2.7151828845e+00    0.5151179    0.1417554 -34.44  0.002114749    3.891    0.743
        12 -10.0241    186.5484    246.8599   4.3427106533e+01   1.0342897751e+00    0.6083265    0.2780952  -7.05  0.002933869    2.982    0.665
        13 -10.6300    177.2651    245.4995   4.4959327536e+01   2.1089896105e+00    0.6467195    0.3609247 -31.23  0.004093141    1.688    0.407
        14  -9.8351    170.3087    248.8355   4.6715159072e+01   2.3269102069e+00    0.4910876     0.281329 -21.91  0.003065286    1.663    0.399
        15  -8.5380    166.8279    237.4149   4.5879030558e+01   4.3204576623e+00    0.2187209    0.1369985 -19.45  0.001076471    1.493    0.330
        16  -9.9528    171.5285    231.8724   4.4197957783e+01   4.6486009718e+00    0.6901931    0.1996137 -33.57  0.002616359    4.296    0.767
        17 -10.3384    163.7351    247.4033   4.7803864878e+01   3.1827028755e+00    0.5814654    0.3084306   0.70   0.00322372    1.969    0.492
        18 -10.1565    169.0629    241.6636   4.6013880883e+01   3.4688649435e+00    0.6291158    0.2952769  -3.69  0.002848559    3.096    0.677
        19 -10.0629    159.7878    236.6573   4.7176556347e+01   5.1784822956e+00    0.4320099    0.2560472 -10.66  0.002496253    1.726    0.421
        20  -9.7713    150.0835    245.6414   5.0316279859e+01   4.8444182408e+00    0.3423713    0.1886119 -18.69  0.001408215    2.000    0.500
        21  -9.2744    153.8648    240.8289   4.8928266114e+01   5.1750296269e+00    0.2494122    0.1489971 -14.45  0.001325003    1.716    0.417
        22  -8.4834    148.5152    250.4868   5.1236868473e+01   4.2820802299e+00    0.2005728    0.1244562  11.92 0.0008133837    1.309    0.236
        23  -8.7717    152.4891    250.4904   5.0430381600e+01   3.8747052006e+00    0.2093206    0.1210385  18.64 0.0006512315    1.384    0.277
        24 -10.1733    156.8566    245.7724   4.8959152103e+01   4.1207144957e+00    0.5049316    0.2569408 -16.68  0.002555895    2.346    0.574
        25  -9.9699    146.1382    243.2581   5.0831633470e+01   5.6255384676e+00    0.3062773    0.2219263  31.86  0.001659068    1.438    0.304
        26  -9.8115    143.6058    249.0785   5.2076410219e+01   5.0021221809e+00    0.3421321    0.2060879 -10.75  0.001853653    1.722    0.419
        27  -9.5872    138.4852    241.0177   5.2165403050e+01   6.8043018773e+00    0.2759969    0.1609104 -14.57  0.001348759    1.929    0.482
        28 -10.2912    135.1436    247.7902   5.3700592493e+01   6.0933625232e+00    0.5972887    0.2831448 -12.24  0.002485955    3.579    0.721
        29  -9.9257    140.5550    245.7960   5.2315072204e+01   5.8278838741e+00    0.4849233     0.175317 -42.60  0.002306346    2.922    0.658
        30  -8.7648    186.4765    240.9672   4.2644349900e+01   1.8362735387e+00    0.2549343    0.1403189  -9.40   0.00139283    1.783    0.439
        31  -8.7881    189.7931    236.2245   4.1386673755e+01   2.1636773820e+00    0.2315649    0.1228808 -26.97  0.001408639    1.701    0.412
        32  -9.2791    146.6331    237.1567   4.9948162318e+01   6.5263916359e+00     0.309619    0.1718761   4.46  0.001587949    1.873    0.466
        33 -10.5731    113.3390    248.4776   5.8538593309e+01   8.3276122234e+00    0.4446508    0.2098552  12.63   0.00212986    2.162    0.537
        34  -9.1236    178.3064    235.6100   4.3421578807e+01   3.3977140541e+00    0.3172754    0.1716017 -10.80  0.001773717    1.966    0.491
        35  -8.1360    175.6968    232.6801   4.3508430314e+01   4.0912226370e+00    0.1983335    0.1283984  -6.51  0.001125198    1.369    0.270
        36  -9.0736    177.6864    228.1923   4.2493263518e+01   4.5424989338e+00    0.3055793    0.1890522  -6.59  0.001772108    1.517    0.341
        37  -8.3170    204.0607    235.3590   3.8759262473e+01   9.1717428640e-01    0.1894889     0.114775 -21.06  0.001188086    1.356    0.262
        38  -8.8459    166.4528    232.2217   4.5241090976e+01   5.1374428860e+00     0.236564    0.1478431  -6.51 0.0009257798    1.523    0.343
        39  -9.4555    153.4802    232.9417   4.7963058589e+01   6.4389465701e+00    0.2928608    0.1590503   3.70  0.001262888    2.001    0.500
        40  -9.1919    158.6075    230.1124   4.6523954868e+01   6.3172237558e+00    0.3796868    0.1958117 -14.38  0.001841606    2.467    0.595
        41  -8.8438    161.8451    224.8361   4.5124688609e+01   6.7872670913e+00    0.2277161    0.1466929 -33.03  0.001159051    1.505    0.335
        42 -11.4058    128.7600    237.0205   5.3785270311e+01   8.5381921832e+00     1.393964    0.5244637 -27.04  0.004062195    7.041    0.858
        43  -9.0453    188.3468    230.7460   4.0874382163e+01   3.0709244241e+00    0.3321477    0.1474786 -19.77  0.001587028    2.798    0.643
        44  -8.5810    190.5932    225.0878   3.9647943319e+01   3.6458750452e+00    0.2196051    0.1094727 -27.02   0.00115754    1.874    0.466
        45  -8.2573    202.4454    230.2451   3.8306393160e+01   1.7507747701e+00    0.1965304   0.08633259 -34.37  0.001117167    2.005    0.501
        46  -9.4131    195.4304    229.3184   3.9397127424e+01   2.5619344975e+00    0.3216422    0.1682021 -25.76  0.001931853    1.718    0.418
        47  -9.8033    135.0493    236.7605   5.2373451610e+01   7.8749968961e+00    0.2892659     0.178059   3.46  0.001629084    1.590    0.371
        48  -9.6327    143.6500    228.1402   4.9387092560e+01   8.3248905355e+00     0.258052    0.1693364 -32.49  0.001230723    1.541    0.351
        49  -9.8440    137.9742    228.5019   5.0667165498e+01   8.9199311186e+00    0.2361661    0.1454874  -9.46   0.00127234    1.783    0.439
        50  -8.6943    184.6321    226.7606   4.0982989784e+01   4.0224505925e+00    0.2611237    0.1451523 -18.14  0.001257259    1.759    0.432
        51  -9.4757    151.9919    227.6653   4.7552078965e+01   7.4487336385e+00     0.267399    0.1572399   3.18  0.001231695    1.743    0.426
        52  -9.0734    167.9650    225.5920   4.4006964021e+01   5.9868260343e+00    0.3000077    0.1826532 -19.28  0.001766442    1.592    0.372
        53  -7.8299     71.3293    226.6547   6.6361079755e+01   1.7036122423e+01    0.1413739   0.08347063  50.08 0.0007050365    1.753    0.430
        54  -9.0482    200.9089    223.4140   3.7574866397e+01   2.8352664068e+00    0.2961458    0.1384729 -28.52  0.001641656    1.932    0.482
        55  -8.9422    204.3112    216.7491   3.5992149961e+01   3.4215626230e+00    0.3422652    0.1443189 -24.67  0.001689986    2.556    0.609
        56  -8.5503    179.9972    222.0684   4.1164795633e+01   5.2074488740e+00    0.2968564    0.1305552 -37.28  0.001557519    2.131    0.531
        57  -9.0199    174.9575    222.2371   4.2153035836e+01   5.7318565221e+00    0.2644904    0.1446422 -27.61  0.001495736    1.747    0.428
        58  -8.7572    179.6682    215.6219   4.0263749110e+01   6.2227526844e+00    0.2396402     0.130926   0.20 0.0009263693    2.137    0.532
        59  -9.0769    211.6247    225.9927   3.6139685328e+01   1.4440660843e+00     0.295225    0.1311295 -20.81  0.001567519    2.375    0.579
        60  -7.9971    206.5314    222.5208   3.6480152875e+01   2.4014613595e+00    0.1140128    0.0818079  -9.40 0.0008089998    1.049    0.046
        61  -9.6245    148.6519    219.5249   4.7114851394e+01   9.1844919192e+00    0.5218087    0.2386907 -23.37  0.002140583    3.238    0.691
        62  -9.3715    194.1188    219.6456   3.8208069519e+01   4.0612097386e+00    0.3589857    0.1838024 -15.75  0.001509821    2.150    0.535
        63  -9.2631    185.3342    219.9503   3.9851249056e+01   4.9475300010e+00    0.2913233     0.172769 -24.48  0.001353177    1.520    0.342
        64  -8.7949    211.1338    217.1085   3.4899813775e+01   2.6871698819e+00    0.2694009    0.1143258 -30.16  0.001469575    2.079    0.519
        65  -8.8280    159.7342    216.9558   4.4412367340e+01   8.3013409773e+00    0.2799712    0.1538191   8.88   0.00142853    1.954    0.488
        66  -8.4344    192.1040    215.2472   3.7904654347e+01   4.9146423716e+00     0.354313    0.1592795 -13.92  0.001437084    3.806    0.737
        67  -9.0516    143.4866    215.6316   4.7674992283e+01   1.0477157106e+01     0.284197     0.157153  -5.69  0.001301876    2.419    0.587
        68  -8.6425    135.9052    215.8676   4.9394250196e+01   1.1367434277e+01     0.211121     0.153772  -8.43  0.001230859    1.342    0.255
        69  -9.1989    169.8274    212.6605   4.1725399666e+01   7.8151649438e+00    0.3687203    0.1871373 -31.90  0.001607838    1.921    0.479
        70  -9.2323    186.2959    211.9787   3.8463615815e+01   6.0389438153e+00    0.3341769    0.1751571 -22.82  0.001803206    1.930    0.482
        71  -8.5232    154.5956    212.1962   4.4776048303e+01   9.7128059693e+00    0.2499003    0.1573759 -14.66  0.001103289    1.676    0.403
        72  -8.9136    219.0476    205.4317   3.1820800111e+01   3.4967420905e+00     4.289816    0.1346989 -38.49  0.007183169   22.370    0.955
        73 -10.8049    209.1816    202.3537   3.2935159190e+01   4.9571212816e+00     2.976602     1.073865 -22.47  0.009054136    6.898    0.855
        74 -10.7667    230.8875    194.8939   2.8339758801e+01   3.7378517505e+00     1.275902    0.3131495 -32.24   0.00483691    4.367    0.771
        75 -11.2334    234.7103    145.1756   1.9356270558e+01   1.0290701995e+01     1.849063    0.7682604 -21.83  0.006697066    5.016    0.801
        76 -10.3554    248.0590    115.3510   1.2381390028e+01   1.2764434497e+01    0.5638866    0.1920951 -34.49  0.002517534    2.378    0.579
        77 -10.4087    224.5704    191.2166   2.8694262812e+01   4.8966349766e+00    0.7014364    0.2618888 -31.52   0.00351997    2.361    0.576
        78 -10.5622    233.2581    182.6311   2.6006003256e+01   5.1683690478e+00     0.921979    0.4245838 -16.58  0.004366576    3.150    0.683
        79 -12.2188    246.5188    187.8342   2.5004271299e+01   3.1273464878e+00     2.090178    0.7025188 -30.25   0.01044838    2.634    0.620
        80 -11.5318    231.6361    173.3539   2.4689748965e+01   6.6374945055e+00     1.169445    0.6573433 -34.39  0.007452827    1.398    0.285
        81 -10.6985    237.9843    167.7467   2.2859266584e+01   6.7157137948e+00    0.7950339    0.2999683 -34.93  0.004181672    2.085    0.520
        82 -11.7500    243.1820    178.2218   2.3902254044e+01   4.7306441196e+00     1.220119    0.4854929 -23.65  0.005745255    3.093    0.677
        83 -11.2595    246.4077    164.8749   2.1264356720e+01   6.1876652327e+00    0.7473219    0.3506737 -23.13  0.004126362    2.221    0.550
        84 -12.2123    248.1035    152.0873   1.8881239255e+01   7.7351600742e+00     1.521269    0.5855618 -32.73  0.008099227    2.098    0.523
        85  -8.3055    213.2193    210.7356   3.3583626153e+01   3.3548270148e+00    0.2295471   0.08484419 -33.84   0.00116547    2.331    0.571
        86  -8.2050    214.3859    206.7340   3.2772138036e+01   3.7915216328e+00    0.1649558    0.1049172 -12.17 0.0009703664    1.363    0.266
        87  -9.0451    162.2854    208.5544   4.2618968205e+01   9.3907815930e+00    0.3185454    0.1678509 -19.76  0.001398076    2.327    0.570
        88  -9.1460    192.8216    208.0598   3.6664356853e+01   5.9045433945e+00    0.2728548    0.1540509 -29.31  0.001401358    1.562    0.360
        89  -9.3722    179.2960    207.4318   3.9071793773e+01   7.5422642413e+00    0.4124618    0.2132332  -2.88  0.001876977    2.803    0.643
        90 -10.0046    125.8745    248.8917   5.5821923927e+01   6.9094289977e+00    0.2995794    0.1994781  21.21   0.00188335    1.189    0.159
        91 -12.0130    243.3631    140.1861   1.7381689641e+01   9.9303996908e+00      2.46223    0.8870075 -25.65  0.008712201    5.186    0.807
        92  -9.5217    197.5031    201.3661   3.4770259234e+01   6.3867333765e+00    0.3965929    0.2243286   6.28    0.0021886    1.990    0.498
        93 -10.9173    248.8511    126.3895   1.4287368040e+01   1.1156934479e+01    0.7753597    0.4056463 -26.21  0.004588285    1.849    0.459
        94  -8.7587    186.4344    200.7069   3.6658567973e+01   7.7649589966e+00    0.2855521   0.09936631 -39.81  0.001280298    2.614    0.617
        95  -8.3790    199.3934    209.8287   3.5777770566e+01   4.9250717188e+00    0.1643885    0.0861937 -28.27 0.0009385694    1.688    0.408
        96  -8.9822    167.7045    198.9636   3.9997774785e+01   1.0336291567e+01    0.3577053    0.1337456 -34.97  0.001485463    2.838    0.648
        97  -8.4346    160.9972    199.7476   4.1498879101e+01   1.1053743874e+01      0.27163    0.1297895 -25.76  0.001173606    2.635    0.620
        98  -8.5735     15.9137    200.2843   7.9347635528e+01   2.8490099932e+01     0.189511    0.1536319  34.79 0.0003902088    1.090    0.082
        99  -8.9972    203.1287    195.2303   3.2802083584e+01   6.6707519494e+00    0.3198166     0.176382 -10.90  0.001705079    2.135    0.532
       100  -8.5322    195.6346    194.8548   3.4039809041e+01   7.5937698852e+00    0.1916638    0.1209629 -23.61  0.001101608    1.394    0.283
       101  -8.3378    177.5272    195.4800   3.7488263602e+01   9.6866334259e+00    0.2200829    0.1076495  18.34  0.001034173    2.359    0.576
       102  -8.9239    186.2665    190.4712   3.5002426741e+01   9.4170199952e+00    0.3633772    0.1689376 -28.39  0.001727256    2.261    0.558
       103  -8.8948    199.1625    189.7019   3.2566861937e+01   7.9717997963e+00    0.3070851    0.1589845 -23.98  0.001445391    1.957    0.489
       104  -8.5215    205.8058    189.5102   3.1405059863e+01   7.2221230124e+00    0.2334764    0.1208948 -24.43 0.0009469481    1.875    0.467
       105  -8.2214    179.3620    188.9124   3.6037009894e+01   1.0543714621e+01    0.1848165   0.09727137 -31.40 0.0009386151    1.807    0.446
       106  -8.4939    172.5734    188.6618   3.7314729452e+01   1.1465692305e+01    0.2912773    0.1562501 -12.14  0.001259687    2.786    0.641
       107  -8.4762    210.2259    187.7483   3.0381200368e+01   6.9763966010e+00    0.1636924    0.1099586 -12.17 0.0007747381    1.359    0.264
       108  -8.6094    218.4095    181.7958   2.8080613609e+01   6.9175655188e+00    0.2373115    0.1252827 -22.36 0.0008650013    1.853    0.460
       109  -8.6795    219.5267    177.9900   2.7263986248e+01   7.3452606501e+00    0.2333769    0.1464582 -28.62  0.001327202    1.280    0.219
       110  -9.2838    211.1043    180.6909   2.9047316525e+01   7.9282023432e+00    0.3020078    0.1715961 -27.35  0.001779043    1.525    0.344
       111  -8.9074    201.1288    181.4289   3.0824525762e+01   9.0167043077e+00    0.2709306    0.1714711   0.91  0.001560863    1.781    0.438
       112  -8.2592    182.6328    181.0656   3.4066014545e+01   1.1430184142e+01    0.2514719     0.132071 -29.02  0.001258458    1.887    0.470
       113  -7.8753    190.6845    176.6237   3.1808655131e+01   1.1108517508e+01    0.1335664   0.08286267 -13.12 0.0007029281    1.801    0.445
       114  -9.3382    219.0890    172.3630   2.6365286346e+01   8.2239268239e+00    0.3874676     0.202619 -17.23  0.001997456    2.341    0.573
       115  -8.3926    211.4804    174.0391   2.7840382256e+01   8.8875540656e+00    0.1788514   0.09546938 -34.75 0.0006783151    1.555    0.357
       116  -7.7686    201.2676    170.3430   2.8856916952e+01   1.0744064408e+01    0.1246612    0.0798237 -15.97 0.0002985205    1.606    0.377
       117  -8.3327    206.1134    168.3396   2.7698885562e+01   1.0436007526e+01    0.2245291    0.1309502 -30.95  0.001133721    1.465    0.317
       118  -7.7154    197.6753    167.6419   2.8978563949e+01   1.1648514157e+01    0.1310428   0.08315375 -12.26 0.0007044306    1.775    0.437
       119  -8.8440    217.9131    166.0314   2.5437278356e+01   9.3087638500e+00    0.4110906    0.2073059 -10.83  0.001699228    3.889    0.743
       120  -8.2352    217.6771    157.2019   2.3895278256e+01   1.0669746782e+01    0.1772888   0.08678179 -31.80 0.0009385784    1.765    0.434
       121  -8.2620    226.2252    146.6930   2.0763487219e+01   1.1144823146e+01    0.2063078    0.1130895 -24.47 0.0008294877    1.822    0.451
       122  -8.8534    230.1322    141.4862   1.9287235635e+01   1.1405595303e+01    0.3592074    0.2059126  15.04  0.001857723    3.017    0.669
       123  -7.5308    218.3432    143.3034   2.1241573041e+01   1.2696926647e+01    0.1192384   0.08173963  -9.84 0.0004328146    1.682    0.406
       124  -8.4922    224.3622    141.4253   2.0050849596e+01   1.2171367936e+01     0.298451    0.1442844 -20.78  0.001331477    3.055    0.673
       125  -8.8285    229.5336    136.9119   1.8525444300e+01   1.2152965601e+01    0.2825472    0.1740894  -9.58   0.00157525    2.254    0.556
       126  -8.3744    219.6655    137.5430   1.9972391971e+01   1.3392914815e+01    0.2152244   0.09050515 -39.09  0.001070342    1.915    0.478
       127  -9.9872      4.8546    137.4415   7.9285586683e+01   4.5720525804e+01    0.2783042    0.2287532  79.42 0.0004259411    1.154    0.134
       128  -8.2906    224.4421    132.7824   1.8424362850e+01   1.3450677464e+01    0.1657082   0.09189332 -28.86 0.0007559142    1.647    0.393
       129 -10.0562    231.7420    129.6413   1.6894747478e+01   1.2919012958e+01    0.4063825    0.2435865 -18.37  0.001851512    1.973    0.493
       130  -8.8028    221.2857    126.8128   1.7705579099e+01   1.4789548243e+01    0.2840188    0.1665698 -13.09  0.001415169    2.622    0.619
       131 -10.2012    240.0882    124.2491   1.4891514821e+01   1.2578275153e+01    0.4297854    0.2301949 -25.96  0.002093804    1.862    0.463
       132  -8.8821    224.3669    120.2220   1.6035321832e+01   1.5332032562e+01    0.2649002    0.1477105 -31.26  0.001139316    1.577    0.366
       133  -9.1633    240.3292    116.6778   1.3465145016e+01   1.3608865978e+01    0.2589782    0.1521637 -27.12  0.001121768    1.594    0.373
       134  -9.7150    231.1604    113.2000   1.3857005145e+01   1.5380174565e+01    0.5572032    0.1488423 -37.93  0.002317766    2.908    0.656
       135  -8.7598    220.2216    112.7785   1.5101569118e+01   1.7055536269e+01    0.2663708    0.1691622  15.96  0.001369058    2.874    0.652
       136  -9.8333    241.5892    106.9362   1.1510454406e+01   1.4790736550e+01    0.4148439    0.2111328 -24.42    0.0020671    2.307    0.566
       137  -8.9429    250.0858    106.7761   1.0609959328e+01   1.3656951324e+01    0.2347346    0.1219193 -33.38 0.0008642217    1.530    0.346
       138  -7.8910    236.2940    106.2864   1.1955386290e+01   1.5627918738e+01    0.1052736   0.07907648 -14.92 0.0004086514    1.544    0.352
       139  -8.6815    247.7266    101.1434   9.8073913120e+00   1.4732295234e+01    0.1741637    0.1302792   2.38 0.0009307429    1.955    0.488
       140  -8.4473    229.6738    100.8632   1.1634796414e+01   1.7366673285e+01    0.1863186    0.1240528 -25.08  0.001159679    1.537    0.349
       141  -8.7564    242.3826     97.2977   9.6154320483e+00   1.5999614303e+01    0.2304512    0.1029474 -38.54  0.001164776    1.668    0.401
       142  -8.4562    248.9379     96.0810   8.7537676664e+00   1.5241778784e+01    0.2064627    0.1145598 -34.02 0.0009577385    1.435    0.303
       143  -8.1107    242.3729     91.7074   8.5576038680e+00   1.6757079790e+01    0.1580029   0.08573326 -30.63  0.000801105    1.664    0.399
       144  -7.9492    139.3234     68.6754   1.7216949473e+01   3.9889306488e+01    0.1522316    0.1052874 -73.07 0.0007047878    1.686    0.407
       145  -9.7763    245.2794     29.0175   3.5635649606e+02   2.4035273215e+01    0.1616758    0.1041023 -47.44  0.001178672    1.106    0.095
       146 -10.1426    244.5205     23.0152   3.5525599858e+02   2.4807436212e+01    0.1663914    0.1421923  72.53  0.001254967    1.576    0.365
       147  -9.5083    140.1119    234.1806   5.0948292993e+01   7.7305438073e+00     0.272771    0.1902558 -18.78  0.001227024    1.411    0.291
       148 -11.5708    122.5148    239.4718   5.5469862986e+01   8.8270227947e+00      1.01696    0.3833894 -30.25  0.003541364    4.969    0.799
       149 -10.6033    129.3080    245.8414   5.4724401727e+01   7.0290890229e+00    0.3745643    0.2498166  41.41   0.00226863    1.717    0.418
       150 -10.7331    242.5316     14.3404   3.5369949192e+02   2.6041218401e+01    0.2676995     0.125893  83.68  0.001702497    2.300    0.565
       151  -9.6504    131.3469    241.0511   5.3709708829e+01   7.5827138429e+00     0.263982    0.1900647  -0.03  0.001231534    1.246    0.197
       152  -8.4277    104.6646    245.6547   6.0200594016e+01   9.7498687155e+00    0.1290752   0.08294506 -10.01 0.0007049268    1.770    0.435
       153  -8.4333    200.9490    240.6707   4.0036075382e+01   5.0982745966e-01     0.155432    0.1106184  -0.63 0.0008856654    1.056    0.053
