#   1 NUMBER                 Running object number                                     
#   2 MAG_AUTO               Kron-like elliptical aperture magnitude                    [mag]
#   3 X_IMAGE                Object position along x                                    [pixel]
#   4 Y_IMAGE                Object position along y                                    [pixel]
#   5 X_WORLD                Barycenter position along world x axis                     [deg]
#   6 Y_WORLD                Barycenter position along world y axis                     [deg]
#   7 A_WORLD                Profile RMS along major axis (world units)                 [deg]
#   8 B_WORLD                Profile RMS along minor axis (world units)                 [deg]
#   9 THETA_WORLD            Position angle (CCW/world-x)                               [deg]
#  10 FWHM_WORLD             FWHM assuming a gaussian core                              [deg]
#  11 ELONGATION             A_IMAGE/B_IMAGE                                           
#  12 ELLIPTICITY            1 - B_IMAGE/A_IMAGE                                       
         1 -12.6615    219.7053     77.6651   7.7281986573e+01   1.9976450968e+01     3.577001    0.7716609 -43.35   0.01017181    4.172    0.760
         2 -12.0817    206.2872     38.9765   6.9672005406e+01   2.9096629207e+01    0.8106374     0.575321 -28.13 0.0008541129    1.622    0.383
         3 -17.1233    240.8082     16.4212   6.0666837270e+01   2.3868944527e+01     4.116442     2.302795 -40.85   0.02252603    1.715    0.417
         4 -10.9379    151.9242     30.8917   7.6083604076e+01   4.3459870246e+01    0.6051742    0.4062583 -43.27   0.00192105    1.634    0.388
         5 -11.1661    111.9824     30.5001   8.4634973841e+01   5.2584085710e+01     0.915576    0.5801756 -38.76   0.00434776    1.759    0.432
         6 -10.7639    115.3189     29.6573   8.3517872918e+01   5.1977157212e+01    0.9625404    0.4300521 -48.88  0.003628084    3.635    0.725
         7 -10.3995     96.9758     29.3886   8.8203067757e+01   5.5760970734e+01    0.6177512    0.4031482 -61.85  0.002459868    2.961    0.662
         8  -9.1914    190.8176     16.2378   6.5966811619e+01   3.5643495440e+01    0.4000545    0.2374551 -83.27  0.001935731    1.910    0.476
         9 -10.3554    138.7959     16.8205   7.4191370878e+01   4.8116505593e+01     0.372908    0.2778325 -68.50  0.002056103    1.710    0.415
        10  -9.8640     20.4982     15.5226   1.0989949661e+02   6.8652129591e+01    0.4444303    0.2512111  44.40  0.002077733    3.336    0.700
        11  -9.2455    176.9158     14.8461   6.7441060210e+01   3.9178073338e+01    0.2704277    0.1940285  84.91 0.0005852047    1.348    0.258
        12  -9.3889    168.6570      8.8808   6.6966241912e+01   4.1778385421e+01    0.5752261    0.3235666 -77.19  0.002619028    2.390    0.582
        13  -8.7074    152.3184     10.1218   6.9776880539e+01   4.5581717487e+01     0.267484    0.1878064  52.86   0.00138237    1.257    0.204
        14  -7.7925     80.4133     11.1922   8.5991045318e+01   6.0876255300e+01    0.1545904    0.1065616 -31.45 0.0006082039    1.626    0.385
        15  -7.6585     28.7678     10.7938   1.0433811739e+02   6.8440856785e+01    0.1321967    0.1110446  -8.73 0.0004174772    1.282    0.220
        16  -8.6325    179.8251      9.2374   6.5559117131e+01   3.9040880032e+01    0.2028915    0.1641949 -61.59 0.0005916051    1.282    0.220
        17  -9.6320    140.9433      8.0789   7.1057276884e+01   4.8446062852e+01    0.3219742    0.2359807 -66.60  0.001259348    1.703    0.413
        18  -9.4929    134.9184      7.9280   7.2080846822e+01   4.9851948041e+01    0.2718043    0.2027316 -43.36  0.001054329    1.570    0.363
        19  -9.5614    160.4533      4.6859   6.6959293393e+01   4.4137268687e+01     0.348096    0.2387254 -35.05  0.001187598    1.638    0.390
        20  -9.6665    175.9603      3.0922   6.4432333166e+01   4.0558435717e+01    0.3016498    0.2470264 -37.61   0.00189775    1.382    0.276
        21  -8.4974    155.6280      4.6408   6.7655333129e+01   4.5291738681e+01    0.2760411    0.1913091 -71.77  0.001510376    1.714    0.417
        22  -9.9393    126.7151      2.5870   7.1861797674e+01   5.2163874772e+01    0.4165763    0.2468739  62.81  0.002265193    1.496    0.331
        23  -7.5421     71.6864      5.3553   8.6232069606e+01   6.2969092093e+01    0.1045416   0.09301098 -54.86 0.0007044781    1.738    0.425
        24  -7.5887    203.8803      4.3715   6.1557961456e+01   3.3745382335e+01    0.1819587   0.09435699  60.30  0.000659422    1.750    0.428
        25  -8.6049    147.6693      2.5684   6.8264821523e+01   4.7349964235e+01    0.2775841    0.1985144 -38.33  0.001632834    1.598    0.374
        26  -9.5417    107.8897      3.4879   7.6008029717e+01   5.6182632537e+01    0.3527262    0.2477396  83.27   0.00195778    1.970    0.492
        27  -7.9045     92.8500      3.8496   7.9710053353e+01   5.9206829244e+01    0.1493318    0.1428501  63.46 0.0005581166    1.323    0.244
        28  -8.1916    181.5151      2.2203   6.3522562912e+01   3.9302776187e+01    0.2169771    0.1164313 -35.42 0.0007528738    2.011    0.503
        29  -8.7995    135.5930      1.8065   7.0016087146e+01   5.0214624694e+01     0.303469    0.1567913  76.29  0.001233823    2.189    0.543
        30  -7.7538     78.6810      2.3189   8.2911795751e+01   6.2006527998e+01    0.1033577   0.09415045 -64.88 0.0007041896    1.662    0.398
        31  -9.2136    101.5152      3.3169   7.7397765627e+01   5.7517137944e+01    0.2302355     0.198166  83.90 0.0008940038    1.507    0.336
        32  -9.6236    248.1777    132.1823   8.5472019305e+01   4.1770584500e+00    0.4977439    0.3383062  51.09  0.002007457    1.638    0.390
        33  -7.8014    149.6552    131.3130   1.0496865641e+02   2.5984454410e+01    0.1629885    0.1243226  88.68 0.0007046819    1.709    0.415
        34  -7.9125    225.5090    129.9976   8.8821181309e+01   9.2447159791e+00    0.2033068     0.128437 -14.45 0.0007357593    2.381    0.580
        35 -10.2711    233.0447    127.0301   8.6824018255e+01   8.1907833598e+00    0.3770868    0.2823066 -70.54   0.00111432    1.683    0.406
        36  -9.3226    166.1141    121.4569   9.8703803933e+01   2.4410083033e+01    0.8521705    0.1874113 -47.72  0.001985115    5.294    0.811
        37  -7.7905    196.6512    126.3060   9.3400958015e+01   1.6371205924e+01    0.1592587    0.1219146 -81.91 0.0003339899    1.702    0.413
        38  -7.5441    127.6335    125.2834   1.0893298265e+02   3.2011767066e+01    0.1586037    0.1207318  81.76 0.0007017542    1.691    0.409
        39 -10.2056    233.1780    110.6771   8.3021016128e+01   1.1131497965e+01     0.620751     0.254116 -48.35  0.002275792    2.505    0.601
        40  -8.7717    250.5949    111.2507   8.0432414877e+01   7.3521039270e+00    0.2617179    0.1213143 -41.41 0.0006542154    1.902    0.474
        41 -11.0589    247.0868    118.4284   8.2576768219e+01   6.8163770460e+00    0.8605542    0.5066221 -37.81  0.003750322    1.541    0.351
        42  -9.9709    242.7265    117.3011   8.3008206653e+01   7.9145081610e+00    0.4646056    0.2186822 -47.96  0.001436259    2.090    0.521
        43 -10.6881    244.3871    109.0362   8.0872713284e+01   9.0247450320e+00    0.5637153    0.5000999  82.86  0.001649433    1.233    0.189
        44 -10.4222    239.6067    103.3072   8.0295809120e+01   1.1047170524e+01    0.6785799    0.4113296  37.48  0.002976889    2.175    0.540
        45  -8.4199    202.9791    122.0359   9.1117510253e+01   1.5767097100e+01    0.2527398    0.1951071   7.75  0.001149944    1.763    0.433
        46  -8.5043    149.0461    120.5575   1.0245150365e+02   2.8472095006e+01    0.2472926    0.2109907 -45.69 0.0007321038    1.158    0.137
        47  -8.0511    135.1469    120.9071   1.0595148374e+02   3.1422786715e+01    0.2376375    0.2074561 -76.45 0.0005344197    1.237    0.192
        48  -8.9649    152.5039    119.0542   1.0124472950e+02   2.8022236780e+01    0.4442747    0.2494457 -64.00  0.001556232    2.669    0.625
        49  -9.2631    214.1517    117.4307   8.7904199691e+01   1.4111577804e+01     0.285482    0.2238318   9.66 0.0007293545    1.706    0.414
        50  -8.6441    231.9849    117.4569   8.4794741785e+01   1.0163108220e+01    0.2895033    0.1844326  52.04  0.001080594    1.686    0.407
        51 -10.2623    227.0342    114.9189   8.5037161366e+01   1.1705153815e+01    0.6879254    0.3077306 -41.74  0.002698405    2.064    0.516
        52 -10.3787    221.5238    112.0887   8.5313504215e+01   1.3450691441e+01    0.4968804     0.320022  49.47  0.001842594    1.645    0.392
        53  -8.3255    194.7847    118.3669   9.1829622419e+01   1.8378658380e+01    0.2181499     0.142129  41.02 0.0004100477    1.667    0.400
        54  -9.7425    203.9055    112.3038   8.8557708284e+01   1.7439516454e+01    0.2685965     0.202844 -53.42 0.0006216994    1.334    0.250
        55  -9.4859    214.3245    110.4377   8.6184433995e+01   1.5389358194e+01    0.2744313    0.2458617 -38.00 0.0009847218    1.095    0.087
        56  -8.9622    235.6721    101.5301   8.0493275975e+01   1.2215289558e+01    0.4484394    0.1998764 -33.91  0.001564583    2.300    0.565
        57  -8.5821    227.0396    105.9694   8.2923108540e+01   1.3334333459e+01    0.2298385      0.21164 -48.66 0.0007927018    1.021    0.021
        58  -9.2479    197.3354    104.8587   8.7949833721e+01   2.0407884576e+01    0.3517056    0.2808346  14.49  0.001148118    1.647    0.393
        59  -8.1497    217.4072    105.2781   8.4390072397e+01   1.5640846210e+01      0.21825    0.1316178 -48.27   0.00065972    1.614    0.380
        60  -8.6485    146.2309    104.5617   9.8952555006e+01   3.2502752589e+01    0.2982391    0.2729447 -71.93 0.0008674114    1.147    0.128
        61  -9.5915    141.1000    102.4372   9.9632741088e+01   3.4095110985e+01    0.5203032    0.3082678  37.82  0.002137297    1.863    0.463
        62  -7.8600     23.5189    103.4584   1.3334746112e+02   5.2012925556e+01    0.1226781   0.09876972 -62.20  0.000808651    1.035    0.034
        63  -9.0783    168.4368     98.7329   9.2266362847e+01   2.8504377095e+01    0.5044103    0.2938319 -21.66  0.001836635    2.587    0.613
        64  -8.7294     39.7994     99.2775   1.2768210288e+02   5.1487616074e+01    0.3234704    0.1906867 -78.92  0.001571232    2.227    0.551
        65  -9.0630    102.4109    231.3971   1.3333707649e+02   1.3204421233e+01    0.2493363    0.1831488  65.49 0.0007121936    1.184    0.155
        66  -7.8199     82.9831    223.5118   1.3616627312e+02   1.7787671514e+01    0.1872522    0.1109577  44.96  0.001006551    1.571    0.363
        67 -11.6122     30.1211    209.4406   1.4477622524e+02   2.7659744512e+01    0.8608171    0.5223431  74.17  0.002980186    1.398    0.285
        68 -13.1558    225.0994     37.3810   6.6921621301e+01   2.4809478747e+01    0.6129198     0.230625  62.73  0.001866352    2.464    0.594
        69  -8.3464    200.9976     99.3394   8.5863766899e+01   2.0579675606e+01    0.2159338      0.19744  67.15  0.001140189    1.110    0.099
        70  -8.5229    145.4978     96.1884   9.6841401143e+01   3.4378503754e+01    0.3053321    0.2098476  89.94  0.001202333    2.366    0.577
        71  -9.3526    210.9174     92.4846   8.2370447345e+01   1.9480073983e+01    0.3966702    0.2913426  55.95 0.0009679957    1.399    0.285
        72  -7.9799    176.6786     93.3390   8.9067458314e+01   2.7563816297e+01    0.1630529    0.1201786 -75.69 0.0007050388    1.716    0.417
        73 -10.0551    188.2017     90.8407   8.6097447912e+01   2.5236485685e+01    0.4732584    0.3306862  83.91  0.001664194    1.853    0.460
        74  -8.0096    188.9928     86.9934   8.4933227032e+01   2.5747341511e+01    0.2273283    0.2098048  16.14   0.00058218    1.247    0.198
        75  -9.7516    155.7830     88.1726   9.2187370387e+01   3.3555731170e+01       0.3851    0.2433296  36.86   0.00124327    1.797    0.443
        76  -8.2165    107.0110     87.2811   1.0438419579e+02   4.4309893827e+01    0.2650549    0.2052517 -68.71  0.001302759    1.632    0.387
        77  -8.4951    211.2890     83.6180   8.0097974353e+01   2.0956965396e+01    0.2616924    0.1885185 -42.07 0.0005233151    1.338    0.253
        78  -8.7999    207.0833     82.5584   8.0536841132e+01   2.2147782724e+01    0.4007516    0.2037766 -42.09  0.001647021    1.880    0.468
        79  -9.4834    183.8133     82.6019   8.4759192748e+01   2.7802679122e+01    0.4242591     0.266742 -88.11  0.001609622    2.565    0.610
        80  -8.1657    112.0384     81.0286   1.0114072830e+02   4.4561053584e+01    0.2283409    0.1844134 -82.74 0.0008088743    1.697    0.411
        81  -8.8952    163.4874     79.6201   8.8076358325e+01   3.3294987812e+01     0.268722    0.2128351 -63.34 0.0006598125    1.404    0.288
        82  -9.7639    157.3705     79.7426   8.9444620790e+01   3.4743688711e+01    0.2972571    0.2888003  39.67  0.001075167    1.044    0.042
        83  -9.7051    147.6627     76.9108   9.0829317647e+01   3.7552595537e+01    0.6396065    0.4834614  28.06  0.003053369    1.526    0.345
        84  -9.8910    202.7251     72.0451   7.8591566481e+01   2.4989021647e+01    0.7533542    0.2303282 -39.75  0.002484358    3.053    0.672
        85  -8.9357    185.5227     78.1225   8.3231929916e+01   2.8173067087e+01    0.3270187    0.2315994 -87.53 0.0009611337    1.805    0.446
        86  -8.8413    158.9430     66.8554   8.5390440659e+01   3.6603070239e+01    0.4127577    0.1670118 -47.02   0.00133963    2.817    0.645
        87 -10.4556    168.7470     75.1354   8.5711365257e+01   3.2809682135e+01     0.530359    0.4044714 -72.28  0.002518012    1.565    0.361
        88  -8.0911     61.5291     78.9946   1.1586161251e+02   5.3330550436e+01    0.2066673    0.1159803 -48.52  0.001027477    1.579    0.367
        89 -11.1115    162.4405     72.9787   8.6414748400e+01   3.4718677622e+01    0.7286732    0.5401529  37.49  0.003492499    1.464    0.317
        90  -8.5064     81.6752     77.7871   1.0910686322e+02   5.0655392491e+01    0.2905988    0.2148488 -72.16  0.001450813    1.970    0.492
        91  -8.5201     15.1291     76.2379   1.3057712086e+02   5.8432342069e+01    0.2107936    0.1415454 -87.93  0.001111513    2.094    0.522
        92  -8.5805    191.3810     75.7461   8.1519275751e+01   2.7143383360e+01    0.3289315    0.1932013 -23.64 0.0008200576    2.220    0.550
        93  -8.5852    195.7728     70.8969   7.9469055271e+01   2.6880693951e+01     0.309682    0.1979319  59.13 0.0008162801    1.538    0.350
        94  -8.9389    191.4809     71.5560   8.0392080464e+01   2.7826617645e+01    0.2432978    0.1952391 -33.22   0.00055674    1.316    0.240
        95  -8.3181    212.0945     73.2972   7.7391687724e+01   2.2514605204e+01    0.2206925    0.1995604 -27.75 0.0005186082    1.235    0.190
        96  -8.3595    104.9654     72.7999   1.0063068966e+02   4.7500625370e+01    0.3264003    0.1825248 -35.04  0.001071665    1.797    0.443
        97  -9.8526    165.7225     62.5126   8.2742762282e+01   3.5659661293e+01    0.6107187     0.384768  34.39  0.002598673    1.954    0.488
        98  -9.4349    161.4430     59.9683   8.2869483626e+01   3.7109500074e+01    0.3494318    0.3034474 -30.52  0.001012035    1.220    0.180
        99  -9.7127    177.9203     72.2006   8.3071399574e+01   3.1061925909e+01    0.7964991    0.2646752  62.04  0.002349491    3.742    0.733
       100 -10.1696    170.0242     67.5303   8.3313731664e+01   3.3787425661e+01    0.4667583    0.3828295  86.30    0.0014122    1.335    0.251
       101 -10.4413    174.8872     61.9355   8.0803227869e+01   3.3495312437e+01    0.5515286     0.482123 -44.79  0.002051727    1.171    0.146
       102  -7.8490     85.4856     72.4816   1.0632705255e+02   5.1059269708e+01    0.1370727    0.1255941 -21.28 0.0008100963    1.025    0.025
       103  -9.0031    111.3851     69.7224   9.7866163427e+01   4.6795619929e+01    0.3168176    0.2420292 -37.36 0.0007732766    1.293    0.227
       104  -8.6686    209.5292     65.2091   7.5768198699e+01   2.4446876412e+01    0.2242491    0.2135836  85.23 0.0005516861    1.081    0.075
       105 -10.4266    199.6353     62.1557   7.6549264029e+01   2.7343381238e+01    0.5064433    0.3796092  19.00  0.002412243    1.945    0.486
       106  -9.5364    172.3074     52.9201   7.8749796566e+01   3.5517075613e+01     1.008519     0.458826  74.67  0.003271383    3.574    0.720
       107  -8.9748    164.6864     52.1919   7.9971482837e+01   3.7502068174e+01    0.4720947    0.2796453  82.44  0.001893489    2.439    0.590
       108  -9.9554    186.5071     59.2621   7.7974697258e+01   3.1036575727e+01    0.6406058    0.3824226  31.04  0.001435611    2.555    0.609
       109 -10.0843    182.4337     55.7302   7.7721855254e+01   3.2587479690e+01    0.4947954    0.3899482 -51.16  0.001219782    1.292    0.226
       110  -7.5205    193.2845     60.6483   7.7195756178e+01   2.9143871358e+01    0.1490118    0.1410362  86.67 0.0005884185    1.033    0.032
       111  -8.8791    149.5999     57.7552   8.4698906313e+01   4.0312612911e+01    0.2092252    0.1324351 -45.88 0.0009503887    1.697    0.411
       112  -7.7162     90.4815     57.5573   1.0000672747e+02   5.2868853865e+01    0.1353753    0.1222051  -3.06 0.0001300619    1.006    0.006
       113  -8.8570    206.5920     55.7308   7.3828165396e+01   2.6630107266e+01    0.2250948    0.1968067  67.97 0.0002892902    1.129    0.114
       114  -8.4658    191.6002     52.5860   7.5339471316e+01   3.0785621599e+01    0.3594784    0.2449182 -54.29  0.001131321    1.522    0.343
       115  -8.5359      2.5149     53.9722   1.2984949705e+02   6.3564306913e+01     0.176187   0.08434717 -56.15  0.001038281    1.607    0.378
       116  -8.1365    143.1627     51.1410   8.4086974795e+01   4.2838941020e+01    0.1983484    0.1663104 -60.27  0.001037076    1.359    0.264
       117  -7.8017     63.3379     49.6632   1.0613756702e+02   5.8514782466e+01     0.115962    0.1032352 -80.79 0.0007051408    1.753    0.430
       118  -9.0742    193.3162     45.4625   7.3191832062e+01   3.1387519302e+01    0.3144931    0.2494241 -31.40 0.0009124606    1.388    0.279
       119  -9.1540    195.7646     40.7671   7.1602091478e+01   3.1431261756e+01    0.2192584    0.2023282  84.38 0.0004355268    1.044    0.042
       120  -8.1049    187.2314     47.2356   7.4617204912e+01   3.2643008966e+01    0.2570093    0.1635404  61.33  0.001028963    1.472    0.321
       121  -8.5667    180.8340     46.7140   7.5526460770e+01   3.4303039479e+01    0.3138524    0.1915805  75.48 0.0009904266    1.780    0.438
       122  -8.7375    153.5838     46.5167   8.0480106754e+01   4.1022849226e+01    0.3233177    0.1988583  71.79  0.001445756    1.870    0.465
       123 -10.2423    104.3736     44.0100   9.1343120433e+01   5.2356412125e+01    0.4652968    0.3180415 -73.77  0.002008367    3.060    0.673
       124  -8.0751     58.5034     45.7402   1.0646251840e+02   5.9825942036e+01    0.1632761    0.1111678 -46.03 0.0008558012    1.594    0.373
       125  -8.3889     90.7062     44.5922   9.5491430260e+01   5.4879316367e+01    0.1723595      0.12436  50.44 0.0005692386    1.552    0.356
       126  -7.9434    168.1627     40.9775   7.6100122956e+01   3.8225289170e+01    0.2319156    0.1437775 -56.92 0.0006232188    1.920    0.479
       127 -11.1569    123.2143     36.0574   8.3795206531e+01   4.9468787312e+01    0.5413074    0.3962301 -26.82  0.001381935    1.443    0.307
       128  -9.0437    188.8437     38.4760   7.2029631557e+01   3.3445928781e+01     0.358913    0.2346262 -72.25  0.001308393    1.799    0.444
       129  -9.5902    172.2764     37.5733   7.4423988917e+01   3.7660376715e+01    0.4457764    0.2770998  86.53  0.001767654    1.997    0.499
       130 -10.1976     88.2810     34.7508   9.2681009281e+01   5.6709878853e+01    0.4727687    0.3232476 -23.10   0.00207773    1.441    0.306
       131  -8.1216     73.2526     37.1691   9.8307233896e+01   5.8951351188e+01    0.2127417    0.1738002  71.64  0.001079307    2.067    0.516
       132 -12.0141     50.4238    187.4643   1.3865666713e+02   3.0026626946e+01      1.16714    0.7660166 -84.89  0.006806181    1.339    0.253
       133  -9.7240    146.3988     25.6627   7.5522573337e+01   4.5387669926e+01    0.2452193     0.230273   9.89  0.001006017    1.154    0.133
       134  -8.9772    138.9499     35.8375   8.0200304979e+01   4.5923379810e+01    0.3182376     0.201047 -33.78 0.0005017473    1.687    0.407
       135  -8.8108    135.9371     31.2710   7.9378454592e+01   4.7186114452e+01    0.2640901    0.2081026 -66.94  0.000829037    1.597    0.374
       136  -8.5496    198.1277     33.4977   6.9401342950e+01   3.1809527268e+01    0.2691509     0.228438 -88.85  0.001121161    1.077    0.072
       137  -8.9363    161.5700     34.2555   7.5324993294e+01   4.0711651025e+01    0.2753539    0.2456386 -88.51 0.0008390124    1.149    0.129
       138  -7.7741    169.9989    196.5116   1.1422051370e+02   7.8695693314e+00    0.2077294    0.1177758  62.74 0.0008102424    2.547    0.607
       139  -7.8817     66.3837    188.1140   1.3535295226e+02   2.7786656357e+01     0.193061    0.1087161 -81.41 0.0009427211    1.810    0.447
       140  -7.9312    108.5449    187.5205   1.2602405039e+02   2.1328726882e+01    0.2501377    0.1153726  52.01 0.0009124326    2.216    0.549
       141  -9.7362    192.9688     31.5560   6.9616982928e+01   3.3321701842e+01    0.2614866    0.2325211  88.22 0.0005067701    1.014    0.014
       142  -7.4523    171.3029     31.6789   7.2926343599e+01   3.8645066689e+01    0.1417793    0.1008864 -71.04 0.0007028227    1.631    0.387
       143 -13.2121    233.5928     59.3639   7.0965081559e+01   1.9668424363e+01     1.943292     0.899075  81.35  0.007028203    3.364    0.703
       144  -8.1121    185.4393     28.1801   6.9801081273e+01   3.5589299825e+01    0.2000422    0.1611516  71.15  0.001137923    1.116    0.104
       145  -8.5966    163.0885     27.2068   7.3011234087e+01   4.1191935222e+01    0.2489851    0.1905504  75.88  0.001151027    1.270    0.213
       146  -9.2604    155.7366     25.1427   7.3667489355e+01   4.3211717081e+01    0.4047418    0.2675757  87.64  0.001986165    1.837    0.456
       147  -8.4420    175.7168     24.0075   7.0103736069e+01   3.8469880782e+01    0.2595608    0.1989419 -25.51  0.001453507    1.503    0.335
       148  -8.4341    174.3133     19.7964   6.9156998673e+01   3.9284668137e+01    0.2288584    0.1686843  85.82 0.0004333779    1.346    0.257
       149  -8.1879     84.3627     24.8554   9.0154026751e+01   5.8673039711e+01    0.1831232    0.1525784 -41.04 0.0008081797    1.498    0.332
       150  -8.9878    180.7699     21.4326   6.8669556626e+01   3.7522689137e+01     0.226135    0.2101595  80.40 0.0004741283    1.067    0.063
       151  -7.6837    190.0335     21.4515   6.7405148035e+01   3.5252742902e+01      0.19798    0.1180761  67.28 0.0004029437    1.488    0.328
       152  -9.0229    164.2251     19.2534   7.0538871518e+01   4.1802698411e+01    0.2553432    0.2352789 -54.99  0.001046412    1.181    0.153
       153  -8.0905    103.6634     18.8484   8.2578559591e+01   5.5627366002e+01    0.1993885    0.1454157   9.61 0.0007090939    1.424    0.298
       154  -8.5150     35.0186    186.0106   1.4168568255e+02   3.2158968982e+01    0.2014165    0.1176642  72.29 0.0008738001    1.660    0.398
       155  -8.7448    155.7487     17.7818   7.1483333797e+01   4.4005865957e+01    0.3191288    0.2208122  72.27   0.00120253    1.376    0.273
       156  -7.0397    125.3281    184.3120   1.2173778210e+02   1.9023231035e+01    0.1389776    0.1171585  -7.20 0.0007042271    1.667    0.400
       157  -9.2440    248.5891    168.8784   9.3325174600e+01  -2.2319851515e+00    0.4214291    0.2253243 -45.96  0.001906581    1.975    0.494
       158  -8.2178     68.5222     15.3675   9.1369533218e+01   6.2482822250e+01    0.2111451    0.1576177 -51.35  0.001259383    2.156    0.536
       159  -8.8065     61.1760    167.1637   1.3371742440e+02   3.3296921809e+01    0.1889395    0.1693404 -72.27 0.0007881855    1.154    0.133
       160  -8.1692    166.5112     14.5393   6.8852374505e+01   4.1739334297e+01    0.2403999    0.1200846  78.74  0.001033436    2.241    0.554
       161  -8.0643    123.3237     14.6616   7.6566811202e+01   5.1849657018e+01    0.1266291   0.09879007 -70.74 0.0007051029    1.720    0.419
       162  -8.3249    203.3794    163.2087   1.0054816905e+02   7.5949750035e+00    0.2127883    0.1359569 -50.33 0.0009484565    1.686    0.407
       163  -8.2263    155.9894     12.4910   6.9887540433e+01   4.4479469627e+01    0.3348749    0.1220271  67.86  0.001301425    2.619    0.618
       164 -10.6012     52.0875    174.7465   1.3678303487e+02   3.2702377322e+01    0.3730817    0.3147643 -74.54  0.001486389    1.136    0.120
       165  -7.9583     14.3266    156.6707   1.4305070721e+02   4.0755839483e+01    0.1904078    0.1109299  74.92  0.001087804    1.752    0.429
       166  -7.8310    144.7717    156.2026   1.1180345479e+02   2.1474259176e+01    0.2607038    0.1672672  85.07 0.0009496222    2.757    0.637
       167  -7.5800    222.6357    155.2935   9.5071941922e+01   5.1293969723e+00    0.1439454    0.1164391 -83.86 0.0007029182    1.710    0.415
       168  -8.1416    129.3207     10.6585   7.4019712118e+01   5.0882093498e+01    0.1271515   0.09675242 -70.24 0.0007050121    1.721    0.419
       169 -10.5191    178.4490    150.7782   1.0298510035e+02   1.5437166562e+01    0.6732904    0.5241836 -84.33  0.002986231    1.687    0.407
       170  -8.8099     93.5947    152.6959   1.2352992788e+02   3.1914868834e+01    0.2527705    0.1649108  61.79  0.000949494    1.747    0.428
       171  -8.0101      5.7863    150.8337   1.4433836176e+02   4.2745884007e+01     0.167116    0.1113472  80.29  0.001077295    1.386    0.279
       172  -8.1922    229.1629    148.4614   9.2355510593e+01   5.0630256697e+00    0.2482386    0.1648713 -42.50  0.001009787    1.437    0.304
       173  -8.4955     80.7224    148.8639   1.2604934807e+02   3.4857608784e+01    0.2672257    0.1667132  67.28 0.0009988188    2.020    0.505
       174  -8.7417     67.6696    145.4185   1.2874248029e+02   3.7551015265e+01     0.400682    0.2526521  73.07  0.001895963    2.032    0.508
       175 -11.5274    242.1926    138.6608   8.7896510308e+01   4.2161841304e+00    0.8066528    0.6163579 -35.74  0.003623722    1.198    0.165
       176 -10.6688    239.4901    134.9869   8.7532593038e+01   5.4160268705e+00    0.4157521    0.4107492 -18.46  0.001451335    1.083    0.076
       177  -8.4402    206.8449    141.9254   9.5077514207e+01   1.1004506817e+01    0.2372607    0.2073465  -8.66   0.00122792    1.252    0.201
       178  -9.6075    196.3972    139.1937   9.6527695880e+01   1.3847238106e+01    0.3233493    0.2140046 -54.41  0.001415407    1.650    0.394
       179  -8.7402    198.5320    135.6911   9.5270750060e+01   1.4072558249e+01    0.3771411      0.23543  48.15  0.001644489    1.640    0.390
       180  -7.1883    159.6527    138.9747   1.0445603600e+02   2.2103610852e+01    0.2644352    0.1247444 -63.57 0.0007049431    4.430    0.774
       181  -8.2579    222.0983    136.6959   9.0980768579e+01   8.7188659006e+00    0.2723037    0.1867447  42.27 0.0008975685    1.554    0.356
       182  -7.8087    201.0030    146.4990   9.7290324823e+01   1.1375607948e+01    0.2145593    0.1361062  73.28 0.0008106512    2.589    0.614
