#   1 NUMBER                 Running object number                                     
#   2 MAG_AUTO               Kron-like elliptical aperture magnitude                    [mag]
#   3 X_IMAGE                Object position along x                                    [pixel]
#   4 Y_IMAGE                Object position along y                                    [pixel]
#   5 X_WORLD                Barycenter position along world x axis                     [deg]
#   6 Y_WORLD                Barycenter position along world y axis                     [deg]
#   7 A_WORLD                Profile RMS along major axis (world units)                 [deg]
#   8 B_WORLD                Profile RMS along minor axis (world units)                 [deg]
#   9 THETA_WORLD            Position angle (CCW/world-x)                               [deg]
#  10 FWHM_WORLD             FWHM assuming a gaussian core                              [deg]
#  11 ELONGATION             A_IMAGE/B_IMAGE                                           
#  12 ELLIPTICITY            1 - B_IMAGE/A_IMAGE                                       
         1  -7.9749     95.9640     11.0821   2.1853487408e+01   6.0143216652e+01    0.2053974    0.1848763  84.96 0.0002974728    1.027    0.026
         2  -8.2471    215.2685      8.1510   9.4822438675e+00   3.1659553700e+01    0.1654705    0.1413172 -73.82 0.0004813075    1.230    0.187
         3  -7.0813    137.4873    243.4194   6.9501116673e+01   7.3412659870e+00    0.1169504   0.08992769  17.00  7.10528e-05    1.023    0.023
         4  -8.0354    250.3124    249.5516   5.0934553140e+01  -4.0750584978e+00    0.1571328   0.06503054 -31.69  0.001081254    2.022    0.505
         5  -8.3225     92.0701    241.3537   7.9075717284e+01   1.2757559882e+01    0.1958773    0.1735923  65.48  0.000535652    1.364    0.267
         6  -8.6981     31.5748    242.2113   9.3053971687e+01   1.8883928810e+01    0.1984803     0.163687  28.06 0.0002906325    1.175    0.149
         7  -6.9718    215.5229    234.5178   5.4101082946e+01   4.8815193270e-01    0.1025113   0.07683569  -2.94 0.0008082548    1.094    0.086
         8  -8.3820      4.5729    233.7081   9.9048908712e+01   2.2879849652e+01    0.1955108    0.1064577 -81.15 0.0009684713    2.093    0.522
         9  -6.9638    131.2437    229.3305   6.9160722061e+01   1.0262955655e+01    0.1162715   0.08154196 -11.41 0.0002030331    1.541    0.351
        10  -8.9991     19.8132    226.3996   9.5229072804e+01   2.3068664334e+01    0.3345458    0.1599806 -81.87  0.001744499    2.345    0.574
        11  -8.5592      2.0086    228.0345   9.9540892214e+01   2.4220224191e+01    0.1924698    0.1459215  43.98  0.001300923    1.029    0.028
        12  -8.4257      1.3533    220.9726   9.9566991031e+01   2.5726635994e+01    0.3329584   0.09447074 -78.67  0.001368996    3.765    0.734
        13  -8.5264      8.2129    221.7343   9.7913713368e+01   2.5022187004e+01    0.1806286    0.1246028 -35.02  0.001043234    2.116    0.527
        14  -7.6670     76.3080    221.6563   8.1010952134e+01   1.8193846033e+01    0.1360439   0.08099806  52.15   1.2245e-05    1.695    0.410
        15  -9.2745     33.1243    218.4222   9.1585790521e+01   2.3497674879e+01    0.3023674    0.2026406 -12.62  0.001337266    2.127    0.530
        16  -8.0908     39.6979    215.9050   8.9776236786e+01   2.3382282233e+01    0.1776928    0.1522593 -57.09 0.0004884052    1.441    0.306
        17  -8.5214     14.1833    213.5663   9.6187655178e+01   2.6264849480e+01    0.2165962    0.1504012 -61.91 0.0007667787    1.772    0.436
        18  -9.5033     10.1773    207.4556   9.7022314887e+01   2.7942346566e+01    0.5360771    0.2856922   7.42  0.002611888    2.281    0.562
        19  -7.3812     69.3766    208.3410   8.1542097680e+01   2.1733179173e+01    0.1836197    0.1433226 -13.39 0.0006395699    1.584    0.369
        20  -9.6748    121.1848    196.4729   6.7136900000e+01   1.7438590423e+01    0.2344692    0.2116647 -27.19 0.0003230608    1.177    0.151
        21  -7.8998    127.2903    194.1790   6.5364985340e+01   1.7035937152e+01    0.2293179    0.1615784  19.10 0.0006195693    1.348    0.258
        22 -10.9662      5.0795    184.9857   9.7724112514e+01   3.3564961291e+01    0.6623555    0.5832283  61.51  0.003602275    1.095    0.087
        23  -7.0984    127.4994    187.4809   6.4307417642e+01   1.8312141209e+01    0.1346585    0.1208837  16.27 1.940694e-05    1.003    0.003
        24  -8.6529     64.9304    181.1656   8.0011575468e+01   2.8420164112e+01    0.2070231    0.1933986  60.75 0.0002401852    1.077    0.071
        25  -9.2110     17.2656    178.5338   9.3915453115e+01   3.4174150207e+01    0.4270302    0.1528779 -87.99   0.00162448    2.950    0.661
        26  -8.0072    209.5730    175.7254   4.5988782303e+01   8.9852160115e+00    0.1823286    0.1230161 -39.44 0.0006785285    1.434    0.302
        27  -6.7956    115.6779    175.6771   6.5354688058e+01   2.2488604201e+01    0.1440896    0.1058252 -12.15 0.0002360955    1.678    0.404
        28  -8.6959     33.9266    168.1784   8.8135612649e+01   3.5244054889e+01    0.2797634    0.2293918   7.91 0.0005912802    1.383    0.277
        29  -8.8381     42.6656    162.7363   8.4866202865e+01   3.5720233381e+01    0.2538776    0.2459672  23.76 0.0004373082    1.148    0.129
        30  -7.6318     30.7050    163.0644   8.8754358091e+01   3.6897626580e+01    0.1867916    0.1693579  69.39 0.0003238424    1.062    0.058
        31  -7.6136     75.2950    157.7178   7.3894637649e+01   3.2789917017e+01    0.1945858    0.1705361  -9.69  0.000780858    1.329    0.248
        32  -7.6391     56.9814    154.6320   7.9294104125e+01   3.6113632749e+01    0.2093545    0.1782264  34.13 0.0004441107    1.131    0.116
        33  -8.6468    136.3961    151.9153   5.5977292538e+01   2.4182778608e+01    0.3078603    0.2451998 -30.01 0.0009726192    1.307    0.235
        34 -10.0168     40.9208    150.1288   8.4141465916e+01   3.9263990900e+01    0.5162675    0.3148018  -9.00  0.001644143    2.442    0.591
        35  -9.0462     66.2498    149.4698   7.5543679647e+01   3.6209941527e+01    0.4505448    0.2749436  15.36  0.001805174    1.968    0.492
        36  -9.7943     68.9017    144.8181   7.3956747840e+01   3.7047272754e+01    0.7152422    0.4227229  68.98  0.002849601    2.177    0.541
        37  -8.7018     21.8730    137.0270   8.9657120820e+01   4.4771703160e+01    0.2211127    0.1976763  40.76 0.0002693961    1.107    0.096
        38  -8.3824     72.0275    135.6915   7.1376875984e+01   3.8981253958e+01    0.2616101    0.2187671 -55.80  0.000364404    1.246    0.197
        39  -8.3989     57.3178    136.1147   7.6559259335e+01   4.1024081665e+01    0.3102048    0.1979118  26.90 0.0007531692    1.578    0.366
        40  -7.0351    115.0387    135.7645   5.8157646313e+01   3.1548201319e+01    0.1834213    0.1239141  39.92 0.0008302814    1.456    0.313
        41  -7.1997    250.5431    131.4973   3.2375510184e+01   1.0031686057e+01    0.1124399   0.08331299 -29.87 9.895759e-05    1.006    0.006
        42  -7.0433     72.3026    127.3706   6.9743654269e+01   4.1143809761e+01    0.1629624    0.1193211 -29.06 0.0007032329    1.749    0.428
        43  -7.8131     55.2584    126.9892   7.5836989931e+01   4.3804590915e+01     0.214292    0.1930413 -80.33  0.001109611    1.099    0.090
        44 -10.3979     43.8471    124.1832   7.9743747510e+01   4.6075989552e+01    0.2638125    0.2561151  27.03  0.001441772    1.113    0.101
        45  -7.5156     95.6940    115.9813   5.9438682272e+01   3.9943045242e+01    0.2147913    0.1965739 -64.66 0.0003261604    1.095    0.086
        46  -8.2356    190.3720     97.5735   3.3274847875e+01   2.4526968141e+01    0.2038739    0.1897293 -83.41 0.0002500186    1.181    0.153
        47  -7.6065    203.2960     94.9873   3.0844627647e+01   2.2551104947e+01    0.1781573    0.1354046 -42.15 0.0001860435    1.099    0.090
        48  -7.8819    117.3904     91.9885   4.6674078904e+01   4.1025006832e+01    0.2229431    0.2007676  61.21 9.882496e-05    1.106    0.096
        49  -7.3235     86.0024     89.5780   5.5753241746e+01   4.8364442432e+01    0.2301998     0.152639  43.56 0.0003100116    1.491    0.329
        50  -8.6122     89.0725     77.3722   5.0903436706e+01   5.0575941708e+01    0.2720674     0.227528 -49.48 0.0003519657    1.219    0.180
        51  -7.0912    157.6069     75.4472   3.3010132974e+01   3.5102164244e+01    0.1438027    0.1285044 -57.69  1.45791e-05    1.021    0.020
        52  -8.1638    139.3849     57.9061   3.1179279222e+01   4.2387583068e+01     0.226223    0.1880201  89.88 0.0003028237    1.172    0.147
        53 -10.4995    245.1602     45.7121   1.6011626075e+01   2.1984190735e+01    0.3857951    0.2856331  71.50  0.001854991    1.696    0.410
        54  -6.8023     52.6575     49.6687   5.6002806420e+01   6.4309174829e+01    0.1534247    0.1181422  -6.04  0.000705105    1.751    0.429
        55  -8.2732    177.3536     39.0412   2.0072225649e+01   3.6156889042e+01    0.1894908    0.1731245 -87.34 0.0003802445    1.180    0.152
        56  -7.1620     79.7332     16.3248   2.8311917573e+01   6.3803596047e+01    0.1430878    0.1024658 -66.46 0.0002528204    1.568    0.362
        57  -9.0492    106.1028    247.1856   7.6514239036e+01   1.0225673442e+01    0.1889343    0.1565792   4.21   0.00030048    1.194    0.163
