#   1 NUMBER                 Running object number                                     
#   2 MAG_AUTO               Kron-like elliptical aperture magnitude                    [mag]
#   3 X_IMAGE                Object position along x                                    [pixel]
#   4 Y_IMAGE                Object position along y                                    [pixel]
#   5 X_WORLD                Barycenter position along world x axis                     [deg]
#   6 Y_WORLD                Barycenter position along world y axis                     [deg]
#   7 A_WORLD                Profile RMS along major axis (world units)                 [deg]
#   8 B_WORLD                Profile RMS along minor axis (world units)                 [deg]
#   9 THETA_WORLD            Position angle (CCW/world-x)                               [deg]
#  10 FWHM_WORLD             FWHM assuming a gaussian core                              [deg]
#  11 ELONGATION             A_IMAGE/B_IMAGE                                           
#  12 ELLIPTICITY            1 - B_IMAGE/A_IMAGE                                       
         1 -13.8263    180.5347     82.2487   2.9024565078e+02   5.7459433096e+00    0.3026592    0.1524129  89.65   0.01937192    4.825    0.793
         2 -12.9768    168.6650     59.0193   2.9023896576e+02   6.0844398878e+00    0.1278172    0.0554501  57.38  0.002622995    4.651    0.785
         3 -13.6240    120.2191     10.5987   2.9049932369e+02   6.9321947797e+00    0.1783216   0.05225996  32.35   0.01156545    3.099    0.677
         4 -14.8694    243.1512    102.8088   2.8965020289e+02   5.1324319304e+00    0.4715364    0.1554573 -64.26   0.03347046    3.298    0.697
         5 -12.4068    209.2696      2.5613   2.8941968863e+02   6.4883261518e+00   0.02779131   0.02005365  77.11   0.00171067    1.760    0.432
         6 -12.8580    220.5689     39.9962   2.8952148867e+02   5.9903452918e+00   0.04262773    0.0373756  -0.42  0.002199796    1.211    0.175
         7 -13.0515    220.2709     29.5196   2.8945994315e+02   6.1124617740e+00   0.05256898   0.04993402  36.31  0.003878545    1.060    0.057
         8 -14.3081    244.9493     18.1745   2.8910470090e+02   6.0937610404e+00   0.04878823   0.04265824 -37.74  0.001644812    1.161    0.139
         9 -10.0789     53.0781     11.0644   2.9127987844e+02   7.3294726737e+00   0.01011537  0.009865241  74.06 0.0006145299    1.056    0.053
        10 -15.1671    239.8281      3.5082   2.8907273840e+02   6.2929982775e+00    0.2616342    0.0817106  19.08   0.01136431    6.045    0.835
        11 -11.1135     64.8700      3.1847   2.9109445103e+02   7.3494121632e+00   0.02025626   0.01911782  70.32  0.002513832    1.110    0.099
        12  -8.9235    172.0017      2.6659   2.8985104370e+02   6.7117874296e+00    0.0145106  0.009354536 -87.40  0.001044675    2.078    0.519
        13 -14.1700    139.1267     23.8762   2.9036280394e+02   6.6660097800e+00    0.2670738    0.1134376  19.05   0.02047784    2.974    0.664
        14  -9.0580    188.9155    179.5042   2.9075007445e+02   4.5766685874e+00   0.02339708   0.01308318 -84.96  0.001938897    2.743    0.635
        15  -8.3239     80.3273    250.3167   2.9243932287e+02   4.4123161408e+00  0.007041059  0.004942683 -26.52 0.0007045302    1.676    0.403
        16  -9.2766    218.8547    169.6284   2.9034372579e+02   4.5103085208e+00   0.03344526  0.006313346  41.17  0.001810491    5.599    0.821
        17  -8.1160    203.5671    160.7363   2.9046513258e+02   4.7045559762e+00  0.008973126  0.006466669 -79.93 0.0006714975    1.594    0.372
        18 -10.9914     67.8584    244.6816   2.9254866964e+02   4.5517775260e+00    0.0226884   0.01321838 -31.36   0.00106203    2.175    0.540
        19  -9.6725    192.0210    143.9944   2.9049492544e+02   4.9666130671e+00  0.009888034  0.009841967 -80.48 0.0004070767    1.019    0.019
        20 -10.0861    201.1520    140.1412   2.9036572701e+02   4.9560250855e+00    0.0106561   0.00901584 -27.76 0.0007417773    1.251    0.201
        21  -7.5973    124.7225    140.6803   2.9125173031e+02   5.4089946340e+00  0.006850288  0.004899605 -30.50 0.0003854383    1.577    0.366
        22  -8.8091    132.2298    138.4921   2.9115147098e+02   5.3891385214e+00   0.01169349  0.008729552 -63.55 0.0004870826    1.347    0.257
        23 -10.9472    189.1284    136.8696   2.9048428128e+02   5.0659825786e+00   0.01617398   0.01525011  83.08  0.001445309    1.111    0.100
        24 -11.3685    189.4720    131.4721   2.9044695009e+02   5.1260125433e+00   0.02881205   0.01624438  67.78  0.002341611    2.923    0.658
        25 -12.7332    185.3281    122.4072   2.9043874759e+02   5.2552215131e+00   0.06797481   0.02712185 -51.45  0.005584472    2.384    0.581
        26  -8.4603    129.1280    123.3764   2.9109398980e+02   5.5817379892e+00  0.008880416  0.008181157  27.88  0.000602753    1.089    0.082
        27  -8.5181    141.6255    122.2268   2.9094245399e+02   5.5199418183e+00  0.009815318  0.005773218 -51.23 0.0009491463    1.657    0.397
        28  -9.5978    135.0387    120.1855   2.9100596666e+02   5.5829825512e+00   0.01231313  0.009330082 -59.66 0.0008527493    1.305    0.234
        29 -11.5241     92.4181    240.0433   2.9223667560e+02   4.4583123477e+00   0.02842971   0.01376739 -53.61  0.002559919    1.970    0.492
        30 -11.0905    167.9885    113.4700   2.9058374184e+02   5.4623051807e+00    0.0237136     0.020913   4.63  0.001544552    1.190    0.160
        31  -9.3990    141.3939    102.7102   2.9082452536e+02   5.7459106721e+00   0.01907689   0.01050503 -21.71  0.001520245    2.969    0.663
        32 -10.1528    135.2041    107.5589   2.9092604234e+02   5.7272928598e+00   0.02469873   0.01348933 -50.83  0.002343417    1.783    0.439
        33 -10.0754    160.6843    128.2325   2.9075936206e+02   5.3363473770e+00   0.01541317      0.01224 -87.17  0.001604891    1.433    0.302
        34  -7.8468     59.6605    229.6672   2.9255116791e+02   4.7737337546e+00  0.007180776  0.004908372 -26.85 0.0007051651    1.747    0.428
        35  -8.9378    121.7874    102.6731   2.9105096330e+02   5.8640544250e+00    0.0180676  0.008699592   4.97   0.00120945    4.162    0.760
        36 -10.0566    146.9905     97.9304   2.9073028642e+02   5.7672810019e+00   0.01799126   0.01377255   0.60  0.001089032    1.499    0.333
        37  -9.5397    133.8833     95.5892   2.9086732747e+02   5.8729479538e+00   0.01490891    0.0138604 -36.11  0.000827549    1.079    0.073
        38  -8.7360    116.7095     92.7732   2.9104850599e+02   6.0084417868e+00   0.01484517  0.009417399  73.52  0.001353544    2.284    0.562
        39  -9.4657    219.9563     91.7518   2.8984931560e+02   5.3993103242e+00   0.01281861  0.008519772  47.24 0.0007891957    1.602    0.376
        40 -10.5985    157.2816     90.0155   2.9056239488e+02   5.7964803671e+00   0.02520805   0.01617068 -23.75  0.002410383    2.018    0.504
        41  -8.0706     15.6771    151.7057   2.9258055038e+02   5.9345322705e+00  0.006891594  0.004971334 -25.09 0.0001766866    1.617    0.381
        42  -8.3010    207.7564     92.4302   2.8999432921e+02   5.4649974761e+00   0.00873168  0.006462859   9.34 0.0003282576    1.511    0.338
        43  -8.4374    199.6721     87.8943   2.9005957905e+02   5.5658319062e+00  0.008928063  0.008365409 -81.87 0.0004936901    1.105    0.095
        44  -9.8378    140.9752     86.8147   2.9073108123e+02   5.9312943431e+00   0.01412898   0.01281649 -89.49 0.0008748183    1.173    0.147
        45 -10.7455    163.0656     83.5085   2.9045529023e+02   5.8365435324e+00   0.03560926   0.01890215  65.40  0.002518832    3.335    0.700
        46 -11.2615    155.1131     79.1454   2.9052020225e+02   5.9345382897e+00   0.01619917    0.0121628 -53.85 0.0005492502    1.306    0.234
        47  -8.5237    134.0000    148.0036   2.9118972075e+02   5.2690259460e+00   0.01113026  0.003745586 -61.84 0.0008042047    2.955    0.662
        48  -8.7993    222.6648     73.8863   2.8970738862e+02   5.5883363044e+00   0.01156112  0.008888101  39.29 0.0003353043    1.308    0.235
        49 -10.9775    199.7649     61.4126   2.8989447958e+02   5.8696842611e+00   0.03604601   0.02349458  80.53  0.003388998    2.179    0.541
        50 -10.8294    207.9625     66.8238   2.8983334638e+02   5.7581064983e+00   0.03733133   0.01802672  62.10  0.002536032    4.144    0.759
        51 -11.7684    205.6517     58.4895   2.8980838255e+02   5.8678098863e+00   0.08203503   0.03797666  65.90  0.004139639    7.726    0.871
        52 -12.0344    208.0902     49.8443   2.8972663622e+02   5.9524506473e+00   0.03557172   0.03282649 -28.04  0.002820892    1.105    0.095
        53 -10.4807    188.4469     65.0249   2.9004758808e+02   5.8963321464e+00   0.01757609   0.01249003 -13.82  0.001369798    1.750    0.429
        54 -10.5322    193.6957     61.2439   2.8996353265e+02   5.9081820726e+00   0.02073444   0.01256637 -38.53  0.001328218    1.827    0.453
        55  -9.5919     68.9993     65.5202   2.9143217714e+02   6.6080046471e+00   0.02626572   0.01428096  89.78  0.001753208    3.350    0.701
        56 -10.6939     67.9125    144.1143   2.9192966294e+02   5.7098384807e+00   0.03230226   0.01945693  57.73  0.002667391    2.106    0.525
        57 -12.4382    237.2569     36.4302   2.8930675449e+02   5.9306187145e+00   0.06311668   0.02586039  24.76  0.004264027    2.609    0.617
        58  -8.7243     44.9957    224.0121   2.9268582402e+02   4.9265009936e+00  0.009794418  0.009570906 -15.77            0    1.025    0.024
        59 -10.1895    137.0592     55.0989   2.9058011204e+02   6.3195687485e+00   0.02237801   0.01367052 -84.66  0.001391497    2.236    0.553
        60  -8.9263    190.9487     53.0624   2.8994456785e+02   6.0187541443e+00   0.01424696  0.009450345  85.39  0.001359587    2.065    0.516
        61  -9.4367     63.5005     51.5261   2.9140936922e+02   6.8019006534e+00   0.01308982   0.01093926  78.21 0.0006346903    1.355    0.262
        62 -10.1471     61.5675     45.9266   2.9139714314e+02   6.8778714144e+00   0.02054544   0.01231897 -78.93  0.001808543    2.111    0.526
        63  -9.0206     41.2841    211.3808   2.9265116591e+02   5.0941908360e+00  0.009651974  0.005891234  37.45 0.0008174574    1.624    0.384
        64  -9.1933    174.2856     48.7578   2.9011043414e+02   6.1685593221e+00   0.01185235  0.009491623  55.73 0.0004693671    1.355    0.262
        65  -9.4837    184.7973     39.1610   2.8992947817e+02   6.2155429110e+00   0.02236054   0.01324432 -76.05  0.001393289    2.054    0.513
        66  -9.1399    188.3041     44.6808   2.8992317453e+02   6.1309979256e+00   0.02132905   0.01244447 -75.74  0.001964472    2.092    0.522
        67  -8.7332    185.0031     46.3118   2.8997142375e+02   6.1321382952e+00   0.01088083   0.01020082   4.72   0.00133567    1.089    0.081
        68  -8.9052    183.2994     43.6121   2.8997437832e+02   6.1734209048e+00    0.0146571  0.009916239  66.41 0.0007275567    1.899    0.473
        69  -9.1223    135.7010     47.6826   2.9054990471e+02   6.4129933271e+00  0.008865837  0.007477587  62.85 0.0007329579    1.298    0.230
        70  -8.3580    197.1510     43.7704   2.8981532505e+02   6.0881600178e+00   0.01013791   0.00829652  64.88 0.0006125614    1.367    0.269
        71 -13.1313     13.8072    204.1334   2.9292417505e+02   5.3416895919e+00   0.04990447   0.04827183  21.60  0.003903175    1.039    0.037
        72  -8.7667    204.8882     38.8158   2.8969523582e+02   6.0984506370e+00   0.01222436  0.008259638  80.19 0.0009586802    2.013    0.503
        73  -7.8386    190.2571     36.6023   2.8985052805e+02   6.2120507462e+00  0.006882691  0.005031459  73.67 0.0006961494    1.705    0.414
        74  -9.7427     56.7424     28.3303   2.9134423324e+02   7.1090836174e+00   0.02517927   0.01248426 -73.03  0.002092898    2.545    0.607
        75 -13.5548     45.5954    179.5386   2.9240571278e+02   5.4352677508e+00    0.1206708    0.0775449 -13.93  0.001746224    2.142    0.533
        76 -13.0890     54.6783    171.9063   2.9225377614e+02   5.4688996716e+00   0.08021281   0.05556832 -12.10  0.003973202    1.838    0.456
        77 -10.0630    187.9708    191.4551   2.9083472292e+02   4.4448072175e+00   0.01536792   0.01143923  28.34 0.0004881674    1.345    0.256
        78  -9.4627    221.6518    191.2953   2.9044528692e+02   4.2442200595e+00   0.01647813   0.01072692  52.82 0.0009575607    1.748    0.428
        79 -10.4205    216.9453    189.4610   2.9048822837e+02   4.2936208587e+00   0.03280448   0.01065275  40.28  0.002396778    3.074    0.675
        80  -8.7639    193.4814    195.9637   2.9079896927e+02   4.3598144273e+00   0.01488144  0.007868944  78.08  0.000983209    4.416    0.774
