#   1 NUMBER                 Running object number                                     
#   2 MAG_AUTO               Kron-like elliptical aperture magnitude                    [mag]
#   3 X_IMAGE                Object position along x                                    [pixel]
#   4 Y_IMAGE                Object position along y                                    [pixel]
#   5 X_WORLD                Barycenter position along world x axis                     [deg]
#   6 Y_WORLD                Barycenter position along world y axis                     [deg]
#   7 A_WORLD                Profile RMS along major axis (world units)                 [deg]
#   8 B_WORLD                Profile RMS along minor axis (world units)                 [deg]
#   9 THETA_WORLD            Position angle (CCW/world-x)                               [deg]
#  10 FWHM_WORLD             FWHM assuming a gaussian core                              [deg]
#  11 ELONGATION             A_IMAGE/B_IMAGE                                           
#  12 ELLIPTICITY            1 - B_IMAGE/A_IMAGE                                       
         1 -13.3130    189.5559     27.3195   7.3659829801e+01   3.4118149430e+01     1.351265      1.25546  44.05  0.005995207    1.086    0.079
         2 -13.7180    202.6777      9.1990   6.6192822346e+01   3.2594170891e+01     1.812054     1.130683  40.10  0.008351179    1.748    0.428
         3 -11.2764     17.6693      4.3960   1.1361506713e+02   7.2380698094e+01    0.3555775    0.1800415 -60.53   0.00185717    2.303    0.566
         4 -13.7823     48.9613    225.3200   1.3992475948e+02   2.6118683666e+01    0.7689269    0.4638548  75.78  0.004471006    1.371    0.271
         5 -11.3967    139.5010    249.9953   1.2795178094e+02   1.1432539148e+01    0.3929029    0.1057628  44.28  0.002024865    2.599    0.615
         6 -11.1789    124.3890    250.2071   1.3020509209e+02   1.3454049267e+01    0.4756889    0.0747987  45.37  0.001960127    4.163    0.760
         7 -10.3672     81.5628    249.0150   1.3642576515e+02   1.9062007879e+01    0.2208861    0.1248871  64.65  0.001234421    1.453    0.312
         8  -9.7302     67.2766    250.4257   1.3858144372e+02   2.0561322596e+01    0.1674618   0.07828782  51.74 0.0007301819    1.439    0.305
         9 -10.8593     30.0249    249.7930   1.4382395035e+02   2.4650091028e+01    0.2844083    0.1361937  50.63  0.002318556    1.405    0.288
        10 -11.3260     34.7892    244.7381   1.4295483070e+02   2.4855549289e+01    0.3143577    0.2433336  44.74  0.002535482    1.581    0.368
        11 -11.6616      3.2424     61.9268   1.3576359780e+02   6.1600037308e+01    0.6174077    0.3265805   8.52  0.003640281    2.878    0.653
        12 -14.0221      3.9802     28.0483   1.2878877768e+02   6.8749167713e+01     6.719184    0.6996264 -65.12   0.01212463    6.376    0.843
        13 -15.0947     12.9130    158.5152   1.4231904362e+02   4.0993855854e+01     4.521063     1.457311 -89.20   0.02207155    3.094    0.677
        14 -10.7041     98.6655    249.1202   1.3392189760e+02   1.6935322262e+01    0.2500887    0.1015869  47.26  0.001484822    1.701    0.412
        15 -10.3154    183.9999    238.3452   1.2013120148e+02   6.3463914139e+00    0.1978071    0.1297476  57.56  0.001422105    1.665    0.399
        16 -13.8458      3.3281    229.4382   1.4690184902e+02   3.0031503001e+01     3.378682    0.4872253 -79.97   0.01531761    6.186    0.838
        17 -10.5749    150.2820    229.4501   1.2431271543e+02   1.2277325925e+01    0.2146014   0.07894526  41.22  0.001149755    2.151    0.535
        18 -10.2859     83.5119    244.3243   1.3583772387e+02   1.9434203569e+01    0.3125536    0.1082323  59.57  0.001707217    2.896    0.655
        19 -10.7412    173.2838    221.7579   1.1982665054e+02   9.7235141105e+00    0.2936743    0.2252938  66.23  0.002180188    1.556    0.357
        20 -13.4422      9.3738    206.6637   1.4522940645e+02   3.2965694724e+01     0.794045     0.519825  75.15  0.003432398    1.101    0.091
        21 -12.6141     42.9667    234.1526   1.4129050805e+02   2.5484346329e+01     0.238735    0.2032587  76.62  0.000816606    1.420    0.296
        22  -8.8638    152.4998    212.9423   1.2210954238e+02   1.3985342160e+01     0.124838    0.1102335 -57.82 0.0003224669    1.450    0.311
        23 -12.4102     26.5583    203.2475   1.4232250608e+02   3.1891682264e+01     0.435967    0.1405597  54.87  0.002601516    2.256    0.557
        24 -11.3345     67.4518    199.3272   1.3518268612e+02   2.8005932287e+01    0.2461482    0.1889212 -56.08  0.001103382    1.817    0.450
        25  -9.9010    192.5555    194.1554   1.1299264059e+02   9.8609933880e+00     0.484065    0.2627256 -63.24  0.001809446    6.403    0.844
        26 -11.6375     72.8532    191.3882   1.3357669195e+02   2.8641786083e+01    0.2106844    0.1854524 -86.16 0.0005800171    1.321    0.243
        27  -9.2980     66.1582    243.0738   1.3832985607e+02   2.1665035251e+01    0.1313476    0.1020824  58.80 0.0005934603    1.230    0.187
        28  -8.6176    105.0048    180.9943   1.2663697727e+02   2.5966974016e+01    0.1337033    0.1077297  61.62            0    1.013    0.013
        29 -13.1924     69.3481    176.4853   1.3286532882e+02   3.1653918821e+01    0.3815061    0.2496356 -47.72  0.002020942    2.254    0.556
        30 -10.7995     81.9094    178.6102   1.3070390225e+02   2.9640414635e+01    0.1976062    0.1640371  67.56 0.0003944429    1.079    0.074
        31  -8.4429    171.7468    174.0029   1.1341085919e+02   1.6069233903e+01    0.1332709    0.1066979 -40.20  0.000212297    1.466    0.318
        32 -11.7269     88.6069    168.8342   1.2834807968e+02   3.0446103269e+01    0.5500143    0.4285614  72.27  0.003840683    1.099    0.090
        33  -8.7136    250.5226    171.5041   1.0011222454e+02   2.5846561030e+00    0.1170023   0.09476908  18.72 -4.180974e-05    1.051    0.049
        34  -9.5150    235.6755    159.3283   1.0010145063e+02   6.4152240348e+00    0.1087917   0.09923526 -78.86 0.0007049753    1.697    0.411
        35 -10.2003    193.0883    156.8509   1.0666551397e+02   1.4568734106e+01    0.3312362    0.2487719 -73.41  0.001282909    2.165    0.538
        36 -10.2257     94.6729    241.4020   1.3396464673e+02   1.8425059100e+01    0.1563758    0.1166194 -75.44  0.001347463    1.624    0.384
        37 -11.8636     89.3895    152.1819   1.2611343246e+02   3.3405732492e+01    0.2209182    0.2177994 -79.65 0.0006835652    1.327    0.246
        38 -12.4738     66.9427    143.9207   1.2983935943e+02   3.8081937486e+01    0.7062345    0.4095008  71.98   0.00397049    1.824    0.452
        39 -11.6296     57.9508    133.3064   1.3052489948e+02   4.1336410553e+01     0.787739    0.2961279 -79.40  0.003060822    3.793    0.736
        40  -9.0936    103.1883    148.3362   1.2267482709e+02   3.2047624667e+01     0.198689    0.1590125 -52.61  0.001131709    1.419    0.295
        41  -8.5418    192.0270    144.0271   1.0438627948e+02   1.6580373875e+01    0.1524419    0.1419479   8.06 0.0004656118    1.085    0.078
        42  -9.5691    174.4864    137.8927   1.0638136714e+02   2.0973914928e+01     0.291664     0.217827 -86.42  0.001152555    2.031    0.508
        43  -9.5435    111.0545    137.6187   1.1928965061e+02   3.2808196208e+01     0.295285    0.2254782 -19.16  0.001601172    2.141    0.533
        44 -10.7447     98.5274    135.1440   1.2162783246e+02   3.5316489678e+01    0.2471444    0.2126064 -40.71 0.0007931519    1.453    0.312
        45  -9.5423    167.7381    131.7020   1.0640919811e+02   2.3318716981e+01    0.2417053    0.1994925  82.47 0.0007373865    1.484    0.326
        46  -9.8804     46.5788    248.8574   1.4146131759e+02   2.3064379273e+01    0.2113011   0.07861947  60.87  0.001087017    2.063    0.515
        47  -9.3241    107.9130    124.2221   1.1761160726e+02   3.5942105044e+01     0.182513    0.1565802  73.09 0.0002649802    1.107    0.096
        48  -9.7856    100.5402    152.6839   1.2386115448e+02   3.1644908893e+01    0.2533726     0.194244  84.69 0.0008324059    1.289    0.224
        49  -9.7151    154.9427    120.3387   1.0654898851e+02   2.7839649788e+01    0.3442326    0.2238939  74.86  0.001528528    2.296    0.565
        50  -8.8816     71.0896    124.8749   1.2631116013e+02   4.1398068698e+01    0.1892281    0.1412858  73.92 0.0005523917    1.274    0.215
        51 -10.4016    168.0319    113.2341   1.0228314887e+02   2.6335866188e+01    0.3282894     0.275166 -87.28 0.0008935572    1.470    0.320
        52  -9.0415    203.4874    111.5116   9.5253007729e+01   1.8946600943e+01    0.1412817    0.1277221  17.05 3.224905e-05    1.045    0.043
        53  -9.9961     53.1157    109.4778   1.2840691442e+02   4.6900117395e+01    0.2563487    0.1426491 -85.84   0.00132504    1.956    0.489
        54 -10.3537    196.2810    240.8968   1.1860573422e+02   4.3125742849e+00    0.1389705    0.1221495  58.43  0.001019724    1.459    0.314
        55  -9.4383    155.4171     75.7737   9.5128302557e+01   3.5596698629e+01    0.2072582    0.1427986 -23.37 0.0006620099    1.613    0.380
        56  -9.5432     18.3903     66.8998   1.3152768833e+02   5.9516298145e+01    0.1708485    0.1442406  68.41 0.0004828324    1.303    0.233
        57  -9.9924    249.3230    249.4267   1.1215317061e+02  -3.7752770394e+00     0.252317   0.07975603  34.52  0.001417498    2.392    0.582
        58 -10.7170    238.7214    247.4689   1.1335513773e+02  -2.2126626862e+00    0.1771521    0.1549157 -25.88  0.001619674    1.734    0.423
        59 -14.3310     54.5376    211.0134   1.3818705969e+02   2.7668682513e+01     6.774286          nan  47.39   0.02305235    6.467    0.845
