#   1 NUMBER                 Running object number                                     
#   2 MAG_AUTO               Kron-like elliptical aperture magnitude                    [mag]
#   3 X_IMAGE                Object position along x                                    [pixel]
#   4 Y_IMAGE                Object position along y                                    [pixel]
#   5 X_WORLD                Barycenter position along world x axis                     [deg]
#   6 Y_WORLD                Barycenter position along world y axis                     [deg]
#   7 A_WORLD                Profile RMS along major axis (world units)                 [deg]
#   8 B_WORLD                Profile RMS along minor axis (world units)                 [deg]
#   9 THETA_WORLD            Position angle (CCW/world-x)                               [deg]
#  10 FWHM_WORLD             FWHM assuming a gaussian core                              [deg]
#  11 ELONGATION             A_IMAGE/B_IMAGE                                           
#  12 ELLIPTICITY            1 - B_IMAGE/A_IMAGE                                       
         1 -11.4310    191.6344     40.4920   5.1799005757e+01   3.2125960042e+01    0.9726197    0.9132035 -67.53  0.004394042    1.032    0.031
         2 -11.5021    199.2338     32.0273   4.8349935391e+01   3.1301703494e+01    0.7589691    0.6490344   2.51  0.001734124    1.443    0.307
         3  -8.3884     15.0000     12.0282   9.3653580454e+01   7.1602044463e+01     0.187201   0.05250621 -46.53 0.0002729643    2.986    0.665
         4 -11.2755    221.6954      5.1026   3.8924668246e+01   2.8847830836e+01    0.9219683    0.5952816  80.02  0.005098888    1.430    0.301
         5  -8.5030    120.2784      9.1103   5.3909948847e+01   5.3836536256e+01    0.3268943    0.2414653  63.69  0.001798424    1.312    0.238
         6  -8.5382      1.5876      6.7990   9.8720890972e+01   7.3441999175e+01    0.1479122   0.08986137 -53.17 0.0009568559    1.724    0.420
         7  -7.8898     79.3750    214.2312   1.1582447804e+02   2.0369916279e+01    0.1751971    0.1035447 -86.19 0.0009509547    1.832    0.454
         8  -9.3252    102.0180    248.7541   1.1495846035e+02   1.0854209938e+01    0.3926428    0.2262637 -82.59  0.002270333    2.253    0.556
         9 -13.8431     55.5595    203.9758   1.1956769513e+02   2.5643482344e+01     8.760306     2.750509 -70.26   0.03446095    3.085    0.676
        10  -7.4698     76.0576    209.5414   1.1600502324e+02   2.1770520589e+01    0.1710496     0.106278  45.27 0.0004765574    1.445    0.308
        11  -8.8139     66.3171    206.6341   1.1766706028e+02   2.3697355756e+01    0.3350923    0.1903127 -47.29  0.001719892    2.584    0.613
        12 -10.7731    124.0007    206.0023   1.0572682699e+02   1.4993606363e+01    0.1887113    0.1631558  55.98  0.001165383    1.002    0.002
        13  -9.4222    227.2211    203.9064   8.4930436881e+01  -2.7506552386e+00    0.2818726    0.2580341 -77.77  0.001395897    1.761    0.432
        14  -8.5098     72.4436    203.6503   1.1612644038e+02   2.3471757064e+01    0.4093353    0.2147048  81.80  0.001948816    2.357    0.576
        15  -7.4445    109.3180    204.3053   1.0855988626e+02   1.7763402211e+01    0.1197575    0.1044227  -0.73 0.0005688579    1.629    0.386
        16  -8.9480     85.9883    200.5702   1.1298159462e+02   2.2158979435e+01    0.2288486    0.1691347  78.68 0.0004431949    1.281    0.219
        17  -9.1348    215.3624    198.4468   8.6098098337e+01   4.3135416073e-02    0.2450176    0.2102664  41.50 0.0009863332    1.292    0.226
        18  -7.6487    139.1930    198.7256   1.0145711657e+02   1.3744744727e+01     0.172386    0.1523118  14.42 0.0003684892    1.316    0.240
        19 -10.4241    246.5537    196.4435   8.0130733728e+01  -4.8469371912e+00    0.2375921    0.1981052  21.37 0.0008148463    1.178    0.151
        20  -7.5119     98.4917    199.9867   1.1027702276e+02   2.0364849302e+01      0.18952    0.1050573  88.00  0.000810418    2.691    0.628
        21  -8.0089    241.3124    195.3102   8.0820888933e+01  -3.8553391528e+00    0.1322181   0.08587717   6.10 0.0001949337    1.628    0.386
        22  -9.1709    216.2576    193.8748   8.5072343823e+01   5.7739248490e-01    0.2677291    0.2007274  20.19 0.0002418489    1.235    0.191
        23  -9.0086    216.8224    189.1459   8.4060974043e+01   1.2031463544e+00    0.2231934    0.2064352 -22.51 0.0003535323    1.220    0.180
        24  -9.5687    113.7378    192.0967   1.0591951807e+02   1.9496683260e+01    0.2998007    0.2205904  86.05  0.001096898    1.533    0.348
        25  -7.7097     97.2065    189.7889   1.0921027760e+02   2.2691548067e+01    0.1655011     0.160583 -29.36 0.0006141715    1.328    0.247
        26  -7.5662    226.4743    189.0296   8.2255453196e+01  -4.7127831391e-01    0.1824149    0.1220175 -28.35 0.0003422384    1.475    0.322
        27  -9.1195    129.7324    186.6775   1.0157334819e+02   1.7818027818e+01    0.3360842    0.2320096 -82.63 0.0007014846    1.906    0.475
        28 -10.1451    184.4921    185.0965   8.9605882984e+01   7.8401724876e+00    0.2437786    0.2370721  29.58 0.0003820727    1.118    0.105
        29  -8.5086    136.9689    185.2221   9.9739162773e+01   1.6798819285e+01    0.2076183    0.1943448 -83.41 0.0002713122    1.121    0.108
        30  -8.9314    243.2216    184.5318   7.8397128422e+01  -2.6535065287e+00     0.221395    0.1634865 -24.80 0.0005992681    1.272    0.214
        31  -7.4566     10.5357    180.4595   1.2673405582e+02   3.5468798243e+01    0.1605018    0.0856493 -70.84 8.873371e-05    1.622    0.384
        32  -9.8322      9.9148    184.0129   1.2709091538e+02   3.4768222410e+01    0.4069654     0.139839  36.98  0.001437905    2.759    0.638
        33  -8.0947     15.0465    184.0000   1.2607088030e+02   3.4304958506e+01    0.2309574    0.1353175  43.48  0.001036195    1.693    0.409
        34  -8.0820     82.6607    182.3407   1.1144060521e+02   2.6540662102e+01    0.2730769    0.1729841  69.95 0.0008878272    1.666    0.400
        35 -12.0676     32.1907    207.2797   1.2436875077e+02   2.7726239911e+01    0.8451233    0.4929828  45.86  0.001871668    1.568    0.362
        36 -10.1590     43.3772    174.7722   1.1932483654e+02   3.3403627998e+01    0.4991239    0.2055428  54.56  0.002300381    2.430    0.588
        37  -8.0192    223.2563    181.2997   8.1321576302e+01   1.2731867025e+00    0.2043224    0.1053391 -45.84  0.000788818    2.354    0.575
        38  -8.1089     37.4148    177.1075   1.2085585364e+02   3.3549491929e+01    0.3259502   0.08692063  49.16  0.001276912    3.484    0.713
        39  -9.0918      8.2150    175.7310   1.2688616803e+02   3.6684871549e+01    0.2487703    0.1809277 -69.29 0.0008761465    1.381    0.276
        40  -8.8427      2.2776    169.1738   1.2766918094e+02   3.8588568346e+01    0.1898015    0.1373685  53.18  0.001354252    1.388    0.280
        41  -9.4785      6.8154    169.7485   1.2676594401e+02   3.8098285247e+01    0.2940125    0.1720087  72.35  0.001805093    1.452    0.311
        42  -9.5118     76.2660    174.9474   1.1191638064e+02   2.9122091493e+01    0.2991999    0.2494378 -47.90  0.001045446    1.456    0.313
        43  -9.8814     80.3005    169.6092   1.1024521720e+02   2.9742999351e+01    0.3682375    0.2600402 -42.13  0.001812549    1.811    0.448
        44  -7.2111      1.2318    175.6981   1.2829394666e+02   3.7269129267e+01     0.111918   0.06219749  74.61 0.0002399962    1.474    0.322
        45  -7.9646    104.3793    173.7225   1.0522706284e+02   2.5005334510e+01    0.2969471    0.1993911  73.85  0.001439537    1.742    0.426
        46 -13.3395     10.2002    207.7299   1.2843871544e+02   2.9882781157e+01     1.149231     1.080552  -8.22  0.006428112    1.821    0.451
        47  -7.6150    134.4417    170.4695   9.7706818767e+01   2.0325895508e+01     0.143632    0.1347687  62.98 0.0001132151    1.010    0.010
        48  -8.8268     59.3774    168.9834   1.1505452669e+02   3.2776769445e+01    0.3867569    0.1813414  61.75  0.001629443    2.505    0.601
        49  -8.9699    205.1836    169.0113   8.2243320637e+01   6.6642549517e+00    0.2267681    0.1954079  40.79 0.0002456054    1.188    0.158
        50  -9.6675     70.2879    166.0372   1.1211386601e+02   3.1997456888e+01    0.4175697    0.3282213   3.76            0    1.990    0.498
        51  -9.3116     69.5170    161.0578   1.1160838684e+02   3.3257724539e+01    0.3784106    0.2293351  66.30  0.001419286    1.804    0.446
        52  -8.6288     64.7398    157.6868   1.1229782866e+02   3.4693005600e+01    0.3799476    0.1913109  59.44   0.00106182    2.287    0.563
        53  -7.5977    114.6505    164.8883   1.0132725109e+02   2.5189981463e+01    0.1939135    0.1306156 -70.69 0.0003680457    1.648    0.393
        54 -16.6332     11.7773    244.0892   1.2993186178e+02   2.2954299486e+01     3.739252     2.779318  45.93   0.01478021    1.513    0.339
        55  -7.6098    133.1769    162.3762   9.6477359228e+01   2.2304878483e+01    0.1970317    0.1305408  52.87 0.0002474845    1.517    0.341
        56  -9.1622     87.7866    161.1735   1.0718370826e+02   3.0544242961e+01    0.2365926    0.2117717 -66.82 0.0004593439    1.143    0.125
        57  -7.9259    232.5616    158.4569   7.4882726224e+01   3.1932462677e+00    0.1394554    0.1212934  -4.61  -3.3859e-06    1.031    0.030
        58  -7.2591    137.9782    158.2599   9.4539608094e+01   2.2264330972e+01    0.1788368    0.1245904  44.56 0.0002045191    1.389    0.280
        59  -7.9782    190.9523    166.9368   8.4657049694e+01   9.8395559005e+00    0.2143163     0.181378  88.97 0.0009456414    1.625    0.385
        60  -9.7840     93.9400    154.0624   1.0448300261e+02   3.1216159263e+01    0.5534971    0.3934039 -28.87  0.002630897    2.054    0.513
        61  -8.4159      2.7624    152.7777   1.2641143074e+02   4.2160340085e+01    0.1658449    0.1050602  75.28 0.0007326875    1.356    0.262
        62  -8.3177    112.3318    150.6701   9.9259925643e+01   2.8831908266e+01    0.1551374    0.1111639  78.18 0.0006070316    1.719    0.418
        63 -12.4093     57.4547    241.4658   1.2222883799e+02   1.8219844531e+01    0.3957162    0.2615639  69.67 0.0005266948    1.205    0.170
        64  -8.4547    228.7895    221.5438   8.7776214135e+01  -5.3671786188e+00     0.192396    0.1518159  -9.41 0.0005267482    1.214    0.176
        65  -8.8814    133.4230    141.1892   9.2048623696e+01   2.6939611754e+01    0.3642614    0.1447186 -57.35  0.001148235    3.229    0.690
        66  -9.2812    106.7258    139.7625   9.8515470790e+01   3.2377825498e+01     0.420482    0.3410594 -49.00  0.001818919    1.247    0.198
        67  -7.0156    162.4931    141.4554   8.5204674673e+01   2.0781763738e+01    0.1526729    0.1477641  14.92 7.943084e-05    1.042    0.040
        68  -9.9887     94.0591    139.5362   1.0178619925e+02   3.4621458298e+01    0.2740276    0.2534828 -60.48 0.0004215833    1.095    0.087
        69  -8.7102     30.4912    141.4557   1.1872058489e+02   4.2437556513e+01    0.1263169    0.1026496 -80.03 0.0001948185    1.037    0.036
        70 -11.0924     43.1306    130.8744   1.1400822669e+02   4.3677436171e+01    0.4352174    0.2768513  83.96  0.001767867    1.701    0.412
        71 -11.2825     41.5097    126.1181   1.1373986577e+02   4.4989012677e+01    0.4120137    0.3586355 -80.93  0.002648396    1.051    0.049
        72  -8.2130     21.8372    137.6325   1.2046775602e+02   4.4116679863e+01    0.1618872    0.1004551  47.70 0.0005339474    1.711    0.416
        73 -10.0501      2.6644    131.1710   1.2462873918e+02   4.7057728731e+01    0.2741246    0.2179335 -36.66  0.001919258    1.629    0.386
        74  -9.6540      2.2319    127.9795   1.2443943897e+02   4.7816426852e+01     0.258648    0.1438332 -69.48  0.001548391    1.386    0.279
        75  -7.7740    120.2284    134.4077   9.3873324940e+01   3.1098053167e+01    0.2047879     0.140828  53.97 0.0004642484    1.531    0.347
        76  -8.5504     76.7764    134.5659   1.0546754988e+02   3.8519799695e+01    0.1918493    0.1257575  51.91  0.000561978    1.618    0.382
        77  -8.7689     74.4325    218.6371   1.1722587831e+02   2.0204826475e+01    0.2857239    0.1858244 -74.20   0.00175345    1.554    0.357
        78  -8.8101    114.0663    130.3590   9.4574595201e+01   3.3219050096e+01    0.3197616    0.1891521  29.79   0.00130692    2.101    0.524
        79  -8.6654    101.4147    126.7361   9.7159935645e+01   3.6394806232e+01    0.2806689    0.2358238 -18.03 0.0003878123    1.483    0.325
        80  -7.7767     92.6883    218.8779   1.1368482851e+02   1.7526363712e+01    0.1625759    0.1362556  84.34 0.0005427234    1.152    0.132
        81  -8.2400     90.0544    124.0106   9.9702247584e+01   3.8986532149e+01    0.3221703    0.1823072  61.21  0.001286045    2.436    0.589
        82  -8.7969     56.3430    122.3243   1.0893481056e+02   4.4226667657e+01    0.2163107   0.09092125 -45.42 0.0008434656    2.651    0.623
        83  -9.4835      1.7535    119.7901   1.2375970202e+02   4.9725556619e+01    0.3886884    0.1101444 -75.22  0.001628804    2.742    0.635
        84  -7.9281    109.2779    119.7348   9.3402863843e+01   3.6599120353e+01    0.1991827    0.1763432 -14.20 0.0006949164    1.321    0.243
        85  -8.6416    150.9198    117.9704   8.2197218880e+01   2.8311961528e+01    0.2240121     0.220431 -37.06            0    1.014    0.013
        86  -9.5842    207.2769    114.7923   6.9337075694e+01   1.5998066372e+01    0.2676915    0.2554582  13.69 0.0002486806    1.071    0.067
        87 -10.5295     45.9737    114.7597   1.1060176026e+02   4.7242180569e+01    0.3148951    0.2977967 -86.47   0.00178492    1.131    0.116
        88  -7.5733    212.4129    110.7986   6.7396108650e+01   1.5558568003e+01    0.2034333    0.1397936 -23.84 0.0002620258    1.545    0.353
        89  -9.3891      2.7919    112.3248   1.2268222533e+02   5.1381181446e+01    0.2936252    0.1406177 -79.60  0.001571157    1.702    0.412
        90  -8.2351    113.7900    112.9523   9.0498637493e+01   3.7298682584e+01    0.2367519    0.2055766 -21.24 0.0007750775    1.298    0.230
        91  -8.3233     15.8457    105.4355   1.1805622843e+02   5.2139060135e+01    0.2369455    0.1032114  32.74  0.001192317    2.630    0.620
        92  -8.2704     95.9184     93.8223   9.0583250372e+01   4.5017294112e+01    0.2097533    0.1892858 -22.42 0.0002421454    1.150    0.130
        93  -7.4623    153.2330     91.6187   7.4427452429e+01   3.3240791107e+01    0.2051364    0.1478277  40.22 0.0001809997    1.451    0.311
        94  -7.1382      5.4852     83.5270   1.1800791058e+02   5.7824978100e+01    0.1221337    0.0909538 -60.77 8.958236e-05    1.054    0.051
        95  -7.7371    128.6951     78.5944   7.6652943634e+01   4.1542549800e+01    0.3368976    0.2144236  13.49 0.0009389669    2.714    0.632
        96 -10.2253    111.6256     73.1009   7.9642335969e+01   4.6344737571e+01    0.2592577    0.2489493  -1.15  0.000264126    1.026    0.026
        97  -7.0066    123.2661     71.2712   7.5775803407e+01   4.4180123328e+01    0.1464185    0.1175727   6.06            0    1.470    0.320
        98  -8.8487    207.7977     66.8435   5.6676475329e+01   2.4155129751e+01    0.3555849    0.2331147 -25.65  0.001274351    1.640    0.390
        99  -8.0380    182.1194     57.5114   5.8304878389e+01   3.2084404382e+01    0.2201059    0.1479938  63.65 0.0003984605    1.496    0.332
       100 -10.6570    180.1658     50.4341   5.6545544025e+01   3.3660692277e+01    0.5037777    0.4400003  53.07  0.001578074    1.151    0.131
       101 -10.6302    117.0560    245.6349   1.1192262887e+02   9.1111761256e+00    0.3209015    0.2271916  49.97 0.0005878627    1.107    0.097
       102  -8.9790     90.6212    245.9249   1.1673734021e+02   1.2972512005e+01    0.2190326    0.1404481  64.06  0.001240866    1.360    0.265
       103  -7.4465    136.9957     25.0471   5.6364363695e+01   4.8082631845e+01     0.164186    0.1569018  31.53 0.0003461517    1.041    0.039
       104  -9.1986    217.0510     22.6988   4.3760844542e+01   2.8009631389e+01    0.1907913     0.163393  84.56 0.0004225372    1.106    0.096
       105  -9.0172    217.2810     16.5299   4.2167430249e+01   2.8670380017e+01     0.297481       0.1234 -43.36   0.00127716    2.187    0.543
       106  -7.3447    175.2837     16.3465   4.7028448622e+01   3.9282506041e+01    0.1422465    0.1011412  34.15 0.0004516164    1.646    0.392
       107  -7.8883    167.2474     15.2650   4.7832516715e+01   4.1467670857e+01    0.2011081    0.1759133  49.09  0.001153583    1.147    0.128
       108  -8.2318    134.7487     12.9672   5.2462942963e+01   4.9950185511e+01    0.2180574     0.180968  63.81 0.0004391555    1.139    0.122
       109  -8.6085    161.3448    221.6782   1.0045090850e+02   5.8084620546e+00    0.3342619    0.1757271 -68.44  0.001256399    4.549    0.780
       110  -9.3964     70.3323    231.6547   1.1916795657e+02   1.8309445950e+01     0.418687    0.2092362  87.58  0.002172695    2.422    0.587
       111  -7.9913    155.3180    228.6671   1.0262643450e+02   5.7028259870e+00    0.1257294   0.09025994  65.94 0.0003638121    1.693    0.409
