#   1 NUMBER                 Running object number                                     
#   2 MAG_AUTO               Kron-like elliptical aperture magnitude                    [mag]
#   3 X_IMAGE                Object position along x                                    [pixel]
#   4 Y_IMAGE                Object position along y                                    [pixel]
#   5 X_WORLD                Barycenter position along world x axis                     [deg]
#   6 Y_WORLD                Barycenter position along world y axis                     [deg]
#   7 A_WORLD                Profile RMS along major axis (world units)                 [deg]
#   8 B_WORLD                Profile RMS along minor axis (world units)                 [deg]
#   9 THETA_WORLD            Position angle (CCW/world-x)                               [deg]
#  10 FWHM_WORLD             FWHM assuming a gaussian core                              [deg]
#  11 ELONGATION             A_IMAGE/B_IMAGE                                           
#  12 ELLIPTICITY            1 - B_IMAGE/A_IMAGE                                       
         1 -13.6108     67.8086    144.9867   1.2863253171e+02   3.7634370014e+01     3.106238     1.405506 -83.10  0.002468667    6.028    0.834
         2 -14.0592    191.4164     24.1289   6.7911150794e+01   3.4604417487e+01     1.747307     1.288518  -4.94  0.007068285    1.905    0.475
         3 -13.7722    197.9472     18.8332   6.5732399748e+01   3.3623659423e+01     1.503356    0.8906267 -44.06  0.005235914    1.713    0.416
         4 -13.9774    204.4517     11.3184   6.3144145882e+01   3.2886323141e+01     1.453465    0.8458638  51.90  0.001376028    1.815    0.449
         5 -11.9520      2.3014     25.4979   1.2166712459e+02   6.8552479253e+01    0.4601171    0.1448774 -48.47  0.002310449    2.360    0.576
         6 -13.5156      2.5620      8.8358   1.1531926544e+02   7.1033984758e+01     1.259059    0.6385606 -39.07  0.008515202    1.558    0.358
         7 -11.0012     12.6876     24.1126   1.1664968456e+02   6.8060052557e+01    0.1639136      0.13428   2.40 0.0006054947    1.314    0.239
         8 -11.2835    247.1858    249.5938   1.0880535185e+02  -1.3718484489e+01    0.4215138    0.1580818  35.42  0.002052301    2.320    0.569
         9 -12.0663    139.5336    248.4989   1.2841064251e+02   3.9599834589e+00    0.4709885    0.3157216 -70.57  0.002719936    1.886    0.470
        10 -11.5718    123.4592    249.5984   1.3153181661e+02   6.4505384341e+00    0.5025885    0.1569011  50.73  0.001978669    2.965    0.663
        11 -14.8760     87.4078    239.8448   1.3708232339e+02   1.3928702031e+01      4.32269     1.995137  38.97   0.02146192    2.195    0.544
        12 -12.6076     57.2016    225.8433   1.4124382146e+02   2.0969872336e+01    0.6667558    0.4002098 -47.10   0.00309859    2.629    0.620
        13 -14.8561      8.7109    151.4717   1.4375382932e+02   4.2378560434e+01     2.372891     1.066421 -81.15 0.0007748756    1.928    0.481
        14 -13.8056     46.3042    227.8406   1.4338225201e+02   2.1978067219e+01    0.7018998    0.3981723  89.40  0.002529732    1.589    0.371
        15 -15.5414     54.3268    213.0921   1.4057212941e+02   2.3967787636e+01     6.611083     3.235545  68.27   0.03281329    2.164    0.538
        16 -10.6196    193.1387    195.1772   1.0919569951e+02   3.6123496032e+00    0.6966642    0.3424386 -62.98  0.002018055    5.588    0.821
        17 -11.8463     69.7672    193.2121   1.3527155278e+02   2.6172444765e+01     0.388085    0.2560717 -45.79  0.001550274    1.981    0.495
        18 -11.8412     74.6471    186.1693   1.3331243722e+02   2.7053385537e+01    0.3013579    0.2339538 -54.18 0.0006901608    1.431    0.301
        19  -8.7353    181.5064    192.4733   1.1105907562e+02   6.3891808900e+00    0.1425871    0.1342154  36.20 1.797174e-05    1.010    0.010
        20 -11.2246     83.2179    174.4887   1.2971308808e+02   2.8449669111e+01    0.2439176    0.2192356 -72.53 0.0003766852    1.128    0.114
        21 -13.4316     70.8883    171.7031   1.3213031140e+02   3.0914356093e+01    0.5001578    0.2813741 -44.89  0.001560142    2.208    0.547
        22  -9.4946    125.3365    174.3172   1.1994592022e+02   2.1246630090e+01    0.1439388    0.1192892  -8.71 0.0007048456    1.699    0.412
        23 -10.8822    105.4595    173.1115   1.2433766238e+02   2.5128094775e+01    0.5173968    0.1838008  46.98  0.001849953    2.825    0.646
        24 -12.5417     88.8126    165.7868   1.2701074910e+02   2.9604061149e+01     1.155638    0.5935785  56.29  0.001610058    2.231    0.552
        25 -15.4189      3.6801    236.4039   1.5105621512e+02   2.5095151481e+01     9.868052          nan -69.55   0.02879601    8.883    0.887
        26  -9.4888    164.4791    157.5288   1.0757332667e+02   1.7029164752e+01     0.151729    0.1488736  71.65 0.0003632338    1.003    0.003
        27 -10.1005    101.8371    149.8274   1.2092155251e+02   3.1196971122e+01    0.3723059    0.2659761 -47.44 0.0007723832    1.420    0.296
        28  -9.4795    104.2978    146.0161   1.1953907068e+02   3.1663789509e+01    0.3715718    0.1793606 -38.69  0.001340772    2.800    0.643
        29 -12.2267     90.5502    149.0366   1.2360442797e+02   3.3278696843e+01    0.2860142     0.253697 -35.07 0.0005527851    1.308    0.235
        30 -11.7516     42.8803    148.6478   1.3542517134e+02   3.9833764277e+01    0.3654092    0.2051128  53.48  0.001889035    1.989    0.497
        31 -10.2353    173.3959    220.7868   1.1776989356e+02   2.7427560874e+00    0.1775602    0.1276356 -32.09 0.0006974157    1.657    0.396
        32  -9.7346    111.8837    135.7537   1.1541667486e+02   3.2690746034e+01    0.2926862    0.2198863 -17.77  0.001099319    1.877    0.467
        33 -10.6321     99.4375    132.6376   1.1797387108e+02   3.5661088159e+01     0.282374    0.2303362 -27.53 0.0007491569    1.451    0.311
        34 -12.2374     44.0500    128.4153   1.3197824121e+02   4.4427667721e+01    0.5154509    0.2691985 -80.15  0.002193778    2.305    0.566
        35 -14.2940     10.8230    206.6916   1.4804466251e+02   3.0244580825e+01     1.137867    0.8999471  76.58  0.004034252    1.164    0.141
        36  -9.4781    108.3447    122.9748   1.1340748683e+02   3.6304946425e+01    0.2018622    0.1761193 -51.28 0.0003438895    1.091    0.084
        37  -8.6309    117.3434    128.3368   1.1230927950e+02   3.3367793807e+01    0.1562067     0.121427 -11.66 0.0007049666    1.768    0.435
        38 -11.3350    168.1192    113.1278   9.6129262849e+01   2.5681221135e+01    0.3870038    0.3227094 -79.40 0.0007600804    1.377    0.274
        39  -9.7161    204.8644    110.8444   8.8016961872e+01   1.7495920788e+01    0.4020042    0.1848144  37.92  0.001351592    3.045    0.672
        40 -11.9870      1.8938     90.4132   1.3748023223e+02   5.6277510036e+01    0.6542503   0.09916656 -65.38  0.002218028    4.471    0.776
        41 -10.1482    128.5123     54.6796   8.8606001428e+01   4.5662088760e+01    0.3441468    0.2481126  78.09  0.001091456    1.914    0.478
        42 -11.1175    122.7613     51.1109   8.8880670039e+01   4.7472877934e+01    0.3825403    0.2795562  76.93  0.001158002    1.891    0.471
        43 -11.5132    125.6775    244.9480   1.3055904581e+02   6.8913868623e+00    0.2358382    0.1866236 -57.34  0.001506533    1.496    0.331
        44 -14.5666     35.1271    247.2896   1.4673727949e+02   1.9609418882e+01     6.212433     1.652843  33.68   0.01886253    8.881    0.887
        45 -13.6309     13.9692    239.8222   1.4964059228e+02   2.3395064197e+01     1.294595    0.7072507 -78.24  0.006783539    1.557    0.358
        46 -11.6888    142.8457    241.4377   1.2685781787e+02   4.5936910643e+00    0.4727657    0.1594576  45.40  0.001453678    2.483    0.597
        47 -10.1662    228.5074    205.4272   1.0429674372e+02  -4.6473873398e+00     0.257118    0.2209139 -54.02 0.0007515394    1.509    0.337
