#   1 NUMBER                 Running object number                                     
#   2 MAG_AUTO               Kron-like elliptical aperture magnitude                    [mag]
#   3 X_IMAGE                Object position along x                                    [pixel]
#   4 Y_IMAGE                Object position along y                                    [pixel]
#   5 X_WORLD                Barycenter position along world x axis                     [deg]
#   6 Y_WORLD                Barycenter position along world y axis                     [deg]
#   7 A_WORLD                Profile RMS along major axis (world units)                 [deg]
#   8 B_WORLD                Profile RMS along minor axis (world units)                 [deg]
#   9 THETA_WORLD            Position angle (CCW/world-x)                               [deg]
#  10 FWHM_WORLD             FWHM assuming a gaussian core                              [deg]
#  11 ELONGATION             A_IMAGE/B_IMAGE                                           
#  12 ELLIPTICITY            1 - B_IMAGE/A_IMAGE                                       
         1 -15.1933    192.9007     84.3492   5.8172640063e+01   2.5831588097e+01     10.82883     3.236017  45.80   0.03296458    3.876    0.742
         2 -12.9558    250.1063     34.2527   3.8375677574e+01   2.0575328594e+01     1.195298    0.4769718 -30.01 0.0006837802    2.462    0.594
         3 -14.9033    244.4064     54.8713   4.3533072811e+01   1.9045270096e+01     14.29435          nan  57.43   0.01690866    9.456    0.894
         4 -12.3334    247.5903     12.6673   3.3949772745e+01   2.3585866277e+01     1.305221    0.3895496 -41.79  0.005907782    2.539    0.606
         5 -14.5725    231.6933     39.2987   4.1258064245e+01   2.3786812906e+01     7.870147      3.09522 -29.35   0.03324303    2.554    0.608
         6 -11.8507    238.3258      3.6136   3.2677971618e+01   2.6433317355e+01    0.4385436     0.347716  12.74  0.001293021    1.908    0.476
         7  -8.7919    219.9140     12.0136   3.5967136006e+01   2.9522444763e+01    0.1746431    0.1567652 -72.67 0.0003301032    1.059    0.055
         8  -8.7015    157.0022      9.5593   4.2160717422e+01   4.4450702841e+01    0.2611288    0.1817352   9.58  0.001131836    1.792    0.442
         9  -8.0405    207.8720      8.8837   3.6279590421e+01   3.2533078004e+01    0.1656068     0.158066  45.17   0.00044256    1.247    0.198
        10  -9.4018    226.8185      7.9226   3.4463186882e+01   2.8435830120e+01    0.1795733     0.150631 -80.75 0.0003299403    1.067    0.062
        11 -10.7091     13.8759    166.7165   1.2090762822e+02   3.7529972647e+01    0.7604361    0.3154391 -64.14  0.003817652    1.967    0.492
        12 -10.9387      8.5894    164.8957   1.2194818991e+02   3.8369462418e+01    0.7714998    0.3414766 -70.41   0.00403955    1.773    0.436
        13  -9.0520    192.1771    153.6315   7.5777138388e+01   1.2987954842e+01    0.2157775    0.1910914  57.64  0.000594507    1.371    0.271
        14 -11.3118     56.1134    146.2004   1.0788907344e+02   3.8291561814e+01    0.7243296    0.5176234 -74.28  0.002142336    1.294    0.227
        15 -10.2126     41.0955    152.5482   1.1276036362e+02   3.8400928740e+01    0.3485162    0.3059981 -14.42 0.0009963857    1.469    0.319
        16 -11.6037     48.5749    148.7419   1.1028315741e+02   3.8530553121e+01    0.8136029    0.7026089 -88.17  0.003284408    1.089    0.081
        17  -9.2007    232.5037    151.1771   6.7585787494e+01   5.9002617069e+00    0.2384718    0.2104422   7.70 0.0004027366    1.145    0.127
        18 -10.1913    131.9302    141.2038   8.6692059062e+01   2.7517446468e+01     0.521672    0.3248413 -60.35  0.002170754    1.877    0.467
        19  -9.7894    133.2345    148.5900   8.8040148101e+01   2.5591239898e+01     0.494864    0.3263216 -54.95  0.001236435    1.569    0.363
        20 -11.0857     68.3804    143.7072   1.0414892425e+02   3.7369949230e+01    0.7535381    0.5462745 -67.77  0.003625265    1.275    0.216
        21  -9.4309    250.0174    144.3187   6.3170782910e+01   4.0053604670e+00    0.2557319    0.2286539  25.28 0.0008144082    1.278    0.218
        22  -7.8645    245.6292    140.2696   6.2975684921e+01   5.4200946743e+00    0.1271011    0.1051435 -65.04 0.0006995825    1.670    0.401
        23  -9.0809    186.9971    140.5000   7.3787905485e+01   1.6577557886e+01    0.2197838    0.1505398  43.31 0.0004767209    1.546    0.353
        24  -8.4966    236.8304    139.2873   6.4189081552e+01   7.1445788066e+00    0.2396634    0.1285817  54.55  0.001051406    2.510    0.602
        25  -9.0624    143.4839    137.9889   8.3058764079e+01   2.5975784203e+01     0.241878    0.1486775 -46.29 0.0007383597    1.575    0.365
        26  -8.7926    171.9792    137.0366   7.6177308084e+01   2.0357573797e+01    0.2431613    0.1972452 -83.73  0.001136437    1.739    0.425
        27  -9.4179    186.3855    135.6806   7.2754362142e+01   1.7652950820e+01    0.2318803    0.1871973 -72.90 0.0005829799    1.686    0.407
        28  -9.5261    242.8827    135.0466   6.2247403475e+01   6.7695678792e+00    0.2865892    0.1928522  37.68  0.001508882    1.689    0.408
        29  -8.9701    195.2627    135.4513   7.0886717507e+01   1.5876620391e+01    0.3415663     0.148698  55.28  0.001153125    3.263    0.694
        30  -8.3542    176.2971    134.3056   7.4563332421e+01   2.0019469376e+01    0.1555125    0.1180635  -2.62 0.0002867769    1.587    0.370
        31 -10.6337    160.2540    130.5948   7.7241764389e+01   2.4143096153e+01    0.4634269    0.3706118  54.75  0.002075588    1.411    0.291
        32 -11.5954    164.4038    125.8534   7.5091304349e+01   2.4262452296e+01    0.6895164    0.5543678  70.25  0.003275432    1.598    0.374
        33 -12.3187    170.2113    115.3311   7.1060919568e+01   2.5163035598e+01     1.240067    0.8314886  82.54  0.004645973    2.841    0.648
        34 -10.5625    163.5339    119.2620   7.3586709721e+01   2.5814695915e+01    0.5155697     0.349154  44.76  0.002312213    1.550    0.355
        35  -9.6388    222.8834    130.0108   6.4421766620e+01   1.1363513467e+01    0.4590432    0.3011896  77.83  0.001857371    3.107    0.678
        36 -10.1263    202.5058    129.4880   6.8021369851e+01   1.5528364009e+01    0.2667271    0.2370642 -50.38  0.001437972    1.215    0.177
        37 -10.7737    200.4949    126.1770   6.7597923941e+01   1.6564597966e+01    0.4592074    0.2872811  26.19  0.001396623    2.055    0.513
        38  -8.7962    248.7677    130.0396   6.0204064768e+01   6.5500215439e+00     0.262508    0.1955275  59.36  0.001241651    1.793    0.442
        39  -9.3717    213.1912    130.1950   6.6192384255e+01   1.3237995452e+01    0.2005811    0.1724861 -58.18 0.0007246633    1.356    0.263
        40  -9.5988    241.6619    126.9336   6.0602833034e+01   8.3439227786e+00     0.339684    0.2775205 -79.48  0.001755958    1.774    0.436
        41 -10.3224    137.0205    127.0951   8.1993410838e+01   2.9698531358e+01    0.4251671    0.2873701  44.34  0.001898379    1.557    0.358
        42 -10.0822    213.4449    123.4872   6.4531486599e+01   1.4403357767e+01    0.3303915    0.2540992  86.47  0.001188971    1.991    0.498
        43  -8.3291    242.8784    246.3182   8.4152368136e+01  -9.6412233487e+00    0.1644879     0.114316  14.92 0.0006732834    1.138    0.122
        44 -10.2322    226.5969    114.1370   6.0021160494e+01   1.3405283790e+01      0.39192    0.3135687 -38.40  0.002143647    1.121    0.108
        45  -8.4132     98.2257    243.1684   1.1083176902e+02   1.1543193922e+01    0.2054871    0.1166647  57.54 0.0005116196    1.773    0.436
        46 -12.7209    248.1636     59.4410   4.4170024108e+01   1.7647320653e+01     0.758137     0.381567 -36.86 0.0002796394    1.684    0.406
        47 -10.6536    156.8158    119.6090   7.5229180864e+01   2.7188831563e+01    0.7469386    0.3583317 -59.07  0.002211895    3.827    0.739
        48  -9.4425    203.6609    116.1829   6.4516848886e+01   1.7762691249e+01    0.1963028    0.1931373 -70.38   0.00110973    1.148    0.129
        49  -7.9362    213.3150    235.9483   8.7685669163e+01  -4.3341965750e+00    0.1613346    0.1318365  -4.61 0.0003791709    1.121    0.108
        50 -10.2113    241.1541    119.4445   5.8964328814e+01   9.6876922290e+00    0.4525753    0.2724497  40.86  0.002228553    1.934    0.483
        51  -9.2556    170.8842    123.0635   7.2925432190e+01   2.3452089354e+01    0.3142583    0.2293266 -77.85  0.001118463    2.160    0.537
        52  -9.3940    248.5487    117.3551   5.7376331605e+01   8.6630854189e+00    0.4144271    0.2097901 -50.83  0.001687815    2.304    0.566
        53 -10.3536    231.8778    211.8231   8.0072684558e+01  -3.6320266963e+00    0.2338165    0.1885431   1.37 0.0004336037    1.030    0.029
        54  -9.2387    173.1727    108.6908   6.8650903131e+01   2.5828821916e+01    0.2349506    0.2028694  72.16 0.0009779655    1.380    0.275
        55 -10.8760    242.7598    112.6788   5.7159791893e+01   1.0506403704e+01    0.6348026    0.3001857 -34.11  0.002525824    1.823    0.451
        56  -9.9565    141.4678    123.1292   7.9863939661e+01   2.9667692515e+01    0.2994963    0.2517781  82.47  0.001161054    1.533    0.348
        57 -13.9358    224.4062     71.0731   4.9810419248e+01   2.0920807749e+01     3.374392     1.395789  62.33   0.01357443    2.760    0.638
        58  -8.6900    201.3733    208.2182   8.5117004149e+01   1.6029432314e+00     0.217209    0.1855817  30.20  0.000240131    1.228    0.186
        59  -9.3700     85.5296    102.7745   9.0101627135e+01   4.4793739632e+01    0.2770856    0.2173123 -13.39 0.0006247855    1.459    0.315
        60 -10.8707    195.6994    122.0469   6.7503703163e+01   1.8348978353e+01    0.4778053    0.3605632  76.68  0.002211769    1.921    0.479
        61  -9.6137    201.9004    121.3219   6.6129004729e+01   1.7181059079e+01    0.2265439    0.1976563  76.34  0.001035316    1.439    0.305
        62 -10.1041    158.2043    114.5344   7.3561449982e+01   2.7946881223e+01    0.3316226    0.2768247  55.88   0.00162885    1.333    0.250
        63  -8.0972    121.5273    196.8472   9.9961074637e+01   1.7023926038e+01    0.1843556    0.1335383 -53.86 0.0005707096    1.435    0.303
        64 -10.1072    101.8779     83.5411   7.9476090347e+01   4.6155810019e+01    0.3124135    0.2143711 -43.27  0.000671627    1.386    0.278
        65  -9.5692    231.9954    116.8777   5.9801177288e+01   1.1870534787e+01    0.3147266    0.2748367 -54.75 0.0009818778    1.256    0.204
        66  -9.4446    226.9691    123.9659   6.2298459244e+01   1.1628973097e+01    0.3658038     0.267897 -80.13  0.001707227    2.277    0.561
        67  -8.3584    112.5790     66.7582   7.0849947007e+01   4.7263059045e+01    0.2074976    0.1360002 -44.48 0.0008167091    1.585    0.369
        68  -8.2161    102.2928     63.3200   7.2648466759e+01   4.9981404710e+01    0.1501034    0.1092143   0.82 0.0003418516    1.607    0.378
        69 -10.2730    122.9572     58.6795   6.5290237691e+01   4.6407589096e+01    0.3122599    0.2411947  -1.99  0.001231464    1.434    0.302
        70  -9.5691    246.8427    122.2642   5.8743917382e+01   8.1709595385e+00    0.3953901    0.2930333 -74.93  0.002010408    2.112    0.526
        71 -10.2352    122.2714     47.2654   6.1484565184e+01   4.8326056004e+01    0.4492825    0.1674324 -46.62  0.001424439    3.857    0.741
        72  -9.4475    205.2048     37.5012   4.3780664018e+01   2.9939113035e+01    0.2843738    0.1752773 -30.58  0.001040367    1.615    0.381
        73 -11.2317    203.1360     42.9115   4.5452703215e+01   2.9724721340e+01    0.6179797    0.3226383  54.96  0.002867134    1.955    0.489
        74  -9.8841    137.3008     46.4714   5.7704292380e+01   4.4978805167e+01    0.3150081    0.2311617 -73.88  0.001488549    1.925    0.481
        75 -11.5602    132.2568     39.5282   5.6437527375e+01   4.7104755958e+01    0.7643446    0.3057472 -32.35  0.002985454    2.470    0.595
        76  -9.8464    191.9096     41.6699   4.6625878333e+01   3.2522236699e+01    0.2496176    0.2284195  -1.13 0.0007483264    1.240    0.193
        77 -10.3778    137.7080     39.8855   5.5388135670e+01   4.5777610933e+01    0.3615811    0.2385042 -10.52  0.001712494    1.778    0.438
        78  -9.4076    209.4079     38.9892   4.3655349528e+01   2.8783580156e+01    0.2480259    0.1858757  57.94  0.000730828    1.395    0.283
        79  -9.3111    153.1629     42.6162   5.3204585022e+01   4.1727120064e+01    0.2172902    0.1184283  48.02  0.000950244    1.791    0.442
        80  -8.5208    165.8194     34.5877   4.8490710871e+01   3.9685598020e+01    0.1933238    0.1306797  79.17 0.0006601301    1.642    0.391
        81 -10.6533    133.3202     30.6793   5.3139154980e+01   4.7955811139e+01    0.4756565    0.2648148  30.75  0.001765742    2.157    0.536
        82  -9.4760    160.6857     29.5783   4.7785530587e+01   4.1521794418e+01    0.3785331    0.2133319  49.06  0.001255457    1.725    0.420
        83  -7.8818    169.4369     30.5103   4.6699528549e+01   3.9294697625e+01    0.1335581    0.1289598  74.07  4.65636e-05    1.014    0.014
        84  -9.2240    219.0782     26.5048   3.9491056810e+01   2.8114105813e+01    0.2639912    0.1749956 -29.58 0.0005925075    1.539    0.350
        85  -9.7450    129.2825     24.9067   5.1940549852e+01   4.9557140409e+01    0.2378031    0.1882628 -83.56 0.0007004251    1.601    0.375
        86  -8.4946     54.0151    189.0405   1.1410102835e+02   2.8363478383e+01    0.1820829    0.1591606 -89.06  0.001186133    1.049    0.047
        87  -8.5410     55.2490    173.2029   1.1194134089e+02   3.1873772751e+01    0.1806596     0.177537  -0.60  0.000350501    1.264    0.209
        88  -7.6910    122.2658     10.3271   4.8086293935e+01   5.2618186431e+01    0.1352412    0.0881751  29.88 0.0002589319    1.570    0.363
        89  -7.9548    177.0000    171.0552   8.2797808186e+01   1.2490929901e+01    0.2352382   0.08061905 -43.02 0.0007883768    2.872    0.652
