#   1 NUMBER                 Running object number                                     
#   2 MAG_AUTO               Kron-like elliptical aperture magnitude                    [mag]
#   3 X_IMAGE                Object position along x                                    [pixel]
#   4 Y_IMAGE                Object position along y                                    [pixel]
#   5 X_WORLD                Barycenter position along world x axis                     [deg]
#   6 Y_WORLD                Barycenter position along world y axis                     [deg]
#   7 A_WORLD                Profile RMS along major axis (world units)                 [deg]
#   8 B_WORLD                Profile RMS along minor axis (world units)                 [deg]
#   9 THETA_WORLD            Position angle (CCW/world-x)                               [deg]
#  10 FWHM_WORLD             FWHM assuming a gaussian core                              [deg]
#  11 ELONGATION             A_IMAGE/B_IMAGE                                           
#  12 ELLIPTICITY            1 - B_IMAGE/A_IMAGE                                       
         1 -13.9786    192.9415     71.0157   7.3853652447e+01   2.7269288754e+01     2.880622     1.762404 -16.31   0.01167247    2.222    0.550
         2 -14.4446    172.1149     67.4790   7.6924708467e+01   3.3071296611e+01     5.005207     2.618172 -53.56  0.007725378    2.512    0.602
         3 -16.0991    210.7821     64.6831   6.9030348258e+01   2.3782567116e+01     11.29445     5.496406 -49.42   0.04256293    2.301    0.565
         4 -13.8225    215.9798      6.3057   5.3207137034e+01   3.0052351513e+01     1.087252    0.5999701 -63.24  0.005106583    2.041    0.510
         5 -14.6899    225.7657     46.5464   6.2088065563e+01   2.2707529365e+01     1.974812     1.725919  30.61   0.01109843    1.345    0.257
         6 -13.8512    220.8303     36.1809   6.0128930945e+01   2.5332231199e+01     1.531102    0.6586326 -46.09  0.006146357    2.377    0.579
         7 -13.9504    248.3690     45.5341   5.8959476624e+01   1.7409427045e+01      1.56504    0.9210221 -27.29 0.0006213844    1.859    0.462
         8 -11.8478      9.0511     79.4946   1.2531955473e+02   5.7031087247e+01    0.5091882    0.1808681 -72.50  0.002250893    3.112    0.679
         9 -13.7315    248.5815      2.7415   4.9232817948e+01   2.2606209896e+01    0.7483997    0.6026823  63.45  0.003020956    1.317    0.241
        10 -16.0090    243.2422     20.5250   5.3715678946e+01   2.1833540672e+01     9.415417    0.4220836  61.95   0.02434299    6.431    0.844
        11 -14.5759    233.4256      5.6053   5.1250989613e+01   2.5868010333e+01     1.038469    0.9130218  89.49  0.006665056    1.053    0.050
        12 -13.0249    228.4725     17.5527   5.4585787039e+01   2.5738178616e+01     0.392351    0.2897364 -66.16 0.0005857321    1.322    0.243
        13  -9.2928    115.7793     12.4326   7.1508358254e+01   5.3767412745e+01    0.2707867    0.2054655  43.70 0.0009295809    1.175    0.149
        14 -11.1022    120.2191      8.9322   6.9207772785e+01   5.3157713700e+01    0.4320865    0.3974945  16.86  0.001942982    1.096    0.087
        15  -9.0144    188.7180      1.3335   5.5111471664e+01   3.7366107781e+01    0.1403431    0.1203915  62.47 0.0004585566    1.077    0.072
        16  -8.2344    174.6774      7.3344   5.8719129714e+01   4.0329356456e+01    0.2072474    0.1592465  67.84 0.0009648555    1.160    0.138
        17 -10.0977    171.6672      2.5742   5.7766838812e+01   4.1529260978e+01    0.3528047    0.2714353 -58.02  0.001853781    1.467    0.318
        18  -9.1296    138.9556      2.3153   6.3055921116e+01   4.9509333712e+01    0.2599081     0.174444 -19.54  0.001118849    1.649    0.394
        19  -8.7017    195.5880      2.8685   5.4673438190e+01   3.5493690235e+01    0.1710423    0.1066677  23.42  0.000578802    2.286    0.562
        20 -10.7729    183.6214      3.2458   5.6300065148e+01   3.8469342920e+01    0.5945435    0.3599249  75.58  0.002888074    1.552    0.356
        21  -8.6448    159.6783    159.2903   1.0262815021e+02   1.8324515299e+01    0.1469342    0.1128455  79.90 0.0003051316    1.606    0.377
        22  -8.2698    170.3782    155.8759   9.9633290943e+01   1.6739745026e+01    0.1869179     0.140527 -30.40 0.0003424147    1.530    0.346
        23  -9.7820    195.0505    198.7455   1.0294774584e+02   4.0756417884e+00    0.3780729    0.2399992 -66.93  0.001684815    2.825    0.646
        24  -9.2293    203.8596    152.5430   9.2034571596e+01   1.0116497244e+01    0.2240907    0.2078427 -78.10  0.000592858    1.256    0.204
        25 -10.3957    191.9207    151.8746   9.4283354957e+01   1.2836861329e+01    0.4889911    0.2905852 -63.22  0.001888939    2.710    0.631
        26 -10.3522    133.6770    145.8599   1.0567451797e+02   2.6359263736e+01     1.177983    0.2538413 -53.92  0.002683055    6.940    0.856
        27 -10.2639    217.3863    150.7656   8.9024308140e+01   7.5107256253e+00    0.3508301    0.2259004  29.57 0.0007785442    1.729    0.421
        28 -10.3296    174.0927    143.1309   9.6078571874e+01   1.8418330552e+01     0.290228    0.2359677  30.12  0.001457437    1.307    0.235
        29 -10.8804    179.3604    145.8316   9.5558863528e+01   1.6733495576e+01    0.3866052    0.3405661 -24.34  0.001149224    1.229    0.186
        30  -9.1346    222.8199    145.2399   8.6774021794e+01   7.2881146076e+00    0.2093214    0.1947995  76.02 0.0006426222    1.252    0.201
        31  -9.9687    198.7710    144.4422   9.1247772110e+01   1.2693795917e+01    0.2973478    0.2171496  73.59  0.001356004    1.833    0.454
        32  -8.0783    103.2001    145.2790   1.1264824465e+02   3.2060398085e+01     0.122413    0.1002224 -39.68 0.0006606757    1.408    0.290
        33  -9.8160    191.8033    143.9828   9.2556638743e+01   1.4326708694e+01    0.2788738    0.2144313  59.77 0.0007758069    1.385    0.278
        34 -11.0989    157.2096    140.4024   9.9167904502e+01   2.2642171219e+01    0.8121344    0.4942715  88.33  0.002589012    4.059    0.754
        35 -10.5456    147.0187    137.7673   1.0088893186e+02   2.5346205648e+01    0.5346212     0.334682 -82.29  0.001751556    3.032    0.670
        36 -11.0686    188.4646    138.3254   9.1956092034e+01   1.6136618180e+01    0.3674179    0.3171844  60.69  0.001565871    1.200    0.166
        37 -10.7151    174.1714    137.7083   9.4835015635e+01   1.9462744444e+01    0.3603359    0.2737071 -84.66  0.001264417    1.802    0.445
        38 -10.3175    167.7251    138.5556   9.6427892518e+01   2.0724886730e+01    0.3804665    0.2693395 -74.81  0.001054837    1.995    0.499
        39 -10.2223    165.7608    134.0171   9.5820780586e+01   2.2065084119e+01      0.41779    0.1992312  59.33  0.001441898    2.762    0.638
        40 -11.5236    211.5352    136.6744   8.6962296440e+01   1.1249950963e+01    0.5609577    0.3522147  30.34  0.002434948    1.868    0.465
        41 -11.4620    180.4098    136.2137   9.3157247128e+01   1.8355296719e+01    0.4173911    0.3108178  55.20  0.002001741    1.354    0.262
        42 -10.8079    220.9937    131.4885   8.3970945098e+01   1.0049754476e+01    0.4508479    0.2946333 -62.60  0.001910472    2.235    0.553
        43  -9.3789    191.3748    191.8722   1.0241387669e+02   5.9099903572e+00    0.4749005    0.2694334 -68.08  0.001667059    4.370    0.771
        44 -11.1401    189.7617    130.9104   8.9957494078e+01   1.7244277858e+01    0.4490167    0.3461719 -73.34  0.002093966    1.696    0.411
        45  -9.4335    131.0304    119.0329   1.0037386864e+02   3.2579561256e+01    0.3877516    0.1959233 -61.65  0.001385108    2.808    0.644
        46  -9.8414    136.1734    128.7002   1.0138368289e+02   2.9490998283e+01    0.3611557    0.2613168 -28.41  0.001260057    1.701    0.412
        47 -10.7731    134.8860    122.6667   1.0029758729e+02   3.1027992430e+01      0.64748    0.2454753 -49.78   0.00224708    2.722    0.633
        48 -13.4404     11.5252    191.0008   1.3714413763e+02   3.4024860079e+01     0.777658    0.5595378  79.82  0.003893996    1.058    0.055
        49 -10.6445    151.8968    124.6292   9.6749369596e+01   2.7020468464e+01    0.5077672    0.3234374 -63.01  0.002130334    1.995    0.499
        50 -11.6865    159.5149    128.8990   9.6021431320e+01   2.4478340692e+01    0.5794651    0.4420337  21.35  0.002716686    1.627    0.385
        51 -11.0067    141.1185    121.6434   9.8564200412e+01   2.9948310815e+01    0.6433026    0.3888903 -81.06   0.00211162    3.745    0.733
        52  -9.3577    210.8620    123.4380   8.3973966135e+01   1.3762196267e+01    0.3070379    0.1997271 -16.91  0.001296936    1.993    0.498
        53 -10.0364    225.5329    122.2804   8.0976293515e+01   1.0622078965e+01    0.3787616    0.2657581  88.91  0.001619244    2.307    0.567
        54 -11.3966    167.4187    114.1612   9.0655505159e+01   2.5641992353e+01    0.4993047    0.4705834   2.24   0.00094031    1.132    0.116
        55  -9.9239      7.5939    115.7205   1.3100176115e+02   4.9652783969e+01    0.1760527    0.1148135  62.12 0.0006833933    1.748    0.428
        56 -10.3459    157.0114    112.9997   9.2715827710e+01   2.8249219861e+01    0.5554184    0.3486191 -68.60  0.002134229    2.469    0.595
        57 -10.5085    135.0000    108.5665   9.6831006693e+01   3.3950308198e+01    0.9652838     0.189205 -46.68  0.002375778    5.280    0.811
        58  -9.1391    120.2058    111.2305   1.0118837581e+02   3.6370552656e+01    0.3103077    0.2097384  87.15  0.001188747    2.463    0.594
        59  -9.8163    126.1347    110.1394   9.9426479733e+01   3.5436115955e+01    0.2188042    0.2012891 -13.31 0.0003729881    1.193    0.162
        60 -13.2765     42.6810    170.4851   1.2958805958e+02   3.4992906364e+01     1.164359    0.6194716  35.10   0.00152289    2.217    0.549
        61  -9.9435    175.1537    115.3336   8.9253008392e+01   2.3616785852e+01    0.3536931     0.245262  66.19  0.001547899    1.698    0.411
        62  -8.9337    141.7747    104.2352   9.4064187226e+01   3.3391884948e+01    0.2093551     0.180061   8.20 0.0008375092    1.356    0.263
        63 -10.3839    124.6146    102.5960   9.7903688354e+01   3.7309919444e+01    0.5142104     0.319106  54.19  0.002286264    1.777    0.437
        64 -13.5277    246.4899     35.9331   5.6934092133e+01   1.9135438266e+01    0.7184569    0.5974894 -79.33  0.001380808    1.125    0.111
        65  -9.5348    134.0305     96.4803   9.3915750445e+01   3.6613283824e+01    0.3102965    0.2144919 -43.43 -0.0001517897    1.435    0.303
        66 -10.8879      4.5583     95.2857   1.2906738308e+02   5.4078240606e+01    0.3747381    0.1693847 -84.87  0.001869609    2.696    0.629
        67 -11.3553      4.4389     89.8483   1.2830144847e+02   5.5198507329e+01    0.4536576    0.2549905  -4.00  0.002759319    2.752    0.637
        68 -10.6029    157.7907     92.9609   8.7260911635e+01   3.1995950533e+01    0.5395333    0.4414377  14.88  0.002626109    1.445    0.308
        69  -9.3940    168.5431     92.1625   8.4631788793e+01   2.9601941766e+01    0.3241697    0.1959451  36.18  0.001319797    1.886    0.470
        70 -10.5735    140.9483     89.2183   9.0214890897e+01   3.6543060482e+01    0.4206413    0.3366455 -85.72  0.001072493    1.633    0.388
        71 -10.0501    147.7578     99.8647   9.1474478743e+01   3.2948709915e+01    0.3325097    0.3299738  75.48 0.0008587994    1.016    0.016
        72 -11.9382    155.7193     83.1356   8.4997014393e+01   3.4316531218e+01     0.527194    0.4038268  53.55  0.000610152    1.303    0.233
        73 -11.3183    226.5582    173.0395   9.2042199607e+01   1.9548057076e+00    0.5680658    0.3089345  30.43  0.002505257    2.046    0.511
        74 -13.5905     51.8884    163.8998   1.2696026140e+02   3.5322039372e+01     1.608311    0.9945087 -39.03  0.005068009    2.551    0.608
        75  -8.5121    100.9857    175.9821   1.1824719769e+02   2.5868515810e+01    0.1738109    0.1543759  79.16  0.001087583    1.036    0.035
        76  -8.5015    118.9899     70.0392   9.0235007290e+01   4.4798140478e+01    0.1695151    0.1578263 -20.91 0.0003608481    1.039    0.037
        77  -9.1420     19.5002     84.4855   1.2317783898e+02   5.5332211644e+01    0.1155616    0.0889842 -56.89 7.653611e-05    1.020    0.020
        78  -8.5291    104.4410    160.3632   1.1502531600e+02   2.8591890791e+01    0.1325898    0.1197848  75.65 0.0001516983    1.036    0.035
        79 -11.7474    106.1330     59.3856   9.0433065774e+01   4.9201139364e+01    0.7277015    0.4677199   6.39  0.003187902    2.328    0.570
        80  -9.3202    135.3298     59.3119   8.2722967052e+01   4.3164035972e+01    0.1526415    0.1107178  16.43 0.0002971569    1.671    0.401
        81  -9.8341    139.1824     62.2789   8.2710663994e+01   4.1805151976e+01    0.2959583    0.1796563 -18.10  0.001232964    2.120    0.528
        82  -8.8653     72.4898     58.2712   1.0017421179e+02   5.4980587647e+01    0.1678791    0.1158633 -51.45 0.0009230821    1.527    0.345
        83 -10.3657    234.7649    173.9666   9.0733002396e+01   2.0138512016e-01    0.3915934    0.2285176  47.57  0.001266021    1.705    0.414
        84  -9.2874     82.9832     51.9267   9.4850210965e+01   5.4516474137e+01    0.2910454    0.1707884 -45.44 0.0008461419    1.725    0.420
        85 -10.9372     69.8220    158.3068   1.2238435963e+02   3.4261255257e+01    0.4792126    0.3177767 -82.44  0.002715944    1.469    0.319
        86  -9.5125    173.8329     47.4504   7.0722382692e+01   3.5728941770e+01    0.2427429    0.1906878 -42.79  0.000559651    1.341    0.254
        87  -8.9702    103.3466     47.0300   8.7146981157e+01   5.1767420970e+01     0.195239    0.1616963 -25.09 0.0004781727    1.159    0.137
        88 -11.1817    122.8862     37.8031   7.8761205361e+01   4.9167681151e+01     0.342275    0.2765331 -69.28   0.00182007    1.724    0.420
        89 -11.3131    107.9300     37.4449   8.2553387600e+01   5.2316542494e+01    0.3602336     0.305454 -44.52  0.001114032    1.373    0.272
        90  -8.8916    160.3649     29.7630   6.7908004389e+01   4.1456826106e+01    0.1903651    0.1365427  -9.11 0.0005225107    1.645    0.392
        91  -9.4277    200.6125    173.6443   9.7107506922e+01   7.1163999889e+00    0.2231073    0.1665841  11.08  0.001114375    1.628    0.386
        92  -9.0038    135.3169     14.8715   6.8026338354e+01   4.9160737660e+01    0.2119506    0.1701004 -44.65  0.001202956    1.464    0.317
        93 -10.2394    244.3283    172.4874   8.8724604699e+01  -1.4096385628e+00    0.3085454    0.1932257  16.05  0.001472992    1.954    0.488
        94 -10.5194    230.8465    167.7720   9.0165473149e+01   1.9312304302e+00    0.3502247    0.2196082 -47.41  0.001683135    1.905    0.475
        95 -10.7800    213.5064    167.2894   9.3307933070e+01   5.5296195047e+00    0.6430114    0.3499165  66.08  0.002271955    3.558    0.719
        96 -11.9655    243.1331    240.4511   1.0140256595e+02  -1.0020355311e+01    0.2148312    0.1818455  22.62 0.0002571431    1.164    0.141
        97  -8.7190     71.3285    239.6916   1.3093098493e+02   1.8173130094e+01    0.1177135   0.06319206  68.72 0.0002474597    1.660    0.397
        98 -10.0735    155.6468    218.2152   1.1360499383e+02   8.3284224225e+00    0.2265179    0.1823647  50.02 0.0002760634    1.038    0.037
        99 -11.6835     68.3449    145.0851   1.2076066400e+02   3.7332142921e+01    0.7455918    0.4724371  89.57  0.002646269    1.807    0.447
