#   1 NUMBER                 Running object number                                     
#   2 MAG_AUTO               Kron-like elliptical aperture magnitude                    [mag]
#   3 X_IMAGE                Object position along x                                    [pixel]
#   4 Y_IMAGE                Object position along y                                    [pixel]
#   5 X_WORLD                Barycenter position along world x axis                     [deg]
#   6 Y_WORLD                Barycenter position along world y axis                     [deg]
#   7 A_WORLD                Profile RMS along major axis (world units)                 [deg]
#   8 B_WORLD                Profile RMS along minor axis (world units)                 [deg]
#   9 THETA_WORLD            Position angle (CCW/world-x)                               [deg]
#  10 FWHM_WORLD             FWHM assuming a gaussian core                              [deg]
#  11 ELONGATION             A_IMAGE/B_IMAGE                                           
#  12 ELLIPTICITY            1 - B_IMAGE/A_IMAGE                                       
         1 -12.1335     14.8983     60.9540   1.0963078743e+02   6.2228806516e+01     1.464853     1.099103  31.83   0.00736978    1.682    0.405
         2 -12.5856     19.9834     81.5120   1.1220895963e+02   5.7313274255e+01     1.429406    0.7691646 -59.68  0.006566574    1.431    0.301
         3 -12.5248     43.6216     15.2615   8.0461240445e+01   6.7932400111e+01     1.265743     1.167543 -61.16  0.008642931    1.794    0.443
         4 -11.9519     56.8419      6.0985   7.0311608241e+01   6.7114921064e+01    0.9929559    0.5278365  17.82  0.003060241    2.181    0.541
         5 -12.1289     68.4078     72.4582   9.2685149338e+01   5.4164220638e+01     2.771042     1.237323 -35.57   0.01077377    2.550    0.608
         6 -12.4390     56.0954     66.5325   9.5293025886e+01   5.7109219671e+01     1.324268    0.7602467 -47.90   0.00519938    1.507    0.336
         7 -12.5886     87.8446     56.2577   8.0597680673e+01   5.4213229764e+01     1.293119    0.8230696 -45.98  0.006232977    1.606    0.377
         8 -12.6681     13.0862     28.5825   1.0084129841e+02   6.8868786251e+01     1.468097    0.5873117 -56.27  0.006115629    2.347    0.574
         9 -12.1964     24.9934      6.4306   8.4967948620e+01   7.1451995674e+01    0.6099283    0.3007394 -37.02  0.003499354    1.772    0.436
        10 -12.0455     32.0516     41.8402   9.6822805893e+01   6.4790135446e+01    0.8793892    0.6163372 -20.53  0.003232728    1.349    0.259
        11 -12.4585     79.3304     34.8080   7.5205541741e+01   5.9404020825e+01      1.11815    0.7455991  67.77  0.004979099    2.778    0.640
        12 -13.1866     67.7842     30.5009   7.7548625902e+01   6.2064265708e+01     2.564632    0.7123505  38.46  0.008968337    3.832    0.739
        13 -12.6151     34.1497     69.9195   1.0445040644e+02   5.8776317774e+01     1.637476    0.7436047 -25.90  0.006418821    3.544    0.718
        14 -11.7739     20.8277     13.7977   9.0771063627e+01   7.0773944123e+01    0.6180698    0.3144173  23.09  0.003592501    2.094    0.523
        15 -12.7866     28.7116     23.4478   9.1179063142e+01   6.8431527518e+01       1.1598    0.9001244 -19.49  0.006791661    1.032    0.031
        16 -12.8179     14.1892    104.4589   1.1793667964e+02   5.2382434619e+01     2.299171    0.6036714 -45.71  0.008219759    4.222    0.763
        17  -9.6603    100.3881     41.6926   7.1163162253e+01   5.4240092585e+01     1.035892    0.9017897  23.42  0.005911381    1.093    0.085
        18 -10.2949     86.2549      7.6958   6.1093806709e+01   6.1499626752e+01    0.4988406    0.3021325  28.50  0.002628828    1.592    0.372
        19 -12.2102    117.3411     14.2510   5.5871586888e+01   5.3995215015e+01     1.012461    0.5645661  33.13  0.004683873    1.901    0.474
        20 -11.2463     91.6200     10.6469   6.0872459121e+01   6.0091493741e+01    0.9286374    0.5136958   5.42   0.00424918    2.309    0.567
        21 -10.7774    110.6912      7.8037   5.4814144718e+01   5.6167177073e+01    0.7728544    0.3550406  72.01  0.003023935    2.983    0.665
        22 -10.3052    102.6505     11.0469   5.8089242770e+01   5.7671716472e+01    0.9641538     0.444756  18.38  0.003426582    3.735    0.732
        23 -11.6464     99.7081      6.3810   5.6856796979e+01   5.8768831678e+01    0.6583927    0.3296461  33.63 0.0006375362    2.024    0.506
        24 -11.3896    113.8672     23.8499   6.0459929350e+01   5.3736705470e+01      0.48555    0.4523471 -20.44  0.002129914    1.147    0.128
        25 -11.9393    111.4669     31.6685   6.4131460636e+01   5.3290887743e+01     0.643171    0.5774735 -68.32  0.002529229    1.386    0.279
        26 -11.5498      4.8089     26.0896   1.0406408996e+02   6.9859419845e+01    0.4241602    0.2358985 -27.94  0.002617243    1.581    0.368
        27 -11.5472    193.1893     32.3248   4.8569283581e+01   3.2850202213e+01    0.5743227    0.4327698   9.05   0.00287714    1.792    0.442
        28 -10.8024    226.0365     28.9054   4.3718697719e+01   2.5182979883e+01    0.8001717    0.3509068 -42.56  0.003526425    2.024    0.506
        29  -9.8694    211.6998     17.2159   4.2255770393e+01   3.0038366982e+01    0.3927785    0.2309994  63.48   0.00197229    1.637    0.389
        30 -10.8351    211.3824     12.8591   4.1167281812e+01   3.0601097388e+01     1.063802    0.3323957  60.22  0.004088434    2.873    0.652
        31 -10.5581    221.5690     11.9876   3.9976176817e+01   2.8238648509e+01    0.3696551    0.2508931 -48.79  0.001011024    1.351    0.260
        32  -9.9324    226.3772      8.1801   3.8629783162e+01   2.7516257928e+01    0.3076434    0.2302296  24.92  0.001393407    1.964    0.491
        33 -11.1148    215.6623     23.9188   4.3561650656e+01   2.8288096332e+01    0.7704135    0.4473804 -25.18  0.002029784    1.900    0.474
        34 -13.8168      7.3851      9.3435   9.5951993870e+01   7.2610788360e+01     1.363169    0.7342905 -28.81  0.005572052    1.487    0.327
        35  -9.5718    184.4519     14.4773   4.4612457020e+01   3.7162213911e+01    0.5142654    0.2719711  40.29  0.001844337    2.353    0.575
        36 -10.5826    158.0433      5.1837   4.5300641772e+01   4.4810333813e+01    0.5162784    0.4587916 -14.66  0.003129536    1.267    0.211
        37 -11.1324    164.5397      5.1300   4.4388740505e+01   4.3163846005e+01    0.9898248    0.7205273  75.09  0.005433828    1.260    0.206
        38 -10.2867    176.8902     15.1007   4.5772060180e+01   3.9026930314e+01     0.506219     0.273636 -54.43  0.002045067    2.086    0.521
        39 -10.5294    176.8156     19.4438   4.7080617569e+01   3.8575349326e+01    0.4540667    0.3305596  79.48  0.001111495    1.332    0.250
        40 -11.1613    163.5260     15.9570   4.7932595102e+01   4.2361211746e+01     1.093784    0.6160055  18.59  0.004454358    2.804    0.643
        41 -11.2221    169.3259     13.5863   4.6348889722e+01   4.1121799646e+01    0.6971901    0.3836724  86.21   0.00192124    2.106    0.525
        42 -11.1211    154.2459     16.8526   4.9684748963e+01   4.4637645775e+01    0.6642444     0.472545  15.07  0.001849593    1.735    0.424
        43 -10.8633    149.0440     14.0798   4.9623682477e+01   4.6243864924e+01    0.7590355    0.4738215 -21.58  0.003743315    1.762    0.432
        44 -10.5041     51.2671     25.5896   8.1955302414e+01   6.5348181324e+01    0.4328027    0.3027709 -34.56  0.001999701    1.340    0.254
        45  -9.5630    126.0901     15.2644   5.4358136126e+01   5.1809784151e+01    0.4828012    0.1948389  38.28  0.001790441    2.843    0.648
        46  -9.8840    131.7531     13.7702   5.2655829204e+01   5.0585195672e+01    0.5556415    0.4348458 -58.71  0.002754238    1.527    0.345
        47 -10.3049    124.3597     21.8803   5.7223147442e+01   5.1507205989e+01    0.7684346    0.3725976  32.04  0.003009632    2.606    0.616
        48 -10.1662     71.7365     17.6031   7.0349022497e+01   6.3181398596e+01    0.4563788    0.2948819  15.85  0.002454162    1.613    0.380
        49 -10.5062     64.5989     19.2021   7.3702603614e+01   6.4212668288e+01    0.3986997    0.2973481 -34.19  0.001935282    1.431    0.301
        50  -9.1901     81.6505     19.7338   6.7943869377e+01   6.1069342928e+01    0.4250281    0.3269164  63.07   0.00239502    1.724    0.420
        51 -10.3938    232.7389     10.9552   3.8751751393e+01   2.5731876850e+01    0.3630105    0.2678621  84.64 0.0008243683    1.266    0.210
        52  -9.4642    233.5025      7.4612   3.7874004512e+01   2.5938971049e+01    0.2196261    0.1834664 -69.99 0.0006975173    1.004    0.004
        53  -9.6143    232.5200     17.4706   4.0309517963e+01   2.5042388508e+01    0.3832859    0.2214477 -63.09  0.001033962    1.689    0.408
        54  -9.4749    239.7567     18.1330   3.9830383649e+01   2.3305710292e+01    0.3988879    0.1563232 -34.32  0.001766319    2.277    0.561
        55  -9.6828    243.1785     12.9852   3.8369269816e+01   2.3130302446e+01    0.3076552    0.2354276  54.99  0.001757233    1.554    0.357
        56  -9.6449    249.7529      6.7841   3.6498313018e+01   2.2372221947e+01    0.4059102    0.1556284 -49.21  0.001880206    2.191    0.544
        57 -10.7928    244.1115      4.8325   3.6472650619e+01   2.3826196232e+01     0.489166    0.2892807 -28.28   0.00195003    1.805    0.446
        58  -9.5558    248.5147      1.9533   3.5534764205e+01   2.3165446434e+01    0.2233149    0.1811308  48.67  0.001193733    1.615    0.381
        59  -9.9123     31.5313     11.9808   8.4498656760e+01   6.9921880619e+01     0.250141    0.1563204 -30.42 0.0009299143    1.346    0.257
        60 -11.0241    199.3532      5.2190   4.0375857568e+01   3.4361763466e+01    0.6829095     0.432375 -55.74  0.003594786    1.553    0.356
        61  -8.9290     77.3454      8.6729   6.4282482145e+01   6.3168947927e+01    0.2107846    0.1634739  33.03  0.000778011    1.152    0.132
        62  -8.9530     77.4579      5.5031   6.2748743486e+01   6.3470631461e+01    0.2547034    0.1451242 -10.58 0.0009084232    1.825    0.452
        63  -8.0235    143.2872      8.3271   4.8624177742e+01   4.8249096595e+01    0.1427368   0.09375986  34.84 0.0001948798    1.611    0.379
        64  -8.7165    134.4452      6.2585   4.9422488256e+01   5.0632964882e+01    0.5097219    0.2567513 -34.51  0.002349235    2.129    0.530
        65  -9.4264    131.6635      4.6775   4.9347965710e+01   5.1454262103e+01    0.3939702    0.1958258  33.02  0.001697257    2.320    0.569
        66 -10.5636    138.9450      4.4884   4.8013849725e+01   4.9674861798e+01    0.5082698    0.2715291 -32.56  0.002425485    2.001    0.500
        67 -10.1544    139.0111      1.4702   4.6943203988e+01   4.9912502295e+01    0.4331113    0.1690607  70.91 0.0003816534    2.535    0.605
        68  -9.5827    211.5002      4.4777   3.9024919295e+01   3.1454988753e+01    0.2732993    0.2202738  21.90  0.001056489    1.678    0.404
        69 -10.6450    207.3538      3.1260   3.9060692485e+01   3.2599490360e+01    0.4935644    0.2542646 -48.75  0.001447527    1.854    0.461
        70  -8.9453    190.2782      7.5648   4.1970468381e+01   3.6397691871e+01    0.2479499    0.1499003  58.75 0.0007768162    1.566    0.362
        71  -9.0068    189.3960      4.1806   4.1128084496e+01   3.6950319338e+01    0.2786838    0.1603851 -44.70 0.0009731774    1.732    0.422
        72 -10.4888    181.5434      4.7882   4.2173537225e+01   3.8873745836e+01    0.4953382    0.3215689  81.08  0.002360583    1.446    0.308
        73  -9.8077    218.0180      5.2818   3.8645628778e+01   2.9802977509e+01    0.3222468    0.2125887  46.24  0.001726334    1.848    0.459
        74  -9.6585     70.0744      4.2864   6.4575932830e+01   6.4992792888e+01    0.4727624    0.2628066  44.69  0.002557941    1.651    0.394
        75  -9.1447     29.7945      5.8276   8.2211952937e+01   7.0989573439e+01    0.1744737    0.1197586  -7.39 0.0007237344    1.226    0.185
        76 -11.6674    101.5943     56.1889   7.6195403676e+01   5.1568090705e+01      1.37466    0.8560205  -3.71  0.005499213    2.556    0.609
        77  -8.8609    211.1837    250.1482   9.4857448524e+01  -6.4014864887e+00    0.1516445    0.1246911  38.10  0.001079485    1.332    0.249
        78  -9.1342     91.2878    244.6339   1.1605029079e+02   1.2807789499e+01    0.1221719   0.07143702  67.45 0.0007022853    1.701    0.412
        79 -11.1630     36.5849     27.1922   8.9100319298e+01   6.6956527994e+01    0.2443195    0.1836502 -14.61 0.0003201277    1.143    0.125
        80  -8.6938    119.6471    239.3080   1.1027351417e+02   9.4831009748e+00     0.127837   0.07810029  62.91 0.0007043038    1.717    0.418
        81 -10.4285     14.4066    237.7156   1.2883303002e+02   2.3502244531e+01    0.2623701    0.1255385  85.57  0.001682292    1.755    0.430
        82  -9.1196     55.5387    237.9281   1.2188655101e+02   1.8796597936e+01    0.1557376   0.09722362 -76.57  0.001025669    1.604    0.377
        83 -11.8949     56.5833     37.8310   8.4960552112e+01   6.2593797248e+01    0.4377555    0.3110505  -9.42  0.001000311    1.428    0.300
        84  -9.3732    190.3113    235.6539   9.6466612419e+01  -1.3151786924e+00    0.1146316   0.09249239  63.52 0.0007045823    1.708    0.415
        85  -8.9228     20.9509    232.3466   1.2748844130e+02   2.3805347555e+01    0.1465845    0.1060831  63.76 0.0006929737    1.120    0.107
        86 -10.7121     65.3591    129.2705   1.0711622956e+02   4.1284213320e+01    0.4013389    0.2763431 -46.32   0.00151676    1.498    0.333
        87  -9.0851     73.1052    129.1391   1.0493124373e+02   4.0249779240e+01    0.2101815    0.1827695 -81.61 0.0004280916    1.084    0.077
        88  -8.8236     81.3354    124.9558   1.0179323559e+02   4.0048118378e+01    0.2090713    0.1713092 -54.64  0.001124718    1.145    0.127
        89 -13.0497     14.0012    125.9759   1.2073119432e+02   4.7332645441e+01    0.9294869    0.7940952 -62.90  0.001515253    1.208    0.172
        90 -10.5879     90.6775    121.1478   9.8333220451e+01   3.9477176691e+01     0.534974    0.4469999 -65.73  0.001853189    1.140    0.123
        91 -10.0177     91.1175    113.0841   9.6357495325e+01   4.1329099822e+01    0.3962172    0.3500455 -24.92   0.00123634    1.255    0.203
        92 -11.6054     75.5681    120.0610   1.0242959292e+02   4.2096796702e+01    0.2660565    0.2532896  55.98  0.001573869    1.142    0.124
        93 -11.4992     79.6757     75.2299   8.9683704760e+01   5.1834925334e+01    0.8685931    0.3878205  46.54  0.003209696    2.714    0.632
        94 -10.0746    105.4037    116.9945   9.3217813115e+01   3.7884705636e+01    0.4816739      0.34633  70.54  0.002157952    1.801    0.445
        95  -8.9624    109.0167    114.6910   9.1644949850e+01   3.7747525169e+01    0.3021469    0.2372976  37.61  0.001010994    1.351    0.260
        96  -9.9866    116.0876    116.4522   9.0134781455e+01   3.5973716576e+01    0.2802829    0.2319169 -47.29   0.00060355    1.170    0.145
        97  -9.1722    206.4108    116.0212   6.9119713906e+01   1.5977164919e+01    0.2172718    0.2005527  42.73 9.141938e-05    1.136    0.119
        98  -8.5130     82.7599    114.1987   9.9059912419e+01   4.2419936343e+01    0.2113835    0.1187254  24.01 0.0008598663    2.425    0.588
        99  -9.3412    133.5215    110.9075   8.4058087733e+01   3.3629800863e+01    0.3634962    0.1486291 -39.30  0.001197384    2.630    0.620
       100  -9.9612     62.1491    109.5255   1.0420891981e+02   4.6492870139e+01    0.3017673    0.2106054  13.15  0.001521972    1.921    0.479
       101  -8.4977    103.7879    108.8229   9.1645477349e+01   4.0091909614e+01    0.2045149     0.175755 -87.37 0.0006295052    1.318    0.241
       102  -9.5896     23.4875    108.7662   1.1579223044e+02   5.0681814790e+01    0.3099889    0.1705469  27.54  0.001552703    2.191    0.544
       103  -9.6348    149.3489    106.7934   7.8961106191e+01   3.1001597451e+01    0.4295702    0.1851137 -35.76  0.001425878    2.592    0.614
       104  -9.7759    113.4919    107.5690   8.8573868593e+01   3.8523836026e+01    0.2764262    0.2572452 -47.49 0.0006007099    1.032    0.031
       105  -8.8459     97.7456    107.8227   9.3137876814e+01   4.1422454938e+01    0.2003138    0.1713438  89.11 0.0004286209    1.335    0.251
       106 -10.8992     69.1793    105.2058   1.0110453431e+02   4.6584193954e+01    0.5722111    0.3142894 -36.28  0.002442063    2.197    0.545
       107  -9.3862     74.6957    107.0909   9.9845503291e+01   4.5344698404e+01     0.256237    0.2144978  21.10 0.0009856219    1.391    0.281
       108  -8.1028    124.5201    106.5467   8.5273248336e+01   3.6511332609e+01     0.154632    0.1505328 -46.55 7.454767e-05    1.004    0.004
       109  -9.5743     54.7633    100.5958   1.0459640212e+02   4.9548702707e+01    0.2967291     0.211422  40.03  0.001321086    1.595    0.373
       110  -9.8919     56.9515     85.7629   1.0037542092e+02   5.2751157824e+01    0.4392762    0.2715339  -6.03  0.001951139    2.592    0.614
       111  -9.9222     47.0295     98.6504   1.0665423523e+02   5.0892264793e+01    0.2945105    0.2658582  77.41   0.00116398    1.233    0.189
       112 -11.6605     51.2782     94.7843   1.0443466930e+02   5.1331695432e+01     1.811279    0.4039534 -53.99   0.00601704    3.315    0.698
       113  -9.9727     52.1882     86.0076   1.0205969212e+02   5.3269273859e+01    0.4240152    0.2473732  18.06  0.002042986    2.216    0.549
       114  -9.8310     53.1135     81.8643   1.0069225939e+02   5.4106621054e+01    0.3313333    0.2403321 -30.74 0.0006823795    1.422    0.297
       115  -9.1971    118.2553    105.4130   8.6676850084e+01   3.8058066598e+01    0.2081076    0.1485482  54.39 0.0006581107    1.539    0.350
       116  -8.7379    150.9906     95.7820   7.5485914877e+01   3.2909270412e+01    0.3470945    0.2642978  -2.50 0.0008160336    1.744    0.427
       117 -11.2565    142.0280    101.6740   7.9362098864e+01   3.3751020729e+01    0.4657609    0.3227373  30.92  0.001157813    1.678    0.404
       118 -10.2305    147.5033     99.4920   7.7387759237e+01   3.2957317113e+01    0.3500685    0.2819075  41.45 0.0009467013    1.275    0.215
       119  -9.6604    133.7321    102.3391   8.1674939784e+01   3.5459128741e+01    0.3360609    0.2814092 -67.81 0.0007683276    1.334    0.251
       120  -9.7646    132.2607     97.3065   8.0642222124e+01   3.6864668919e+01    0.4831728    0.2306652 -46.02  0.001787145    2.067    0.516
       121 -10.8833    116.4150     95.3613   8.4400929983e+01   4.0665736384e+01    0.5625457    0.4103099  58.06  0.001274959    1.574    0.365
       122 -11.2280    124.6476     92.0556   8.1161710770e+01   3.9644887801e+01    0.8700464    0.3492804  47.60  0.002989581    2.600    0.615
       123  -8.6991    105.4378    102.7191   8.9575468514e+01   4.1187978099e+01    0.2168152    0.1383396 -39.07 0.0009425533    1.592    0.372
       124  -8.7210     95.8557    103.1617   9.2499312400e+01   4.2841996267e+01    0.1958102    0.1710159 -13.43 0.0004413387    1.296    0.228
       125 -10.4348     77.9023    101.5804   9.7545435789e+01   4.6170803640e+01    0.5115327     0.306535  27.03  0.001773596    2.020    0.505
       126  -9.2708     81.5423     97.4779   9.5378433788e+01   4.6563799921e+01    0.2734997    0.1460743  36.22 0.0005632846    2.052    0.513
       127 -10.2128     62.0077    102.8984   1.0281564068e+02   4.8098849272e+01    0.3029763    0.2377477 -40.27 -0.0009232552    1.269    0.212
       128  -9.6080     63.4608     98.4705   1.0134101485e+02   4.8959211095e+01     0.338054    0.2514638  57.19  0.001787739    1.620    0.383
       129  -9.1548     12.6797    231.9556   1.2884306996e+02   2.4724857468e+01    0.2267447   0.08409978  53.58  0.001323314    1.996    0.499
       130  -9.6398    110.9639    100.5286   8.7394610135e+01   4.0616346215e+01    0.2687717      0.20997 -44.09 0.0001419105    1.226    0.184
       131 -10.5862      4.3932     86.0163   1.1827671318e+02   5.7241361417e+01    0.6747571    0.2826792 -56.45  0.003539517    1.755    0.430
       132 -10.5062      4.8774     99.3402   1.2003423161e+02   5.4152758247e+01    0.4423023    0.1957322 -61.12  0.002351143    1.669    0.401
       133  -9.5993      3.0587     94.4027   1.1992320372e+02   5.5390977849e+01     0.396268     0.057618 -60.07  0.001482033    3.342    0.701
       134  -9.7422    155.9540     96.7453   7.4579988761e+01   3.1544397944e+01    0.5047644     0.257997 -29.86  0.001795399    2.355    0.575
       135  -9.6341     88.0090     97.1865   9.3298940208e+01   4.5575367295e+01    0.2680666    0.2185525 -66.50  0.001123282    1.287    0.223
       136 -10.5122     39.4518     80.4074   1.0512286415e+02   5.5922162395e+01     1.057731    0.5190083 -75.51   0.00423332    3.036    0.671
       137  -9.9042     38.9425     97.0192   1.0892867359e+02   5.2111152475e+01    0.3978959    0.2327114 -27.29  0.001127767    2.296    0.564
       138 -10.6371     39.6785     92.1412   1.0768489511e+02   5.3187534804e+01    0.3229259    0.2669103   3.31 0.0007632149    1.472    0.320
       139 -11.1112     33.9908     91.4082   1.0942358082e+02   5.3895553410e+01    0.6870553    0.3416183   9.50   0.00307548    3.115    0.679
       140  -9.7741    189.1935     94.9605   6.6929660981e+01   2.3896916826e+01    0.5281279    0.3119086 -11.38  0.001822831    2.977    0.664
       141 -10.4084    194.2177     88.8974   6.4317416452e+01   2.3788500852e+01    0.4878604    0.3224167 -12.30 0.0005927457    2.086    0.521
       142 -11.0155     70.4907     94.3503   9.8079869524e+01   4.8958017502e+01     0.673849    0.4102023 -81.88 0.0005330079    2.777    0.640
       143 -10.1584    177.3937     93.4781   6.8905999557e+01   2.7030397002e+01    0.4067462    0.3009485  70.63  0.001828775    1.592    0.372
       144  -9.6118    104.4620     92.0516   8.6902240382e+01   4.3770591813e+01    0.4200174    0.2705876  17.60  0.001709635    2.287    0.563
       145 -10.4073    107.6347     85.9221   8.4162937635e+01   4.4483229492e+01    0.5782872    0.3322135 -27.16  0.001764243    2.276    0.561
       146 -10.1928     74.9739     90.3448   9.5588595152e+01   4.9223589177e+01    0.7648465    0.3720738  47.43  0.003123331    2.524    0.604
       147 -11.0805     89.2375     88.5800   9.0548061977e+01   4.7318189358e+01    0.6648997     0.486661 -21.64  0.002305951    1.619    0.382
       148 -10.6478     83.3850     90.0083   9.2797609416e+01   4.7979496951e+01    0.3247763    0.2420593  36.02  0.001658363    1.459    0.315
       149  -8.8605    187.3120     89.4082   6.5775534188e+01   2.5374416364e+01    0.1951735    0.1518451  69.24 0.0002601404    1.431    0.301
       150  -9.9916    112.8568     85.9660   8.2654448963e+01   4.3419901295e+01    0.7113385    0.1919289 -36.86  0.001673841    5.557    0.820
       151  -9.5009     83.1025     85.7287   9.1682345402e+01   4.8986034191e+01    0.3934265      0.22994 -27.47  0.001619994    2.254    0.556
       152 -10.1702    146.6311     82.4850   7.2623012524e+01   3.6588156942e+01    0.6552832    0.3111394 -24.02  0.001743938    3.448    0.710
       153 -10.6708    135.6721     82.0603   7.5230572368e+01   3.9239100094e+01    0.6505364    0.4911939  -0.27  0.002513597    1.744    0.427
       154 -10.3642    143.9332     76.4345   7.1420409436e+01   3.8389465457e+01    0.6845031    0.3916589  46.92  0.002808025    1.757    0.431
       155  -9.4894    155.1675     86.2323   7.1718470154e+01   3.3815751232e+01    0.4027538     0.251834  25.54  0.001529936    2.302    0.566
       156 -10.4039    118.7547     86.5804   8.1163037859e+01   4.2061244038e+01     0.370641    0.2689526  39.35  0.001068023    1.434    0.303
       157  -9.1660     76.0018     84.0389   9.3514516897e+01   5.0492430351e+01    0.2152124    0.2020958 -59.29 0.0009156558    1.114    0.102
       158  -8.5395     45.5771     84.4258   1.0394489964e+02   5.4373628212e+01    0.1349696     0.110547 -46.79            0    1.063    0.060
       159 -10.0295    163.1530     81.4449   6.8495791298e+01   3.2781304837e+01    0.5304517    0.2632685  44.38  0.001981042    2.122    0.529
       160  -9.5412    106.9805     76.8366   8.1547476531e+01   4.6514718070e+01    0.4381852    0.2236501  36.99  0.001731899    2.161    0.537
       161 -10.6436    103.4063     80.8925   8.3890533525e+01   4.6382280559e+01    0.4782544    0.3199495  28.56  0.001351526    1.725    0.420
       162 -10.4622     98.6580     77.0818   8.4150652757e+01   4.8093638757e+01    0.5597288    0.3707478  37.12  0.002168365    1.598    0.374
       163  -8.4768     59.0292     80.5672   9.8294204200e+01   5.3667677409e+01    0.1777562    0.1356869  31.27 0.0002996515    1.481    0.325
       164 -10.9882    150.2011     66.0393   6.6668661832e+01   3.8755744365e+01    0.6961131    0.4820987 -40.90    0.0031809    1.446    0.308
       165  -9.3393    152.2273     76.7512   6.9547340250e+01   3.6329822201e+01    0.3552514    0.2387354 -19.59 0.0008271225    1.812    0.448
       166  -9.9642    152.1018     72.8308   6.8366964016e+01   3.7080664141e+01      0.41503    0.3298256  59.53  0.001417412    1.302    0.232
       167  -9.7804    131.5663     74.3174   7.3870411257e+01   4.1691676352e+01    0.3473439    0.2920814  47.60   0.00100062    1.206    0.171
       168 -10.2270    124.6006     74.7237   7.5854306871e+01   4.3190697497e+01     1.069086    0.3909687  40.26  0.003385887    3.170    0.685
       169  -9.8855    107.1096     59.5893   7.5741759481e+01   4.9820584012e+01    0.2638488    0.2444447  35.57 0.0004145888    1.111    0.100
       170 -11.2942    125.0497     68.0118   7.3548154372e+01   4.4366417823e+01     1.239677    0.8232768  86.22  0.004653207    2.887    0.654
       171 -10.4670    107.7042     69.1818   7.8842109525e+01   4.7894240754e+01     0.590602    0.4742338 -48.44  0.001935978    1.289    0.224
       172 -10.1394    101.6662     68.1989   8.0336034046e+01   4.9304152049e+01    0.4709834    0.4101487 -44.98  0.002540525    1.166    0.142
       173  -9.6731    111.0906     73.8989   7.9393162410e+01   4.6266092636e+01    0.2904249    0.2796586 -67.65 0.0003772762    1.143    0.125
       174 -11.8592    111.7375     63.5013   7.5741915679e+01   4.8128059756e+01    0.4466677    0.3725955 -61.60 0.0002496922    1.427    0.299
       175 -10.6878    115.1409     71.8366   7.7552787115e+01   4.5818537312e+01    0.5422698    0.3245022 -42.33  0.001003435    1.635    0.388
       176 -10.6762    119.3407     69.8266   7.5708633101e+01   4.5296551961e+01    0.4250208    0.3032392  25.29  0.001057527    1.636    0.389
       177 -11.5943     33.1350     58.9786   1.0185250981e+02   6.1230595040e+01    0.5545412    0.4209058 -31.29  0.001075372    1.194    0.162
       178  -9.3955     91.7704     75.5717   8.5837339578e+01   4.9685695304e+01       0.2728    0.1902485 -69.05  0.001216153    2.033    0.508
       179  -9.3212     61.1526     76.6378   9.6460718210e+01   5.4265188191e+01    0.3970862    0.2644476  27.93  0.002068263    1.700    0.412
       180  -9.6739    214.5580     76.2687   5.7436595210e+01   2.1058658992e+01    0.2791521     0.267302  65.43  0.000910041    1.106    0.096
       181  -8.8843     46.6910     76.9311   1.0167418557e+02   5.5953913944e+01    0.2778418    0.1749825  41.08  0.001459124    1.907    0.476
       182  -9.4445      4.9985     77.0244   1.1660208270e+02   5.9246111630e+01    0.2103537     0.174118  64.94 0.0009133915    1.480    0.324
       183 -10.1338      3.2212     73.1528   1.1655033456e+02   6.0201498673e+01    0.4547977    0.1655181 -41.55  0.002109564    2.549    0.608
       184  -9.3391    248.4034     76.2367   5.2642699084e+01   1.3410201965e+01    0.2071031    0.1102162 -43.26 0.0008808866    1.646    0.393
       185 -10.2652    204.3467     73.9201   5.8453613047e+01   2.3906177569e+01    0.5133164    0.3629555  12.81  0.002235362    2.099    0.524
       186  -8.9096    170.5115     70.4676   6.3668891636e+01   3.2922073984e+01    0.2873875    0.1476089  51.83 0.0007896312    1.928    0.481
       187 -10.5689    165.9784     68.6191   6.4040543171e+01   3.4379603908e+01    0.4208951    0.3054863  66.33  0.001227286    1.480    0.324
       188  -8.8888    193.6270     72.6703   5.9938208386e+01   2.6754346554e+01    0.2963427    0.1472994 -28.86   0.00106951    2.175    0.540
       189 -10.4336    140.2045     71.2021   7.0685088841e+01   4.0253900541e+01    0.7778295    0.4362028  20.64  0.002445888    3.672    0.728
       190 -10.5444    137.1591     69.2560   7.0816118069e+01   4.1333572948e+01    0.5864797    0.3511445  27.51 0.0004379144    2.307    0.566
       191 -10.7872    178.3089     68.5885   6.1576596428e+01   3.1279218658e+01    0.6116748    0.4348789  53.72  0.002384588    1.409    0.290
       192  -8.4970    216.3992     70.5082   5.5641668227e+01   2.1551273626e+01    0.1460011    0.1347815 -45.67 0.0001054971    1.031    0.030
       193  -9.4228    131.4995     67.3216   7.1623068497e+01   4.3014219944e+01    0.2721571    0.2483289  21.59 0.0001941259    1.115    0.103
       194  -8.8050     84.3472     67.5664   8.5669810018e+01   5.2644521505e+01    0.2022559    0.1728592 -83.16 0.0004710437    1.576    0.366
       195  -8.2291    226.7086    231.6821   8.9234073604e+01  -6.4700477152e+00    0.1223126   0.07780939   8.52 0.0002803417    1.600    0.375
       196  -9.0557    219.3872    230.9087   9.0409952854e+01  -5.2602843982e+00    0.2051676    0.1422409  38.74 0.0005393142    1.377    0.274
       197  -9.6148    166.4410     62.9660   6.2219325792e+01   3.5218172812e+01    0.3546491    0.2441261 -42.97  0.001124105    1.456    0.313
       198  -9.3741    207.1138     61.2278   5.4571630469e+01   2.5259682176e+01    0.2791058    0.1972206 -43.89 0.0004676387    1.340    0.254
       199  -9.5754    186.5657     61.3536   5.7954588490e+01   3.0376669519e+01    0.4190102     0.284849 -39.63  0.001546774    1.433    0.302
       200 -10.3921    172.6637     47.3224   5.6228144398e+01   3.6067305731e+01    0.7226239    0.4617306 -88.72  0.003024412    2.128    0.530
       201 -10.3714    185.6187     55.7175   5.6480241407e+01   3.1497524019e+01    0.3903494    0.2643997  51.82  0.001314536    1.489    0.328
       202 -11.3639    183.3931     51.6913   5.5678133977e+01   3.2674262664e+01    0.5909002     0.400261  59.13 0.0004693683    1.450    0.310
       203  -9.6289    129.0695     60.9157   7.0116543078e+01   4.4723172862e+01    0.4380136    0.2497619  67.71  0.001649515    2.551    0.608
       204  -9.9732    201.6235     59.9812   5.5076715332e+01   2.6810050139e+01    0.2577192    0.2333773  67.85 0.0004316166    1.122    0.109
       205  -9.3121    152.2356     59.8103   6.4222362900e+01   3.9310472467e+01     0.256375    0.2078762  68.99 0.0005455198    1.317    0.241
       206 -10.3131    138.0127     58.9807   6.7231181907e+01   4.2937297458e+01    0.2521068    0.2106924  50.70            0    1.188    0.158
       207 -10.6269    193.4930     54.6712   5.4877079359e+01   2.9660145232e+01    0.5199547    0.3789825  22.98  0.001663014    1.838    0.456
       208 -10.5010    148.3006     34.9339   5.6828626092e+01   4.4006918773e+01    0.6900627    0.2865654  59.42  0.002050664    2.265    0.559
       209  -9.7004    155.7854     31.7720   5.4341936659e+01   4.2515432081e+01    0.3247028    0.2646043 -15.02  0.001718038    1.349    0.259
       210 -10.2532    166.3973     53.4059   5.9271724203e+01   3.6758940500e+01     0.697683     0.294702 -43.81  0.002518103    2.471    0.595
       211 -10.6271    160.4986     52.0265   5.9997295545e+01   3.8472765625e+01    0.5414536    0.4479477 -20.61  0.002758984    1.291    0.225
       212 -10.7692    154.7411     44.0981   5.8591991946e+01   4.1114379067e+01    0.7683983    0.5865678  82.44  0.003754817    1.500    0.333
       213  -9.8583    156.9883     39.9621   5.6799802978e+01   4.1125869458e+01    0.3830255    0.2904768 -82.88  0.001148063    1.585    0.369
       214 -11.0395    142.0904     43.9997   6.1218275056e+01   4.4301176497e+01    0.6887866    0.5013039  12.93 0.0008642045    1.708    0.415
       215 -10.2414    140.9960     51.9766   6.4175228230e+01   4.3357532789e+01    0.3869561    0.3001181  24.91  0.001310848    1.439    0.305
       216 -12.2301    147.5193     53.3718   6.3166608107e+01   4.1527325113e+01     0.544784    0.4092041  11.07  0.002540687    1.664    0.399
       217 -10.5574    144.9904     49.2423   6.2352500943e+01   4.2798193069e+01    0.3675244    0.2617762  39.57 0.0003229909    1.442    0.307
       218  -9.5076    244.1152     55.7734   4.8281391751e+01   1.7388325579e+01    0.3647717    0.1653545 -40.27  0.001150469    1.885    0.470
       219 -10.1068    132.8236     55.3206   6.7265470821e+01   4.4790740686e+01    0.4769657    0.3069482 -13.06  0.001951399    2.006    0.501
       220  -8.8474    118.1368     41.9233   6.6254611512e+01   5.0327159213e+01    0.5467871    0.1166563 -36.45  0.001552777    4.346    0.770
       221 -10.2713    120.8913     54.0231   6.9890514115e+01   4.7782841656e+01    0.4916177    0.4117915 -10.37   0.00256543    1.242    0.195
       222  -9.6713    115.7766     51.3221   7.0320012432e+01   4.9382075507e+01    0.3465937    0.2979342 -25.14  0.001863297    1.147    0.128
       223  -8.9390    118.8904     48.0497   6.8294542829e+01   4.9211917173e+01    0.2634506    0.2226016   4.58 0.0005415276    1.234    0.189
       224  -9.2711    222.6165     56.0701   5.1008329306e+01   2.2286827202e+01    0.3331507     0.194048  79.32  0.001466308    2.066    0.516
       225 -10.9687     41.6244     53.9503   9.6901683705e+01   6.1421596618e+01    0.2851215    0.2312329  38.58 0.0003157337    1.533    0.348
       226 -11.5411     42.4574     49.8487   9.5199217783e+01   6.2150678338e+01    0.6711304    0.3303792  21.09  0.002702172    2.454    0.592
       227  -9.0294    135.7536    230.9572   1.0619624215e+02   8.3250592465e+00    0.1437422    0.1077555 -55.48 0.0006689405    1.591    0.371
       228  -9.4526    234.2157     55.3706   4.9356091098e+01   1.9679186201e+01    0.2445395    0.1788812  84.53  0.001288608    1.485    0.327
       229  -9.5098    211.8730     51.9068   5.1373753400e+01   2.5491124955e+01    0.4105986    0.2407868 -20.98  0.001778578    2.055    0.513
       230 -11.4163     59.4485     50.0835   8.8522795405e+01   5.9970983540e+01    0.6726797    0.5101561  57.81  0.001137175    1.969    0.492
       231 -10.1757     58.3383     46.6919   8.7704162102e+01   6.0761936617e+01    0.2788259    0.2645249  42.99  0.001070531    1.360    0.265
       232  -9.5968     76.2632     51.9286   8.2985799407e+01   5.7041095586e+01    0.2351855    0.2073504   9.00            0    1.116    0.104
       233  -9.1923     10.2125     52.1850   1.0936698068e+02   6.4379819569e+01    0.1860985    0.1506631  22.52 0.0003999078    1.550    0.355
       234  -8.4046    127.1958     51.3583   6.7307088631e+01   4.6766084119e+01     0.196783    0.1404446  65.89 0.0004795679    1.626    0.385
       235 -12.7307     47.6309     39.1503   8.9148910159e+01   6.3559040426e+01    0.7697715    0.4605795  27.90 0.0008156365    1.802    0.445
       236  -9.1959    228.6555     49.8413   4.8656704922e+01   2.1762962823e+01    0.2099276    0.1815474  64.52 0.0003350095    1.234    0.190
       237  -9.8313    193.8831     49.4440   5.3330247904e+01   3.0336673605e+01    0.3514659    0.2727236 -26.14  0.001457727    1.368    0.269
       238  -9.1873    202.0235     48.0391   5.1718997206e+01   2.8489930713e+01    0.2190918    0.2120412 -70.81 0.0005404555    1.055    0.052
       239 -10.1597    207.2297     46.0347   5.0437084313e+01   2.7477746114e+01    0.3843832    0.2140979  62.85 0.0008285856    1.781    0.439
       240  -9.3558     75.2141     46.1874   8.1199373092e+01   5.8248673765e+01     0.334554    0.2320412  27.26   0.00139903    1.499    0.333
       241 -10.1878     76.5430     41.5418   7.8912362781e+01   5.8817268281e+01    0.3120816    0.2209494 -23.03 0.0006091733    1.344    0.256
       242 -11.0468     66.5285     43.9587   8.3523242696e+01   6.0046956671e+01    0.4209625    0.2847987 -33.53  0.001362059    1.333    0.250
       243  -8.6306      6.8932     46.8361   1.0939006870e+02   6.5676314323e+01    0.1415493    0.1225125 -67.57 0.0004682217    1.289    0.224
       244  -8.4530    129.6261     45.7845   6.4736880214e+01   4.7064627545e+01    0.1972344    0.1341418 -41.34 0.0004484786    1.540    0.351
       245  -9.3059    202.1471    228.9763   9.3236930507e+01  -2.2926743092e+00    0.1842031    0.1501879  24.84 0.0004778272    1.027    0.026
       246  -8.9853    137.3768    224.7443   1.0506709138e+02   9.1155302005e+00    0.1564818    0.1197619 -40.88 0.0006167714    1.622    0.383
       247  -9.2407     40.8876    221.4677   1.2333677811e+02   2.3660602536e+01    0.2056028    0.1254098 -61.73  0.001117717    1.895    0.472
       248 -10.2610    110.4820     17.6318   5.8831872879e+01   5.5223067475e+01    0.2645877    0.2241039  32.46 0.0007326722    1.066    0.062
       249  -8.8047    167.6493    220.2177   9.8444431238e+01   4.7630883494e+00     0.167175    0.1187594 -31.35 0.0008239799    1.693    0.409
       250  -8.5971    224.6985    215.3434   8.6814786900e+01  -4.0372807989e+00    0.1083009    0.1018776  75.70 0.0007038248    1.678    0.404
       251  -9.2529     26.5142    212.5192   1.2536035405e+02   2.7019594816e+01    0.1142081   0.08419967  75.06 0.0003712274    1.005    0.005
       252  -8.5540     13.7063    212.6617   1.2767951393e+02   2.8295901669e+01   0.09732496   0.07490621 -63.81 0.0003697329    1.649    0.394
       253  -9.2573    233.9082    199.8538   8.2340775730e+01  -3.3738014119e+00    0.2048082    0.1513957   4.32  0.001222221    1.250    0.200
       254 -11.9085    105.7395     34.0458   6.6625707292e+01   5.4231977882e+01    0.2833208    0.2402151  30.26  0.000272815    1.106    0.096
       255  -9.0446     27.2138    193.1950   1.2388803456e+02   3.0916504775e+01    0.1836638    0.1079829 -43.13 0.0009667206    2.897    0.655
       256  -9.3674    249.0530     44.1452   4.5001950303e+01   1.7925030631e+01    0.1870313    0.1803908  20.85 0.0004715211    1.302    0.232
       257  -9.1676    179.2280     45.0854   5.4416140691e+01   3.4704345199e+01    0.2149534    0.1988517  11.23 0.0003283597    1.210    0.174
       258  -9.9025    136.1850     41.9093   6.1821106168e+01   4.6056321032e+01    0.3611224     0.252563 -68.47  0.001615791    2.007    0.502
       259  -9.9195    215.1482     39.9799   4.7789291497e+01   2.6364144935e+01    0.4096499    0.3079881 -11.25  0.001267089    1.673    0.402
       260  -8.4297    197.2386     41.9288   5.0708403723e+01   3.0551641369e+01    0.1728091      0.11721 -36.18 0.0002690243    1.450    0.310
       261  -9.7656    173.9495     57.5018   5.9093989227e+01   3.4194025517e+01    0.6204051    0.3209366 -12.30  0.001993037    3.602    0.722
       262  -9.4228     10.8071    192.4042   1.2703463149e+02   3.2680270264e+01    0.2314907    0.1248437  40.55   0.00144852    1.859    0.462
       263  -8.6916    235.4964     40.0087   4.5440449376e+01   2.1530083036e+01    0.2023429    0.1275196 -30.63  0.001017518    1.584    0.369
       264  -9.0549    191.6475     39.6954   5.0887286244e+01   3.2274526964e+01    0.2911854    0.1808999  35.64 0.0007934628    2.083    0.520
       265  -8.7661    215.4842    189.5077   8.3746473509e+01   1.2866098270e+00    0.1362493    0.1166925   8.98 0.0008103089    1.024    0.024
       266  -9.5259    173.6125     38.8092   5.3453776282e+01   3.7018489472e+01    0.4280401    0.2867227 -69.06  0.001939469    1.826    0.452
       267  -9.0577     62.3550     40.1317   8.3610452696e+01   6.1353134860e+01    0.2381859    0.1543545   9.69 0.0007573168    1.838    0.456
       268  -9.2959    202.2488     37.9259   4.8902864106e+01   2.9832441297e+01    0.2609382    0.1911915  63.28 0.0004512327    1.344    0.256
       269 -10.8644    220.2118     34.1319   4.5672744086e+01   2.5909475512e+01    0.5164534    0.3715072 -35.75  0.001914396    1.358    0.264
       270  -9.8205     10.6280    184.9606   1.2659823947e+02   3.4265823950e+01    0.2933952    0.2223917   3.00  0.001950725    2.313    0.568
       271  -9.2195    198.6524     35.6787   4.8766394048e+01   3.1033773159e+01    0.2234043     0.186232  -8.39 0.0008586534    1.439    0.305
       272  -8.7908    198.5372     32.4533   4.7886123786e+01   3.1479844291e+01    0.2777524    0.1361077 -30.37 0.0007357463    2.065    0.516
       273 -10.0152    182.5011     34.0280   5.0600191090e+01   3.5363457322e+01    0.4934033    0.2839866  53.85  0.002090609    1.690    0.408
       274 -10.4423    245.1500     33.2957   4.2862464582e+01   2.0223940251e+01    0.5554047    0.3274097  66.94  0.002326663    1.756    0.430
       275  -8.9095    242.3297     24.8529   4.1161978936e+01   2.1917576368e+01     0.291519    0.1561444 -40.12  0.001474206    1.635    0.388
       276  -9.9271    234.8054     33.8387   4.4017213091e+01   2.2502044734e+01    0.3205134    0.2292322  46.37  0.000902886    1.711    0.416
       277 -10.7585    236.1853     28.0306   4.2483848021e+01   2.2922357390e+01    0.4408702    0.3825297  -3.15  0.001546344    1.500    0.333
       278  -8.5276     18.3419    182.6657   1.2489277639e+02   3.4049848146e+01    0.1282602   0.06591428  67.92 0.0007050818    1.757    0.431
       279 -10.2522      1.6641    178.2043   1.2795012675e+02   3.6469855746e+01    0.3780991    0.1196504 -81.46  0.001770873    2.584    0.613
       280 -10.5416     26.2630    176.7324   1.2277909631e+02   3.4580588579e+01    0.4222381     0.261389 -58.42  0.002536453    1.728    0.421
       281 -10.4027     30.4416    172.2691   1.2148618081e+02   3.5155518023e+01    0.3145609    0.2195002 -75.23   0.00115582    1.241    0.194
       282  -8.9051     80.0143    176.9510   1.1083452714e+02   2.7934950543e+01    0.2051993    0.1610415 -35.98  0.001134523    1.745    0.427
       283  -9.2598    207.1918     33.8158   4.7146411897e+01   2.9138073780e+01    0.2379161    0.1951302  75.79 0.0004784572    1.182    0.154
       284 -10.1659    211.1298     31.2808   4.5991254299e+01   2.8488557782e+01    0.6242347    0.3537109 -36.24  0.002972496    1.686    0.407
       285  -9.7219    134.9156     34.1528   5.9368402947e+01   4.7439207576e+01    0.3296309    0.2422128   8.34   0.00124873    1.619    0.382
       286  -8.9764    138.4141     31.2589   5.7586712676e+01   4.6953635493e+01    0.2380124    0.2225278  71.65 0.0009349856    1.106    0.096
       287  -9.8563      8.0318    176.8958   1.2658620765e+02   3.6223738794e+01    0.2650236    0.1489223  51.07  0.001095255    1.652    0.395
       288  -9.6736    152.9446     24.7352   5.2524831052e+01   4.4094552069e+01    0.6425526     0.383844  64.28   0.00299382    1.582    0.368
       289  -8.7486     65.5330    173.2435   1.1368516061e+02   3.0806401080e+01    0.1802212    0.1109215 -58.38 0.0005593689    1.622    0.384
       290  -9.5411    185.6972     24.9767   4.7487389872e+01   3.5664371889e+01    0.4815178    0.1834612 -40.24  0.001334899    2.523    0.604
       291  -9.8594    173.1369     31.0524   5.1152068819e+01   3.8150619572e+01    0.4318746    0.3092905  19.30  0.001617189    1.824    0.452
       292 -11.0478    178.9390     26.4918   4.8887545542e+01   3.7216464923e+01    0.5950974    0.4287228  82.14  0.003028929    1.406    0.289
       293  -8.6888    246.6452    171.3358   7.4476762001e+01  -1.3375422731e+00    0.1229019    0.1062636 -66.47 0.0007043302    1.798    0.444
       294  -8.6088     36.6711    179.3305   1.2078243169e+02   3.2922267753e+01    0.1327896   0.07406063  69.36  0.000685902    1.714    0.416
       295 -10.3016     58.2404    166.3144   1.1451799931e+02   3.3350045621e+01    0.4410841    0.2397047 -76.12  0.001558095    1.745    0.427
       296 -10.4789     32.2766    166.2949   1.2051366982e+02   3.6320762793e+01    0.2350585    0.1974891  61.51  0.000347564    1.215    0.177
       297  -9.1491     19.0592    165.5135   1.2339124460e+02   3.7770968283e+01    0.1603482     0.112036  40.02  0.001033256    1.592    0.372
       298 -10.1690      2.1926    159.5678   1.2661440780e+02   4.0495717702e+01     0.383133     0.161847  88.81  0.001619976    2.086    0.521
       299  -9.4016     21.1090    158.9259   1.2235050091e+02   3.9080291566e+01    0.3115839    0.1058176  44.52 0.0009410311    2.789    0.641
       300  -8.6019     28.7894    158.3603   1.2052574004e+02   3.8489812865e+01    0.1365833    0.1197063  24.58 0.0003752979    1.519    0.342
       301  -9.2960    203.5029     28.7504   4.6237779228e+01   3.0698663539e+01    0.4622616    0.2395899 -16.27  0.001518667    2.661    0.624
       302  -9.4163    204.8228     23.6636   4.4708725982e+01   3.0987257147e+01    0.5252194     0.173999 -47.09  0.001872886    3.071    0.674
       303  -9.5263    146.2040     28.9627   5.5209087643e+01   4.5295463177e+01    0.3902196    0.2752461  63.52  0.001946614    1.367    0.268
       304  -9.8074    147.4202     23.9103   5.3250587493e+01   4.5590831988e+01    0.2768405    0.2118751  48.97 0.0008566573    1.228    0.186
       305  -9.3697     54.9622     29.7186   8.2234203356e+01   6.4172586115e+01    0.1997777    0.1579375 -25.93 0.0002195194    1.134    0.118
       306 -10.2664     30.5850    151.6605   1.1939882590e+02   3.9872231798e+01    0.2545621     0.182961 -73.60 0.0006280706    1.169    0.145
       307  -9.1076    167.3638     29.2500   5.1523083996e+01   3.9860516937e+01    0.3334186    0.2110245  56.00  0.001167077    1.481    0.325
       308  -8.7127    166.8133     25.6255   5.0473461213e+01   4.0438741023e+01     0.208867     0.130792  79.56 0.0009478144    1.728    0.421
       309  -9.1455    140.0876     25.5906   5.5245766892e+01   4.7233958570e+01     0.339114    0.1445901 -29.56  0.001347523    2.396    0.583
       310 -10.4781      6.1290    142.6025   1.2437698994e+02   4.4040576139e+01    0.3203225    0.1872232 -82.63 0.0005687507    1.335    0.251
       311 -12.4297     12.0381    145.4379   1.2322364840e+02   4.2944660819e+01    0.9284323    0.7651361 -23.80  0.003695747    1.746    0.427
       312  -9.8797      5.2994    147.0559   1.2495255771e+02   4.3082914477e+01    0.2287626    0.1615696  31.41  0.001530322    1.752    0.429
       313 -10.5990    129.1845     23.2078   5.6656230991e+01   5.0193171054e+01    0.2813857    0.2148471  36.96 0.0004724255    1.264    0.209
       314 -10.8556    131.9120     20.0000   5.4902422523e+01   4.9890947411e+01    0.4985188    0.2532212  58.11  0.001562221    1.786    0.440
       315  -8.3154    250.3483     25.6982   4.0649303100e+01   2.0033128314e+01    0.1401675   0.08013513 -62.91 0.0007039102    1.691    0.409
       316  -9.3009     97.1133     22.6730   6.4471890826e+01   5.7578428468e+01    0.3513685    0.1976361  33.54   0.00165024    1.808    0.447
       317  -9.3867     67.4763    147.9927   1.0968418229e+02   3.6470038477e+01    0.2164801    0.1230855 -66.31  0.001005992    1.602    0.376
       318  -9.2707     68.4681     22.5192   7.3776361047e+01   6.3107604237e+01    0.1917088    0.1777891  -5.06 0.0004967267    1.219    0.180
       319 -11.5284     30.1163    142.1212   1.1843380657e+02   4.2162517961e+01    0.5962662    0.3903022  79.12  0.002372998    1.485    0.327
       320  -8.0977    169.2969     22.3103   4.9050536572e+01   4.0184560852e+01    0.1439835    0.1026191  35.03 0.0003790309    1.596    0.373
       321  -9.8035     40.4912    146.4808   1.1634996906e+02   4.0087238476e+01    0.2399271    0.2215087  81.50  0.001026157    1.167    0.143
       322 -10.3515     38.2677    142.9947   1.1647199552e+02   4.1149656662e+01    0.3089996    0.2475419  36.24 0.0005283659    1.463    0.317
       323  -9.8979     53.7802    142.7564   1.1243788929e+02   3.9477843185e+01    0.5397586    0.2561938  62.66  0.002172556    2.926    0.658
       324  -9.8082    230.3098     19.6962   4.1043885757e+01   2.5296240909e+01    0.3581938    0.2282252 -73.74  0.001887496    1.564    0.361
       325  -9.0675     45.7682    144.4060   1.1473978831e+02   4.0008287806e+01    0.1574974    0.1302132  10.07 0.0006485259    1.660    0.398
       326  -9.6743    188.8150     19.5288   4.5510649179e+01   3.5498788329e+01    0.2583611    0.1932533  38.45 0.0004737291    1.551    0.355
       327 -10.1551    246.2104     18.7340   3.9424592923e+01   2.1787281929e+01    0.4830202     0.238527  72.28  0.002401987    2.019    0.505
       328  -8.6066     80.3930    140.8916   1.0511639048e+02   3.6336406503e+01    0.1984691    0.1191095 -50.55 0.0005393263    1.645    0.392
       329  -9.0304     98.1707    140.1691   1.0027326352e+02   3.3662328623e+01    0.2019475    0.1658764  81.91  0.000441808    1.296    0.229
       330  -9.6830     47.4543    139.1106   1.1356572905e+02   4.1090586321e+01    0.2840609    0.2093609 -80.36  0.001060441    1.191    0.160
       331 -10.2463      3.5653    136.3401   1.2444045047e+02   4.5657505286e+01    0.3167111    0.1991344  -2.71  0.001721454    2.626    0.619
       332  -9.5966    248.1299    139.3289   6.7352957231e+01   3.3706258483e+00    0.2648979     0.115251  39.72  0.001089457    2.592    0.614
       333  -9.1457    198.6610     15.9899   4.3345736801e+01   3.3406352292e+01    0.1866986    0.1662829 -32.57  0.001112575    1.225    0.184
       334  -9.6034     67.2683     13.0154   6.9797316101e+01   6.4538201512e+01    0.2689072    0.1736451  54.07 0.0009914839    1.934    0.483
       335 -10.6244     62.1416    135.1692   1.0902481265e+02   4.0272169952e+01    0.3246441    0.1806761 -71.15  0.001478889    1.719    0.418
       336  -9.7089     55.2305    137.0112   1.1118608461e+02   4.0689808714e+01    0.1946757    0.1572525 -72.63 0.0005542649    1.071    0.066
       337 -10.2653     23.0600    136.9486   1.1962539111e+02   4.4022566874e+01    0.2779206    0.1628641 -55.87  0.001267799    1.608    0.378
       338 -10.7371    236.6879    135.9836   6.8492149240e+01   6.0937728853e+00    0.4367957    0.2195285  44.07   0.00191505    2.129    0.530
       339  -9.1761    120.5418    133.8285   9.3067567923e+01   3.1075675966e+01    0.3054839     0.211318 -30.04  0.001292746    1.814    0.449
       340 -10.6774     52.5263    132.7191   1.1124208230e+02   4.2052051783e+01    0.4527088    0.2671888  30.93  0.002241741    1.970    0.492
       341 -10.6176     56.0757    126.2817   1.0919173320e+02   4.3191198057e+01    0.5443308    0.2360087 -53.53  0.002349789    2.049    0.512
       342 -10.0202     63.0024    124.2638   1.0686671771e+02   4.2811725357e+01    0.3133076    0.2224254  21.33  0.001177841    1.784    0.439
       343 -11.9877     66.8525    120.3882   1.0502017254e+02   4.3243632688e+01    0.8323973     0.664583 -74.42   0.00463892    1.183    0.154
       344 -13.3343     38.2133    119.7981   1.1319883836e+02   4.6728441090e+01     1.904559     1.365685 -74.70  0.003332494    1.200    0.167
       345  -9.3759    235.2171    249.3750   9.0579725648e+01  -9.7655168619e+00    0.1569204   0.08850713  40.01 0.0009488563    1.693    0.409
       346  -9.7620    107.6951    249.1709   1.1351588235e+02   9.6654060845e+00    0.1784648     0.121535  51.85  0.001165853    1.148    0.129
       347  -8.9396     58.3257    246.9711   1.2204442289e+02   1.6839651130e+01    0.1783173    0.0693767  82.65 0.0007046399    4.455    0.776
       348  -8.9564      3.4899    246.5319   1.3092471356e+02   2.3027804131e+01     0.167678    0.0670879 -69.43  0.001030993    2.553    0.608
       349  -9.0358    188.9335    243.9702   9.7944629676e+01  -2.2285152958e+00    0.1522915    0.1122561  32.44 0.0008700321    1.080    0.074
       350 -10.0226    141.9195    243.5610   1.0659749807e+02   5.3011063133e+00    0.3020641    0.1758467  33.60  0.001636071    1.603    0.376
