#   1 NUMBER                 Running object number                                     
#   2 MAG_AUTO               Kron-like elliptical aperture magnitude                    [mag]
#   3 X_IMAGE                Object position along x                                    [pixel]
#   4 Y_IMAGE                Object position along y                                    [pixel]
#   5 X_WORLD                Barycenter position along world x axis                     [deg]
#   6 Y_WORLD                Barycenter position along world y axis                     [deg]
#   7 A_WORLD                Profile RMS along major axis (world units)                 [deg]
#   8 B_WORLD                Profile RMS along minor axis (world units)                 [deg]
#   9 THETA_WORLD            Position angle (CCW/world-x)                               [deg]
#  10 FWHM_WORLD             FWHM assuming a gaussian core                              [deg]
#  11 ELONGATION             A_IMAGE/B_IMAGE                                           
#  12 ELLIPTICITY            1 - B_IMAGE/A_IMAGE                                       
         1  -9.8187     56.9909      9.9259   7.2184026196e+01   6.6643772535e+01     0.242156    0.1741532  42.08  0.001218354    1.520    0.342
         2  -9.4086     48.6409     10.3579   7.5836116982e+01   6.7883044715e+01    0.1631895    0.1507147 -49.74  0.001109479    1.692    0.409
         3  -9.2478     91.9729      9.5110   6.0272219540e+01   6.0132646478e+01    0.1992456    0.1200846  53.17 0.0007574165    1.581    0.368
         4  -9.8087     71.8155      6.5541   6.5093801002e+01   6.4437754026e+01     0.288329    0.1191829  52.85  0.001280941    2.536    0.606
         5  -9.2366     35.9465      6.2291   7.9426495646e+01   7.0174506545e+01    0.1476631   0.08868138  31.46 0.0008858049    1.680    0.405
         6 -10.0158    183.3233      3.6817   4.1654837600e+01   3.8527748479e+01    0.1431336   0.09091564 -65.14 0.0007044225    1.670    0.401
         7  -9.0225    117.3143      3.6519   5.1722482643e+01   5.4992057848e+01    0.1322826   0.09969362 -62.34 0.0004525548    1.721    0.419
         8 -10.2903    169.5373      2.3351   4.2887530188e+01   4.2144872223e+01    0.2509599    0.1134007  70.20  0.001086716    1.968    0.492
         9  -9.9599    161.4762      2.5026   4.3977151031e+01   4.4176631763e+01    0.1354963    0.1208477  70.67 0.0008101972    1.008    0.008
        10  -9.0677    139.4853      2.5224   4.7234456379e+01   4.9707718621e+01    0.1365838    0.1188819  53.04 4.605845e-05    1.035    0.034
        11  -9.5675     80.4442      2.0000   6.0171781945e+01   6.3214019237e+01    0.2649821   0.06567518  55.57 0.0009186344    3.806    0.737
        12  -9.8308    108.6483    222.6869   1.1048793848e+02   1.4117883109e+01    0.1774159    0.1520027  -3.13  0.001105815    1.741    0.425
        13 -11.2624    126.0264    221.0410   1.0683182068e+02   1.1636703411e+01    0.2809265    0.2555461  58.42 0.0007421121    1.087    0.080
        14  -8.8978    157.5123    221.5179   1.0063635682e+02   6.2788376885e+00    0.1297665    0.1101931  39.62 0.0002149845    1.001    0.001
        15  -9.4945    160.6725    227.3144   1.0086259775e+02   4.8030305024e+00    0.1836218    0.1622577  87.21 0.0008513749    1.419    0.295
        16  -8.9211    143.6792    217.3213   1.0278323897e+02   9.3496217557e+00    0.1317881   0.09351327  67.22 0.0007044688    1.672    0.402
        17  -9.7196    131.2053    214.7410   1.0494413116e+02   1.1921916841e+01    0.1695152    0.1491485  16.67 0.0008107759    1.348    0.258
        18  -9.5648     89.4686    199.8295   1.1168080474e+02   2.1563193747e+01     0.222289    0.1515287  62.45 0.0007664887    1.360    0.265
        19  -9.7252    126.6369    197.1310   1.0335256219e+02   1.6067676779e+01    0.2413466     0.202334 -18.77  0.001367169    1.600    0.375
        20 -11.4424    173.3018    194.7881   9.3090313239e+01   8.0790078044e+00    0.5025911    0.2943676 -35.96  0.002404692    1.940    0.484
        21  -9.1777     44.6605    194.3414   1.2046438111e+02   2.8748344739e+01    0.1340636   0.07217175  68.24 0.0007049616    1.770    0.435
        22  -9.2421    139.4833    190.0179   9.9439949564e+01   1.5204258298e+01    0.1892635    0.1219628 -82.88 0.0008089272    2.510    0.602
        23  -9.7826    156.3709    187.9224   9.5426034526e+01   1.2497409881e+01    0.2464236    0.1846692  51.98 0.0009631468    1.316    0.240
        24 -11.3069     96.4821    187.7102   1.0858474933e+02   2.3046920597e+01     0.566085    0.2219175  50.56  0.002004587    2.559    0.609
        25  -9.5402     56.3349    188.1687   1.1742896921e+02   2.8663464761e+01    0.2911669   0.09054653  53.38  0.001086904    3.471    0.712
        26 -10.0091    110.3051    186.7902   1.0537140393e+02   2.0989471178e+01    0.3418494    0.1754418  61.44  0.001396513    2.497    0.600
        27 -10.9181    210.7876    183.6171   8.3485795984e+01   3.0714658474e+00    0.4843932    0.2592877  16.43  0.001850476    3.079    0.675
        28 -10.9428     13.2658    184.1127   1.2601788833e+02   3.4209160068e+01    0.2733488    0.2292374 -38.46  0.001962621    1.822    0.451
        29  -9.7296    197.4809    182.4814   8.5863055505e+01   5.7226665547e+00    0.1392288    0.1264804  15.61 0.0002272924    1.019    0.019
        30  -9.1161    148.3033    181.6526   9.6056636124e+01   1.5242726895e+01    0.1444845    0.1102337  79.08 0.0005684587    1.692    0.409
        31 -10.1586    204.6236    176.3644   8.3225903772e+01   5.4255566254e+00    0.2926305    0.1665021 -31.13 0.0009788134    1.842    0.457
        32 -10.0566     78.0806    176.5579   1.1122603052e+02   2.8305372912e+01    0.4339433    0.1610009  52.67  0.001639259    2.997    0.666
        33  -9.4108     60.8094    177.6208   1.1528922241e+02   3.0434529922e+01    0.1886539    0.1003046  49.97 0.0009472168    1.776    0.437
        34  -9.6374    106.4879    175.9917   1.0457237367e+02   2.3973926971e+01    0.1954682    0.1173452 -88.50 0.0008092924    2.445    0.591
        35  -9.2129     45.3480    172.6861   1.1821881442e+02   3.3444155493e+01    0.1363588   0.07895755  68.78 0.0007046927    1.720    0.419
        36  -9.6586    207.8594    170.3589   8.1355761434e+01   5.8401685007e+00    0.2084881     0.121873  32.44 0.0009476623    1.753    0.430
        37  -9.7069    122.2941    170.3209   9.9934731566e+01   2.2457413128e+01    0.3060909    0.1553319  58.49   0.00117053    2.531    0.605
        38  -9.6221     55.9919    170.4962   1.1554997815e+02   3.2668033935e+01    0.1937717   0.08216971  56.08 0.0008106443    2.592    0.614
        39  -9.7558    214.4635    168.4984   7.9693070998e+01   4.9001988227e+00    0.1409357    0.1266354   1.38 0.0004945581    1.004    0.004
        40  -9.7757    100.2276    166.8861   1.0457779357e+02   2.7065832256e+01    0.3757227     0.148155  52.72  0.001328847    3.013    0.668
        41  -9.2231     20.6567    167.3196   1.2319363392e+02   3.7218595496e+01    0.1294106   0.07087247  68.62 0.0007049637    1.723    0.419
        42  -9.6639    140.3353    166.1603   9.4961468144e+01   1.9974095954e+01    0.3367828    0.1597546  59.92  0.001092019    3.472    0.712
        43 -10.0222     81.1148    165.3058   1.0892556225e+02   3.0437151064e+01    0.4292572     0.202533  66.65  0.001502654    3.573    0.720
        44  -9.5880     38.1859    165.1569   1.1905256673e+02   3.5962071192e+01    0.1785585    0.1230327  72.14 0.0005969083    1.328    0.247
        45  -9.0681    148.3499    163.7258   9.2636308313e+01   1.8922615853e+01    0.1500974    0.1142878  73.18 0.0005044263    1.634    0.388
        46  -9.5089     70.7099    163.7466   1.1120674706e+02   3.2294824647e+01    0.2133846   0.08994137  47.72 0.0008275398    2.362    0.577
        47  -9.5557      9.9821    161.8206   1.2508480902e+02   3.9382685072e+01     0.203867   0.09485155  60.19  0.001079107    2.093    0.522
        48  -9.6722     93.7457    161.0493   1.0518644095e+02   2.9469695771e+01    0.3039706    0.1525021  60.69   0.00117404    2.646    0.622
        49  -9.4850     23.9726    160.4692   1.2184038176e+02   3.8464180062e+01    0.1786528   0.07038368  54.42 0.0008098704    2.627    0.619
        50  -9.9901    106.7727    158.8526   1.0160896253e+02   2.7797682320e+01    0.4490087    0.1998158  55.68  0.001599574    2.915    0.657
        51  -9.6290    120.9747    156.8053   9.7749993634e+01   2.5713488978e+01    0.2532084    0.1603404  65.85  0.001074031    2.022    0.505
        52 -10.1606    213.4105    155.6501   7.7126194737e+01   7.3151023739e+00    0.2752195    0.1733148  38.95  0.001147066    1.597    0.374
        53 -10.0802     83.0135    155.5262   1.0693969177e+02   3.2443601859e+01    0.4243658     0.187626  60.03  0.001462985    3.484    0.713
        54 -10.2964     50.6771    155.8538   1.1501260114e+02   3.6723574704e+01    0.3487511    0.1536789  56.65  0.001484206    2.632    0.620
        55 -10.1485     69.3837    154.7971   1.1023784887e+02   3.4585563100e+01    0.4387124    0.1837232  52.39    0.0017423    2.715    0.632
        56  -9.9019    134.4015    154.0870   9.3956396128e+01   2.3759192243e+01    0.3198218    0.1921926  59.20  0.001324199    1.998    0.499
        57  -9.3261    191.0004    151.4813   8.0653947227e+01   1.2636149291e+01    0.2093139    0.1334773  68.94 0.0008100891    2.611    0.617
        58  -9.6192     99.4451    151.5068   1.0210374827e+02   3.0761577347e+01    0.2655829    0.1211061  49.76 0.0009768548    2.344    0.573
        59  -9.6920     29.4826    150.7481   1.1956587030e+02   4.0192212553e+01    0.3180963    0.1300348  63.01  0.001295222    3.204    0.688
        60 -10.4776     40.5705    148.4296   1.1657356986e+02   3.9616125178e+01    0.4628107    0.1916979  57.29   0.00190888    2.986    0.665
        61 -10.8861    109.2689    146.8000   9.8711316320e+01   3.0156548443e+01    0.7082107    0.3226286  59.72  0.002233544    3.753    0.734
        62 -10.9246     57.4252    146.7272   1.1207594122e+02   3.8078628390e+01    0.6056007    0.2626712  58.96  0.002310573    3.198    0.687
        63 -10.6251    149.9851    145.8725   8.8480656023e+01   2.2408841249e+01    0.5120914    0.3264496  82.11  0.001799479    3.161    0.684
        64  -9.8146     14.0607    146.6605   1.2285534650e+02   4.2502180832e+01     0.208805   0.08886211  39.13  0.001009557    2.429    0.588
        65 -10.3415    126.4047    144.2198   9.3851950181e+01   2.7543684385e+01    0.5045291    0.2937372  71.41  0.001746131    3.157    0.683
        66 -10.5145     88.7987    144.6886   1.0359219566e+02   3.4124592130e+01    0.3893206    0.2158589  59.72  0.001625735    2.239    0.553
        67  -9.7167      3.3595    142.7021   1.2504268899e+02   4.4214076813e+01    0.1231459   0.06968863  68.12  0.000609285    1.709    0.415
        68 -10.5076     24.7517    139.1539   1.1944684062e+02   4.3354459656e+01    0.4995771    0.1978988  54.66  0.002166671    2.996    0.666
        69 -10.1525     39.6674    136.6732   1.1527608641e+02   4.2517074141e+01    0.3029637    0.1819659  63.23  0.001333948    1.846    0.458
        70 -10.4218    114.7297    134.6743   9.4769531834e+01   3.1991133840e+01    0.4722682     0.241197  61.91  0.001580928    3.218    0.689
        71 -11.0840     84.8877    132.7350   1.0237082524e+02   3.7616985813e+01    0.6041967    0.2932843  54.36  0.002183212    2.594    0.615
        72  -9.9833    144.1125    132.5949   8.6835963463e+01   2.6549511712e+01    0.3311092    0.2242446  72.71  0.001336859    2.141    0.533
        73 -10.8920    133.2955    132.8205   8.9574939354e+01   2.8757868047e+01    0.4540332    0.2712705  69.07  0.001631123    2.768    0.639
        74 -10.8743    100.8693    129.3820   9.7311259444e+01   3.5767920327e+01    0.6412643    0.3527846  61.28  0.002437569    2.601    0.616
        75 -10.8409     74.3145    130.3851   1.0483063088e+02   3.9774047465e+01     0.402314    0.2121046  53.09  0.001723624    2.227    0.551
        76 -10.3576     13.8511    130.3572   1.2125865568e+02   4.6315141678e+01    0.3384435    0.1673179  62.70   0.00169952    2.322    0.569
        77 -10.5372    119.9636    126.8909   9.1623848141e+01   3.2796352844e+01    0.6191846    0.2784695  57.91  0.001906207    3.620    0.724
        78 -11.4576     61.2206    125.8606   1.0766443915e+02   4.2652911839e+01    0.6373057    0.3159621  58.65  0.002557989    2.834    0.647
        79 -11.3251     45.4772    124.5134   1.1188554968e+02   4.4836752501e+01     0.736981    0.3509408  63.51  0.002875311    3.311    0.698
        80 -11.2973     29.6835    123.3952   1.1614199214e+02   4.6667162386e+01    0.8054231    0.3560159  70.57  0.002916737    4.128    0.758
        81  -9.6643    181.0045    125.6733   7.6652065395e+01   1.9862302095e+01    0.2509283    0.1312416  68.86 0.0007051195    4.332    0.769
        82  -9.7660    160.2450    122.9804   8.0614230535e+01   2.5100938700e+01    0.2817518    0.1766213  82.89 0.0008994372    3.521    0.716
        83 -10.9740    143.6177    120.2763   8.3928130999e+01   2.9372048320e+01    0.5842406    0.3321242  55.08  0.001820687    1.992    0.498
        84 -10.3555     72.7975    120.9103   1.0340448330e+02   4.2291486653e+01    0.4853947    0.2118449  48.47  0.001888877    2.714    0.632
        85 -10.1627    132.4109    119.8714   8.6662578950e+01   3.1866033088e+01    0.5363202     0.277284  62.05  0.001762673    3.124    0.680
        86 -10.5417      4.0331    118.2450   1.2254172834e+02   4.9813525267e+01    0.4151411    0.1956687  62.83   0.00206526    2.561    0.610
        87 -10.9624    111.0307    115.7992   9.1360580159e+01   3.7106185591e+01    0.5561555    0.3597797  67.82  0.002150874    2.220    0.550
        88 -11.0939     80.5234    113.9187   9.9654815532e+01   4.2834319147e+01     0.640778    0.3949458  72.55   0.00259111    2.629    0.620
        89 -11.5453     95.6724    113.8669   9.5225643479e+01   4.0365554220e+01    0.8198134    0.3390285  44.18  0.003026091    2.582    0.613
        90 -10.4432    124.4013    113.5939   8.7164830890e+01   3.4952287163e+01    0.5314307    0.2310345  44.96  0.001904262    2.368    0.578
        91 -11.2834     68.4139    112.0035   1.0283965715e+02   4.5059945186e+01    0.5047615     0.259505  50.06  0.002153831    2.356    0.576
        92 -10.8293     15.0346    111.3217   1.1863531746e+02   5.0710007635e+01    0.4241975    0.2548892  77.99  0.002290229    1.846    0.458
        93 -10.1338    134.9379    110.4939   8.3581254607e+01   3.3414909460e+01    0.4218546    0.2525121  66.95  0.001533474    2.575    0.612
        94 -11.6879     47.7967    104.0465   1.0751659851e+02   4.9522861373e+01    0.9558082    0.4500704  58.14   0.00358776    3.680    0.728
        95 -11.4473     24.1954    103.6531   1.1477843249e+02   5.1837906270e+01    0.7729334    0.3553949  62.01  0.003119363    3.645    0.726
        96 -10.3935    141.4423    105.9445   8.0690978911e+01   3.2971268242e+01     0.499568     0.259387  62.43   0.00166558    2.930    0.659
        97 -10.3783    151.5245    104.7449   7.7872154927e+01   3.0933243277e+01    0.4131798    0.2619649  74.74  0.001503812    2.598    0.615
        98 -10.9529    130.8819    103.2541   8.2676687289e+01   3.5882198743e+01    0.6237485    0.2407352  49.98  0.002033379    2.841    0.648
        99 -10.4179      8.2844    104.1450   1.1965311953e+02   5.2836720590e+01    0.3082396    0.1473699  33.38  0.001663086    2.460    0.594
       100 -11.6324    112.7233    101.0727   8.7043967505e+01   4.0145965758e+01     1.035342    0.4671973  56.41  0.003325604    3.381    0.704
       101 -10.3710     83.5968    101.1785   9.5689867375e+01   4.5373720373e+01     0.501074    0.2786298  57.60  0.001991354    2.600    0.615
       102 -10.1931     95.9801     98.1668   9.1138559105e+01   4.3968993118e+01    0.3354772    0.2685409  70.45  0.001515599    1.545    0.353
       103 -10.3622     99.9889     98.0000   8.9896144022e+01   4.3279889406e+01     0.348974    0.2268893  39.39  0.001459805    1.636    0.389
       104 -11.3878     66.7805     97.5985   1.0007290472e+02   4.8717983949e+01    0.8624097    0.3646722  43.24  0.003447352    2.726    0.633
       105 -10.3753    140.7572     93.4704   7.7343683637e+01   3.5758583935e+01     0.551237    0.2850416  59.61  0.001961745    2.493    0.599
       106 -10.7746    127.5859     92.5505   8.0511130481e+01   3.8902188997e+01     0.723873     0.312598  53.11  0.002458682    2.717    0.632
       107 -11.0577     35.9089     91.0534   1.0871198986e+02   5.3802635855e+01     0.436841    0.2867745  79.19  0.001708624    2.100    0.524
       108 -10.7258      8.0068     92.9898   1.1816932351e+02   5.5441756113e+01    0.5492139     0.170228  29.61  0.002487642    3.591    0.722
       109 -11.1258     89.6330     88.5739   9.0422336772e+01   4.7251280043e+01    0.7543399    0.3594176  51.98  0.002803283    2.834    0.647
       110  -9.2271    152.9763     90.0000   7.3339718208e+01   3.3601917838e+01      0.26517   0.09058245  50.47 0.0008066707    2.972    0.664
       111 -11.2178     51.1239     86.3940   1.0251776906e+02   5.3303909893e+01    0.7120589    0.3406438  52.09  0.002836147    3.303    0.697
       112  -9.3065     20.9322     88.4636   1.1320808837e+02   5.5645737495e+01    0.1656161   0.08834956  52.31  0.000808553    2.554    0.608
       113 -11.1223    107.8626     85.0548   8.3834399954e+01   4.4622940572e+01    0.8104648    0.3874633  54.16  0.002919482    2.727    0.633
       114 -10.0192    143.0070     84.3190   7.4066317013e+01   3.7086124920e+01    0.4197097     0.194436  57.35  0.001445808    2.568    0.611
       115 -10.9991     26.7128     81.7783   1.0991573207e+02   5.6744445045e+01    0.5846536    0.2994714  39.07   0.00299299    2.382    0.580
       116 -10.5955     11.2149     81.9408   1.1531543246e+02   5.7788028906e+01    0.4891213     0.146189  36.21  0.002069769    3.970    0.748
       117 -10.8997     76.1290     81.7313   9.2811139958e+01   5.0985413478e+01    0.3979226     0.235358  55.86  0.001703239    2.434    0.589
       118  -9.6369    152.2070     81.4594   7.0984129612e+01   3.5448240049e+01     0.301622    0.1514219  48.39  0.001137736    1.998    0.499
       119  -9.7064    120.9029     81.5688   7.9029986180e+01   4.2638825122e+01     0.364413    0.2270856  66.21  0.001423917    2.349    0.574
       120  -9.0377    158.8183     77.3945   6.8243956465e+01   3.4597468946e+01    0.2289674    0.1434623  43.56 0.0009544295    1.657    0.397
       121 -10.4635    130.5325     76.7810   7.4923428646e+01   4.1453240647e+01    0.5983689    0.3014385  58.62   0.00217366    2.475    0.596
       122  -9.6062    142.7378     76.4638   7.1721605088e+01   3.8668793747e+01    0.3946453    0.1491457  48.88  0.001311647    2.630    0.620
       123 -10.7850     84.4637     74.6402   8.7911747699e+01   5.1163420411e+01     0.607539    0.3640241  58.49  0.002534262    2.534    0.605
       124  -9.9487     43.8538     73.8240   1.0188150610e+02   5.6953290773e+01    0.2664229    0.1747273  38.74  0.001451639    1.820    0.450
       125  -9.7804      8.1277     73.6190   1.1487910226e+02   5.9842998906e+01    0.2913012     0.143482  44.49  0.001504073    2.764    0.638
       126  -9.6320    117.1202     73.6642   7.7585300774e+01   4.5036838395e+01    0.3036155    0.1419167  54.68  0.001084847    2.585    0.613
       127 -10.1823    107.9133     72.9857   8.0031548612e+01   4.7102576667e+01    0.4500567    0.2201906  52.17  0.001719014    2.387    0.581
       128 -10.3518     96.9326     72.6854   8.3281446586e+01   4.9325404130e+01    0.4472143    0.3027782  62.68  0.001989014    2.081    0.519
       129 -11.0484     53.4927     71.2827   9.7661322291e+01   5.6413900690e+01    0.5606474    0.3605543  54.63  0.002756099    2.262    0.558
       130 -10.5789     18.2326     71.1745   1.1069303300e+02   5.9767421736e+01    0.3287184    0.2046457  42.26  0.001897325    2.071    0.517
       131  -9.7137    148.9726     69.3405   6.7996919164e+01   3.8474797567e+01    0.3730558    0.1443799  53.34  0.001255573    2.586    0.613
       132  -9.6858    140.3119     67.8534   6.9584241690e+01   4.0837519032e+01    0.2837335    0.2149519  64.75  0.001324886    1.467    0.318
       133  -9.8707    123.9859     67.2239   7.3573685632e+01   4.4752640409e+01    0.4504314    0.1832118  52.14  0.001569965    2.615    0.618
       134 -10.4963     39.8338     65.7917   1.0118680224e+02   5.9128638669e+01    0.4895987    0.2161358  36.16  0.002264821    2.660    0.624
       135  -9.8383     11.3156     66.5824   1.1229039073e+02   6.1222310880e+01    0.2030088   0.08176342  37.88 0.0009525729    3.245    0.692
       136 -10.2988    112.4658     64.8857   7.6003501927e+01   4.7715603580e+01    0.5661625    0.2483665  54.99  0.001992885    2.839    0.648
       137 -10.0004    102.0298     61.8884   7.8073478237e+01   5.0438771970e+01    0.3683302    0.2410258  70.75  0.001492472    2.651    0.623
       138 -10.9263     76.1245     60.7887   8.6189957568e+01   5.5376593880e+01    0.6508903    0.3172999  48.14  0.002696858    2.601    0.615
       139 -10.3223     27.0193     60.3824   1.0468029192e+02   6.1466401648e+01     0.402475    0.1686431  38.15  0.001857024    3.062    0.673
       140  -9.5468     90.2573     60.5843   8.1339375565e+01   5.2957923827e+01    0.2625599    0.1389534  47.46  0.001118026    2.106    0.525
       141  -9.5210    131.7450     58.8502   6.8735245274e+01   4.4453130994e+01    0.2880889    0.2044474  84.09  0.001228664    2.101    0.524
       142 -10.6029      9.9426     58.6969   1.1106389952e+02   6.3014417451e+01     0.430733    0.1934664  33.32  0.002248073    2.800    0.643
       143 -10.0903    121.4937     57.2558   7.0859536383e+01   4.7097451363e+01    0.4915292    0.2449189  57.81  0.001883502    2.343    0.573
       144  -9.3842    141.6907     57.4368   6.5841403801e+01   4.2304217819e+01    0.2964941    0.1512759  59.58  0.001139985    2.116    0.527
       145 -10.5649     55.6787     55.6907   9.1945699966e+01   5.9392105681e+01    0.4029365    0.3142004  75.38   0.00214274    2.172    0.540
       146 -10.3920     45.9557     56.8222   9.6105254517e+01   6.0356021808e+01    0.3968893    0.2214989  45.27  0.001931395    2.454    0.593
       147 -10.0149    108.9885     55.7826   7.3843684686e+01   5.0102196658e+01      0.32295    0.2051844  48.54 0.0008198849    1.616    0.381
       148 -10.5936     64.5778     55.7236   8.8593700643e+01   5.8152358777e+01      0.43853    0.2481199  44.52  0.002089866    2.143    0.533
       149 -10.7734     94.5407     52.1691   7.6932877375e+01   5.3683376460e+01    0.6494877    0.3237195  50.78  0.002694575    2.287    0.563
       150 -10.7215     33.2311     52.8486   9.9970947743e+01   6.2494810524e+01    0.4882505    0.2618775  44.90  0.002403017    2.729    0.634
       151 -10.0852     21.9273     53.5188   1.0484690395e+02   6.3317171030e+01     0.306674    0.1856957  33.13    0.0017819    2.044    0.511
       152  -9.6844    114.2447     47.9087   6.9505512739e+01   5.0278128536e+01    0.3610369    0.2059326  56.29  0.001558154    1.915    0.478
       153 -10.3919     83.8185     47.8414   7.8835237367e+01   5.6455859590e+01    0.4476177    0.2429839  52.71  0.001941275    2.370    0.578
       154  -9.7034    124.3454     46.9235   6.6463262692e+01   4.8133590925e+01    0.2639548    0.2069359  65.46  0.001323432    1.430    0.301
       155 -10.2504     47.0768     45.6684   9.1832725022e+01   6.2423519490e+01    0.3622967    0.1947454  32.34  0.001857957    2.062    0.515
       156 -10.5172     18.7633     45.7996   1.0393475580e+02   6.5135354078e+01     0.391178    0.1886602  27.38  0.002111454    2.438    0.590
       157 -10.3689     59.5968     43.7279   8.6089958583e+01   6.1124639656e+01    0.3878713    0.2827854  65.43  0.001945899    2.529    0.605
       158  -8.9617    134.6646     44.3518   6.3027156315e+01   4.6069013692e+01    0.1544956    0.1149389 -68.82 0.0007045628    1.788    0.441
       159 -10.4902     71.3826     42.8472   8.1287808358e+01   5.9465630244e+01    0.4817669    0.2761561  51.47  0.002228429    2.364    0.577
       160 -10.5413      6.5652     43.2161   1.0855594593e+02   6.6432787045e+01    0.3436061    0.2526775  52.34  0.002174616    2.028    0.507
       161 -10.0365    107.8430     42.5986   6.9327072077e+01   5.2517417997e+01    0.3539433     0.243421  56.46   0.00172867    1.592    0.372
       162 -10.2805     38.4162     41.6046   9.3982264959e+01   6.4183141055e+01    0.3248964    0.2090562  44.52  0.001789438    2.179    0.541
       163 -10.1113     97.5118     39.1918   7.1060972679e+01   5.5218752889e+01    0.3747708    0.2003746  53.64  0.001641909    2.077    0.518
       164  -9.9053     82.5765     37.9933   7.5394828294e+01   5.8315061232e+01    0.3071901    0.2367415  62.35  0.001635568    1.799    0.444
       165  -9.9193    113.7809     36.2089   6.5262902162e+01   5.2145502579e+01    0.3278871    0.2348134  81.75  0.001522623    2.083    0.520
       166 -10.5069     27.8937     36.7701   9.6853616871e+01   6.6143845043e+01    0.3465505    0.1946449  37.96  0.001903267    2.329    0.571
       167  -9.3140    105.7822     35.4156   6.7150024972e+01   5.4029214250e+01    0.2015906    0.1233953  40.30 0.0009475388    1.581    0.368
       168  -9.5488    121.0767     34.2522   6.2649404692e+01   5.0739719835e+01    0.3531858    0.1734612  61.89  0.001412226    2.288    0.563
       169 -10.5415     62.8887     33.6925   8.0770437423e+01   6.2347607704e+01    0.4068326    0.2337221  49.98  0.001965527    2.376    0.579
       170 -10.3027     51.5757     33.7291   8.5325808737e+01   6.3988402925e+01    0.3741098    0.2134473  46.09  0.001876879    2.384    0.580
       171 -10.3911     74.7385     32.6269   7.5909508296e+01   6.0555836838e+01    0.4393088    0.2198562  51.96  0.001919557    2.586    0.613
       172 -10.2542     14.1324     31.6072   1.0141728791e+02   6.8232075811e+01    0.2733839    0.1955713  49.31  0.001662427    2.260    0.558
       173  -9.2096    221.9961     30.7513   4.4613925603e+01   2.5913858034e+01    0.1783288     0.111268  72.06  0.000886672    1.587    0.370
       174  -9.8500    103.1493     30.2171   6.5838032491e+01   5.5318393635e+01    0.3099199    0.1849838  58.15  0.001446794    1.851    0.460
       175 -10.3790     83.5939     28.9841   7.1321029389e+01   5.9469535171e+01    0.4056624    0.2871426  70.52  0.001981307    2.346    0.574
       176  -9.5522     43.6219     30.6399   8.7419785116e+01   6.5541675943e+01     0.283515     0.108346  38.24  0.001249006    3.011    0.668
       177 -10.0952      4.9782     28.6213   1.0484661651e+02   6.9376292150e+01    0.2443556     0.174051  47.99  0.001582415    2.245    0.554
       178 -10.2028     93.4729     27.7328   6.7660287991e+01   5.7687137399e+01    0.3788189     0.246592  67.49  0.001778071    2.245    0.555
       179  -9.1645    111.0552     28.0000   6.2806976540e+01   5.3863359338e+01    0.2309421   0.07604124  55.17  0.000800178    2.927    0.658
       180  -9.3726    106.2784     23.5875   6.2310500443e+01   5.5480707356e+01    0.2599265     0.133765  60.65  0.001120542    2.153    0.535
       181 -10.6661     51.5693     22.3230   8.0352218218e+01   6.5800894202e+01    0.4907852    0.2076728  41.57  0.002275201    2.631    0.620
       182 -10.3798     65.1627     21.6245   7.4604471906e+01   6.3789681273e+01    0.3522007    0.2315276  47.32  0.001943587    1.765    0.434
       183  -8.9059     34.9497     23.0000   8.8032693273e+01   6.7833891453e+01    0.1781773   0.06539448  31.14 0.0008017194    2.937    0.660
       184  -9.4434     20.9889     22.4984   9.4548642184e+01   6.9326373504e+01    0.1408667   0.09551898  47.55 0.0008103745    2.541    0.606
       185 -10.4843     76.2375     20.4365   7.0070264202e+01   6.2001393519e+01    0.4742562    0.2630564  54.80  0.002275395    2.222    0.550
       186  -8.9516     12.4712     21.5201   9.8451976213e+01   7.0185025928e+01    0.1174921   0.08616936 -30.64 0.0001616148    1.016    0.016
       187  -9.8002     40.7019     19.1604   8.3634805167e+01   6.7744317888e+01    0.2534939     0.153521  39.61   0.00144497    1.993    0.498
       188 -10.1478     90.1160     18.0246   6.4543503420e+01   5.9592701862e+01    0.3731761    0.1884199  51.42  0.001748175    1.923    0.480
       189  -9.7876     31.6839     17.1966   8.6936890577e+01   6.9121471290e+01    0.2430783    0.1529959  42.69  0.001403241    2.283    0.562
       190  -9.9363     98.6563     16.0138   6.1235825124e+01   5.8024356758e+01    0.2893804    0.1887859  64.94  0.001459717    1.811    0.448
       191  -9.4192     17.9850     14.7520   9.2691463695e+01   7.0881756260e+01    0.1529057    0.1302098  48.99  0.001059526    1.993    0.498
       192  -9.0034      8.3602     15.6811   9.8210850849e+01   7.1489267051e+01   0.09436328   0.08902499  83.41 0.0007043221    1.765    0.433
       193  -9.7035     40.8637     12.9115   8.0552107619e+01   6.8630809321e+01    0.1987928    0.1364831  -8.35  0.001234741    1.293    0.226
       194  -9.6217     85.2053     11.5554   6.3155357824e+01   6.1314866144e+01    0.2382027    0.1248915  56.91   0.00112766    2.071    0.517
       195  -9.2513     77.9585     11.0000   6.5172901777e+01   6.2801256041e+01    0.2059859   0.06792266  51.34 0.0008010961    2.933    0.659
       196 -11.0311    166.2907    248.9390   1.0277000235e+02   6.5150732509e-01    0.2537439    0.1480479  35.05  0.001405662    1.417    0.294
       197 -10.3657    245.6847    247.6538   8.8544954578e+01  -1.1013587181e+01    0.3590858    0.1335424  36.26  0.001858196    2.238    0.553
       198  -8.9763    107.5255    248.5166   1.1348195424e+02   9.7972006230e+00    0.1178589   0.09211659  53.76 0.0001973064    1.017    0.017
       199 -11.0660    173.9142    244.7038   1.0080292630e+02   4.0886528194e-02    0.2918694    0.2089926  89.91  0.001584337    2.787    0.641
       200 -10.5673    167.9061    242.4887   1.0161269839e+02   1.3132199875e+00    0.1919896    0.0987049  39.92 0.0007925908    1.566    0.361
       201 -10.0586    237.2214    240.0203   8.8761655366e+01  -8.9994021901e+00    0.2879831    0.1286363  28.41   0.00135571    1.992    0.498
       202  -9.2938     73.6586    229.3192   1.1790837574e+02   1.8010759552e+01    0.1285837   0.07049178  65.17 0.0007049625    1.717    0.417
       203 -11.0541    163.9606    225.9887   1.0003126001e+02   4.4627811564e+00    0.3367774    0.2782401  50.98  0.001470654    1.196    0.164
       204 -11.2489     98.9721    226.5340   1.1281402268e+02   1.4892618847e+01    0.3408214    0.2039224  34.32  0.001881736    1.758    0.431
       205 -11.3948     87.9283    226.4410   1.1493408794e+02   1.6541073420e+01    0.3775202    0.2625818 -37.83  0.002149821    2.387    0.581
