#   1 NUMBER                 Running object number                                     
#   2 MAG_AUTO               Kron-like elliptical aperture magnitude                    [mag]
#   3 X_IMAGE                Object position along x                                    [pixel]
#   4 Y_IMAGE                Object position along y                                    [pixel]
#   5 X_WORLD                Barycenter position along world x axis                     [deg]
#   6 Y_WORLD                Barycenter position along world y axis                     [deg]
#   7 A_WORLD                Profile RMS along major axis (world units)                 [deg]
#   8 B_WORLD                Profile RMS along minor axis (world units)                 [deg]
#   9 THETA_WORLD            Position angle (CCW/world-x)                               [deg]
#  10 FWHM_WORLD             FWHM assuming a gaussian core                              [deg]
#  11 ELONGATION             A_IMAGE/B_IMAGE                                           
#  12 ELLIPTICITY            1 - B_IMAGE/A_IMAGE                                       
         1 -12.2331    170.0878     59.3295   7.5206085004e+01   3.4992455135e+01     2.765589     1.386567 -60.22  0.008192874    4.256    0.765
         2 -12.7832     77.4521     49.6851   9.6211045351e+01   5.6401449653e+01       2.0842     1.321544   9.48  0.009393346    2.627    0.619
         3 -10.7079    215.9020     28.8322   5.8324538271e+01   2.7198400273e+01        1.136    0.4272051 -55.66  0.003041917    5.297    0.811
         4 -10.4051     14.2368     45.8841   1.1807169080e+02   6.4115049782e+01    0.4482982    0.1557996 -46.76  0.002168716    2.465    0.594
         5 -11.7293    130.0240     11.4543   6.6306194385e+01   5.1601279873e+01    0.5809363    0.2981992 -26.58 0.0007058747    1.895    0.472
         6  -9.5726    124.6874     15.1181   6.9013151416e+01   5.2468581750e+01    0.3355105    0.2833011  61.81  0.000873484    1.275    0.216
         7  -9.9741    142.1376     12.4179   6.4217242770e+01   4.8461384548e+01    0.3053461    0.2350874 -12.92 0.0006122012    1.307    0.235
         8  -8.1066     80.3539     12.2580   8.0101949894e+01   6.2310975561e+01    0.2309902    0.1489608 -35.95  0.001025807    1.489    0.328
         9  -8.7539    143.4127      2.0741   5.9880359141e+01   4.9180705247e+01    0.2753905    0.2268253   7.05  0.001476047    1.219    0.180
        10  -8.5901    184.2435      1.8228   5.3763091576e+01   3.8337274695e+01    0.3218556    0.1986335 -84.44  0.001409152    1.943    0.485
        11  -9.0484    136.1489     61.1574   8.3301172804e+01   4.2840391284e+01    0.2692612    0.2557908  -4.53  0.001459299    1.036    0.035
        12 -11.9827    112.7332    246.4781   1.2082334509e+02   1.5052081519e+01    0.6525957    0.4798074  55.62  0.003142948    1.054    0.052
        13 -10.1856    117.3040    223.9922   1.1812098178e+02   1.7401870917e+01    0.2278101    0.1500048 -63.14  0.001642054    1.887    0.470
        14  -9.8747    113.7350    220.8963   1.1841669092e+02   1.8343535763e+01    0.1802871    0.1634295  86.63  0.001507427    1.304    0.233
        15  -9.1566    248.1406    219.1523   9.6481821933e+01  -2.1762806977e+00     0.215021   0.09666282  35.50  0.001269816    1.670    0.401
        16  -9.7310     11.2260    207.0008   1.3427878130e+02   3.2489848850e+01    0.2893519    0.1321842  38.25  0.002050829    2.117    0.528
        17 -11.2813    248.7984    193.2707   9.2232656331e+01   6.4574551204e-02    0.8179223    0.4839919  43.56   0.00505117    1.548    0.354
        18 -10.2043    250.0023    186.9841   9.0963642944e+01   4.7902754977e-01    0.3802377    0.2601356 -31.17  0.002467707    1.765    0.433
        19  -8.8139    249.0891    173.1376   8.8609662481e+01   2.0312540675e+00    0.2050153      0.13635  20.15  0.001251778    1.311    0.237
        20 -10.9896    189.9676    165.2230   9.7133898503e+01   1.3728637774e+01    0.3497934    0.3349196 -55.42  0.002343865    1.290    0.225
        21 -10.3937    192.5365    159.3062   9.5568815713e+01   1.4080103892e+01    0.3271651    0.2354425  69.04  0.001727509    1.948    0.487
        22  -9.7431    198.6951    152.1058   9.3052788373e+01   1.3910177135e+01    0.1996231     0.173915 -54.16  0.001204546    1.457    0.314
        23  -8.2188    236.0573    145.9981   8.5355984843e+01   7.4487235203e+00    0.2043342    0.1689836  14.33 0.0005370071    1.037    0.036
        24  -7.4004    249.8028    134.0246   8.0630351121e+01   6.2596738130e+00    0.1634671   0.09481857 -23.95 0.0003400113    1.665    0.399
        25  -7.7527    234.3856    132.2877   8.2698334704e+01   9.4803975014e+00    0.1686172     0.120425 -31.27 0.0008678057    1.464    0.317
        26  -7.6134    249.3133    128.6792   7.9536538729e+01   6.9878260993e+00    0.1212169    0.1042371 -55.86 0.0007038843    1.653    0.395
        27  -8.6641    203.5316    111.6402   8.3252949760e+01   1.8857541874e+01    0.2948422    0.2158223  24.19 0.0006211558    1.434    0.303
        28  -8.2498    243.3089    102.3436   7.4359114460e+01   1.1461539822e+01    0.1479505   0.09715594  15.51 0.0007044316    1.696    0.411
        29  -8.7029    241.0000     96.9571   7.3391961072e+01   1.2643241275e+01    0.2283553   0.07482377 -27.39 0.0005478479    2.903    0.655
        30  -9.9076    185.5901     91.2329   8.1422126790e+01   2.6143117509e+01    0.3146717    0.1493222 -31.82  0.001009663    2.151    0.535
        31  -9.3012    242.0000     89.4885   7.1384795820e+01   1.3382013000e+01    0.3132277   0.07506499 -27.30 0.0007548185    3.940    0.746
        32  -8.5023    153.6482     88.3242   8.7310127874e+01   3.4028047992e+01    0.1533329    0.1187378 -81.02 0.0007047961    1.757    0.431
        33  -9.9281    133.0310     82.5257   9.0535517867e+01   3.9612696691e+01    0.3228557    0.2430452 -39.76 0.0005956274    1.314    0.239
        34  -8.2046    207.0262     82.4003   7.5096257684e+01   2.2401544545e+01    0.2454712    0.1978135  -6.25 0.0006512064    1.275    0.216
        35  -8.6591    123.3193     82.8382   9.3053069908e+01   4.1561438001e+01    0.2380731    0.1938271  60.53 0.0005497403    1.329    0.247
        36 -10.2003    142.5963     80.5147   8.7659679572e+01   3.7915694182e+01    0.4013016    0.2870659  -7.55  0.001804407    1.902    0.474
        37 -11.1594    183.9365     77.6546   7.7979029804e+01   2.8702500476e+01    0.5641879    0.4961056  52.85   0.00150014    1.154    0.133
        38  -9.6875    169.7686    246.9851   1.1210256569e+02   6.9387379141e+00      0.16351    0.1065291  58.88  0.001170577    1.635    0.389
        39 -10.2555    168.4676     77.8944   8.1148426910e+01   3.2397257764e+01    0.3831291    0.2299883  53.77  0.001656926    1.674    0.403
        40 -10.2934    102.1511     69.3607   9.4874452491e+01   4.8304591109e+01    0.3127325    0.2570917 -42.80 0.0006846192    1.145    0.126
        41  -9.8759    124.2301     67.1610   8.8206813611e+01   4.4368097239e+01    0.3595504    0.2587317 -38.87 0.0005922085    1.347    0.257
        42  -9.4631    108.0803     36.9203   8.2111663002e+01   5.3090504569e+01    0.4738004    0.2742162  41.72  0.002165449    1.802    0.445
        43 -11.1633     95.8498     38.3332   8.6249013545e+01   5.5294553088e+01      0.87001    0.5275922  47.17  0.004214673    1.781    0.438
        44 -11.4538     65.8977     63.5741   1.0424343872e+02   5.5262058440e+01    0.6084576    0.3346433 -43.49   0.00303675    1.703    0.413
        45  -9.2769    164.3811    226.2427   1.1062890247e+02   1.0086767781e+01    0.1235455    0.1042092 -72.17 0.0009498408    1.634    0.388
        46 -10.7497    228.2552     47.5567   6.2138545414e+01   2.1887995729e+01    0.9765371    0.2379536 -45.16  0.002252487    6.745    0.852
        47  -9.7904    164.9807    242.7613   1.1238968825e+02   8.0979752750e+00    0.2234139    0.1286575 -23.45  0.001309804    3.513    0.715
        48  -9.3113     87.8599    243.1892   1.2437632282e+02   1.8710949274e+01    0.1258372   0.09845574  46.86  0.001074399    1.329    0.247
        49 -10.2614    161.2568     80.0957   8.3316567536e+01   3.3730450737e+01    0.4824107    0.1635418  44.99  0.001552904    3.032    0.670
        50 -10.1451     94.4811     52.3852   9.1735425118e+01   5.3002131662e+01    0.2716081    0.2509432  10.70 0.0002332464    1.138    0.121
        51  -7.8639    189.8334     36.7841   6.4467615900e+01   3.3066533717e+01    0.2070911    0.1717893 -54.67 0.0004807223    1.311    0.237
        52 -10.5254    138.5904     40.5315   7.5647250115e+01   4.5649033814e+01    0.5749117     0.508261 -14.50  0.001846011    1.108    0.098
        53  -8.0504    140.0630     28.9824   7.1048486720e+01   4.6949570653e+01    0.2170779    0.2012445  13.47 0.0003345388    1.033    0.032
        54  -9.0622     80.3679     22.7747   8.4879695143e+01   6.0727347053e+01    0.2365522    0.2294002  18.13  0.000692272    1.201    0.167
        55  -8.2674     84.9212     21.3750   8.2754098839e+01   6.0121690932e+01    0.2080723    0.1722115 -35.95  0.000508433    1.206    0.171
        56  -8.7159    158.2826     20.4116   6.4221226872e+01   4.3382024368e+01    0.2759382    0.1683905 -44.18  0.001199168    1.793    0.442
        57 -10.2617    128.2833     47.6241   8.0673156288e+01   4.6929743445e+01     0.358416    0.2662797 -14.91  0.001064183    1.462    0.316
        58  -8.4184     34.6448     18.1278   1.0088256775e+02   6.7990052845e+01    0.2688129    0.1036958 -34.44  0.001135349    2.898    0.655
        59 -10.0177     74.9345     17.3918   8.4351532712e+01   6.2520485058e+01    0.2368182    0.2008962 -36.96 0.0003073135    1.223    0.182
        60  -8.1961    189.9238     15.2372   5.7471612093e+01   3.5520713823e+01    0.2478438    0.2088761 -13.66 0.0006076719    1.212    0.175
        61 -10.4970    113.9219    237.4009   1.1988260137e+02   1.6060717898e+01    0.2720677    0.2138442  51.69  0.001381463    1.134    0.118
        62  -8.1527    180.7848    242.9265   1.0996229638e+02   5.7403128635e+00    0.1499672    0.1042963  34.58  0.000311191    1.171    0.146
        63 -10.2888    188.8373    233.1965   1.0755708352e+02   5.5420783684e+00    0.2444377    0.2267806  72.12  0.001825891    1.476    0.323
        64  -8.4622     89.3293    233.6627   1.2346019242e+02   1.9831057460e+01    0.1076615   0.05649103  64.05 0.0007051967    1.732    0.423
        65 -10.3579    155.1268    228.6960   1.1241363305e+02   1.1205330285e+01    0.4490448     0.286193   2.03  0.002263636    4.123    0.757
        66 -10.5017     73.8043    248.6794   1.2684189816e+02   1.9690819993e+01    0.3404291    0.2350979  37.13   0.00277948    1.690    0.408
