#   1 NUMBER                 Running object number                                     
#   2 MAG_AUTO               Kron-like elliptical aperture magnitude                    [mag]
#   3 X_IMAGE                Object position along x                                    [pixel]
#   4 Y_IMAGE                Object position along y                                    [pixel]
#   5 X_WORLD                Barycenter position along world x axis                     [deg]
#   6 Y_WORLD                Barycenter position along world y axis                     [deg]
#   7 A_WORLD                Profile RMS along major axis (world units)                 [deg]
#   8 B_WORLD                Profile RMS along minor axis (world units)                 [deg]
#   9 THETA_WORLD            Position angle (CCW/world-x)                               [deg]
#  10 FWHM_WORLD             FWHM assuming a gaussian core                              [deg]
#  11 ELONGATION             A_IMAGE/B_IMAGE                                           
#  12 ELLIPTICITY            1 - B_IMAGE/A_IMAGE                                       
         1 -14.8534     68.3789    144.3144   1.0370440068e+02   3.7408961516e+01     4.889701     2.593014  73.15  0.005613035    3.711    0.731
         2 -13.8958    223.9555     19.9302   3.6662293932e+01   2.7772336861e+01     0.942315    0.8424687  36.93  0.002711194    1.438    0.304
         3 -14.0982    207.6450     35.4886   4.2101781123e+01   2.9617827804e+01     1.768262     1.406278  11.06  0.007893945    1.728    0.421
         4  -9.5726    132.0320     10.0678   4.5692804380e+01   5.0581932577e+01    0.2009437     0.150667 -70.09 0.0006116157    1.646    0.392
         5 -11.8476    246.5507      2.1431   3.1097384978e+01   2.4890743881e+01    0.5442355    0.2103706  77.65  0.002691443    2.507    0.601
         6 -10.7421     49.4310      2.9746   6.5576764203e+01   6.8390968894e+01     0.204927    0.1602326  45.84 0.0006665009    1.572    0.364
         7 -11.1691    193.3763    195.2328   8.2730570401e+01   5.0044585267e+00    0.8731694    0.4643102 -62.60  0.002555099    6.326    0.842
         8 -10.8309    140.0443    249.6205   1.0231713907e+02   4.3281527667e+00    0.2330878    0.1955502  54.28  0.001571679    1.251    0.201
         9 -10.6790    134.6666    249.4032   1.0335102452e+02   5.1586080483e+00    0.3145932    0.1817917 -68.35  0.001635152    2.647    0.622
        10 -13.9186     86.0675    227.4041   1.1066738779e+02   1.6150868260e+01     1.130992    0.8851766 -63.79  0.007249007    1.403    0.287
        11 -15.4560      3.9312    181.0667   1.2400414213e+02   3.5162600110e+01     9.258303    0.1921559 -75.75   0.01784172   14.330    0.930
        12 -15.8533     54.8425    247.3883   1.1854881682e+02   1.6360088138e+01      9.24126     2.597244  27.68   0.01320102    9.319    0.893
        13 -13.2668     34.5478    205.2444   1.1931414037e+02   2.7063100797e+01    0.5859329    0.4312402 -48.16  0.001049428    1.745    0.427
        14 -16.0495     41.0360    193.4641   1.1691166595e+02   2.8955065481e+01     6.912844     2.969847  67.15   0.02881145    3.024    0.669
        15 -10.3554    209.4694    198.6595   8.0155230355e+01   1.7399396292e+00    0.2203632    0.1910368 -45.86 0.0006854318    1.468    0.319
        16 -10.2938     60.4961    198.3292   1.1306800953e+02   2.5609845373e+01    0.2179166     0.172574  61.23 0.0002922545    1.145    0.126
        17  -8.6802    159.7259    197.3032   9.0293152073e+01   1.0447384650e+01    0.1302761    0.1107095  73.08 0.0002214002    1.539    0.350
        18  -9.9189    109.1272    192.4645   1.0106983933e+02   1.9992426176e+01    0.2684468    0.1818099 -85.38  0.001245007    1.953    0.488
        19 -14.9317      9.3092    207.5598   1.2454118063e+02   2.8999466933e+01     1.180405     1.084548 -25.33  0.007455973    1.631    0.387
        20 -14.7319      5.5714    245.7392   1.2710224115e+02   2.1875403354e+01     1.195292     0.737788  51.56  0.007442515    1.309    0.236
        21 -10.3408    144.3689    179.5979   9.0532486440e+01   1.6751185152e+01    0.3656696     0.292208 -88.10  0.001823863    1.698    0.411
        22  -9.7285     99.3234    181.0758   1.0165257133e+02   2.4083339058e+01    0.2246534    0.1964271  20.11 0.0006399102    1.275    0.215
        23 -12.1290     62.1168    177.9276   1.1032066173e+02   3.0067795681e+01    0.4350742    0.3030971 -31.26  0.002241463    2.019    0.505
        24 -11.9974     67.2613    172.5720   1.0834715373e+02   3.0677256539e+01    0.3304919    0.2712339 -36.73  0.000747386    1.456    0.313
        25  -9.4374    150.2619    178.4180   8.8929964586e+01   1.5928657319e+01    0.2283005    0.1797349 -74.80 0.0006265906    1.680    0.405
        26 -11.2023    122.4865    174.3456   9.4814264599e+01   2.1784878138e+01    0.4841718     0.180891  32.50  0.001631037    3.037    0.671
        27 -13.6142     64.2566    158.9753   1.0717975079e+02   3.4339214622e+01     0.600926    0.4392168 -42.68  0.001791091    1.513    0.339
        28 -12.9208     84.1229    156.4985   1.0148945517e+02   3.2210170986e+01     1.209885     0.660665 -54.51  0.001391809    1.732    0.422
        29 -14.5780     19.7821    220.4610   1.2329952145e+02   2.5380845905e+01     1.540254     0.787429  57.80  0.009251868    1.653    0.395
        30 -10.8768    134.1234    146.4189   8.6225894285e+01   2.5993562137e+01     0.859985     0.189573 -52.18  0.001980457    5.783    0.827
        31  -9.7278    174.8851    149.1591   7.7070063366e+01   1.7268075252e+01     0.228477    0.2157424  88.75  0.000654195    1.269    0.212
        32  -9.2849     72.9727    172.7802   1.0694510729e+02   2.9870572727e+01    0.1823821    0.1656683  70.71 0.0002102048    1.056    0.053
        33 -11.2350     32.3622    144.1771   1.1368761421e+02   4.1463690508e+01    0.3726145    0.2642608  79.41   0.00210976    1.443    0.307
        34 -10.0851    100.9791    139.2804   9.3545342503e+01   3.3722135514e+01    0.4004441    0.2601878 -21.37  0.001634093    2.280    0.561
        35 -12.4443     86.4360    140.9953   9.7989451129e+01   3.5650808178e+01    0.3184485    0.2597591 -46.46 0.0005553393    1.199    0.166
        36 -10.7903     98.4711    142.4957   9.4916689843e+01   3.3364918501e+01     0.316385    0.2733663  52.17 0.0008507769    1.214    0.177
        37 -10.4283     27.0445    135.2206   1.1400395335e+02   4.4123533107e+01    0.2151674    0.1618436 -75.48 0.0004779875    1.129    0.114
        38 -12.3071     77.0100    162.3946   1.0435019835e+02   3.1804299040e+01    0.7104579    0.3662107 -60.07 0.0006375251    1.820    0.450
        39 -10.2469    137.8818    169.9197   9.0213427206e+01   2.0017381035e+01    0.3053035     0.272319  78.49  0.001452312    1.297    0.229
        40  -9.4661    158.5516    134.4839   7.7378494986e+01   2.3701719946e+01    0.1543533    0.1496691 -27.24 0.0004716121    1.041    0.040
        41 -11.0187    107.5894    131.0621   8.9869613296e+01   3.4543379405e+01     0.587467    0.3468171  36.08  0.002509186    1.769    0.435
        42 -11.1436    135.8159    128.2222   8.1511511542e+01   2.9782782487e+01    0.4615038    0.1810062 -50.97  0.001504855    2.744    0.636
        43  -9.8737    160.7699    127.7477   7.5193135228e+01   2.4664843448e+01    0.2535407    0.1213853 -51.80  0.000885703    2.420    0.587
        44 -11.3176     96.7339    127.3271   9.2125419758e+01   3.7324865235e+01    0.3191536    0.2711073 -21.80 0.0008879993    1.285    0.222
        45 -10.4481    116.3300    125.4541   8.6088041914e+01   3.4254937316e+01    0.3500598    0.2558932 -65.12  0.001587239    1.583    0.368
        46  -9.1845    158.5547    162.0261   8.3659664467e+01   1.7818884647e+01    0.2046363    0.1349885 -70.58 0.0007227006    2.462    0.594
        47  -9.9124    106.7710    119.7884   8.7413399595e+01   3.7359614736e+01     0.218277     0.196301 -23.93 0.0003933005    1.128    0.114
        48  -9.6384     82.0443    117.2822   9.4220005718e+01   4.2118191832e+01    0.3712015     0.175836  38.83  0.001485523    2.235    0.553
        49  -9.3693    168.2411    113.0908   6.9710755885e+01   2.6064055164e+01    0.2628911    0.1807722 -66.56  0.001078398    2.056    0.514
        50 -10.0399    205.4928    110.2061   6.1393068793e+01   1.8419979564e+01    0.3147196     0.210998  39.90  0.001166227    1.638    0.389
        51  -9.0762    125.5001    154.4898   9.0179850403e+01   2.5770838673e+01     0.148947    0.1471751  82.64 2.979883e-05    1.041    0.039
        52  -9.9412    134.5742    105.3641   7.5851265293e+01   3.5071172965e+01    0.3246263    0.1367144 -55.00 0.0009586463    3.503    0.715
        53 -10.4236     53.1631     91.0236   9.7451135754e+01   5.2292479038e+01     0.259104    0.1922671 -73.49  0.000928489    1.577    0.366
        54  -9.8124     41.7632     92.0663   1.0176095785e+02   5.3285556421e+01    0.1934312    0.1709338 -66.11 0.0004584118    1.166    0.142
        55 -11.0632    249.5766     87.3869   4.9185352201e+01   1.3189430424e+01    0.2599324    0.1669227 -50.31 0.0007923943    1.458    0.314
        56  -9.2293    234.6532     86.3166   5.0928551558e+01   1.6330029951e+01    0.1433726   0.09791403 -64.54 0.0007048167    1.723    0.420
        57  -9.3220     72.8492     83.7825   8.8518548843e+01   5.1300872537e+01      0.18525    0.1708334  79.68 0.0005694858    1.374    0.272
        58  -9.1312    160.2421     82.0208   6.2909916566e+01   3.3879288949e+01    0.2024371    0.1277331 -35.93 0.0005158702    1.570    0.363
        59  -8.8655    151.2774     82.6955   6.5142156823e+01   3.5855985493e+01    0.1502391     0.121207 -71.96 0.0002732759    1.547    0.354
        60  -9.4413     90.1964     65.4961   7.6727457066e+01   5.2145629605e+01    0.2934046    0.2126619  79.32  0.001245399    2.710    0.631
        61  -9.8273     47.3870     61.9836   9.1409057034e+01   5.9349070904e+01    0.1900262    0.1743259   6.18  0.000403094    1.204    0.169
        62  -8.8012     59.5078     61.5028   8.6436968927e+01   5.7896216743e+01    0.1383645    0.1191516 -21.35 -0.0001616206    1.013    0.013
        63 -10.5872     13.5255     59.8371   1.0498815879e+02   6.2809668624e+01    0.2191691    0.1791674 -41.79 0.0004115996    1.057    0.054
        64 -11.6213     72.1554    228.5239   1.1362780968e+02   1.7793628983e+01    0.3968655    0.2649068 -57.57  0.002098787    1.695    0.410
        65 -13.5157    199.1142     41.6854   4.4763057073e+01   3.0819125492e+01     1.172189    0.7772913  32.36  0.003552116    2.062    0.515
        66  -9.7285    198.7785    222.8054   8.6613516023e+01  -4.1541224440e-01    0.1922197    0.1499878   6.95 0.0004777139    1.139    0.122
        67  -9.7972    157.2017     47.4308   5.3148573852e+01   4.0187476670e+01    0.3643423     0.191913 -61.50  0.001301261    3.198    0.687
        68  -9.5279    136.8135     42.8859   5.5898475983e+01   4.5742794817e+01    0.1902089    0.1683176 -75.29 0.0004726793    1.316    0.240
        69 -10.1479    139.2443     37.1391   5.3457850175e+01   4.5921456844e+01    0.2494971    0.2121975  85.56 0.0004997635    1.328    0.247
        70 -12.3980    215.9268     28.0870   3.9360631326e+01   2.8623590140e+01    0.4287068    0.3637467  31.85  0.001121138    1.516    0.340
        71  -9.9572    189.8097     15.3187   3.9009070775e+01   3.6116780925e+01    0.2197576    0.1622631 -48.20 0.0007363045    1.344    0.256
        72 -15.0498      9.0762    234.2033   1.2598565002e+02   2.3699901554e+01     1.694752    0.8049242  68.62   0.01034665    1.772    0.436
        73 -11.8951    184.0804    215.7220   8.8348289052e+01   3.0435423625e+00    0.3226273    0.2181339  40.37  0.001369026    1.448    0.310
