#   1 NUMBER                 Running object number                                     
#   2 MAG_AUTO               Kron-like elliptical aperture magnitude                    [mag]
#   3 X_IMAGE                Object position along x                                    [pixel]
#   4 Y_IMAGE                Object position along y                                    [pixel]
#   5 X_WORLD                Barycenter position along world x axis                     [deg]
#   6 Y_WORLD                Barycenter position along world y axis                     [deg]
#   7 A_WORLD                Profile RMS along major axis (world units)                 [deg]
#   8 B_WORLD                Profile RMS along minor axis (world units)                 [deg]
#   9 THETA_WORLD            Position angle (CCW/world-x)                               [deg]
#  10 FWHM_WORLD             FWHM assuming a gaussian core                              [deg]
#  11 ELONGATION             A_IMAGE/B_IMAGE                                           
#  12 ELLIPTICITY            1 - B_IMAGE/A_IMAGE                                       
         1 -11.1081     23.9423     32.3658   1.1067475284e+02   6.6401879539e+01     1.305097    0.5519262 -27.71  0.003638757    2.470    0.595
         2 -10.3536      7.2723     28.5033   1.1660264648e+02   6.8378784911e+01    0.4716381     0.373888  49.38  0.002832385    2.269    0.559
         3  -9.7619     50.5369     15.5105   9.3125430753e+01   6.5451908823e+01     1.401491    0.6276561  -7.08  0.005197458    4.832    0.793
         4 -10.3350     76.0115     31.9533   9.0873358027e+01   5.9437045035e+01    0.5603116    0.4311736 -69.89  0.002974791    2.456    0.593
         5 -10.0633     64.3748     13.0150   8.7218208990e+01   6.3570377760e+01    0.3809565    0.2621694 -15.55  0.001730039    1.422    0.297
         6  -9.4818     63.2806     21.6291   9.1087214755e+01   6.2810957328e+01     0.385785    0.2196286 -46.48  0.001053329    2.686    0.628
         7  -8.5154     95.9771     16.9847   7.9506697603e+01   5.7377907119e+01    0.2411935    0.1586819 -33.76 0.0004632906    1.733    0.423
         8  -8.4231     96.5255     12.9444   7.7894821144e+01   5.7653137080e+01    0.2849879    0.1531263  12.44  0.001339279    2.607    0.616
         9  -9.2920    103.1125     22.7068   7.9745453045e+01   5.5340947296e+01    0.4349368    0.2549886 -30.45   0.00206564    1.859    0.462
        10  -9.3947    197.5836     19.8582   6.2524063093e+01   3.3765864214e+01    0.5444126    0.2502009 -79.52  0.002078677    3.310    0.698
        11  -9.0241     78.8298      3.2001   7.8850202117e+01   6.1923955364e+01     0.223444    0.1620817  10.78 0.0004610581    1.325    0.246
        12  -9.2543     73.3644     19.4019   8.6884821757e+01   6.1375666837e+01    0.3008246     0.182113 -38.27  0.001031598    1.976    0.494
        13  -9.3049     73.7002     12.7552   8.4146611484e+01   6.2000864872e+01    0.4675886    0.2149084  -0.53  0.001818121    4.172    0.760
        14  -9.6892     10.5998     18.6444   1.1136247101e+02   6.9598203091e+01     0.536904    0.2287843  -8.42  0.002265903    4.342    0.770
        15  -9.7933    123.9072     14.0633   7.2161390137e+01   5.1711457645e+01    0.5281091    0.2231989  45.54  0.002401737    2.123    0.529
        16  -9.4631      2.2085     14.3601   1.1364540630e+02   7.0842833132e+01    0.3975771    0.1740335 -52.21  0.001928131    3.019    0.669
        17 -10.2160      6.0691      4.7540   1.0766092056e+02   7.1823289379e+01     0.377809    0.2721655 -11.18  0.001994347    1.040    0.038
        18  -8.3111      2.5131      3.4854   1.0887086316e+02   7.2270992814e+01    0.1343272   0.08476172 -39.89 0.0001320779    1.699    0.412
        19 -10.6060     37.1558     10.0835   9.5995753269e+01   6.7889066002e+01     0.618494     0.203391 -37.70  0.002134629    3.333    0.700
        20  -9.5386     85.1171     12.9068   8.0884985243e+01   5.9891196960e+01    0.3486824    0.2268239 -51.83  0.001453484    2.460    0.593
        21  -8.2337     80.8472     12.4592   8.1914995683e+01   6.0734723297e+01    0.2419468    0.1333131 -41.21  0.001273131    2.411    0.585
        22 -10.7503    248.8693     10.5555   5.5717386488e+01   2.3346575768e+01    0.5072545     0.334079 -38.76  0.003195839    1.650    0.394
        23  -8.7706    133.8950     12.4876   6.9772151050e+01   4.9597121851e+01    0.2804828    0.1793332 -59.07  0.001233018    2.060    0.515
        24  -9.0163    127.1127      8.7556   6.9847796324e+01   5.1468416306e+01    0.2782105    0.1562921  33.66  0.001011747    1.967    0.492
        25  -9.6818    131.7631      6.4548   6.8290174391e+01   5.0613481335e+01    0.4248461    0.2448561  27.20  0.002168746    2.168    0.539
        26  -9.0466    125.3246      5.4296   6.9122763422e+01   5.2148823771e+01    0.3306277    0.2040847  26.21  0.001410025    1.892    0.472
        27  -8.2560    120.8123      5.6477   7.0038463417e+01   5.3133580780e+01    0.1761075    0.1054498  70.34 0.0004037421    1.657    0.396
        28  -9.6982     24.7876     11.1633   1.0173467856e+02   6.9233067611e+01    0.6618125     0.146066  33.79  0.002715686    4.464    0.776
        29  -8.9321     19.7471      8.6161   1.0287454561e+02   7.0074479898e+01    0.2440788    0.1506772   5.47  0.001110678    1.434    0.303
        30  -9.5632     18.1249      3.9633   1.0150883975e+02   7.0789054185e+01    0.3525503    0.2612622  22.31  0.002028674    1.432    0.302
        31  -9.1060    114.3129      9.8995   7.2746830829e+01   5.4197956871e+01    0.2681199    0.1435248  48.88  0.000150917    1.551    0.355
        32  -8.9458    101.9275      8.7071   7.5065337567e+01   5.6926151900e+01       0.2362    0.1681939 -27.48 0.0008261323    1.598    0.374
        33  -7.8107     68.4614      9.4679   8.4442737514e+01   6.3229253608e+01    0.1164998   0.09650891  21.04 0.0001042822    1.059    0.056
        34  -8.5779     97.6716      5.6961   7.4979243683e+01   5.8051424133e+01    0.2981353    0.1896326  10.49  0.001440474    1.793    0.442
        35  -8.2748     95.7005      3.3108   7.4575639880e+01   5.8642031115e+01    0.1938844    0.1758136  62.87 0.0007098137    1.254    0.203
        36  -8.1237    143.5499      5.7454   6.6121799037e+01   4.7968666781e+01    0.1719267    0.1087393 -44.20 0.0006196056    1.827    0.453
        37  -9.1965    115.0544      4.4702   7.0775909819e+01   5.4489431813e+01    0.2264997    0.1972902  86.48 0.0006784981    1.321    0.243
        38  -8.5759     92.2171      5.8578   7.6359858743e+01   5.9134572766e+01    0.3195039   0.06002552  55.05  0.001105892    3.958    0.747
        39  -9.5585     63.7730      2.8510   8.3176076233e+01   6.4621760247e+01    0.2956043    0.2195562 -50.55  0.001767823    2.240    0.554
        40  -9.3139    209.1304      3.2280   5.7552594656e+01   3.2871197059e+01    0.2529897    0.1193603 -58.55  0.001251754    2.143    0.533
        41  -8.3066     88.7113      2.5114   7.5979702851e+01   6.0094394189e+01    0.1887541    0.1031521 -18.31   0.00104913    2.024    0.506
        42  -8.7110    104.6357      2.1168   7.2131600697e+01   5.6895549678e+01    0.2419792    0.1431754  50.04 0.0007578552    1.366    0.268
        43  -8.0928    136.4943      1.4958   6.5988262962e+01   4.9940036314e+01    0.1249128    0.1046411  64.52 -0.0001351692    1.028    0.027
        44  -9.8715    127.5104    102.8961   9.8612544750e+01   3.7169380933e+01    0.4884138    0.3332772 -41.54  0.001294991    1.461    0.315
        45 -12.6511     35.4259    246.5376   1.4394463145e+02   1.9122862933e+01     2.820306    0.5313843  38.68   0.01068961    4.522    0.779
        46 -10.2254     78.0766    113.0829   1.1527595471e+02   4.4111924365e+01    0.5280765    0.3324349 -75.67   0.00192308    2.240    0.554
        47  -7.6813      1.0000    115.9261   1.3865447083e+02   5.1445626922e+01    0.2028237     0.053014 -69.21 0.0008000925    2.926    0.658
        48  -8.2202    152.9957    115.7382   9.5672557829e+01   2.8763943748e+01    0.2022451    0.1366969  48.81 0.0004300403    1.493    0.330
        49  -7.9447    167.2256    113.9983   9.1965784281e+01   2.5846690583e+01    0.2088592    0.1279503 -43.30 0.0004532966    1.611    0.379
        50 -10.5885     62.9939     96.4135   1.1582187282e+02   5.0029048548e+01    0.7322816    0.3942952 -67.12   0.00202345    2.543    0.607
        51  -9.1880     65.1347     86.1165   1.1239736257e+02   5.1927465376e+01    0.6934124    0.3729632  -0.73  0.002228596    4.976    0.799
        52 -10.5644     65.6833    104.7812   1.1704913247e+02   4.7808594800e+01    0.8039026    0.4370927  11.49  0.003131277    3.252    0.692
        53  -9.8200     59.7124    109.9251   1.2009616652e+02   4.7435066234e+01    0.4102779    0.2496499  62.29  0.001443431    2.548    0.608
        54  -9.6362     14.0937    111.4906   1.3424089630e+02   5.1595234201e+01    0.3585695    0.2016683  80.98  0.001550989    2.590    0.614
        55  -8.3181    158.5283    111.9530   9.3402854157e+01   2.8294152463e+01    0.2339234    0.1530247 -44.86 0.0003885371    1.512    0.339
        56 -10.5257    140.8153     82.0307   8.9390709736e+01   3.8339874704e+01    0.9660051       0.3609 -39.02  0.003330259    2.744    0.636
        57  -9.0373     35.0756    111.4669   1.2795685326e+02   4.9848106331e+01    0.1727291    0.1304538  21.04  0.001029223    1.590    0.371
        58  -7.7992    149.8310    110.2027   9.4984522793e+01   3.0663037480e+01    0.2064117    0.1864013  -1.96 0.0003472628    1.281    0.220
        59 -11.1542     44.4339    102.3940   1.2317398805e+02   5.0953791564e+01    0.7978419    0.4885001  70.90  0.002854212    2.996    0.666
        60  -9.0088     39.9509    107.1326   1.2559488493e+02   5.0354718928e+01    0.1932149    0.1661854 -80.64 0.0005050291    1.246    0.197
        61 -10.8618     25.4990     78.3443   1.2392942647e+02   5.7934468789e+01    0.6462093    0.4777466  67.31  0.002081852    2.099    0.524
        62 -10.9297     20.8288    101.3262   1.3041402630e+02   5.3376030891e+01     1.079976    0.5509371 -86.19  0.003750517    3.293    0.696
        63 -10.3777     34.2630     91.3283   1.2398660079e+02   5.4419747233e+01    0.6474282    0.2491058 -59.25  0.002462844    2.295    0.564
        64 -10.6454     36.8148     80.9890   1.2062662765e+02   5.6360593030e+01    0.9401037    0.4309503 -17.69  0.003110006    5.320    0.812
        65  -9.2928      6.6622    104.0676   1.3524966688e+02   5.3751193266e+01    0.3368965    0.1905295  74.02  0.001600864    2.690    0.628
        66 -10.2481     20.7044     84.5035   1.2701751124e+02   5.7033834220e+01    0.5363613     0.128605 -49.49  0.002044789    2.891    0.654
        67  -8.6266    165.8204    103.7972   8.9635352302e+01   2.8263362088e+01     0.309709       0.2026 -53.52 0.0006203153    1.602    0.376
        68  -9.5202    149.4312    103.1669   9.3210396596e+01   3.2219281009e+01    0.3857696    0.2780795 -63.02  0.000961059    1.599    0.375
        69  -8.1622     91.9468    104.0151   1.0886859022e+02   4.3884097776e+01     0.236868    0.1738246 -15.93 0.0009411289    1.740    0.425
        70 -10.2810     65.7016    111.0454   1.1852351615e+02   4.6381326843e+01    0.4869958    0.3512026  82.50  0.001347243    1.972    0.493
        71  -9.5056     81.4906    100.5144   1.1109320469e+02   4.6402159562e+01    0.4257609    0.2627175 -63.22  0.001156748    1.918    0.479
        72  -8.8283     83.0089     93.6011   1.0876779819e+02   4.7646080895e+01    0.4142408    0.1946339  20.18  0.001273465    4.576    0.781
        73  -8.6076    158.8910    101.1484   9.0477632999e+01   3.0427291222e+01    0.2389771    0.2001196 -70.76  0.000475637    1.296    0.228
        74  -9.8292    244.6380     99.4811   7.4578194199e+01   1.1130056204e+01    0.2813304    0.1424886 -59.65  0.001151041    2.377    0.579
        75  -9.5331    130.4016     96.7876   9.6175773831e+01   3.7810224775e+01    0.4842077    0.2201393  35.90  0.001654084    2.811    0.644
        76  -9.4566     94.2446     97.3430   1.0639286592e+02   4.4927136958e+01    0.3293143    0.2592145 -67.65 0.0007312311    1.495    0.331
        77  -7.8159    227.6862     95.3236   7.6129466157e+01   1.5475218475e+01    0.1505775     0.102523 -69.88 0.0007041087    1.661    0.398
        78  -8.4991    164.5050     94.6492   8.7497694992e+01   3.0379268269e+01    0.2673154    0.2074853 -64.73 0.0006615274    1.413    0.292
        79  -9.3831    157.6049     90.8573   8.7987007682e+01   3.2748356612e+01    0.3990355    0.1916724 -29.19  0.001366866    2.853    0.650
        80 -10.7361    150.3369     88.4333   8.8965085530e+01   3.4924793567e+01    0.6357871    0.4431314 -47.06  0.002227606    1.457    0.314
        81  -9.8280    149.9510     81.3798   8.7073312901e+01   3.6329489128e+01    0.4729699    0.2619102 -51.46  0.001084222    2.023    0.506
        82  -8.8238     96.0356     90.8630   1.0404660531e+02   4.5962947091e+01    0.4444363     0.281742  -3.26  0.001718225    2.875    0.652
        83 -10.1921      4.1641     89.8806   1.3360117271e+02   5.6986650150e+01    0.4835666    0.2910007 -81.24  0.002021135    1.857    0.461
        84  -9.3198    111.2396     89.7116   9.9321311084e+01   4.3278233329e+01    0.6608728    0.3218392  28.35  0.002237328    3.266    0.694
        85 -10.2064     85.2327     86.5415   1.0609002689e+02   4.8742620508e+01    0.4199371    0.3345858 -79.34 0.0008785642    1.738    0.425
        86  -9.6450     87.6806     78.6523   1.0300113218e+02   4.9887552563e+01    0.7783205    0.3575645  29.15  0.002955284    2.866    0.651
        87  -8.7903    163.5310     87.2380   8.5707387380e+01   3.2018212947e+01    0.2859566    0.1430294 -45.06 0.0008710558    2.016    0.504
        88 -10.6062     47.8833     84.6190   1.1776069119e+02   5.4427651641e+01    0.4884034    0.3536795 -83.13  0.001762671    2.077    0.519
        89  -9.9338     50.5334     76.5132   1.1465048069e+02   5.5774054166e+01    0.5645334     0.266055  16.13  0.002335406    3.189    0.686
        90 -10.5560     85.6312     48.5316   9.3833667383e+01   5.5437912726e+01    0.5559804    0.4223967 -86.61  0.001449644    2.554    0.608
        91 -11.1655     55.1046     69.8570   1.1111300571e+02   5.6507318132e+01      1.00286    0.6346878 -66.78  0.003703197    2.482    0.597
        92  -9.9850     72.9625     59.2413   1.0158816367e+02   5.5866251265e+01    0.4283737    0.2465507 -49.52 0.0009255363    1.998    0.500
        93 -10.1424     77.8489     49.3008   9.6578577676e+01   5.6679962354e+01    0.7977042    0.4863767  18.11  0.003944288    1.971    0.493
        94  -8.6873    126.2243     83.5709   9.3481910011e+01   4.1329036094e+01    0.5210599    0.2932913  17.54  0.001564041    4.447    0.775
        95  -9.3347    157.2193     63.1213   8.0313011997e+01   3.7712309222e+01    0.3314719    0.3114227   0.55  0.001216762    1.204    0.169
        96  -9.3739    164.1752     61.6377   7.8513271387e+01   3.6262488059e+01    0.4442777    0.2205943 -20.60  0.001549694    3.411    0.707
        97  -9.5489    157.5195     83.5570   8.5996060350e+01   3.4135998452e+01    0.3542929     0.207634 -42.97  0.001464579    1.721    0.419
        98 -11.0698    162.2634     71.0800   8.1523688019e+01   3.5190493696e+01    0.7459614    0.3950932 -43.26  0.003140555    1.923    0.480
        99 -10.5947    156.9156     75.9549   8.4005724088e+01   3.5641961040e+01    0.6702163     0.326379 -43.49  0.002023722    2.092    0.522
       100  -9.8647    156.6296     69.4729   8.2238080829e+01   3.6818465188e+01    0.5382121     0.315127 -24.02   0.00198572    2.228    0.551
       101 -10.2357    103.8259     82.6828   9.9371601554e+01   4.6132709435e+01    0.4539124    0.2772464 -51.70 0.0007987504    1.793    0.442
       102  -9.7780    104.5110     72.4264   9.6051400009e+01   4.7918629683e+01    0.6799919    0.2890009 -27.05  0.002142556    3.996    0.750
       103  -9.2879    179.5104     82.6920   8.1255996238e+01   2.8991848495e+01    0.2577604     0.226306  52.64 0.0006150104    1.169    0.144
       104  -8.8720    118.9376     80.6081   9.4533093084e+01   4.3456343217e+01    0.3183883    0.2070294 -51.19 0.0008032655    1.686    0.407
       105  -8.5810    119.8144     76.1508   9.2961508905e+01   4.4093061105e+01    0.2746259    0.1935933  -6.89 0.0007450321    1.966    0.491
       106  -9.2332     73.9092     80.0283   1.0779013769e+02   5.1876263335e+01    0.3964155    0.2429658 -60.47  0.001179057    2.095    0.523
       107  -8.4079     75.7808     74.3297   1.0547158244e+02   5.2692662623e+01    0.3650857    0.1327445  34.85  0.001371939    3.015    0.668
       108 -10.0140     81.5059     72.4929   1.0305731139e+02   5.2108742428e+01    0.3729324    0.2851656 -61.59 0.0009065967    1.669    0.401
       109  -9.4626     84.9252     63.7134   9.9174617618e+01   5.3105386185e+01    0.5832961    0.3214636  20.47  0.002433659    2.614    0.617
       110  -9.5197    166.1991     78.6692   8.2813105924e+01   3.2929696996e+01    0.3481734    0.2036623 -37.47  0.001325879    1.768    0.434
       111  -9.6451      5.8295     78.8266   1.3091073966e+02   5.9214805523e+01      0.49702    0.1928758 -27.04  0.002159134    3.545    0.718
       112  -8.6524    184.3726     77.9300   7.9101528276e+01   2.8651068116e+01    0.2724722    0.2100574  50.60 0.0006580338    1.335    0.251
       113 -10.3795    235.4129     73.1987   7.0053567158e+01   1.7531842104e+01    0.3331248    0.2595902 -44.31 0.0001082957    1.239    0.193
       114 -10.2181    239.3713     69.2190   6.8676324600e+01   1.7306224057e+01    0.3156919    0.2506123  61.33  0.001117251    1.384    0.277
       115  -9.6770    127.4109     75.2062   9.0699216278e+01   4.2610489537e+01    0.3594504    0.2643041 -62.91 0.0007967192    1.694    0.410
       116  -9.3913    128.9928     69.0072   8.8431897273e+01   4.3340602426e+01    0.4351445    0.2528427  19.25  0.001542926    3.285    0.696
       117  -9.3510    130.5004     64.9788   8.6834877560e+01   4.3676007299e+01    0.4172204    0.2963313 -44.59  0.001454279    1.489    0.328
       118  -9.4650    115.0498     72.8400   9.3234180683e+01   4.5697684542e+01    0.5402763    0.3232302 -30.62  0.001786246    1.822    0.451
       119  -9.4120    121.0862     66.0804   8.9542240061e+01   4.5578465523e+01    0.3395257    0.2745675 -46.53 0.0009823462    1.321    0.243
       120  -8.3268    122.3952     60.8238   8.7566637964e+01   4.6153763188e+01    0.2890863    0.1748986  33.27 0.0008662886    1.868    0.465
       121  -9.9344    198.0777    248.6905   1.1312034456e+02  -6.6853188234e+00    0.2295301    0.1818494  23.56  0.001119565    1.095    0.087
       122 -10.0285     16.0134     70.5832   1.2544219964e+02   6.0236776936e+01    0.4397469    0.1690085 -53.31  0.001393263    1.969    0.492
       123 -10.3114     16.6730     61.0751   1.2275849295e+02   6.2043192269e+01    0.7142322    0.2005308 -51.84  0.003165122    2.602    0.616
       124 -10.9200     22.0466     53.9004   1.1862976852e+02   6.2957673338e+01    0.7562513    0.4672163 -79.47  0.002861653    4.261    0.765
       125 -10.0838      5.0832     42.0848   1.2200917492e+02   6.6278970355e+01    0.4180882    0.2556143 -64.61  0.001558322    2.094    0.523
       126 -10.1809      8.4788     47.1405   1.2209605137e+02   6.5175278235e+01    0.6620639    0.2155099  27.53  0.003261991    3.410    0.707
       127  -9.7976     14.4387     44.7434   1.1890687811e+02   6.5179631831e+01    0.3545763    0.1791354 -25.46  0.001143964    1.930    0.482
       128  -9.8118      6.8262     32.7875   1.1828437318e+02   6.7726817271e+01    0.2849676    0.1728104 -13.80 0.0008936553    1.529    0.346
       129 -10.1151     91.9000    113.2341   1.1124264228e+02   4.1822448406e+01    0.5540599    0.3753722 -76.60  0.001541676    2.051    0.512
       130 -10.0926    169.4280     71.2501   8.0142064179e+01   3.3423768526e+01    0.5438353    0.1919605 -37.75  0.001572132    2.875    0.652
       131  -9.7980    146.9756     69.4702   8.4327602050e+01   3.9119707653e+01    0.3926298     0.279056 -61.29  0.001126898    1.680    0.405
       132  -9.8183     94.7185     68.4219   9.7671613468e+01   5.0514326842e+01    0.3859398    0.2403349 -48.55  0.000794301    1.765    0.433
       133  -9.5027     96.4627     59.1295   9.4139872373e+01   5.1767011966e+01    0.6717944    0.3895111 -13.43  0.002802466    2.618    0.618
       134 -10.4551     31.9557     64.2663   1.1786166615e+02   6.0152382842e+01    0.7393175    0.3051816 -29.64  0.002994039    3.127    0.680
       135  -9.3379    138.1031     66.3798   8.5442734667e+01   4.1708245961e+01    0.3584672    0.2732859  51.70  0.001181813    1.256    0.204
       136  -9.2143    138.4096     61.8135   8.4003281130e+01   4.2377841555e+01    0.3521627    0.2094377 -11.34  0.001365344    2.833    0.647
       137  -9.6346    109.8894     64.0754   9.1906586620e+01   4.8283720235e+01    0.3917143    0.2617805 -52.98 0.0007542006    1.813    0.448
       138  -9.0650    110.6122     58.3733   8.9879200736e+01   4.9062848224e+01    0.5385932    0.2698392  34.52  0.002009174    2.310    0.567
       139 -10.4361     63.0770     60.7819   1.0547134953e+02   5.7091505282e+01    0.7962406    0.2308767  35.27  0.002381912    3.672    0.728
       140  -8.8282     10.1100     61.5369   1.2538762351e+02   6.2406211155e+01    0.4283699    0.1421296 -62.63  0.001785964    3.341    0.701
       141 -10.3747    151.5487     41.4714   7.5189215576e+01   4.2222576418e+01    0.6886787    0.3389422  59.36  0.002513764    1.842    0.457
       142  -8.8011    149.8701     48.2631   7.7505205012e+01   4.1702124677e+01    0.2672476    0.1838017 -39.76  0.000525738    1.545    0.353
       143 -10.5059    147.0667     56.4308   8.0487257025e+01   4.1180237866e+01    0.7815345    0.3425899 -26.34  0.002852924    3.046    0.672
       144  -8.2930    152.3501     59.8494   8.0376721665e+01   3.9396799039e+01    0.4731485    0.1545615 -33.92  0.001576603    3.343    0.701
       145  -9.5373    156.1723     56.7184   7.8696674086e+01   3.8957882227e+01    0.3781955    0.2746325  80.89  0.001676202    1.564    0.361
       146  -9.2668    152.2160     54.3890   7.8821021334e+01   4.0257471384e+01    0.3105456    0.2297557  73.74 0.0008805884    1.426    0.299
       147  -7.9042     23.2838     68.9620   1.2236763227e+02   6.0005090759e+01    0.1666734    0.1245955 -43.92 0.0003090213    1.084    0.077
       148  -8.9582     87.4074     58.3781   9.6637518049e+01   5.3567928805e+01    0.2504451    0.1967646 -52.86 0.0007060773    1.549    0.355
       149  -9.6235    139.1160     57.0979   8.2421975793e+01   4.2948503281e+01    0.3980632    0.2492461 -58.60  0.001181232    2.100    0.524
       150  -9.0652    129.9207     58.0463   8.4845224440e+01   4.4913982244e+01    0.2422067    0.2043175 -39.69 0.0004926294    1.251    0.201
       151  -8.9496    130.7494     53.8211   8.3338727101e+01   4.5367600283e+01    0.5298646    0.2273597  36.09  0.001819778    3.292    0.696
       152  -9.5766    236.1789     62.6750   6.7642983089e+01   1.9030205114e+01    0.2306392      0.18358  -1.71  0.001064133    2.062    0.515
       153  -9.7635    168.4212     55.2421   7.5944921790e+01   3.6206949264e+01    0.3275876    0.2101497 -35.76  0.001573735    1.656    0.396
       154  -8.8621    162.4601     46.4732   7.4592586408e+01   3.8917519724e+01    0.2406321    0.1604807 -57.97 8.483101e-05    1.708    0.415
       155  -9.5695    162.7013     54.0176   7.6664633358e+01   3.7780892477e+01     0.332264    0.2394606 -58.27  0.001156125    1.528    0.346
       156  -9.4700    163.4007     50.2123   7.5468505824e+01   3.8163627341e+01     0.260165    0.2243986  80.94 0.0009870069    1.124    0.110
       157  -9.9344    173.2213     51.8855   7.4176922906e+01   3.5529281127e+01    0.5369942     0.339422 -70.65  0.002097823    2.025    0.506
       158  -9.7867    167.8918     49.4560   7.4447984929e+01   3.7178497242e+01    0.3824911    0.3152599 -10.22  0.001736874    1.527    0.345
       159  -9.2367    118.1485     55.3892   8.6928108465e+01   4.7928424320e+01    0.2906765    0.2445009 -73.26 0.0008348307    1.513    0.339
       160  -8.9509    121.0531     46.8791   8.3461822168e+01   4.8539572306e+01    0.2628294    0.1889655 -37.49 0.0004641358    1.489    0.329
       161 -10.1579     49.7889     53.8518   1.0795219340e+02   6.0080877594e+01    0.5361857    0.3019476 -57.52  0.002475594    2.615    0.618
       162  -8.9028    111.7616     47.0833   8.5875042641e+01   5.0516331085e+01    0.2846473    0.2104728 -26.50 0.0006514945    1.425    0.298
       163  -8.6036    105.1849     53.2561   8.9693623260e+01   5.0973256931e+01    0.3024462    0.1807242 -48.33 0.0007232679    2.018    0.505
       164  -8.6857    106.2698     48.7429   8.7891862337e+01   5.1422577646e+01    0.3736901     0.166076  34.03  0.001424482    2.819    0.645
       165  -9.4365     44.3594     53.5181   1.0986940636e+02   6.0796673175e+01    0.3195078    0.1508678 -23.95  0.001043233    2.837    0.648
       166  -9.3651    142.1596     49.2800   7.9398240293e+01   4.3386363467e+01     0.311434    0.2427867 -49.34 0.0008510572    1.403    0.287
       167  -9.0758    157.2000     48.9389   7.6268910723e+01   3.9846570990e+01    0.2204596    0.1838977 -80.38 0.0007878117    1.291    0.225
       168  -9.6539    130.3737     46.7113   8.1205928238e+01   4.6475065270e+01    0.6554201    0.2656707 -25.86  0.001358327    3.210    0.688
       169  -9.9120     30.8564     42.5249   1.1142908851e+02   6.4116715530e+01     0.795728    0.3078802  42.77  0.003254388    4.578    0.782
       170  -8.4558     53.4095     39.2492   1.0146121528e+02   6.1945296826e+01    0.1531419    0.1448199 -18.24  0.001020467    1.346    0.257
       171  -9.1584     49.6585     36.2630   1.0175394139e+02   6.2891392234e+01    0.2933642    0.2513054  16.32   0.00134678    1.218    0.179
       172 -11.8896    247.8902    236.3957   1.0182878301e+02  -1.2496440397e+01    0.2335154    0.2074113   3.00 0.0003352908    1.213    0.175
       173 -10.1280     46.3024     30.0618   1.0066171894e+02   6.4213666027e+01    0.4276361    0.2448936 -37.18 0.0008706109    1.717    0.417
       174  -8.8969     42.4806     27.9745   1.0133737602e+02   6.4991381264e+01    0.2454293    0.1427316 -12.87 0.0003340133    1.813    0.448
       175 -10.0171     37.4938     41.9729   1.0857528926e+02   6.3502926780e+01    0.4060432    0.2974532 -74.32  0.001608512    3.143    0.682
       176 -10.2896     35.8615     37.9988   1.0779963138e+02   6.4310263983e+01     0.342284     0.211975 -15.87 0.0004029466    1.576    0.366
       177  -9.6037     56.6550     42.9793   1.0163364093e+02   6.0932616719e+01    0.6322618    0.3286677   5.72  0.002514317    3.667    0.727
       178  -8.0397    209.6880     44.8988   6.6941638524e+01   2.7719626992e+01    0.1834844    0.1548084 -65.84 0.0004551638    1.097    0.088
       179 -10.1048     69.5012     41.0035   9.6387116148e+01   5.9292646756e+01    0.7952923    0.4246525 -25.30  0.003294031    1.967    0.492
       180 -11.7674     50.7732    226.2415   1.3948508401e+02   2.1323318152e+01     1.314338    0.6434448  67.48  0.006524975    2.084    0.520
       181  -8.7702     73.4094     25.2009   8.9132916555e+01   6.0712960173e+01    0.2524209    0.1861822  -0.98  0.001064192    1.309    0.236
       182  -9.7465     79.1978     24.1735   8.6923656978e+01   5.9813630261e+01    0.5432956    0.2464431  27.84  0.001889478    2.774    0.640
       183  -9.3147     84.8793     22.1050   8.4445452813e+01   5.9001169446e+01     0.266675    0.2393668  57.57 0.0009694807    1.356    0.263
       184  -8.7364    190.9989     41.7974   6.8734224607e+01   3.2614278352e+01    0.2103237    0.1993264 -44.79 0.0006144469    1.214    0.177
       185  -9.1152    104.9408     40.9866   8.5627573355e+01   5.2775957866e+01    0.3345412     0.196259 -46.50 0.0009518189    2.107    0.525
       186  -8.4050    106.0152     36.4840   8.3800617177e+01   5.3139458695e+01    0.2875722    0.1863951  40.44  0.001528836    1.413    0.292
       187  -9.3466    110.2435     33.3374   8.1644542256e+01   5.2642147331e+01    0.4129022    0.2226632 -30.81  0.001436523    1.987    0.497
       188  -9.4259    138.9155     40.0610   7.7282113177e+01   4.5394454867e+01    0.3435903    0.2293942 -61.14  0.001529074    1.954    0.488
       189  -8.2100    122.4676     41.0366   8.1233116102e+01   4.9018372140e+01    0.2930155    0.1398515  29.19  0.001038785    3.461    0.711
       190 -10.4842     89.3707     37.9141   8.8942580985e+01   5.6250491080e+01    0.6841471     0.245287  41.81  0.002782022    2.622    0.619
       191  -8.5903    218.9751     37.5557   6.4121979506e+01   2.6560028490e+01    0.2061006    0.1885565 -20.25 0.0006018396    1.457    0.314
       192  -9.0439    143.9944     36.5830   7.5203231489e+01   4.4643186423e+01    0.2674477    0.2022685 -76.35 0.0003802191    1.613    0.380
       193  -9.1904    132.9176     35.9641   7.7275145048e+01   4.7300856622e+01    0.2138239     0.196975 -19.60 0.0004673727    1.192    0.161
       194 -10.5580    134.0628     30.7806   7.5417404089e+01   4.7658185045e+01    0.3238871    0.2487644  12.96  0.001808205    1.558    0.358
       195  -8.8407    118.8471     34.8321   8.0059531136e+01   5.0603808725e+01    0.2578948    0.1808181 -33.73 0.0005601904    1.552    0.356
       196  -9.4411    100.8758     32.7745   8.3871587238e+01   5.4653056847e+01    0.4635024    0.1868822 -29.95  0.001417642    2.646    0.622
       197  -8.7794    153.1504     34.8658   7.2971849277e+01   4.2678445815e+01    0.2114352    0.1768112 -85.89 0.0009861232    1.262    0.208
       198  -9.4007     59.9473     33.6527   9.6969503304e+01   6.1806318043e+01    0.3806812    0.2215021 -40.17  0.001616883    1.865    0.464
       199  -9.4995    187.9073    233.8212   1.1268544580e+02  -2.6419376552e+00    0.2182554    0.2046008 -69.36 0.0009790119    1.331    0.249
       200  -8.9613     63.5856     26.5839   9.2948537415e+01   6.2168120676e+01    0.4127955    0.1293247  39.24  0.001621498    3.003    0.667
       201 -10.0816    160.7693    214.8497   1.1505447876e+02   5.6455704123e+00    0.2390717    0.2310469 -29.62 0.0003425782    1.127    0.112
       202  -9.8131    172.5637     26.4274   6.7453016804e+01   3.9004807071e+01    0.4836768    0.2715883 -87.18  0.001680933    2.288    0.563
       203  -9.4182    190.7000     28.8148   6.5540560561e+01   3.4352042198e+01    0.5279161    0.2399851 -77.60  0.001714224    4.433    0.774
       204  -9.0467    152.7422     28.7202   7.1268395408e+01   4.3506834625e+01    0.4741423    0.2537414  30.07  0.001957302    2.894    0.655
       205  -8.0133    148.3032     29.6353   7.2324987924e+01   4.4457435002e+01    0.1385028   0.09823409 -70.24 0.0007036121    1.735    0.424
       206  -8.3608    144.4170     26.2482   7.2030565834e+01   4.5759277196e+01    0.2187776     0.134423 -23.31 0.0008447493    1.921    0.479
       207  -9.0962     91.2157     26.2889   8.4192604083e+01   5.7329508210e+01    0.2790377    0.2155625 -52.55 0.0008662833    1.786    0.440
       208  -8.8484     92.2672     20.8804   8.1915512343e+01   5.7716620090e+01    0.4073317    0.1626113  37.64  0.001202083    2.513    0.602
       209  -8.8940     10.3570    207.4524   1.4564412797e+02   2.9991340171e+01    0.3023598    0.1901744  15.17  0.001720955    2.913    0.657
       210  -9.1520     13.8684    234.8285   1.4687079998e+02   2.3918423974e+01    0.1890764    0.1355529  80.31 0.0007229922    1.027    0.026
       211  -9.0313    128.4223     25.8459   7.5024365111e+01   4.9504070459e+01    0.2316762    0.1927079 -79.02 0.0006412751    1.447    0.309
       212  -8.4880     22.2594    203.5354   1.4304183416e+02   2.9636615808e+01    0.2325047    0.1699017 -41.75  0.001428871    2.075    0.518
       213  -9.1790    228.4412     24.2655   6.0222462464e+01   2.6122551225e+01    0.2704824    0.2150557 -41.89  0.001714979    1.392    0.282
       214  -9.6987    118.7223     21.6952   7.5742081581e+01   5.2112963363e+01    0.2367429    0.2134169 -35.13 0.0005673421    1.272    0.214
       215  -8.5028    111.6531     22.1354   7.7485049225e+01   5.3602926938e+01    0.1875655    0.1559254 -46.93 0.0007785966    1.454    0.312
       216  -9.2204    189.5720     15.5003   6.2423885664e+01   3.6145435101e+01     0.452946     0.212858  81.44  0.001705346    2.207    0.547
       217 -10.1098    192.2887    194.8968   1.0475782754e+02   3.5668873105e+00    0.9800673    0.4712702 -62.62  0.002818497    5.366    0.814
       218  -8.5136    201.2496     18.3711   6.1757374511e+01   3.3071279213e+01    0.1851953    0.1563495  71.26 0.0004361036    1.172    0.147
       219  -8.5515    162.1438    199.9709   1.1212488145e+02   8.3604003727e+00    0.2168377    0.1913249  75.69 0.0004760304    1.249    0.199
       220  -8.0416    209.4996    188.0006   9.9907330327e+01   1.6169667387e+00    0.1973926     0.123376 -63.70 0.0008106401    2.580    0.612
       221  -8.1990    230.4157    168.0159   9.1798420914e+01   1.4111287008e+00    0.3061708    0.1684621 -53.74   0.00129882    2.228    0.551
       222  -9.3281     40.8388     20.6301   9.9018632356e+01   6.6164964101e+01    0.1936099    0.1344825 -20.34 0.0002633561    1.262    0.208
       223  -8.3795    178.6844    165.3280   1.0155504292e+02   1.2298480242e+01    0.1550989    0.1220562 -88.81 0.0007044891    1.675    0.403
       224  -7.3812    108.7179    157.7128   1.1658663793e+02   2.8239955064e+01    0.1430966    0.1196811 -21.53 0.0002102767    1.524    0.344
       225  -9.6933    132.4536     17.3134   7.1534364960e+01   4.9468952664e+01    0.2989041    0.1795997  78.85   0.00114454    1.971    0.493
       226  -8.4362    174.7764    152.1953   9.9502499473e+01   1.5951517012e+01    0.2198388    0.2062041 -80.76 0.0004106864    1.109    0.098
       227  -9.1434    133.6790    146.6275   1.0791038398e+02   2.6007543128e+01    0.7193947    0.1768107 -53.92   0.00169722    5.271    0.810
       228 -10.2947    221.1214    146.8963   8.8938700929e+01   7.2007816938e+00    0.2573187    0.2468905 -71.19 0.0003636277    1.110    0.099
       229  -9.1869    112.1841     15.6255   7.5144987851e+01   5.4137149933e+01    0.1909216    0.1651595 -35.26 0.0005744305    1.351    0.260
       230  -8.4428    104.3021     15.0794   7.6765263073e+01   5.5858764905e+01    0.2910513    0.1429557  25.72  0.001278905    2.720    0.632
       231  -9.8231     66.9121    144.2081   1.2498683464e+02   3.8311297681e+01     0.445572    0.3177458  59.58   0.00226239    1.562    0.360
       232  -9.8296    135.1023    132.1588   1.0417644186e+02   2.9064470661e+01    0.4540172    0.4424196  37.06  0.002370348    1.078    0.073
       233  -8.4025    112.3176    134.0293   1.1054660543e+02   3.3244862886e+01    0.2886885     0.208859  70.53  0.001191678    1.733    0.423
       234  -8.0659     45.3233     15.3245   9.5024875519e+01   6.6209619511e+01    0.1207773   0.07308736   5.95 0.0007047747    1.685    0.407
       235  -8.3496    160.9317    129.7895   9.7348110075e+01   2.3916787327e+01    0.3185884    0.2103665 -70.99  0.001254372    2.102    0.524
       236 -10.4514     70.0972    126.2942   1.2058647575e+02   4.2192604412e+01    0.6188195    0.5256258 -34.10  0.001708079    1.255    0.203
       237 -10.0898     58.3187    124.8351   1.2369083271e+02   4.4127201231e+01    0.6307493    0.3798169  77.10  0.002440401    2.789    0.641
       238  -9.6332    239.7574    128.5304   8.1676074364e+01   6.9094430414e+00    0.2525036    0.2243503 -43.80 0.0004055961    1.016    0.016
       239  -9.7676     98.3857    128.5824   1.1307925787e+02   3.7112064884e+01    0.5733799    0.3613126  75.44  0.002199381    2.694    0.629
       240  -8.5019    224.5900    127.4346   8.3959494839e+01   1.0216437121e+01    0.3339423    0.2057923 -75.23  0.001277541    2.850    0.649
       241  -8.5365    141.8098     12.5973   6.8423422929e+01   4.7761164094e+01    0.1781317    0.1111661  75.92 0.0003485534    1.603    0.376
       242 -10.2655    116.7691    125.4655   1.0731949674e+02   3.4380657973e+01    0.5936894    0.4533261  69.71   0.00138423    1.572    0.364
       243 -10.3097    140.4726    118.6819   9.9472398131e+01   3.0935149216e+01    0.5199907    0.3452851 -57.49   0.00147272    1.627    0.385
       244 -10.1494    139.3035     92.4860   9.2728176908e+01   3.6687669204e+01    0.7398349    0.4306272 -55.30  0.002102256    2.014    0.503
       245  -9.9089    135.0242    122.1474   1.0172463431e+02   3.1352342332e+01    0.6689621    0.2817605 -49.44  0.002147932    2.390    0.582
       246 -10.7600    129.9204    118.1521   1.0201833669e+02   3.3338196782e+01    0.7860464     0.510198 -50.89  0.002025867    1.534    0.348
       247 -11.1251    133.7808    109.4237   9.8746861496e+01   3.4419933231e+01    0.9705909    0.4161597 -47.17  0.003421722    2.328    0.571
       248 -10.6947    139.3419    102.7012   9.5537607568e+01   3.4610381997e+01    0.7861518    0.3911142 -41.75  0.001738277    2.018    0.504
       249  -9.1767    139.6191     75.7350   8.7850648821e+01   3.9755501284e+01    0.4316362    0.2102112 -43.40 0.0009692197    2.112    0.527
       250  -9.3899     27.4703    123.0535   1.3225980175e+02   4.7866984214e+01    0.4779129     0.255513  69.42   0.00205302    3.037    0.671
       251  -9.2590     41.2829    122.0027   1.2809833968e+02   4.6774753893e+01    0.4410331    0.2084259 -73.95  0.001843787    2.479    0.597
       252  -8.3286    186.4997    120.4839   8.9486029228e+01   2.0034065634e+01     0.155538    0.1479424 -68.72 0.0008104127    1.018    0.017
       253 -10.0716    108.6497    114.6053   1.0682400017e+02   3.8453842885e+01    0.6254041    0.4086405 -82.78  0.001558269    2.651    0.623
       254 -10.7592    108.9154    101.1465   1.0319046142e+02   4.1366438107e+01      1.00391    0.7377441 -82.50  0.004501055    1.987    0.497
       255  -9.8680    123.7558     91.1075   9.6310302806e+01   4.0395979168e+01    0.4434696    0.3471556 -67.42  0.001102865    1.534    0.348
       256 -11.2922    121.1164    108.1028   1.0171408887e+02   3.7403393425e+01     2.038248    0.5669191 -45.82  0.005962454    3.522    0.716
