#   1 NUMBER                 Running object number                                     
#   2 MAG_AUTO               Kron-like elliptical aperture magnitude                    [mag]
#   3 X_IMAGE                Object position along x                                    [pixel]
#   4 Y_IMAGE                Object position along y                                    [pixel]
#   5 X_WORLD                Barycenter position along world x axis                     [deg]
#   6 Y_WORLD                Barycenter position along world y axis                     [deg]
#   7 A_WORLD                Profile RMS along major axis (world units)                 [deg]
#   8 B_WORLD                Profile RMS along minor axis (world units)                 [deg]
#   9 THETA_WORLD            Position angle (CCW/world-x)                               [deg]
#  10 FWHM_WORLD             FWHM assuming a gaussian core                              [deg]
#  11 ELONGATION             A_IMAGE/B_IMAGE                                           
#  12 ELLIPTICITY            1 - B_IMAGE/A_IMAGE                                       
         1 -16.9041    245.2498     62.3732   4.4496189314e+01   1.8088176059e+01      7.67506     4.196402 -23.84  0.007511631    1.736    0.424
         2 -15.0016    247.0782     30.2300   3.6855890065e+01   2.1607206484e+01     2.812703     1.055508 -57.36   0.01196109    2.979    0.664
         3 -15.3725    235.4791     55.5989   4.3848082896e+01   2.0843000273e+01     2.936171    0.8380529 -34.09   0.00857608    2.623    0.619
         4  -9.8529    170.4557     19.2843   4.0732366361e+01   4.0159378339e+01    0.3603992    0.2176716  -7.27   0.00161915    2.165    0.538
         5  -9.6688    204.9845      9.4204   3.4642755502e+01   3.2821369156e+01    0.2327568    0.1751441   4.16  0.001308512    1.753    0.430
         6 -10.5117    201.6880     16.3639   3.6801031938e+01   3.2869321515e+01     0.492067     0.317965 -25.51  0.002247191    1.524    0.344
         7 -11.9385    222.4860    172.7535   7.1467129656e+01   6.5161849424e+00    0.3811351    0.3016534  52.65 0.0009763542    1.853    0.460
         8 -10.9420    192.6410    194.4156   8.0509061797e+01   7.8165535595e+00    0.7061854    0.3840321 -60.54  0.002344816    6.960    0.856
         9  -9.0140     47.7088    191.0411   1.1180187845e+02   2.9045722281e+01    0.1614745    0.1383414  74.00 0.0001855255    1.092    0.084
        10  -9.5104    185.2487    188.0069   8.0804456068e+01   9.8614475055e+00    0.1676409    0.1443035  -5.31 0.0002140446    1.081    0.075
        11 -15.1591    169.3873     84.5387   6.0867562569e+01   3.0856751371e+01      2.29964     1.736584  40.26  0.005989948    1.450    0.311
        12 -14.6879    218.3656     78.6274   5.1474310224e+01   2.1141423175e+01     2.858511     1.294726  72.16   0.01078162    3.753    0.734
        13  -9.9510    240.1133    219.0995   7.6494691726e+01  -1.4607400775e+00    0.1954229    0.1263738  26.92  0.000458307    1.428    0.300
        14 -11.9808    199.0143    162.2604   7.3527204636e+01   1.1673965943e+01    0.5191411    0.3563097 -71.87  0.002218165    3.719    0.731
        15  -9.8969    211.0845    163.0145   7.1539427806e+01   9.6295403954e+00    0.1894212    0.1599358  -3.64 0.0003592315    1.008    0.008
        16 -12.6811     15.0183    155.6264   1.1754843562e+02   4.0280446874e+01    0.8055472    0.6504273  78.12  0.003924695    1.033    0.032
        17 -11.8929    190.6898    150.3373   7.2675569452e+01   1.4993233144e+01    0.5453115    0.3181325 -62.61  0.002048497    3.925    0.745
        18 -11.2541    133.8008    147.0060   8.4189551374e+01   2.5904233745e+01    0.7147754    0.2347253 -51.71  0.002380845    3.341    0.701
        19 -11.2133    184.7644    147.7037   7.3259304507e+01   1.6479564189e+01    0.2766804    0.2269778 -36.82   0.00097494    1.222    0.182
        20 -11.7572    228.1705    144.4295   6.5024238661e+01   9.6356141045e+00    0.4602253    0.2432014 -28.15   0.00237159    1.691    0.409
        21 -12.2239     67.7648    144.3367   1.0141813511e+02   3.7302964457e+01     1.219337    0.7806386 -61.19  0.004337703    1.536    0.349
        22 -11.4807     43.7170    145.0707   1.0852539443e+02   4.0097934462e+01    0.4193919    0.3309793  18.59 0.0008547455    1.502    0.334
        23 -13.1870     51.8804    141.9214   1.0573965579e+02   3.9936987624e+01     1.627343     1.116957 -19.57  0.007823408    2.246    0.555
        24 -12.4067     59.4518    139.9563   1.0322269677e+02   3.9483448431e+01    0.9785891    0.5221335 -58.11  0.001929785    1.826    0.452
        25 -10.3996    222.7526    145.2176   6.6040436230e+01   1.0390394045e+01    0.2244792    0.1814251 -13.82  0.000408152    1.057    0.054
        26 -11.3476    191.9220    143.8546   7.1088345129e+01   1.5854284843e+01    0.3160056    0.2481366 -15.97 0.0007182579    1.234    0.190
        27 -12.3996    190.1316    135.4813   6.9611260746e+01   1.7589058408e+01    0.7086096    0.3286637 -35.26  0.001864958    2.067    0.516
        28 -13.5272    250.2530     40.7810   3.9059163113e+01   1.9787621977e+01    0.6753197    0.3749045 -21.54 0.0009493157    1.811    0.448
        29 -10.2978    176.9810    139.5083   7.3043667094e+01   1.9329474867e+01    0.2086031    0.1355729  42.99 0.0004311424    1.578    0.366
        30 -10.2359    134.1356    133.9025   8.1359543158e+01   2.8595086789e+01    0.2106774    0.1969984  75.81            0    1.157    0.136
        31 -10.4941    232.5879    217.1385   7.7365380990e+01  -3.6295693688e-01    0.1923359    0.1464335  17.40 0.0003476675    1.218    0.179
        32 -12.5071    208.4869    127.1001   6.4494598743e+01   1.5600270032e+01    0.4701886    0.3193645 -51.50  0.002434284    1.760    0.432
        33 -11.2033    195.9526    130.5284   6.7440527052e+01   1.7344388428e+01    0.4193801    0.2142147 -14.88  0.001449075    3.704    0.730
        34 -11.8222    194.6448    123.6025   6.6101987301e+01   1.8749814670e+01    0.5327232    0.2593785 -55.51  0.001870619    3.635    0.725
        35 -11.8590    218.8125    128.2387   6.3065458713e+01   1.3586120631e+01    0.3461999    0.2758749  36.35  0.001702969    1.366    0.268
        36 -11.1362    225.9669    130.4799   6.2438079960e+01   1.2023643779e+01    0.2530089    0.2111749 -89.31  0.001452622    1.916    0.478
        37 -11.3323    160.8459    128.3551   7.3908318208e+01   2.4503109758e+01    0.3356691    0.3083715 -55.94  0.001518913    1.178    0.151
        38  -9.1632     95.7005    125.8246   8.9945286130e+01   3.7483584561e+01    0.2955977    0.1812614  62.05  0.001226827    2.081    0.519
        39 -10.3032    172.1257    123.1724   7.0318422540e+01   2.3235932023e+01    0.1967638    0.1771451 -77.59  0.001081119    1.348    0.258
        40 -10.4287    218.5222    121.9957   6.1730514773e+01   1.4587179634e+01    0.1936374    0.1759278  -3.65  0.001226121    1.092    0.084
        41 -10.6434    177.8247    121.8082   6.8851824898e+01   2.2347596853e+01     0.253983    0.2440005  84.47 0.0004039744    1.211    0.174
        42 -11.0119    210.9725    110.2954   6.0237045143e+01   1.7792500847e+01    0.2589023    0.2234421 -61.47 0.0007197928    1.382    0.277
        43 -13.2158    205.3908    110.3947   6.1158698343e+01   1.8850427329e+01    0.7434766    0.4758271 -35.04  0.003267983    1.397    0.284
        44 -11.2463    167.6749    115.8025   6.9458179490e+01   2.5510674961e+01    0.3210326     0.259149 -49.96  0.001671504    1.281    0.219
        45 -13.2590    134.1010    104.0861   7.4139479223e+01   3.4941526819e+01     1.533434    0.5132511 -50.76  0.004578527    3.501    0.714
        46  -9.2998     80.8289    105.5762   9.0059542310e+01   4.4947290552e+01    0.1987577    0.1375692  50.69 0.0002761727    1.521    0.342
        47  -9.4569    173.9854    102.3713   6.4788347298e+01   2.6655385830e+01    0.1960777    0.1878738  43.46 0.0005937939    1.109    0.098
        48 -11.3910    157.1168    101.6936   6.8095484850e+01   3.0438358129e+01    0.4851824    0.2992335  38.60  0.002121623    1.787    0.440
        49 -11.1633    196.8080     96.8815   5.9263656229e+01   2.2767299726e+01    0.3478839    0.1675396 -41.08   0.00147663    1.901    0.474
        50 -11.4162    140.7692     95.8119   7.0234502850e+01   3.5199973673e+01    0.3740915    0.3442542  29.96  0.000830406    1.147    0.128
        51 -10.1721    216.1335    117.0871   6.0996592149e+01   1.5771479915e+01    0.2062127    0.1651042  -7.31  0.000422503    1.252    0.201
        52 -11.3041    154.3866     93.5926   6.6486630334e+01   3.2596629370e+01    0.3355784    0.2939332 -28.42  0.000615708    1.140    0.123
        53 -12.3525    227.7636    171.4340   7.0364430476e+01   5.9320179848e+00    0.4592711    0.3454528 -55.30  0.002724895    2.203    0.546
        54  -9.9304    147.0124    105.8847   7.1485065574e+01   3.1803529964e+01    0.2315459    0.2269213 -12.53 0.0008727092    1.026    0.025
        55 -10.1010     98.0558     86.3766   7.9337423466e+01   4.6365633416e+01    0.2710459    0.2163745 -47.65 0.0002970202    1.215    0.177
        56 -13.4082    125.1413    104.2487   7.6501162526e+01   3.6800296120e+01     1.164305    0.7401996  66.27  0.004710197    2.184    0.542
        57 -10.1987    151.0280     71.5432   6.0733279932e+01   3.7456239905e+01    0.2852564    0.2145584 -38.28 0.0001328617    1.276    0.217
        58 -10.0831    225.9685    216.8975   7.8385284814e+01   4.6161987590e-01    0.1707123    0.1295215  -6.53 0.0003639494    1.126    0.112
        59 -10.1284    126.0340     66.4818   6.4893576572e+01   4.4359746462e+01     0.305069    0.2224724 -40.98 0.0007218217    1.335    0.251
        60 -10.5730    157.8275     61.5103   5.6236827899e+01   3.7522951723e+01    0.3589185    0.2193943 -49.93  0.001564494    1.679    0.404
        61  -9.4629    103.5109     61.9940   6.9615999996e+01   5.0430053231e+01    0.2479862    0.1476881 -41.86  0.001048407    1.639    0.390
        62 -12.3559    168.4821     58.2019   5.3290817591e+01   3.5451380348e+01    0.5563433    0.4441676 -58.25  0.002872717    1.266    0.210
        63  -9.7129    186.2742     59.9717   5.0982136583e+01   3.0932518651e+01    0.2018232    0.1735919 -35.02 0.0001799623    1.092    0.084
        64 -11.4072    192.2180     56.5758   4.9164931552e+01   3.0045674991e+01    0.4571545    0.2238194 -34.03  0.001093412    1.822    0.451
        65 -11.0082    181.5432     56.9613   5.0820857148e+01   3.2496222387e+01    0.3215564    0.2242129 -47.25 0.0005917986    1.352    0.260
        66 -10.7534    177.0201     57.0217   5.1536708665e+01   3.3568094324e+01    0.2292634    0.2104518 -49.12  0.000634513    1.009    0.009
        67 -12.8815    159.1874     50.6478   5.2525563964e+01   3.8899517629e+01    0.7140514     0.524718 -42.10  0.002863141    1.291    0.225
        68 -11.1408    182.1339     40.2912   4.5794916910e+01   3.4697571609e+01    0.3390006    0.2407977 -29.92 0.0004786101    1.358    0.264
        69 -12.0981    132.8041     38.9125   5.3505027004e+01   4.7320558401e+01    0.7366568    0.2676636 -27.80  0.002459161    2.988    0.665
        70 -11.4050    140.2623     41.8080   5.3048532101e+01   4.4996955037e+01    0.4114717    0.1841195 -37.53  0.001413063    2.109    0.526
        71 -11.2720    187.8743     39.8299   4.4924713561e+01   3.3372192967e+01    0.3451547    0.2724239  68.39 0.0003521284    1.331    0.249
        72 -10.5112    191.8686     35.4057   4.3161257012e+01   3.2983549216e+01    0.4088361    0.2716692  54.10  0.001142867    1.657    0.396
        73 -11.6127    154.2552     38.9688   4.9515085700e+01   4.1837515479e+01    0.3805875    0.2675194 -23.09 0.0009866985    1.508    0.337
        74 -11.5405    230.0625    167.1461   6.9194608224e+01   6.1794677100e+00    0.3712727    0.1722013 -39.46  0.001629786    2.178    0.541
        75 -11.2716    159.3536     38.3879   4.8487809165e+01   4.0622137483e+01    0.3396073    0.2578022  30.54  0.001211737    1.608    0.378
        76  -9.3447     97.0000     38.9712   6.2575338304e+01   5.6121350837e+01    0.2483735   0.08311401 -34.96 0.0008067854    2.973    0.664
        77  -9.7262    158.9552     34.0059   4.7093212752e+01   4.1308780958e+01    0.1757032    0.1613119 -48.84 0.0003708127    1.047    0.045
        78 -12.0346    145.2560     29.8193   4.7845542738e+01   4.5368791526e+01     0.510882    0.3346084   0.38  0.002238911    2.124    0.529
        79 -11.6007    126.8869     28.3214   5.0675527094e+01   5.0304781044e+01    0.3426664    0.2869587 -49.34 0.0008961579    1.205    0.170
        80 -10.9404    124.5284     24.5075   4.9635558067e+01   5.1400479472e+01    0.2732031     0.219081 -29.46 0.0007473111    1.269    0.212
        81 -10.4800    169.0000     24.0723   4.2442871181e+01   3.9983817746e+01    0.4962875    0.2159373 -18.01  0.001748741    2.833    0.647
        82  -8.7145    195.1815    213.1552   8.3037682954e+01   4.8718695864e+00    0.1413426    0.1241324  21.87 0.0003343895    1.279    0.218
        83 -10.8204    178.9788     24.7329   4.1461504840e+01   3.7409054006e+01     0.612965    0.3853096  57.68  0.003037449    1.665    0.399
        84  -8.7542    196.2671    208.3132   8.2096576329e+01   5.3704091859e+00    0.1169007   0.07730287   0.27 0.0002200456    1.546    0.353
        85  -9.5741    197.4613     20.5012   3.8325587496e+01   3.3412678634e+01    0.2456525    0.2219809  55.97  0.000832367    1.273    0.215
        86 -10.0706    163.1586    202.8940   8.7496199521e+01   1.0860339440e+01    0.1931032    0.1699695  19.89 0.0003618043    1.072    0.067
        87  -8.3531     49.4227    175.4969   1.1006608764e+02   3.2254781618e+01    0.1272694    0.1107512  67.94 0.0002599475    1.034    0.033
