#   1 NUMBER                 Running object number                                     
#   2 MAG_AUTO               Kron-like elliptical aperture magnitude                    [mag]
#   3 X_IMAGE                Object position along x                                    [pixel]
#   4 Y_IMAGE                Object position along y                                    [pixel]
#   5 X_WORLD                Barycenter position along world x axis                     [deg]
#   6 Y_WORLD                Barycenter position along world y axis                     [deg]
#   7 A_WORLD                Profile RMS along major axis (world units)                 [deg]
#   8 B_WORLD                Profile RMS along minor axis (world units)                 [deg]
#   9 THETA_WORLD            Position angle (CCW/world-x)                               [deg]
#  10 FWHM_WORLD             FWHM assuming a gaussian core                              [deg]
#  11 ELONGATION             A_IMAGE/B_IMAGE                                           
#  12 ELLIPTICITY            1 - B_IMAGE/A_IMAGE                                       
         1  -9.6935     59.5728      4.2400   4.6712241498e+01   7.0163049291e+01     0.361596    0.2886522 -76.06  0.001924778    1.691    0.408
         2  -9.7162     64.8038      2.1435   4.3142666615e+01   6.9200434308e+01    0.2758465     0.208003  43.77 0.0005403117    1.230    0.187
         3 -10.1696     80.8772     11.8587   4.3291626900e+01   6.4141073545e+01    0.3905206    0.3373307  63.50  0.002154263    1.141    0.124
         4 -10.0704     76.0184     18.6106   4.8715050992e+01   6.4406836581e+01     1.128039    0.4277855 -34.44  0.004163851    2.652    0.623
         5 -10.6460     70.3694      9.0463   4.5367184903e+01   6.7051926223e+01    0.7330536    0.3248569 -41.66 0.0008130634    2.507    0.601
         6 -11.4671     66.5177     20.3277   5.3526342657e+01   6.6316355303e+01    0.8616169    0.8165429  13.65  0.005025451    1.021    0.021
         7 -10.2128     58.0049     17.7327   5.6007982464e+01   6.8553669400e+01    0.4975009    0.3893648  17.06  0.001824641    1.396    0.284
         8 -11.2515     62.8157     12.1962   5.0401700355e+01   6.8367959554e+01     1.158793    0.5047064  51.27  0.004717929    2.169    0.539
         9 -12.5335     61.7029     29.8311   6.0814729414e+01   6.5681565110e+01      1.65564     1.260493 -61.20  0.008331978    1.603    0.376
        10 -11.7329    100.2458     46.1413   5.3231612402e+01   5.4081503233e+01     1.075209    0.7138575 -41.02  0.003229995    1.535    0.349
        11 -11.2208      2.8397     29.5590   9.9261379514e+01   7.3001977790e+01     0.848833    0.4100004  71.74 0.0007625779    2.836    0.647
        12  99.0000     37.4111     13.8831   6.5652027230e+01   7.3055387030e+01    0.6622202    0.2685294 -51.15  0.002544192    2.951    0.661
        13 -10.8760     45.0719     18.9215   6.3814085837e+01   7.0832219618e+01    0.7117141    0.5149066  21.88  0.003617419    1.493    0.330
        14 -12.5554    246.1056      8.7108   2.0667611487e+01   2.3344005968e+01     1.295164    0.5904435 -32.82  0.007059447    1.684    0.406
        15  -9.4597     90.1058     23.6399   4.6449475271e+01   6.0247562787e+01    0.3483672    0.2754687 -44.64  0.001774378    1.338    0.252
        16  -8.4986      1.1430     16.8265   9.7407845418e+01   7.6104550297e+01      0.30029    0.0628625 -69.10  0.001043058    3.612    0.723
        17  -9.1715    107.8247     11.0499   3.5720368565e+01   5.7211795581e+01    0.2352755    0.1973711  71.71 0.0002630584    1.129    0.115
        18  -9.6758     99.3067      8.8225   3.6559721639e+01   5.9732668520e+01     0.251305    0.1983217  50.80 0.0002022794    1.201    0.167
        19  -8.5566    126.6150      5.7030   2.9961873627e+01   5.2624055023e+01    0.1739563    0.1315185 -39.67 9.747408e-05    1.348    0.258
        20  -9.9538     91.9946      3.5138   3.5578528568e+01   6.2213442920e+01    0.2443047    0.2085463 -21.52 -6.868919e-05    1.253    0.202
        21 -11.5125     58.7316     53.3678   7.2499478546e+01   6.1313240340e+01     1.739694    0.6122617 -42.62  0.005688534    3.210    0.688
        22  -8.7580     43.0675    134.5527   9.6151944244e+01   4.3108914615e+01     0.206513    0.1278287  28.23  0.001027244    1.592    0.372
        23  -9.9937    205.1754    250.4180   7.3583344295e+01   1.3688434306e+00    0.2857255   0.07309779  33.37  0.001394503    2.967    0.663
        24 -10.7406    193.4094    250.1696   7.5507759323e+01   2.7018415937e+00    0.5528958    0.1070961  32.80  0.002296558    3.883    0.742
        25  -9.9910    188.5648    249.2470   7.6219252548e+01   3.3468324649e+00    0.2160243    0.1443327  18.02  0.001648327    1.051    0.049
        26  -7.8324      1.6814    134.3736   1.0942681812e+02   4.6624511616e+01    0.1438858   0.06868996  56.72  0.000703176    1.802    0.445
        27  -8.5248     61.6905    132.6935   8.9898077976e+01   4.1303885358e+01    0.1372309    0.1085295 -27.31 0.0001854951    1.614    0.380
        28  -9.8144      8.9074    131.3646   1.0699926734e+02   4.6897138109e+01    0.2645594    0.2058249  34.22 0.0002903568    1.277    0.217
        29  -8.2915     73.5376    130.4408   8.5771215658e+01   4.0182950449e+01    0.1443797    0.1310971  57.46  0.000141963    1.020    0.019
        30  -8.0117     36.4159    127.2650   9.7550320671e+01   4.5615981465e+01    0.1358493    0.1001503 -27.71 0.0006954742    1.768    0.435
        31  -8.4376     25.8548    127.0961   1.0110191203e+02   4.6652288121e+01    0.1684868    0.1502447 -51.31            0    1.278    0.217
        32 -10.4327      3.9252    125.1512   1.0832787881e+02   4.8728862559e+01    0.3380389    0.1998735  60.63  0.001839078    1.491    0.329
        33  -9.1323     43.5055    121.8167   9.4473517825e+01   4.6230775348e+01     0.339154    0.1365083 -75.77  0.001300635    2.616    0.618
        34  -8.2320     80.9920    121.9685   8.1887453155e+01   4.1064381555e+01    0.1728779    0.1609802  54.42            0    1.010    0.010
        35  -8.4987     35.2390    122.7005   9.7450637825e+01   4.6879841163e+01    0.2933414   0.08889793  32.76  0.001092624    2.761    0.638
        36 -11.4658    107.9592    119.9488   7.3222220080e+01   3.6812113416e+01    0.2510177    0.2378829  41.32  0.001389328    1.016    0.016
        37  -8.8358     76.4865    120.5566   8.3080420429e+01   4.2117706237e+01    0.3057679    0.2107773 -83.48  0.001428915    1.713    0.416
        38  -8.5984     27.7458    121.5615   9.9939326197e+01   4.7874419351e+01    0.1935981    0.1090934  39.55 0.0009451348    1.637    0.389
        39  -7.8227     94.2749    120.3658   7.7394621278e+01   3.9206459199e+01    0.1490769    0.1156185 -21.15  0.000700546    1.670    0.401
        40  -9.2048     70.4034    119.8253   8.4958124777e+01   4.3223219281e+01    0.2444899     0.200869  69.95 0.0004858135    1.240    0.193
        41 -11.3361      4.0153    113.2508   1.0771590883e+02   5.1676376116e+01    0.7225429    0.3703009 -61.73   0.00226851    1.923    0.480
        42 -10.9243     12.7960    113.1257   1.0454185647e+02   5.1176232035e+01    0.5318846    0.2977649 -54.63  0.002198705    1.871    0.466
        43 -10.8268      2.7727    104.3314   1.0768930496e+02   5.3989920274e+01    0.6334133     0.320853 -69.71  0.003133308    1.797    0.444
        44  -8.6855     15.0048     99.9383   1.0260699945e+02   5.4405132843e+01    0.2057176    0.1585511  68.91 0.0005242482    1.212    0.175
        45 -10.8263     11.6181     97.0438   1.0370478289e+02   5.5368474833e+01    0.6383528    0.3260486 -18.14 0.0009008004    2.799    0.643
        46 -10.9115     47.2317    110.5313   9.1533824799e+01   4.8668702110e+01     0.500571    0.2524466 -58.32  0.001241259    1.924    0.480
        47  -9.5052     60.4012    113.9255   8.7344915772e+01   4.6120431570e+01    0.2383194    0.1837762  47.53 0.0003917131    1.241    0.194
        48 -10.4187     27.2467    113.6498   9.9309781561e+01   4.9928749062e+01    0.3623026    0.2909632  43.69            0    1.204    0.169
        49  -8.9246     22.2116    112.8304   1.0107448295e+02   5.0560901612e+01    0.2077411    0.1873814  23.50 0.0003945098    1.222    0.182
        50  -9.0720     32.9804    112.5253   9.7073317350e+01   4.9688928838e+01    0.2733411    0.1968845 -17.27  0.001098095    1.826    0.452
        51 -10.0634     38.3506    110.6919   9.4847355650e+01   4.9619397010e+01    0.3041239    0.1983707  67.83 0.0009167956    1.596    0.373
        52 -10.3378     41.9395    109.3142   9.3313958713e+01   4.9586845254e+01     0.300576    0.2706315 -37.47  0.001038679    1.257    0.205
        53  -8.6557    105.4227    110.7792   7.1874606065e+01   3.9343251514e+01    0.1993866    0.1431737 -39.00 0.0003514555    1.537    0.349
        54  -8.6875     82.1872    111.0434   7.9290551846e+01   4.3492802641e+01    0.2188289    0.1964538 -22.66 0.0004979508    1.284    0.221
        55  -9.2792     99.1415    109.8608   7.3571084195e+01   4.0746665118e+01    0.2367787    0.2023937  68.38  0.001190292    1.246    0.197
        56 -10.4253     65.8445    109.1898   8.4543062075e+01   4.6531586852e+01    0.5360672    0.2448108  22.37    0.0019243    2.855    0.650
        57 -10.4119     65.0280    103.4881   8.3699380974e+01   4.8079013063e+01    0.5419214    0.3221639 -59.66  0.002440688    1.664    0.399
        58 -10.1453     69.9405     99.0520   8.0943511803e+01   4.8431540147e+01    0.2689905    0.2383096 -17.52  0.001425675    1.318    0.242
        59  -9.5723     88.2479    107.9488   7.6603030448e+01   4.3184436687e+01    0.4479579    0.2105555  36.04  0.001726741    2.097    0.523
        60  -9.4057     77.4029    106.8266   8.0003682980e+01   4.5311840785e+01    0.3385639    0.1930433 -61.60  0.001448381    1.819    0.450
        61 -10.5147     52.4127    105.0946   8.8697331887e+01   4.9418872281e+01    0.6374379    0.3185167  67.63  0.002289376    3.039    0.671
        62  -9.4570     36.0442    104.5885   9.4873944771e+01   5.1429809514e+01    0.3545244    0.2413991 -19.94  0.001103166    1.977    0.494
        63  -9.1288     14.2701    105.1464   1.0335970495e+02   5.3113425235e+01    0.2782373    0.1835687 -12.47  0.001306439    1.960    0.490
        64 -10.0384    115.7358    102.5061   6.6801302785e+01   3.9103838028e+01    0.2858075    0.2146302 -45.17  0.001369195    1.376    0.273
        65  -8.2556    165.0216    102.5129   5.4724192212e+01   2.8527798103e+01    0.2064271    0.1411495  47.57 0.0003415431    1.471    0.320
        66  -9.7121    110.6071    102.5871   6.8313466102e+01   4.0138399267e+01    0.3372871    0.2360453  28.97   0.00152407    1.590    0.371
        67  -8.8300    112.2617     99.3809   6.6992718863e+01   4.0500038572e+01    0.2365995    0.1487728  41.71 0.0004500727    1.552    0.356
        68  -9.3899     42.3323    101.9528   9.2028749628e+01   5.1438917989e+01    0.2326382    0.1801706  -4.55 0.0004986009    1.613    0.380
        69 -10.0615     97.1439     97.9985   7.1284870754e+01   4.3853100433e+01    0.5379369    0.3801855 -71.92  0.001635025    1.739    0.425
        70 -10.5684     80.6478     99.9246   7.7308716818e+01   4.6440534397e+01     0.419779    0.2677781  21.53  0.001025818    1.953    0.488
        71  -9.4983     33.8990     99.0598   9.4922403746e+01   5.3076892198e+01    0.2116477    0.1937312  47.07 0.0002875038    1.106    0.096
        72 -10.5482    116.2347     96.6100   6.5098816297e+01   4.0264150864e+01    0.3359762    0.2755142 -47.94  0.001135834    1.253    0.202
        73  -8.8761     75.5583     81.5106   7.4400472240e+01   5.1773264986e+01    0.7510453    0.2442397 -49.01  0.001678166    3.054    0.673
        74 -10.1489     72.3685     88.8659   7.7594530014e+01   5.0546313460e+01    0.5624034    0.3796909  78.27  0.002124607    2.065    0.516
        75 -10.2465     82.3624     80.4731   7.1546780471e+01   5.0765872923e+01     0.819513     0.339569 -53.38  0.002916023    2.477    0.596
        76 -10.7603     87.6612     73.0369   6.7330419310e+01   5.1425165534e+01    0.6765614    0.6047368  19.23  0.001809399    1.222    0.182
        77 -11.3799     46.1559     94.8244   8.9265786104e+01   5.2834516688e+01    0.6279652    0.5377437  78.99  0.001474539    1.158    0.136
        78 -11.6524     64.1765     82.1502   7.9067472781e+01   5.3537969736e+01     1.179059    0.9019156  10.77  0.003395156    1.603    0.376
        79 -11.6427     47.6428     85.8872   8.6856706212e+01   5.4951634651e+01     1.211577    0.5213156  46.28  0.004260847    2.499    0.600
        80 -11.1102     51.3474     80.2913   8.3990243896e+01   5.5894441195e+01    0.6177024    0.4726278  19.11  0.002680336    1.451    0.311
        81  -9.0169    142.9874     97.2209   5.8239254130e+01   3.4307791610e+01    0.2165624    0.1971259  77.75  0.000423709    1.214    0.176
        82 -10.7352    126.0848     97.2764   6.2542905760e+01   3.8008997556e+01    0.4905006    0.2817961  64.05   0.00183432    2.495    0.599
        83  -9.7133    136.9032     96.3265   5.9483465547e+01   3.5827088840e+01    0.2760862    0.2400688 -14.08  0.000187431    1.269    0.212
        84 -10.5051    132.3573     93.7449   5.9926962023e+01   3.7344295767e+01    0.4178743    0.2994786  34.60 0.0001981198    1.485    0.326
        85  -8.8244     22.4041     96.8675   9.9292996780e+01   5.4663710255e+01    0.2214781    0.1663497  37.95 0.0005734409    1.337    0.252
        86  -8.7705     64.5775     93.9716   8.1806000911e+01   5.0532097059e+01    0.2221071    0.1408357 -59.52  0.000392211    1.556    0.357
        87  -8.5756    110.5117     93.4441   6.5909578238e+01   4.2156619733e+01    0.1529249    0.1478244  54.49 0.0001015579    1.008    0.008
        88  -9.9233     97.3475     90.9355   6.9331141938e+01   4.5425410267e+01    0.5362222    0.3873016  83.25   0.00232147    1.947    0.486
        89  -8.7387     84.1819     93.8051   7.4557802617e+01   4.7280794180e+01    0.3591127   0.09902597  43.10  0.001044872    3.524    0.716
        90  -9.3485    139.1135     88.3449   5.6719923726e+01   3.6872473426e+01    0.2460777    0.2060477 -27.85  0.000431827    1.257    0.204
        91  -9.3561    116.6616     88.3028   6.2654739336e+01   4.1930040063e+01    0.3048357    0.1859721 -23.73  0.001154199    2.441    0.590
        92  -9.9567    109.6012     88.2309   6.4714215203e+01   4.3478216059e+01    0.4399439    0.2851819 -26.71  0.001363107    2.055    0.513
        93 -10.0131    106.7055     85.9489   6.4936754616e+01   4.4591665485e+01    0.4998196      0.28526  34.96  0.001685684    1.949    0.487
        94  -9.5760     16.5634     88.5643   1.0077689548e+02   5.7251637760e+01    0.5014512    0.1657049 -79.84  0.001830541    2.904    0.656
        95  -8.7093     13.4896     85.4658   1.0177311146e+02   5.8256271292e+01    0.3079788    0.1746413  -9.40  0.001437558    2.298    0.565
        96  -9.2518    123.5225     88.4968   6.0787807582e+01   4.0370062991e+01    0.1530291    0.1487653  72.57 -2.381116e-05    1.038    0.037
        97  -9.2610      7.0067     87.3865   1.0479724266e+02   5.8120762097e+01    0.3239158    0.1823162  88.07  0.000953711    1.648    0.393
        98  -9.7231    163.0665     84.4541   5.0317188916e+01   3.2072054195e+01    0.3158794    0.2626139  61.07 0.0007959058    1.268    0.211
        99  -9.5085    139.6624     83.8408   5.5289467032e+01   3.7597716868e+01     0.266518    0.2070593  37.59 0.0008171925    1.339    0.253
       100  -8.3527     88.3252     84.1052   7.0459590051e+01   4.8775435778e+01    0.2571022    0.1945668  31.98  0.000662993    1.392    0.282
       101  -8.9950     29.5552     83.2459   9.4277366142e+01   5.7608989693e+01    0.3245395    0.2155934  81.66  0.001120139    1.615    0.381
       102 -11.2162    118.6812     81.7588   6.0145631459e+01   4.2832911910e+01    0.8979981    0.2229701 -45.23  0.002432904    4.161    0.760
       103 -10.9187    114.4404     80.6416   6.1024122594e+01   4.4018824627e+01    0.5502955    0.4914482 -20.23     0.002324    1.232    0.189
       104 -10.6470    115.0314     72.0321   5.8137401212e+01   4.5632735878e+01     0.498379    0.4023822 -61.41  0.002293695    1.358    0.264
       105 -10.6193     96.9662     77.3894   6.5479401891e+01   4.8531182267e+01    0.9074866    0.5873064 -70.30  0.003374246    2.183    0.542
       106 -10.9144    104.5023     75.6525   6.2484371827e+01   4.7276769386e+01    0.6306471    0.4843644  -3.66  0.002831433    1.814    0.449
       107 -10.4310    101.5462     70.6900   6.1817302610e+01   4.8975775960e+01    0.3949514    0.3070073 -62.44  0.001869828    1.434    0.303
       108 -11.4902    108.1775     63.7425   5.7374801078e+01   4.8873927299e+01    0.9035186    0.7793842 -26.76  0.004568549    1.251    0.201
       109 -10.9248    130.5775     53.2160   4.7635731232e+01   4.5285789172e+01    0.4400434    0.3678458 -74.06  0.001445795    1.321    0.243
       110  -9.6409    128.8181     58.4953   4.9896425474e+01   4.4829885961e+01    0.6021625    0.3118362  42.29  0.002310565    2.133    0.531
       111 -11.1190    119.9123     60.3750   5.2840691885e+01   4.6698571290e+01    0.5660815    0.4929736  10.75  0.001790846    1.335    0.251
       112 -10.5368    123.3430     55.8372   5.0341727519e+01   4.6662114942e+01    0.4450749     0.295119  54.12   0.00104474    1.473    0.321
       113 -10.5971    126.4667     74.8973   5.5901254047e+01   4.2390537109e+01    0.5828682    0.3421007  53.05  0.002439768    1.701    0.412
       114  -9.2898    131.3169     81.7202   5.6733707431e+01   3.9939543936e+01    0.2474166     0.188152  60.76 0.0001883689    1.384    0.277
       115  -9.7915    127.9295     80.3849   5.7209764182e+01   4.0985108318e+01    0.3895932     0.283844 -31.60 0.0005246404    1.479    0.324
       116  -9.7696      6.6909     80.6350   1.0433353195e+02   5.9883124425e+01     0.476388    0.2405424  -4.35  0.002175109    2.515    0.602
       117  -9.4065      9.3687     76.8179   1.0270253019e+02   6.0738256169e+01    0.3061415    0.2141693 -75.97 0.0009474813    1.272    0.214
       118  -9.6560     25.2303     78.3939   9.5445386504e+01   5.9252764304e+01    0.3614192    0.2310441  14.08  0.001586324    1.764    0.433
       119 -10.0705    170.2766     68.5760   4.4439549642e+01   3.2968823901e+01    0.3461089    0.2152184  65.79  0.001563786    1.781    0.438
       120  -9.5778    173.8249     66.0061   4.3081396215e+01   3.2520767681e+01    0.2855488     0.219222  59.01  0.000455947    1.346    0.257
       121 -10.4214    172.2598     76.4864   4.6338239033e+01   3.1262770304e+01    0.3855973    0.3586452  84.18  0.001089328    1.153    0.133
       122  -9.6173    173.2682     72.6256   4.5070813488e+01   3.1635786803e+01    0.2643188    0.2025969 -39.59 0.0006067302    1.254    0.203
       123 -12.0545    139.1149     72.7279   5.2072784102e+01   3.9773398580e+01     1.032363     0.578039  49.72    0.0021212    1.763    0.433
       124  -9.7885     21.9713     61.4724   9.3948460352e+01   6.3896970939e+01    0.4470387    0.2329548  41.32            0    2.035    0.509
       125  -9.0471     19.4449     57.4441   9.4501577864e+01   6.5120255733e+01     1.099447    0.7115979  85.73  0.005508026    1.708    0.415
       126 -10.0066     38.8324     72.5526   8.7844618566e+01   5.9428243078e+01    0.3664325    0.3067845  35.29  0.001005105    1.237    0.191
       127  -9.7675     34.3696     69.2864   8.9255161400e+01   6.0751725705e+01    0.4822934    0.3373137 -33.43  0.000989059    1.602    0.376
       128  -9.5391     16.3456     43.6763   9.3194952386e+01   6.8811834390e+01    0.2697685     0.233618 -39.36 0.0006946586    1.111    0.100
       129 -10.1949     24.2047     68.0418   9.4088539986e+01   6.2025352603e+01    0.4584561    0.2570646  30.95  0.001596938    1.828    0.453
       130 -10.9834     28.9547     61.7146   9.0266672078e+01   6.3227678034e+01    0.7183667    0.3272662 -48.90  0.001593386    2.094    0.522
       131 -10.7901      9.8799     45.0706   9.7657810026e+01   6.8857022690e+01    0.9495398    0.4083776  57.23  0.003698041    3.254    0.693
       132 -10.4339      2.8544     40.4602   1.0138453529e+02   7.0314061682e+01     0.628921    0.2688113 -85.25  0.002359047    2.363    0.577
       133  -9.6135     15.1700     73.9461   9.9564023235e+01   6.1150015799e+01    0.5534747    0.2418005  67.19  0.002128036    2.948    0.661
       134  -9.0774    194.0667     76.2984   4.2666843868e+01   2.6385532806e+01    0.1808717    0.1780082 -37.95 0.0002999785    1.064    0.060
       135  -9.8676    164.2847     74.5965   4.7285676449e+01   3.3428921768e+01     0.422383    0.2052836  58.51  0.001678221    2.177    0.541
       136  -8.8612    155.8217     68.2927   4.7077756719e+01   3.6487338413e+01    0.3741376    0.2643423 -40.07  0.001345808    1.388    0.279
       137  -9.3060    154.0060     62.7708   4.5740645723e+01   3.7830588255e+01    0.2862331    0.1881303  40.14 0.0006720842    1.694    0.410
       138 -10.8550    148.1097     68.4424   4.8721011382e+01   3.8340555484e+01    0.5148856    0.3048739 -37.64  0.001578981    1.667    0.400
       139 -10.9132    151.5439     67.2253   4.7621536556e+01   3.7706284973e+01    0.7913284     0.259882 -41.68  0.002575428    2.978    0.664
       140  -7.8988      4.5208     74.5892   1.0477679459e+02   6.1545288449e+01    0.1298497    0.1149198  81.89 8.601234e-05    1.063    0.059
       141  -8.7556      1.3799     71.3230   1.0599759331e+02   6.2510485257e+01    0.2464621    0.1047254 -75.27 0.0006263004    2.002    0.500
       142  -9.7727     72.1224     76.0901   7.4175321860e+01   5.3677621305e+01    0.3892093    0.2215786  39.04  0.001108432    1.747    0.428
       143  -8.9883     51.6157     71.0417   8.1490431196e+01   5.8182363513e+01    0.4618579    0.2285364  21.98  0.001790901    2.495    0.599
       144 -10.1249      9.7147     67.0899   1.0135980845e+02   6.3241238085e+01    0.5465495    0.3437124 -50.41  0.002576403    1.521    0.342
       145  -8.8803     12.6241     63.6795   9.9352979542e+01   6.3964115489e+01    0.2454226     0.149013 -45.02 0.0008197417    1.630    0.386
       146  -9.6491     18.0498     66.4070   9.6950719040e+01   6.2915664819e+01    0.4616844    0.1845513 -60.12  0.001246461    2.117    0.528
       147 -10.3153     94.0730     66.2544   6.2811677033e+01   5.1552542322e+01    0.4185901     0.250021  35.92  0.001387104    1.839    0.456
       148  -9.6475    153.8083    249.8035   8.2456027553e+01   7.3547136064e+00    0.2580382   0.06689417  28.54  0.001043958    3.531    0.717
       149 -10.3508    195.8495    245.4803   7.4521810190e+01   2.9080824061e+00     0.284994    0.1358707  31.68  0.001836986    1.614    0.380
       150 -11.1201    180.0906    242.0152   7.6817358451e+01   5.1182630606e+00    0.3600286    0.1311927  26.60  0.001853031    2.318    0.569
       151 -10.8022     61.6834     62.9609   7.4483246374e+01   5.8591153373e+01    0.8892331    0.7846721  28.47  0.004807195    1.170    0.146
       152  -8.6750    221.0024    239.4039   6.9619647936e+01   7.0311057917e-01    0.1430615    0.1002937  -6.97  0.001143396    1.271    0.213
       153  -8.4366    211.9602    241.4775   7.1343237612e+01   1.4978210183e+00    0.1490168   0.07579064  27.66 -8.46546e-05    1.489    0.328
       154 -10.0365    212.8209    216.7016   6.7784039147e+01   3.9789326358e+00    0.1914535    0.1051783  25.72 0.0006482031    1.458    0.314
       155  -8.9092    243.6566    177.7227   5.6707966487e+01   4.4336776944e+00    0.1145364   0.06785867   6.35 0.0003107566    1.626    0.385
       156  -9.5947    249.0000    168.9862   5.4418701651e+01   4.7146551372e+00    0.1768318   0.05271776 -30.58  0.000803663    2.951    0.661
       157 -10.2853     50.9446     31.5065   6.7188593852e+01   6.7372149078e+01    0.7127929    0.4558471  46.71  0.003420555    1.670    0.401
       158 -10.9305      6.0459    158.1143   1.0898915605e+02   4.0806599229e+01    0.3772816    0.2615474  85.49  0.001753067    1.322    0.244
       159 -10.7388     53.3213     46.0280   7.2349421943e+01   6.3871939225e+01     1.039003    0.4389857  24.70  0.002870435    3.767    0.735
       160 -10.0618    210.9952     66.5064   3.7787568504e+01   2.4107365603e+01    0.1868203    0.1334909  63.39 0.0005426903    1.567    0.362
       161  -9.3587     31.1772     75.8413   9.2183125865e+01   5.9382207724e+01    0.5010349     0.326713  60.50  0.002438402    1.710    0.415
       162 -10.0333     85.5710     61.3622   6.4131924498e+01   5.4412178152e+01    0.6798209    0.2789665 -43.94  0.002406619    2.481    0.597
       163  -9.8397     78.5049     58.5352   6.5817252526e+01   5.6477567313e+01    0.3619274    0.3160739 -73.80  0.001480125    1.268    0.211
       164 -11.5346     81.9889     55.0141   6.3136343853e+01   5.6506971060e+01    0.4604281    0.3596106 -47.09  0.002270299    1.296    0.228
       165 -10.5455     39.0245     63.0490   8.5374719627e+01   6.1816293199e+01    0.4989875     0.394947 -72.34  0.001617995    1.257    0.204
       166  -9.9484     42.4225     61.2173   8.3140552381e+01   6.1857114490e+01     0.345423    0.2730323  43.99 0.0008914561    1.325    0.245
       167 -10.2550     68.6204     48.7203   6.6167492841e+01   6.0540202077e+01    0.4444776     0.340407  54.55 0.0005701862    1.406    0.289
       168 -11.9338    138.9065     55.0609   4.6379470150e+01   4.2866263164e+01     0.776382    0.4588246 -47.36  0.002836787    1.766    0.434
       169  -8.7042    183.5014     61.4654   4.0230355670e+01   3.0908293152e+01    0.1407165    0.1330596 -43.16 6.875768e-05    1.002    0.002
       170 -10.9287    217.3167     58.5276   3.5015295081e+01   2.3806248489e+01    0.3861723    0.1317281 -32.63  0.001558273    2.408    0.585
       171 -10.0674    161.3021     44.7302   3.8686656995e+01   3.8706251188e+01    0.3526542    0.3128488  51.66 0.0009745272    1.173    0.148
       172 -10.8275    164.2003     55.6955   4.1653165321e+01   3.6400558239e+01    0.5361038    0.4744127 -10.77  0.002909998    1.230    0.187
       173 -10.2563    160.3964     51.8873   4.1124850613e+01   3.7912224924e+01    0.5937441    0.3180991 -18.11  0.002310136    2.417    0.586
       174  -9.9396    164.5155     39.8352   3.6605551318e+01   3.8551143518e+01    0.3123407    0.2629131 -33.51 0.0004229301    1.176    0.150
       175  -9.4679    161.5684     35.0306   3.5490439173e+01   3.9933885989e+01    0.3411578    0.2392095 -74.27  0.001032803    1.591    0.371
       176  -9.1581     93.0222     60.8083   6.1253902722e+01   5.2920717365e+01    0.3291974    0.1975772 -43.32  0.001394369    1.693    0.409
       177  -8.4315     48.5174     59.9505   7.9709703193e+01   6.1349752561e+01    0.2204806     0.138351 -59.08  0.001018288    1.550    0.355
       178 -10.9419    207.9757     58.7021   3.6152884272e+01   2.5767006461e+01    0.2438167    0.2272732  46.47  0.001529271    1.191    0.161
       179 -11.1050    189.8380     57.6020   3.8221336279e+01   2.9973871942e+01    0.4582299    0.1710656 -38.36  0.001766161    2.364    0.577
       180  -9.8955      3.4514     55.9092   1.0329092219e+02   6.6390602917e+01    0.3304006    0.2061819 -41.59  0.001603158    1.590    0.371
       181 -10.7877      3.5782     50.6698   1.0251565418e+02   6.7719355694e+01    0.6847864    0.3492781  72.68  0.002464063    2.231    0.552
       182  -9.6249    174.6580     55.5015   3.9868713136e+01   3.3864667107e+01    0.3032445    0.2371387  41.50 0.0007712807    1.404    0.288
       183  -7.9967    177.3029     60.6454   4.0958679242e+01   3.2488668110e+01    0.1538904    0.1036032 -60.32 0.0007039394    1.709    0.415
       184 -10.0069     50.9530     37.3483   6.9923025907e+01   6.6158078960e+01    0.6676112    0.3626908  52.15 0.0005742324    2.330    0.571
       185 -10.1640     43.5773     53.7031   8.0223326218e+01   6.3542828869e+01    0.5324064    0.3459321 -10.33  0.002340463    2.221    0.550
       186  -9.4437     38.5381     55.4347   8.3452549957e+01   6.3766167796e+01    0.3690618    0.2037073 -73.68  0.001248375    2.134    0.531
       187 -10.8513    183.1644     52.8860   3.7826630583e+01   3.2184465179e+01    0.3763914     0.182791 -50.61  0.001521142    2.259    0.557
       188  -9.2159     12.7116    153.9325   1.0694151857e+02   4.1269438590e+01    0.2203714    0.1504086  41.30 0.0003375897    1.278    0.217
       189  -9.4089     94.3164     45.0110   5.4695788479e+01   5.5703610619e+01    0.3354093     0.268941 -85.47  0.001605902    1.555    0.357
       190 -11.6363    191.9609     49.6080   3.5697705634e+01   3.0546812235e+01    0.5199481     0.298271 -66.15  0.002070952    2.277    0.561
       191 -12.1194    194.2455     45.5958   3.4285743107e+01   3.0528218643e+01    0.5759528    0.3231621  48.20  0.002683863    2.007    0.502
       192  -8.6814    120.9866     50.4812   4.9009976569e+01   4.8177758939e+01    0.2325639    0.1478151  54.65 0.0004540813    1.528    0.346
       193 -10.0813     90.9787     31.9383   5.0106619179e+01   5.8758538322e+01    0.5307487    0.4337482  65.01  0.001901568    1.255    0.203
       194 -11.3375     86.9451     47.2578   5.8199649315e+01   5.6984180873e+01    0.5190301    0.4119468 -34.67  0.001744764    1.306    0.234
       195  -9.2971     81.4193     48.2772   6.0694691368e+01   5.8003874978e+01    0.3322107    0.2172243  53.80 0.0009097542    1.595    0.373
       196 -10.0913     89.4135     38.9370   5.3784984450e+01   5.7951116805e+01    0.5810282    0.4005596  24.40  0.002098913    1.866    0.464
       197 -10.6622     82.9585     39.5371   5.6383734159e+01   5.9336737210e+01    0.8167531    0.7655673  -7.64  0.004478955    1.112    0.101
       198  -9.7715     83.4949     30.7535   5.2140956267e+01   6.0746776425e+01     0.763404    0.4865758  11.16  0.002982466    2.638    0.621
       199 -11.8125    151.4006     46.4330   4.0961796407e+01   4.0999690511e+01     0.879843    0.5752792 -10.21  0.002143976    2.011    0.503
       200 -10.9457    210.5050     44.6503   3.2187404757e+01   2.6963922485e+01    0.3085157    0.2057887  22.22  0.001532797    2.125    0.529
       201 -10.2682    175.5558     46.6650   3.7087601874e+01   3.4870482905e+01    0.2764259    0.1838532  71.23  0.001333821    1.585    0.369
       202  -9.6179     41.6613     43.7378   7.7738872692e+01   6.6157400534e+01    0.4555791    0.3106929 -74.86  0.001945181    1.826    0.452
       203  -9.4916     23.6500     44.3001   8.8730311445e+01   6.8076044411e+01      0.24774    0.2314766 -54.14 0.0006593341    1.022    0.022
       204 -10.3376    203.7406     47.1401   3.3590492842e+01   2.8162843909e+01    0.2611177    0.1613033  36.13  0.001245751    2.115    0.527
       205 -10.2595    128.8020     37.1063   4.2140287168e+01   4.8263207194e+01      0.66482    0.3713083  87.50   0.00138724    2.760    0.638
       206 -11.2189     30.3136     38.2122   8.2483936601e+01   6.8867967359e+01    0.4498623     0.267113 -54.99  0.001378658    1.548    0.354
       207  -8.4203     25.6609     38.2983   8.5523252969e+01   6.9339414940e+01    0.2059195    0.1687428  86.93  0.001157163    1.421    0.296
       208 -10.2330    208.0523     39.9879   3.1208172122e+01   2.8060241531e+01    0.2764744      0.18147 -26.37 0.0003848322    1.434    0.303
       209  -8.4283    172.4566     41.4761   3.5950545463e+01   3.6328391081e+01    0.1421208     0.135134 -58.40 0.0001120224    1.015    0.015
       210  -8.9306    117.0185     40.3724   4.6170268738e+01   5.0847187128e+01    0.3415339    0.2147914 -61.59  0.001399952    2.045    0.511
       211  -8.3782    141.2076     40.1475   4.0717223993e+01   4.4558467227e+01    0.2062688    0.1693136 -72.31 0.0005310641    1.292    0.226
       212 -10.2622    123.0466     37.7557   4.3681567213e+01   4.9680619754e+01     0.760558     0.340089 -41.41  0.002773195    2.253    0.556
       213 -10.8680    197.3009     38.4521   3.1933059402e+01   3.0694603808e+01    0.3054876    0.1677127  45.99  0.001397817    2.165    0.538
       214  -9.5768    111.7393     33.7573   4.4838482070e+01   5.3230965860e+01    0.4803115    0.4079818  19.00  0.002451122    1.342    0.255
       215  -8.4003     13.5066     38.9158   9.3846303349e+01   7.0178569836e+01    0.1881368    0.1196865 -68.84 0.0002984663    1.440    0.306
       216 -10.6424    190.4320     37.1309   3.2336108288e+01   3.2473985889e+01    0.2870862     0.177149 -80.12  0.001339973    1.953    0.488
       217  -8.5922     32.6100    151.2661   1.0096669398e+02   4.0167598800e+01    0.1956192    0.1572491 -13.49  0.000675761    1.645    0.392
       218  -9.1473    109.6702     38.9515   4.7534039590e+01   5.2958262832e+01     0.463959    0.3090806 -65.05  0.001972944    1.956    0.489
       219 -10.2537    167.4601     33.5513   3.4161636940e+01   3.8605332333e+01    0.2856551    0.2332485 -73.74 0.0005684182    1.235    0.190
       220 -10.3338    167.6223     30.3102   3.3098895063e+01   3.8961088384e+01    0.4856195    0.2648545 -75.21  0.001498666    2.430    0.589
       221  -8.7394     98.2666     32.1482   4.7900716175e+01   5.6921757382e+01    0.3260607    0.1443864  46.50  0.001200783    2.257    0.557
       222  -9.0882    154.6801     30.6032   3.5049262313e+01   4.2290719156e+01    0.5075637    0.2032315 -42.40  0.001413674    2.406    0.584
       223  -9.0216    155.0000     23.9894   3.2727101391e+01   4.3004846422e+01    0.4879441    0.2639225 -29.92  0.002139515    1.813    0.448
       224  -9.8839    136.4268     29.2466   3.7635830986e+01   4.7315596159e+01    0.5524526    0.3390802  17.51  0.002182031    2.549    0.608
       225  -8.5892    120.2744     31.3947   4.1796107641e+01   5.1334434146e+01    0.1939883    0.1422747  75.83 0.0002394816    1.421    0.296
       226  -9.1143     38.6366     31.1550   7.4249273774e+01   6.9401322734e+01    0.2189483    0.1875332  41.31  0.000614707    1.257    0.204
       227 -10.3886     10.2654     31.7350   9.4206683324e+01   7.2128158939e+01    0.4505365    0.2843464 -49.38 0.0005495441    1.393    0.282
       228  -8.9067    236.9993    146.7572   5.2055226961e+01   8.9415578602e+00    0.1416565   0.09294625  36.01 0.0007039199    1.587    0.370
       229  -8.7236     42.4568     27.9383   7.0328094211e+01   6.9507786312e+01    0.2446814    0.2156544  85.98 0.0008963384    1.444    0.307
       230 -10.4380     39.6718     23.1683   6.9588436223e+01   7.0912654499e+01    0.4565267    0.3839637  35.39  0.001542024    1.228    0.186
       231  -8.3084     37.3407    146.3199   9.9130948379e+01   4.0866572485e+01    0.1301458   0.09840782 -34.58  0.000704988    1.716    0.417
       232  -9.4893    107.5851     26.3634   4.2736306362e+01   5.5382165055e+01    0.2651546    0.2555387 -22.44  0.001469837    1.093    0.085
       233  -9.0645    103.0883     23.9570   4.2829381951e+01   5.6888202357e+01    0.3001346    0.2510974  30.45 0.0008653505    1.282    0.220
       234  -8.4815    102.5113     19.0791   4.0723945958e+01   5.7683274054e+01     0.408975     0.226492 -64.44  0.001520732    2.745    0.636
       235  -9.2667     23.8697     26.1417   8.2045016345e+01   7.2343650825e+01    0.3093978    0.1870242   9.22  0.001514652    1.924    0.480
       236  -9.9693    138.9620     34.7854   3.9214398757e+01   4.5901657593e+01    0.3362931    0.2478579  46.32  0.001626087    1.414    0.293
       237 -10.0007      2.0014    144.7190   1.0969073726e+02   4.4156534247e+01    0.3459478    0.1700546  70.15  0.001780476    1.782    0.439
       238  -8.9268    129.5281     24.4728   3.7091179456e+01   4.9777520278e+01     0.251774    0.1904934  57.19 0.0007758358    1.275    0.215
       239  -9.2889    131.3542     20.5846   3.5219361478e+01   4.9755721245e+01    0.2457635    0.2302838 -84.46 0.0004077319    1.027    0.026
       240  -8.8304    117.8225     24.1177   3.9339981484e+01   5.2969914422e+01    0.2348827    0.1995803 -63.49  0.001217694    1.232    0.188
       241  -8.5273     94.8281     24.1200   4.5230106368e+01   5.8990203388e+01    0.1932759    0.1602379  36.25            0    1.235    0.190
       242  -8.1686     48.7375    139.3190   9.4881632596e+01   4.1307295472e+01    0.1417655   0.09120207  63.05 0.0001720703    1.549    0.354
       243  -9.3660    115.1364     20.6806   3.8461324420e+01   5.4125136945e+01    0.4201341    0.1855724  48.30  0.001580816    2.267    0.559
       244  -9.6743     19.6972     20.8948   8.2901708461e+01   7.3938642436e+01    0.1979098    0.1606105 -72.15 0.0002584889    1.374    0.272
       245  -8.9830     29.8837     19.1726   7.4155545618e+01   7.3137780788e+01    0.3443817    0.1864494 -62.44  0.001520016    2.345    0.574
       246  -9.7094     15.8200    137.1999   1.0512203852e+02   4.4985708928e+01     0.314514    0.1771012  77.33 0.0008429603    1.663    0.399
       247  -9.6441     85.6193     22.3545   4.7272184415e+01   6.1545179759e+01     0.321293    0.2556773  61.99 0.0007060632    1.251    0.201
       248  -8.3266    147.7593     13.0488   2.9836724444e+01   4.6140384163e+01    0.1814528    0.1698861 -45.22 0.0002980508    1.096    0.088
       249  -8.3758    137.7841     12.9979   3.1210376360e+01   4.8848918168e+01    0.1878483    0.1756162  85.44  0.001058865    1.017    0.017
       250  -8.1696      6.6805     13.2595   9.0944636843e+01   7.6670442420e+01    0.1170614   0.09290381  52.58 0.0006940597    1.545    0.353
       251  -7.7714    124.7236     11.6863   3.2764061949e+01   5.2550576361e+01    0.1477603    0.1062698  35.38 0.0002475468    1.563    0.360
       252 -10.1252     87.7694    134.1720   8.2028141064e+01   3.7102573498e+01    0.4420036    0.2132494  44.55  0.001320577    1.952    0.488
       253 -10.0324     29.5243    132.3329   1.0034643259e+02   4.5023391404e+01    0.3760016    0.2243328  79.64  0.001685966    1.670    0.401
       254 -10.0844     24.9878    134.0425   1.0197001857e+02   4.5008740454e+01    0.2718849    0.1930631  35.26 0.0004698473    1.338    0.253
       255  -9.8902     21.3923    132.0480   1.0298589024e+02   4.5802431375e+01    0.3871108    0.2010214 -68.82  0.001028657    1.855    0.461
