#   1 NUMBER                 Running object number                                     
#   2 MAG_AUTO               Kron-like elliptical aperture magnitude                    [mag]
#   3 X_IMAGE                Object position along x                                    [pixel]
#   4 Y_IMAGE                Object position along y                                    [pixel]
#   5 X_WORLD                Barycenter position along world x axis                     [deg]
#   6 Y_WORLD                Barycenter position along world y axis                     [deg]
#   7 A_WORLD                Profile RMS along major axis (world units)                 [deg]
#   8 B_WORLD                Profile RMS along minor axis (world units)                 [deg]
#   9 THETA_WORLD            Position angle (CCW/world-x)                               [deg]
#  10 FWHM_WORLD             FWHM assuming a gaussian core                              [deg]
#  11 ELONGATION             A_IMAGE/B_IMAGE                                           
#  12 ELLIPTICITY            1 - B_IMAGE/A_IMAGE                                       
         1 -11.3018     13.8138     15.4017   8.0333419205e+01   7.1528027923e+01    0.3217232    0.2260885 -42.26  0.001124949    1.694    0.410
         2 -11.8412    235.1278     15.1584   2.9067459571e+01   2.6710924792e+01     0.310352     0.178648 -72.83 0.0004370049    1.542    0.352
         3 -11.5978     83.8938     14.6101   5.0672295395e+01   6.0283177911e+01    0.4740743    0.2479112  16.65  0.001323952    2.754    0.637
         4 -11.9506     35.2766     12.4794   6.7628740572e+01   6.9250523091e+01    0.2549637    0.2194804   6.30 0.0005741632    1.230    0.187
         5 -11.7664     30.1508      7.4435   6.7585915852e+01   7.0566019369e+01    0.3722108    0.2568508  15.29  0.002080243    1.173    0.148
         6 -10.3236    145.3207     13.4924   3.7822535036e+01   4.6544573033e+01    0.2067213    0.1178076 -27.04  0.001089843    2.024    0.506
         7 -11.3433    192.9404     10.9632   3.1620732601e+01   3.5925877365e+01    0.2831774    0.1753311 -23.96  0.001630058    2.045    0.511
         8 -11.1969    175.9851     12.4747   3.3687687531e+01   3.9561792794e+01    0.2863708    0.1494793  64.71  0.001524273    1.679    0.404
         9 -10.2001    172.0202     11.9832   3.4004401773e+01   4.0511867295e+01    0.1896364    0.1422543 -76.67 0.0003848167    1.247    0.198
        10 -10.0192     69.9032     11.0495   5.3365023819e+01   6.3439898331e+01    0.2891881    0.1482408  22.10  0.001372982    2.374    0.579
        11 -11.2246    124.7286      9.4097   3.9834694082e+01   5.1692475998e+01    0.3482291    0.1523854 -43.90  0.001591075    2.730    0.634
        12 -12.0111    117.5575      8.8671   4.0927238252e+01   5.3384785008e+01    0.3608255     0.265612 -86.15  0.000599458    1.565    0.361
        13 -10.7443    216.6273     10.1758   2.9446075453e+01   3.0960686646e+01    0.1415178    0.1080608 -26.70  0.000400045    1.674    0.402
        14 -10.9750     45.1366      9.9314   6.1967090023e+01   6.8011500734e+01    0.1893211     0.148659  17.80 0.0003023549    1.012    0.012
        15 -10.1714     22.2177      9.4675   7.2723343512e+01   7.1376863200e+01    0.2876003     0.147653  11.04  0.001064818    2.186    0.543
        16 -10.3565     15.4523      8.5491   7.6013172088e+01   7.2290903700e+01    0.2860068    0.1462599   7.60  0.001352595    2.161    0.537
        17 -10.0975     40.8927      7.5585   6.2630453548e+01   6.8943743368e+01    0.2081065    0.0934753  38.36  0.000311402    1.893    0.472
        18  -9.8518     37.3761      5.6984   6.3265562423e+01   6.9687529968e+01    0.2835899    0.1602688 -39.80  0.001585846    2.431    0.589
        19 -10.0106    165.4801      7.4920   3.3604324226e+01   4.2429238938e+01    0.1230846     0.103317  82.54 0.0003365342    1.017    0.017
        20 -10.0956     98.1445      7.1188   4.4235860350e+01   5.7886495847e+01    0.1873779    0.1379673  40.60   0.00031473    1.204    0.169
        21 -10.3426      2.8404      6.7761   8.2735480418e+01   7.3781228324e+01     0.250167    0.1348713  16.12 0.0009361871    1.670    0.401
        22 -10.4105    188.5906      6.1879   3.0934157699e+01   3.7350318381e+01     0.142047    0.1172858 -13.44 0.0006576536    1.655    0.396
        23 -10.9725    151.1537      6.0328   3.4935668009e+01   4.5857768493e+01    0.2091911    0.1519012  74.51  0.000329027    1.166    0.142
        24  -9.2719     93.0068      6.5247   4.5187006579e+01   5.9054763700e+01     0.175128    0.1056456  58.71 0.0003940877    1.420    0.296
        25  -9.4444     70.2487      5.9966   5.1073927517e+01   6.3822512617e+01    0.1459527    0.1002704 -14.87 0.0008877433    1.590    0.371
        26 -10.6897     54.7627      5.0779   5.5846932960e+01   6.6830278736e+01    0.2286807      0.14767  11.43  0.001375705    1.543    0.352
        27 -10.4512    136.6480      3.8869   3.6277941378e+01   4.9393938794e+01    0.2156272    0.1215798  -7.63  0.001101521    2.526    0.604
        28 -10.6922    199.8750      3.1330   2.9284291109e+01   3.5189144686e+01     0.180197    0.1297687 -72.01 0.0004359763    1.180    0.153
        29  -9.5951     75.1438      3.6225   4.8620764656e+01   6.3036944044e+01    0.1807004   0.08525071  46.02 0.0004387986    1.682    0.406
        30 -10.6082    104.4754      3.9890   4.1765618242e+01   5.6730830913e+01    0.2341417    0.2005014 -34.16  0.001044531    1.390    0.281
        31 -11.9266     20.5792      2.1058   6.9737926088e+01   7.2454922995e+01    0.2186856    0.1468016  13.65 0.0004169027    1.184    0.156
        32 -10.6534    238.1465      2.1182   2.6417991715e+01   2.7512286666e+01    0.1518254    0.1264192 -82.37 0.0003267504    1.194    0.162
        33  -9.4487    226.6859      2.3290   2.7174621584e+01   2.9726695117e+01    0.1213935   0.06285079 -64.76 0.0007044264    1.674    0.403
        34 -10.3947    163.0172      2.5076   3.2600546667e+01   4.3431888697e+01    0.1946556    0.1022194  73.54  0.001039495    1.610    0.379
        35 -10.6647     80.1067      1.6205   4.6441550554e+01   6.2172037875e+01    0.2589594    0.1128317  51.33   0.00130288    1.779    0.438
        36 -10.0640    112.0539      1.3111   3.9399934892e+01   5.5228815037e+01    0.2706231   0.09624785  65.71 0.0008277019    2.361    0.576
        37  -9.1356     26.6422     16.7162   7.3968514417e+01   6.9887849611e+01    0.1248856   0.07504822   2.00 0.0004401981    1.672    0.402
        38 -10.9077     27.4929    250.3503   1.1788712097e+02   1.7419435500e+01    0.2289953    0.1195563  39.18  0.001328688    1.651    0.394
        39 -12.1259     17.9343    249.0959   1.1965677877e+02   1.8659327959e+01    0.4205917    0.2928792  14.11  0.002649767    2.073    0.518
        40 -12.3471      3.3957    248.0223   1.2233515421e+02   2.0279297326e+01    0.9238927    0.4517712  83.89  0.005406281    1.847    0.459
        41 -13.1161     11.4204    243.6685   1.2060973249e+02   2.0394373279e+01    0.6322039    0.4345249  51.05   0.00432033    1.227    0.185
        42  -9.0164     14.6849    188.6689   1.1630061230e+02   3.2352313263e+01    0.1269543   0.08663008 -48.03 0.0007045814    1.681    0.405
        43  -9.7107      7.1941    188.1594   1.1804192287e+02   3.3102018378e+01    0.1719793    0.1446002 -79.24 0.0003582138    1.119    0.106
        44  -9.3126    226.3678    163.8430   6.1107932217e+01   5.1768120261e+00    0.2011904    0.1093935 -31.37 0.0009402518    1.726    0.420
        45  -9.6515     14.3320    164.3129   1.1421288776e+02   3.8377240123e+01    0.1340684   0.08674462 -45.40  0.000400465    1.678    0.404
        46 -10.5679      5.0544    154.0102   1.1572481638e+02   4.1638117725e+01    0.2667314    0.1310456  51.86  0.001273352    2.236    0.553
        47  -9.2240     27.2535    147.0340   1.0858548539e+02   4.1682902509e+01    0.1775287    0.1035358 -68.30 0.0004524973    1.483    0.326
        48  -9.6734      6.1583    145.1601   1.1453446509e+02   4.3783503456e+01    0.1788655    0.1348768  75.57 0.0005203655    1.328    0.247
        49  -9.2986     13.2826    143.3444   1.1226308535e+02   4.3751549241e+01    0.1396109   0.08256027 -47.88 0.0003100006    1.639    0.390
        50  -8.9599     52.7845    142.0005   1.0002424922e+02   4.0324541751e+01    0.1855122    0.1093043 -62.95            0    1.554    0.357
        51  -9.8860    236.2856    138.5925   5.4292661975e+01   8.0423845673e+00    0.2048658    0.1677183  25.95 0.0008539885    1.448    0.309
        52 -10.0276    212.5237    133.9448   5.7221718202e+01   1.3071862578e+01    0.2341818    0.1985953  78.37 0.0005704086    1.499    0.333
        53 -10.0864     96.2910    133.4362   8.4813209159e+01   3.6088208286e+01    0.3044213    0.2236247 -21.01  0.001169575    1.658    0.397
        54 -10.6805      8.1585    132.8294   1.1256006618e+02   4.6757688864e+01     0.185068    0.1317106 -49.06 0.0004376785    1.318    0.241
        55  -9.3382     61.4940    130.5361   9.5104225609e+01   4.2176240709e+01    0.1472389    0.1373208 -54.96 0.0001175448    1.017    0.016
        56 -11.3325     28.4572    128.1364   1.0546721592e+02   4.6419451184e+01     0.225457     0.214761 -49.43 0.0002785892    1.103    0.094
        57  -9.9842     12.4787    129.4818   1.1079520546e+02   4.7317346529e+01    0.1334637    0.1124889 -69.00 0.0002159533    1.016    0.016
        58  -9.6638     47.3002    126.9917   9.9062416288e+01   4.4822924058e+01    0.1980835    0.1712705 -57.90 0.0003345272    1.047    0.045
        59 -10.3544     37.8878    127.1287   1.0220169701e+02   4.5791519878e+01    0.1996573    0.1806152  88.88 0.0003012836    1.169    0.145
        60 -10.0923      1.8659    122.8920   1.1332805782e+02   4.9613095440e+01    0.1759059    0.1362277  85.39 0.0006417055    1.304    0.233
        61 -10.7497     24.1629    122.0274   1.0590852266e+02   4.8332645917e+01    0.2134042    0.1969244  37.32            0    1.244    0.196
        62 -11.5083      9.6885    120.9698   1.1055041348e+02   4.9637587662e+01    0.4004143    0.2047819 -74.65  0.001630361    1.751    0.429
        63  -9.1412     75.7742    120.9794   8.8362204124e+01   4.2540191168e+01    0.1925478    0.1190072 -53.45 0.0003139358    1.528    0.346
        64 -10.0832     46.3675    117.8896   9.7591136228e+01   4.7232884898e+01    0.2048249    0.1919156  41.13 0.0003205528    1.192    0.161
        65 -10.2135     69.1555    117.0778   8.9642621456e+01   4.4493278779e+01    0.2288706    0.1881363 -30.53            0    1.217    0.178
        66 -10.5026     64.9448    114.5161   9.0468170161e+01   4.5725432241e+01    0.2391455    0.1862652 -50.87 0.0007321915    1.191    0.161
        67 -10.4909      1.9465    114.0723   1.1218335881e+02   5.1790322820e+01    0.1926114    0.1547365 -63.32 0.0003039106    1.010    0.010
        68 -11.0320     13.1317    109.1400   1.0761586340e+02   5.2356165451e+01    0.2698072    0.1784798 -74.09 0.0009242715    1.409    0.290
        69 -10.7654     45.4145    110.7444   9.6428797679e+01   4.9119597014e+01    0.2435496    0.2117883 -34.87  0.000257777    1.085    0.078
        70 -10.6158     23.4923    110.5201   1.0418735249e+02   5.1267896187e+01    0.3638009    0.1451859  51.22  0.001213764    4.468    0.776
        71 -10.2748      1.4039    104.2665   1.1100622471e+02   5.4213468952e+01     0.251116   0.09258582 -64.39 0.0008299698    2.036    0.509
        72 -12.0199     16.8767    104.2403   1.0544517732e+02   5.3306264809e+01    0.4897934    0.1944411  14.05  0.001548551    3.034    0.670
        73  -9.5897     94.4728    102.4701   7.7553749154e+01   4.3762426838e+01    0.1517903    0.1451095 -17.61 -3.267513e-05    1.010    0.009
        74 -10.2702    246.7676    101.4560   4.5183210429e+01   1.2531692375e+01    0.1507036    0.1220897  39.91 0.0006562611    1.588    0.370
        75  -9.4294    159.5620    100.9873   5.9685066597e+01   3.0392079680e+01    0.2183173    0.1442583 -42.29 2.797289e-05    1.475    0.322
        76  -9.1560    187.2721    102.6554   5.4535707070e+01   2.3999075407e+01    0.1486402     0.107933 -67.32 0.0006884807    1.618    0.382
        77  -9.6366     29.1779     99.1667   9.9898100396e+01   5.3569474022e+01     0.166681    0.1533127  86.38  0.000245909    1.273    0.214
        78 -10.0047     62.5359     98.4661   8.7333828098e+01   4.9910264609e+01    0.1472564    0.1317792 -28.16 2.440487e-06    1.028    0.028
        79 -10.8546      7.8251     98.1414   1.0771378442e+02   5.5354653182e+01    0.1902314    0.1658157 -83.75  0.001218047    1.240    0.194
        80 -12.3179     20.4571     93.0412   1.0195113814e+02   5.5744651928e+01     0.427084    0.2534257 -34.48 0.0006797881    1.610    0.379
        81  -9.3724     80.2774     94.2170   7.9916724269e+01   4.8117157345e+01    0.2281045    0.1102061  45.41 0.0008699136    2.359    0.576
        82 -10.9539     10.6815     93.9313   1.0589288155e+02   5.6194321227e+01    0.2300164    0.1754559 -67.36 0.0007028038    1.212    0.175
        83 -10.6514      7.0690     91.1402   1.0677106948e+02   5.7063883799e+01    0.2368554    0.1976141 -55.90 0.0003974031    1.055    0.052
        84 -11.3955     66.3416     91.5857   8.4085443811e+01   5.0928905420e+01    0.3373744    0.2748794 -76.35  0.001738107    1.598    0.374
        85 -11.5424     57.6125     91.6466   8.7317704564e+01   5.2161562730e+01    0.3741548    0.2593695  -8.73 0.0008323976    1.705    0.413
        86  -9.6821     28.9927     91.9919   9.8399509451e+01   5.5293807695e+01    0.2286876    0.1652128  14.49 0.0009078197    1.516    0.340
        87  -9.6529      1.1737     90.3190   1.0889825130e+02   5.7556801013e+01    0.2397762   0.07259786 -65.40 0.0006638223    2.518    0.603
        88 -11.9092      5.8774     75.9923   1.0427578382e+02   6.0621778665e+01    0.4836389    0.2966858 -62.56  0.001999293    1.431    0.301
        89 -11.7104      6.9183     85.0601   1.0568928340e+02   5.8494315065e+01      0.46327    0.3041301  49.53 0.0009840064    2.053    0.513
        90 -12.0990     10.8839     84.3644   1.0395418020e+02   5.8426190747e+01    0.5803526    0.2855622 -84.64   0.00233004    3.316    0.698
        91 -11.6296    125.2591     93.3201   6.5904128297e+01   3.9497991544e+01    0.2640819    0.2616749 -55.03  0.000198532    1.048    0.046
        92  -9.2428     99.5689     94.4618   7.3678816253e+01   4.4553870331e+01    0.1519249    0.1419605  -9.70 5.805997e-05    1.039    0.038
        93  -9.2088     69.5019     83.4394   8.0565644533e+01   5.2222952398e+01     0.144968    0.1313071 -13.30  3.34762e-06    1.012    0.012
        94  -9.8297     16.1756     83.3388   1.0158544939e+02   5.8318447132e+01    0.1686947    0.1125417  28.46 0.0004753148    1.732    0.423
        95  -9.8826    250.3892     80.8232   4.0603755508e+01   1.5124376809e+01    0.1691561    0.1037612 -33.86 0.0004833808    1.616    0.381
        96  -9.5086     89.3895     80.6989   7.2804477664e+01   4.9343358288e+01     0.203533    0.1488757 -58.28 0.0005206541    1.664    0.399
        97 -10.5777     85.9706     78.9509   7.3395852240e+01   5.0327339000e+01     0.259911    0.2045481  40.90  0.000422771    1.303    0.233
        98  -9.7407     80.2098     79.4858   7.5533860506e+01   5.1256057260e+01    0.2239136    0.1682715 -46.36 0.0005244637    1.366    0.268
        99  -9.3953    134.9411     78.9762   5.9272588527e+01   4.0084780256e+01    0.1800642    0.1617531  49.13 0.0003777847    1.092    0.085
       100  -9.2207    124.4002     79.2358   6.2006131805e+01   4.2398477292e+01     0.189243    0.1401112 -50.32 0.0003005282    1.454    0.312
       101 -11.6391     54.9951     75.1701   8.3550227321e+01   5.6115280890e+01    0.3471618    0.2878971 -17.20            0    1.112    0.101
       102  -9.9893     51.2998     77.7263   8.5787782435e+01   5.6072723594e+01    0.2047904    0.1598678 -53.10  0.001118555    1.341    0.254
       103  -9.4943     31.1352     78.9855   9.4358749672e+01   5.8076487740e+01    0.1557985    0.1353304 -12.41  0.000806424    1.121    0.108
       104 -10.0277    176.9778     76.6964   4.9903749661e+01   3.0847212620e+01    0.2011235    0.1808945  70.76 0.0006241228    1.109    0.098
       105  -9.5513    159.7766     77.2045   5.3279823570e+01   3.4699152723e+01    0.1903042    0.1689514  20.98 0.0002604195    1.303    0.232
       106 -10.5110     22.1710     76.8598   9.7570404176e+01   5.9337068205e+01    0.2101992    0.1617266 -62.47 0.0005848148    1.335    0.251
       107  -9.7823     69.3216     74.4196   7.7833179689e+01   5.4116991887e+01    0.2356997    0.1815324 -66.85  0.001069337    1.790    0.441
       108  -9.9529     36.8042     74.8151   9.0853578183e+01   5.8418644628e+01    0.1695296    0.1624296  86.92 0.0005395581    1.355    0.262
       109 -10.6863     14.6284     75.1863   1.0037098882e+02   6.0269857803e+01     0.171503     0.155664 -29.35 0.0007745003    1.132    0.117
       110  -9.5853     32.9463     73.5184   9.2111483811e+01   5.9097490231e+01    0.1833855    0.1268497  15.96 0.0008692855    1.512    0.339
       111 -11.7131    106.0655     71.3179   6.4629925854e+01   4.7799610375e+01    0.3626988     0.292389  70.44  0.001267042    1.556    0.357
       112  -9.2807    129.2764     70.3998   5.8105411756e+01   4.2870632800e+01    0.1508421    0.1134491   7.12 0.0006987225    1.757    0.431
       113  -9.5852    100.3340     70.2676   6.6002546119e+01   4.9177691951e+01     0.190202    0.1324407 -46.82  0.000232031    1.561    0.359
       114  -9.9772     45.2933     69.3882   8.5685957405e+01   5.8583512317e+01    0.2550975     0.217597 -29.42  0.001529769    1.064    0.060
       115 -10.8999      5.1926     68.8713   1.0299801688e+02   6.2238444093e+01    0.2995756    0.1888603  78.90  0.001478139    2.747    0.636
       116 -11.3881     14.9720     63.1466   9.7154636076e+01   6.2856320556e+01    0.5513449    0.3433914 -73.25  0.002869749    2.138    0.532
       117 -13.3801     20.7203     58.2867   9.3097370566e+01   6.3411507174e+01    0.3890891    0.2591812 -38.82 0.0006977597    1.243    0.195
       118  -9.9614     80.7754     67.2201   7.1355414683e+01   5.3529325789e+01    0.1928807    0.1553174   0.12 0.0004009391    1.281    0.220
       119 -10.6824     48.0710     79.1082   8.7480342307e+01   5.6187774134e+01    0.2458136    0.1876387  -1.07 0.0002674998    1.347    0.258
       120  -9.9470     51.3442     66.4130   8.2235630427e+01   5.8396639450e+01    0.2836808    0.1750468 -21.95 0.0008056868    1.778    0.438
       121 -10.7678     96.7033     64.0747   6.5076401550e+01   5.1010389088e+01    0.2966067    0.1946041  35.00            0    1.504    0.335
       122  -9.8501     72.7841     63.7640   7.3022832911e+01   5.5582369132e+01    0.1751601    0.1619917 -53.07 0.0004763279    1.319    0.242
       123 -10.4723      7.8720     63.6182   1.0052794189e+02   6.3222201228e+01    0.2326307    0.1314224 -46.81  0.001295978    1.388    0.280
       124 -10.3414     63.1682     62.9233   7.6348351729e+01   5.7327909021e+01    0.3077969    0.2640704  63.45  0.001730364    1.645    0.392
       125  -9.8293    157.1858     61.0853   4.9347612101e+01   3.7905924055e+01    0.1910311    0.1804739  25.92 0.0002842162    1.180    0.152
       126 -10.0309      9.5362     69.0521   1.0111968929e+02   6.1950370278e+01    0.3054971     0.105694 -47.39  0.001359659    2.145    0.534
       127 -12.5188     86.6180     54.4773   6.4975112763e+01   5.4625417810e+01    0.4146678    0.3236511   2.65  0.002248497    1.369    0.270
       128  -9.9730     48.8734     59.1959   8.0834870140e+01   6.0129106495e+01    0.1922187    0.1877901  -7.74  0.000830459    1.288    0.224
       129  -9.4857    109.3822     58.2401   5.9431495889e+01   4.9300925086e+01    0.1478052    0.1016119  26.78 0.0006927598    1.638    0.389
       130 -10.4580      5.1526     57.1670   1.0012664308e+02   6.4736362422e+01    0.4386093    0.1710904 -17.64  0.001801093    3.340    0.701
       131 -13.8120    114.7477     53.2914   5.6370517305e+01   4.8880217872e+01    0.4127294     0.359409  35.68 0.0008342089    1.090    0.083
       132 -11.6416    119.5265     48.2043   5.3513057695e+01   4.8541967054e+01     0.368818    0.3087354 -40.94   0.00139192    1.296    0.228
       133 -10.2552     71.8119     56.5989   7.0865029771e+01   5.7022400367e+01    0.2246474    0.1725642 -30.47 0.0004980075    1.285    0.222
       134 -11.0830     33.0729     55.4701   8.6488000114e+01   6.2774365784e+01    0.4048121    0.1848633 -31.09 0.0004288492    2.308    0.567
       135 -10.4008    104.0891     56.1520   6.0216585050e+01   5.0772228453e+01    0.2111436    0.1793934  20.12 0.0005032514    1.176    0.150
       136 -12.0175     67.0221     52.7212   7.1241190771e+01   5.8506761040e+01     0.394368    0.2110562  33.24  0.001182582    1.819    0.450
       137 -10.2123    148.9690     52.2037   4.8396830036e+01   4.1140707277e+01    0.2119317    0.1809844 -86.50 0.0005774333    1.226    0.184
       138 -12.1306    106.0419     50.5054   5.7755532250e+01   5.1210839465e+01    0.2651459    0.2348403  -5.21  0.001538433    1.175    0.149
       139 -11.1137     11.7395     59.5655   9.7667347605e+01   6.3830398806e+01    0.4037702    0.1390801  14.63  0.001705217    3.233    0.691
       140  -9.6419      4.3322     50.8733   9.8795308750e+01   6.6067947889e+01    0.1891367   0.07698605 -47.86 0.0009402641    1.841    0.457
       141  -8.9899     32.6390     50.7513   8.5060574950e+01   6.3714464676e+01    0.1321357   0.08434647 -11.35 0.0004509036    1.609    0.378
       142 -10.3875     16.2995     49.9739   9.2613523403e+01   6.5424009967e+01    0.2082295    0.1598753  -6.04 0.0006117341    1.201    0.168
       143  -9.3841     76.4460     49.4835   6.6610677019e+01   5.7360336617e+01    0.1348581    0.1230085  12.91 0.0003035423    1.068    0.064
       144 -10.2011     38.4995     48.6637   8.1617779720e+01   6.3408982213e+01    0.2399846    0.1687713  14.84 0.0009015186    1.358    0.264
       145  -9.4953    147.2709     48.6183   4.7683175836e+01   4.2041420922e+01    0.1428987    0.1007316 -66.60            0    1.698    0.411
       146 -10.6979    137.4106     47.1203   4.9187069658e+01   4.4560727903e+01    0.3083954    0.2319738  54.13  0.001289748    1.230    0.187
       147  -9.9008     52.5507     48.2176   7.5318086403e+01   6.1573085681e+01    0.2852863    0.1485078  21.63  0.001296924    2.161    0.537
       148 -10.5865      9.3279     47.8948   9.5415807098e+01   6.6345172763e+01    0.3229408    0.1756987   8.26  0.001220193    1.903    0.474
       149  -9.2506    154.7128     47.3355   4.5949312039e+01   4.0466035842e+01    0.1403536    0.1000077 -69.79 0.0007017148    1.629    0.386
       150 -10.6445     68.7934     46.8142   6.8372289423e+01   5.9161352237e+01    0.2125183    0.1576772  23.92 0.0002584484    1.254    0.203
       151 -10.4309     79.2250     45.7773   6.4273031510e+01   5.7407997316e+01    0.2071746    0.1728128  42.79 0.0003756283    1.224    0.183
       152  -9.7465    241.8256     45.1233   3.4368341183e+01   2.1783929748e+01    0.1782189    0.1261859 -63.94 0.0002939054    1.181    0.153
       153 -10.3157     25.3371     43.3134   8.5867840969e+01   6.5848772449e+01    0.3042983    0.2365669 -74.76  0.001693296    2.273    0.560
       154 -11.1015     16.8011     43.3571   9.0143155527e+01   6.6637497227e+01    0.3730002    0.3288326  65.73  0.002454872    1.853    0.460
       155 -10.9035     20.5802     40.2083   8.7094307105e+01   6.6870207245e+01    0.3490091    0.2469528 -26.76  0.001638982    1.163    0.140
       156 -10.3693     93.9674     43.7059   5.8819797460e+01   5.4760960346e+01    0.3593489    0.1812676  32.77  0.001516626    2.263    0.558
       157 -10.7783    184.8584     41.6398   3.9812435580e+01   3.4222752811e+01    0.3117154    0.2104376  85.90  0.001102957    1.502    0.334
       158 -10.5154     36.2574     41.6155   7.9986133768e+01   6.4912949204e+01    0.2417119    0.1830278   0.98 0.0008809629    1.168    0.144
       159 -10.2378      4.4146     41.8695   9.6033498896e+01   6.7824728037e+01    0.1927793    0.1249863  -4.80 0.0009538617    1.465    0.317
       160 -10.6902     90.7756     40.2273   5.8506655123e+01   5.5903085595e+01    0.2510101    0.1959218  22.85 0.0003653209    1.250    0.200
       161 -10.0752     58.9088     41.5387   7.0133256765e+01   6.1658458150e+01    0.3094262    0.1196058  42.49  0.001279944    2.594    0.615
       162  -9.9769    170.8070     40.4305   4.1468072622e+01   3.7606406914e+01    0.2233452    0.1219293  69.81 0.0005723637    1.775    0.437
       163  -9.5878    139.1525     40.2167   4.6752909881e+01   4.5061450492e+01    0.1847935    0.1535528 -79.85 0.0005747089    1.318    0.241
       164 -10.3256    134.0702     39.7355   4.7608795301e+01   4.6313139658e+01    0.3118932    0.1551198  48.80  0.001152414    1.876    0.467
       165 -10.2642    128.1746     38.7208   4.8507768708e+01   4.7814604368e+01    0.2481529    0.1750853 -46.45  0.001022075    1.579    0.367
       166  -9.9865     44.3482     40.2110   7.5743553946e+01   6.4078470000e+01    0.2196715    0.1505329  14.13 0.0006842258    1.380    0.275
       167  -9.4416    204.8208     39.6225   3.6905515346e+01   3.0051625024e+01    0.1648684    0.1077477  86.28 0.0001406064    1.515    0.340
       168 -11.9269    121.1195     37.0595   4.9503831420e+01   4.9650559567e+01    0.3975326    0.3595415 -62.86  0.001152949    1.247    0.198
       169 -10.0153    212.7009     37.9560   3.5686438111e+01   2.8577969590e+01    0.1694091     0.136091 -60.48 0.0003062304    1.095    0.087
       170  -9.4554    184.3992     36.4554   3.8595042909e+01   3.4982951863e+01    0.1282622    0.1114723 -79.36 0.0001613001    1.028    0.027
       171 -10.1668     38.5561     35.3614   7.6408478268e+01   6.5638766106e+01    0.2651679    0.1808865  21.69 0.0008129585    1.351    0.260
       172 -10.5785     38.4030     31.7914   7.4986337085e+01   6.6209158739e+01    0.2692194    0.1961965  11.65  0.001286769    1.205    0.170
       173 -11.0147      5.0255     34.6411   9.3270499526e+01   6.9126361779e+01    0.4486876    0.2391333  19.29  0.002612642    1.925    0.481
       174 -11.2499    144.4420     31.7611   4.3268903843e+01   4.4843419872e+01    0.4185627     0.211681 -53.31 0.0007013748    2.465    0.594
       175 -10.7061    135.6933     29.3376   4.4102349969e+01   4.7174190203e+01     0.228981    0.1965752  47.37 0.0004204485    1.138    0.121
       176  -9.9774    140.4893     27.3505   4.2647340350e+01   4.6270140507e+01    0.3098958    0.1886534  87.04  0.001490086    2.008    0.502
       177  -9.9264    133.0866     35.0010   4.6341237763e+01   4.7126604018e+01    0.1991646    0.1437238  31.94            0    1.572    0.364
       178 -10.9634     27.5089     34.3936   8.1340362579e+01   6.7148546044e+01    0.2898161    0.1578732 -22.43  0.001063515    1.850    0.460
       179 -10.9841     90.4726     32.0650   5.5558618036e+01   5.7017952791e+01    0.4200901    0.2466202 -48.52  0.001780469    2.330    0.571
       180  -9.9483     49.5518     33.4765   7.0716291231e+01   6.4349198647e+01    0.2160895    0.1137995  40.30 0.0006400059    1.903    0.475
       181  -9.7049     72.6637     31.7530   6.1085547641e+01   6.0608459603e+01     0.213803     0.158535  35.92 0.0006369256    1.193    0.162
       182 -11.7883     68.3682     26.4028   6.0396485650e+01   6.2083435001e+01     0.296529    0.2794538  -7.15 0.0006347991    1.247    0.198
       183 -10.1699     18.3272     32.1270   8.5144860583e+01   6.8480337625e+01    0.3498397    0.1428101   7.48  0.001349339    3.929    0.745
       184 -12.4671     10.6353     29.9573   8.8435890945e+01   6.9530210706e+01    0.3187748    0.2193833  30.22   0.00129005    1.757    0.431
       185 -10.3724      3.0476     26.6887   9.1435174145e+01   7.0659170713e+01    0.2248913    0.1469003 -16.69 0.0006169536    1.256    0.204
       186 -11.2965      2.1021     20.7903   8.9622356723e+01   7.1711336074e+01    0.2904158    0.1930637 -38.69  0.001409324    1.322    0.244
       187  -9.4938      6.9113     20.0111   8.6442841054e+01   7.1466423730e+01    0.2951728    0.1440435 -23.28  0.001614466    1.924    0.480
       188  -9.5965    188.0000     31.0183   3.6830910587e+01   3.4828813036e+01    0.1967722   0.06983373 -32.27 0.0008037873    2.952    0.661
       189  -9.8901    127.8993     30.9618   4.6104180686e+01   4.8809452419e+01    0.3388242    0.1806196  76.86  0.001310043    2.438    0.590
       190 -10.2493    164.9897     28.5088   3.9158337163e+01   4.0396717540e+01    0.1953428    0.1156439  68.32 0.0004102672    1.525    0.344
       191 -10.4456    113.9642     26.2777   4.7500763101e+01   5.2536213769e+01    0.2219374     0.188109   0.69 0.0004161448    1.328    0.247
       192  -9.8634     94.0745     27.3042   5.2760532518e+01   5.6816855488e+01    0.1804625    0.1561141  41.22 0.0004966305    1.036    0.034
       193  -9.3081    146.8012     25.9429   4.1180400827e+01   4.4941495058e+01    0.1557939    0.1048346 -28.01 0.0008423734    1.692    0.409
       194  -9.6867    101.8737     25.9451   5.0227169682e+01   5.5277036268e+01    0.3940567     0.113955  47.37  0.001450372    2.920    0.658
       195 -10.4037     46.1838     26.1649   6.9029507948e+01   6.5891893865e+01    0.2001404    0.1630753  32.75 0.0007974735    1.317    0.241
       196 -10.6614     45.9049     21.4525   6.7042848109e+01   6.6551332496e+01    0.2719394    0.1984431 -31.49 0.0009741255    1.505    0.336
       197 -10.2306     59.8492     24.8576   6.2869007585e+01   6.3812830905e+01     0.372547     0.225363  54.55  0.001878306    2.094    0.523
       198  -9.4619     97.3619     21.8197   4.9857448042e+01   5.6702737925e+01    0.1759814    0.1296407  33.78  0.001018432    1.273    0.214
       199  -9.8333    101.1070     20.8726   4.8581447390e+01   5.5980575549e+01    0.2831789    0.1344111  37.18  0.001267621    2.223    0.550
       200 -11.2270     73.7475     20.7353   5.6220859769e+01   6.1708881822e+01    0.3315029    0.2134722 -41.54  0.001821035    1.969    0.492
       201  -9.8621     35.4542     22.0456   7.2082440858e+01   6.8009355998e+01    0.1784102     0.135583  15.72 0.0005758453    1.125    0.111
       202 -10.9032     14.6056     21.3559   8.2620593093e+01   7.0565784835e+01    0.3194816    0.2059824  36.25  0.001954579    2.013    0.503
       203  -9.4420    229.8022    247.7954   7.5907844163e+01  -8.9227627928e+00     0.143935    0.1248488  -3.84  0.000488689    1.330    0.248
       204 -10.5783    228.5301     21.0823   3.0720072027e+01   2.7348418382e+01    0.1752438    0.1458779  70.59 0.0006888188    1.364    0.267
       205 -10.0967    132.0012     20.6374   4.2092006584e+01   4.8963064945e+01    0.1998488    0.1739782  29.65 0.0006097475    1.262    0.207
       206 -10.6007     84.6448     20.9804   5.2982811606e+01   5.9489655338e+01    0.1734661    0.1511199  10.02 0.0005031037    1.145    0.127
       207  -9.6839     30.5529     20.9654   7.3980664003e+01   6.8811399563e+01    0.2335787    0.1525305   1.48  0.001409794    1.432    0.301
       208  -9.5931     31.2354     17.2465   7.1896379875e+01   6.9221438094e+01    0.2009144    0.1591011 -53.34  0.001245905    2.199    0.545
       209 -10.4205    210.0009     20.0416   3.2064165958e+01   3.1281655189e+01     0.145903    0.1183134 -62.85  0.000448544    1.106    0.096
       210  -9.6715     40.2585     20.2409   6.9003649101e+01   6.7563220266e+01     0.174018    0.1617794  72.55  0.001163592    1.875    0.467
       211  -9.1731     36.6712     18.3267   6.9777774917e+01   6.8329610590e+01    0.1653445    0.1171536  41.31  0.001016445    1.656    0.396
       212  -9.8285     60.9150     18.5606   5.9728286160e+01   6.4362287696e+01    0.2483073    0.1004995  42.93  0.001146273    2.117    0.528
       213 -10.0153     20.1565     17.5823   7.7821934760e+01   7.0540266693e+01    0.1887992    0.1253485 -14.60 0.0008700037    1.283    0.221
       214 -10.1745    225.1006    247.3091   7.6688769000e+01  -8.2978852707e+00    0.2138266    0.1338911 -20.78  0.001309812    1.415    0.293
       215  -9.7418    174.2965     17.3149   3.5078830365e+01   3.9458960292e+01    0.1198527   0.08919316  43.32 0.0002837399    1.604    0.377
       216 -10.4205    125.0601     17.0997   4.2229047774e+01   5.0921955033e+01    0.1895572    0.1644296  62.51  0.000352438    1.014    0.014
       217  -9.9758    155.5208     15.9670   3.7083837180e+01   4.3930144212e+01      0.16892    0.1236508 -34.39 0.0003936654    1.522    0.343
       218  -9.7969    170.8799    246.8803   8.7280448056e+01  -1.1089063818e+00    0.2031747    0.1515318   2.18   0.00106521    1.296    0.228
       219 -10.5264     40.2896     15.1629   6.6605085274e+01   6.8187811779e+01    0.2471568    0.1625821  33.53  0.001526295    1.370    0.270
       220 -11.7198      9.1661    237.6144   1.2072397541e+02   2.1850642710e+01     0.273821     0.190721  30.59  0.001813935    1.593    0.372
       221  -9.4383    116.1586    246.5859   9.8953343050e+01   6.8411068594e+00    0.1745077    0.1128867  23.84 0.0009246057    1.531    0.347
       222  -9.5999    168.8529     14.8033   3.5083817811e+01   4.0959991979e+01    0.1673699    0.1256061 -74.30 0.0002587241    1.281    0.220
       223  -9.4460     99.3624     14.8084   4.6785569105e+01   5.6952394818e+01    0.1676147    0.1170641  -0.70  0.000948287    1.701    0.412
       224  -9.0904     86.6400    245.2654   1.0522410314e+02   1.1239312376e+01    0.1347297   0.08214774  55.54 0.0006746502    1.638    0.389
       225  -9.5325      7.5852     13.9635   8.3305947413e+01   7.2331518254e+01    0.1513752   0.07067616 -22.83 0.0003626316    2.110    0.526
       226 -10.9659    207.9853     13.0374   3.0741017966e+01   3.2467039009e+01     0.178959    0.1445055 -77.34 0.0003432899    1.009    0.008
       227  -9.5978     89.6084     13.2576   4.8606980007e+01   5.9206335005e+01     0.155781    0.1160443   1.19 0.0006952214    1.491    0.329
       228  -9.3924     52.6480    244.6925   1.1241085302e+02   1.5717207034e+01    0.1128861   0.09462951 -21.82 0.0002632128    1.714    0.417
       229  -9.4323     39.6404    243.3297   1.1499172955e+02   1.7510649032e+01    0.1352079   0.07032063  60.20 0.0007041944    1.794    0.443
       230 -10.3442    117.6807    239.7122   9.7740850958e+01   7.9362290228e+00     0.244543    0.1873911  37.54 0.0006248613    1.151    0.131
       231  -9.6346     35.5017    240.4330   1.1562998294e+02   1.8570915313e+01    0.1206734    0.0981317  64.00 0.0001431652    1.009    0.009
       232  -9.9914    134.5358     11.4903   3.8867914507e+01   4.9239677250e+01    0.1271172    0.1080457  64.52 1.140229e-05    1.026    0.025
       233 -11.1847     24.7637    236.0422   1.1752356002e+02   2.0637788426e+01    0.2586161     0.128342  43.50 0.0006339714    1.709    0.415
       234  -9.6945     49.5055    235.5320   1.1231216296e+02   1.7998269910e+01    0.1243892    0.1056897  63.27 0.0002237607    1.013    0.013
       235 -11.4254    203.1428     16.4827   3.1911873533e+01   3.3134516531e+01    0.2848576    0.1673714 -79.76  0.001152658    1.652    0.395
       236 -12.0718      4.1499    232.8524   1.2145366326e+02   2.3305995107e+01    0.3058274    0.2028233  56.05  0.002032788    1.251    0.201
       237  -8.7049     64.6827     10.6844   5.4918199693e+01   6.4478100004e+01    0.1307424   0.07757897  24.90 0.0007038101    1.650    0.394
       238  -9.4915    249.4656    233.5369   7.0063368222e+01  -9.1964808179e+00     0.118485   0.08868235  -9.99 0.0002159975    1.021    0.021
       239 -12.2670      3.0768    225.7629   1.2129568892e+02   2.4905405639e+01    0.6030454    0.1905847  52.87   0.00276076    2.702    0.630
       240  -8.9769      9.6803    231.3188   1.2027853244e+02   2.3121430957e+01    0.1204395   0.09568895  72.49 0.0008335439    1.016    0.016
       241 -11.5029      9.8679    227.2215   1.2000784004e+02   2.3978361217e+01    0.2655166    0.2326777 -82.68  0.001933063    1.240    0.194
       242  -9.3448     47.8210    229.8238   1.1218819478e+02   1.9421349887e+01    0.1717933    0.1203316  61.02   0.00101092    1.283    0.220
       243  -9.2041     37.9888    230.0061   1.1432812706e+02   2.0507035346e+01    0.1459105    0.1213883  73.39 0.0004634359    1.036    0.035
       244  -9.2447    243.0270    230.2226   7.0610396427e+01  -7.9858579999e+00     0.145018   0.08677011  24.04 0.0005592838    1.629    0.386
       245  -9.7705    209.5099    229.5177   7.6665704291e+01  -3.6433941998e+00     0.128243    0.1046375  -2.42 2.200877e-05    1.020    0.020
       246  -8.7534    205.3191    229.6929   7.7513167409e+01  -3.1020395104e+00    0.1108633    0.1031673  53.80 0.0002311077    1.636    0.389
       247 -10.8662    140.1345    227.9781   9.1051236211e+01   6.8445494434e+00    0.3140797    0.2069535 -66.46  0.001546427    2.087    0.521
       248  -9.5066     56.8552    229.6003   1.1018273028e+02   1.8382411216e+01    0.1753227    0.1006929  45.36 0.0004244538    1.533    0.348
       249  -9.7337    223.1786    226.8409   7.3605607753e+01  -5.0307729969e+00     0.174191    0.1207795  -7.13 0.0003767934    1.294    0.227
       250  -9.2279    167.4622    221.5072   8.3952952525e+01   3.8546561454e+00    0.1369477     0.120324   6.94 0.0006317096    1.003    0.003
       251  -8.9801    114.3072    221.3651   9.6000640565e+01   1.2161488054e+01    0.1410087    0.1046799 -16.24 0.0007037735    1.747    0.428
       252  -9.5378    233.1999    218.7855   7.0357101640e+01  -5.0738586581e+00    0.1748687    0.1194248  -9.61  0.000492345    1.315    0.239
       253 -10.9989      8.3220    218.0656   1.1978649743e+02   2.6115531382e+01     0.216371    0.1949311 -87.52  0.001566338    1.213    0.176
       254  -8.8703     85.6841    215.2708   1.0194990527e+02   1.7732368991e+01    0.1402237   0.09558151  60.26 0.0001896538    1.557    0.358
       255  -9.7982     15.9389    213.2616   1.1785233319e+02   2.6490234403e+01    0.1704722    0.1405868  61.77  0.001021388    1.107    0.097
       256  -9.5559    205.5016    212.4855   7.4448159933e+01  -2.5981059041e-01    0.1337049    0.1123003  -6.46 0.0002841591    1.009    0.009
       257  -9.8311    193.7337    202.7317   7.5023397724e+01   3.2484754435e+00    0.1686936    0.1645388  43.70 0.0006324374    1.341    0.254
       258 -10.9609      3.8731    201.6442   1.1972508798e+02   3.0207537949e+01    0.2117655    0.1419932 -72.63 0.0007657482    1.352    0.261
       259  -9.2199     24.4947    195.5389   1.1453222924e+02   2.9800917763e+01    0.1298266    0.1089226  80.03  0.000249207    1.026    0.026
       260 -10.1983      5.9794    191.9413   1.1859855017e+02   3.2301289221e+01    0.1959237    0.1561501  82.12 0.0007246808    1.040    0.038
