#   1 NUMBER                 Running object number                                     
#   2 MAG_AUTO               Kron-like elliptical aperture magnitude                    [mag]
#   3 X_IMAGE                Object position along x                                    [pixel]
#   4 Y_IMAGE                Object position along y                                    [pixel]
#   5 X_WORLD                Barycenter position along world x axis                     [deg]
#   6 Y_WORLD                Barycenter position along world y axis                     [deg]
#   7 A_WORLD                Profile RMS along major axis (world units)                 [deg]
#   8 B_WORLD                Profile RMS along minor axis (world units)                 [deg]
#   9 THETA_WORLD            Position angle (CCW/world-x)                               [deg]
#  10 FWHM_WORLD             FWHM assuming a gaussian core                              [deg]
#  11 ELONGATION             A_IMAGE/B_IMAGE                                           
#  12 ELLIPTICITY            1 - B_IMAGE/A_IMAGE                                       
         1 -14.1479     10.6828     69.9257   2.5819346004e+02  -5.2644909668e+01    0.2421394    0.1905361 -78.19   0.01001728    1.299    0.230
         2 -12.5752     47.3262     32.0432   2.5666294994e+02  -5.4287236884e+01    0.2061825   0.08844342 -52.85  0.005219668    2.220    0.550
         3 -11.2296     34.4417     20.7236   2.5578216209e+02  -5.3955802164e+01    0.2123104    0.1107942 -73.13  0.007181443    1.901    0.474
         4 -11.5655     52.5051     13.4385   2.5565027911e+02  -5.4646155629e+01   0.05871031   0.03292102 -38.97  0.002005969    1.904    0.475
         5 -14.3147     39.2111     69.3589   2.5868460616e+02  -5.3619173631e+01    0.3653677    0.1255228 -54.78   0.01036856    2.639    0.621
         6 -13.4554      4.3543     52.8795   2.5712431689e+02  -5.2608448580e+01    0.2044497   0.09302615  26.43  0.006590348    2.051    0.512
         7 -13.4170     64.0501     34.2991   2.5709123440e+02  -5.4837452390e+01    0.1814342    0.1123868 -25.68  0.006441839    1.837    0.456
         8 -13.7945     74.9763     22.2468   2.5656321936e+02  -5.5333374995e+01     0.324519    0.1790713 -35.73  0.008695072    2.003    0.501
         9 -12.1732     51.1843     19.5637   2.5599203204e+02  -5.4542156523e+01     0.130622   0.04330501 -44.04  0.002778811    3.324    0.699
        10 -12.9812     15.7907     47.0985   2.5699178819e+02  -5.3057204963e+01    0.1390487    0.1005823 -27.71  0.005456602    1.484    0.326
        11 -12.4611     25.9357     40.6352   2.5679492689e+02  -5.3469008529e+01    0.2016094   0.05784367  23.79  0.005344736    3.025    0.669
        12 -13.7138     10.1509     34.2361   2.5616454274e+02  -5.2992604574e+01    0.1946858    0.1244792 -57.25  0.007326642    1.519    0.342
        13 -13.6743     79.2879     43.8718   2.5794416054e+02  -5.5259194776e+01    0.1483628    0.1358847 -35.80  0.006606401    1.100    0.091
        14 -11.6722    197.1711     26.7815   2.5929489049e+02  -5.9466465023e+01    0.1117478   0.06167597  11.35  0.003795834    1.924    0.480
        15 -12.3089    187.6240     35.1313   2.5963438657e+02  -5.9047994830e+01    0.1188362   0.08551031  38.67  0.004688787    1.388    0.279
        16 -12.7258    209.0494     46.5776   2.6089691871e+02  -5.9638992138e+01    0.1869359   0.07956977 -38.15  0.005254707    2.873    0.652
        17 -12.8626    177.7411     72.9267   2.6185862166e+02  -5.8262576759e+01    0.3416601    0.1447822  -5.21  0.007683374    4.818    0.792
        18 -12.5052     78.1819      8.4925   2.5578459742e+02  -5.5577319396e+01    0.1344308   0.06615119 -45.15   0.00311742    2.084    0.520
        19 -10.7293    162.7834     30.2415   2.5876911229e+02  -5.8257389103e+01   0.09435237   0.04281846  13.42  0.001930094    2.336    0.572
        20 -11.0945    213.9010     27.3279   2.5971583628e+02  -6.0028106912e+01    0.1188171    0.0598839  38.83   0.00394086    1.961    0.490
        21 -12.7510    220.8166     38.5986   2.6064601651e+02  -6.0130930902e+01    0.1150244   0.06063452 -28.42 0.0003600869    2.396    0.583
        22 -12.6156    225.9483     22.5860   2.5967460521e+02  -6.0490191563e+01   0.07634138   0.05595945 -82.84   0.00153301    1.440    0.306
        23 -11.7482    212.6017     19.2481   2.5913593020e+02  -6.0074774374e+01   0.05815066   0.03325162  23.16  0.001672359    1.703    0.413
        24 -10.9642    103.0690     26.0712   2.5730951302e+02  -5.6258967007e+01   0.07053442   0.04347949  -9.06  0.001619374    1.874    0.466
        25 -11.0294    112.3279     24.1356   2.5736479933e+02  -5.6596365017e+01   0.06186229    0.0377684  38.06   0.00120966    1.620    0.383
        26 -12.5899    176.3697     23.4168   2.5861367005e+02  -5.8795226473e+01   0.04915144   0.03684078  44.46 0.0002739128    1.359    0.264
        27 -11.0312     20.4129     23.0153   2.5568727316e+02  -5.3452359644e+01   0.09786794   0.05333503   0.57  0.003256925    2.067    0.516
        28 -11.3950    125.0106     10.9653   2.5677736829e+02  -5.7165308019e+01    0.1207102   0.04116143  21.78  0.003159075    2.702    0.630
        29 -12.2730    244.2639     22.2946   2.6009541105e+02  -6.1112902600e+01   0.09646668   0.05472863 -70.49  0.002358004    1.762    0.433
        30 -11.0163    203.5520     16.8457   2.5876881083e+02  -5.9793305172e+01   0.07137388   0.02791889 -57.64  0.001912763    2.320    0.569
        31 -11.6594    141.1550     14.3126   2.5730016515e+02  -5.7686084286e+01    0.0404087   0.02766357  39.18  0.000356153    1.458    0.314
        32 -10.4385     94.0499     15.3825   2.5648466583e+02  -5.6056799328e+01   0.05249177   0.03395554  33.49  0.001452465    1.511    0.338
        33 -12.6696    221.4820      8.6388   2.5860856951e+02  -6.0492892040e+01    0.0835164   0.04591437 -12.82  0.001212055    2.296    0.564
        34 -11.6330    232.3423      3.5160   2.5849758198e+02  -6.0917679948e+01   0.09472276   0.04932092  -9.34  0.002922069    2.486    0.598
        35 -11.8006    228.4392     10.2117   2.5887604585e+02  -6.0712488940e+01   0.07102063   0.04285022 -14.96 0.0009980203    1.983    0.496
        36 -13.9898    244.7682      8.1742   2.5911357024e+02  -6.1289238130e+01    0.1654997   0.05575881 -49.22  0.003130964    2.891    0.654
        37 -11.7297    235.1623     10.6009   2.5905881846e+02  -6.0936596192e+01    0.1008834   0.04503681  75.33  0.002538963    3.844    0.740
        38  -9.9054    187.3518     14.2365   2.5823986403e+02  -5.9268854729e+01   0.03677752   0.01617762  21.91  0.001136437    2.177    0.541
        39 -13.0189    173.0638      5.7160   2.5737496549e+02  -5.8868705173e+01   0.09355602   0.03982878  35.49  0.002889324    2.233    0.552
        40 -11.3196    149.3336     12.9573   2.5737372210e+02  -5.7980584240e+01   0.06057594   0.02894405 -60.02  0.001978398    1.953    0.488
        41 -10.8512    156.0501     12.8365   2.5749960536e+02  -5.8212184253e+01   0.02769628    0.0255188   5.84 0.0003163344    1.094    0.086
        42  -9.5545    101.4922      7.7258   2.5614402015e+02  -5.6387737508e+01   0.05061319   0.02915393 -14.99 0.0007162258    2.061    0.515
        43 -10.1038    104.6711      6.1399   2.5610186544e+02  -5.6512570799e+01   0.03118423   0.02584429  61.20 0.0004074035    1.258    0.205
        44 -11.9920    108.1804      9.7891   2.5639277547e+02  -5.6597938123e+01   0.07778869   0.04600364  22.22  0.001146629    1.647    0.393
        45 -11.4212    112.2260      4.2828   2.5612077051e+02  -5.6790811178e+01   0.08031239   0.02931107 -52.16  0.001957747    2.577    0.612
        46 -11.3069    114.8559     12.8494   2.5670674874e+02  -5.6797379440e+01   0.03778812    0.0295679 -52.31  0.001546088    1.261    0.207
        47 -11.3722    116.4878      9.5536   2.5652977497e+02  -5.6886152254e+01   0.04699694   0.03931269 -85.37  0.001987608    1.224    0.183
        48 -10.0738    133.6675     12.3291   2.5702831833e+02  -5.7449145135e+01   0.03385269    0.0197503 -60.18  0.001035896    1.638    0.389
        49 -10.1797     88.4773     11.8018   2.5616550201e+02  -5.5900081696e+01   0.03210076   0.02068008  26.97  0.001192386    1.509    0.337
        50 -10.9047     26.3509      9.6516   2.5500609521e+02  -5.3781359636e+01   0.03961041   0.02823473  55.86 0.0009411015    1.479    0.324
        51 -11.6168    193.8628      7.7697   2.5794435743e+02  -5.9559717017e+01   0.04078699   0.03355223  57.96 0.0009984133    1.273    0.215
        52 -11.0600     47.3471      8.3755   2.5526493195e+02  -5.4516072620e+01   0.04657746   0.04162265  56.56  0.001155015    1.141    0.123
        53  -9.8499    215.8493      8.1123   2.5844604964e+02  -6.0306678185e+01    0.0268616   0.02265207 -36.20 0.0003190017    1.204    0.169
        54  -9.2769    156.6102      7.5450   2.5716595869e+02  -5.8285484463e+01   0.01821709   0.01706796  45.60 0.0001700065    1.078    0.073
        55 -11.6800     57.4657      4.0080   2.5516830445e+02  -5.4905260838e+01   0.06533164   0.05076198 -48.17  0.001637742    1.284    0.221
        56 -11.1663      3.4799      5.9025   2.5444056648e+02  -5.3028360344e+01   0.05620447   0.03425435  73.57  0.001724208    1.874    0.466
        57  -9.0750    210.6503      6.2515   2.5820337998e+02  -6.0149192848e+01   0.01939486   0.01253809 -41.72 0.0004417359    1.591    0.371
        58  -8.8316     90.7178      5.1204   2.5579355600e+02  -5.6041449225e+01   0.04325913   0.03568008 -33.23  0.001489751    1.244    0.196
        59 -12.0056     85.8155      1.6237   2.5549418885e+02  -5.5905371508e+01   0.08405051   0.03058904 -74.25  0.001251309    2.729    0.634
        60  99.0000    182.7346      3.1423   2.5740076841e+02  -5.9226607350e+01    0.0685081   0.02551031 -48.08  0.001937311    2.673    0.626
        61 -11.1264    217.7923      2.0385   2.5806967986e+02  -6.0437415155e+01   0.04288997   0.03266629 -87.55  0.001720157    1.387    0.279
        62  -9.4935    213.1355      2.1035   2.5797241905e+02  -6.0277732024e+01   0.03374667   0.02494144  81.77 0.0006695517    1.484    0.326
        63 -10.9297     47.5193      1.7793   2.5487557999e+02  -5.4582638827e+01   0.06149354   0.02931316  88.25  0.001853329    2.522    0.603
        64 -10.3385    131.0005      8.2971   2.5672044004e+02  -5.7397850573e+01   0.05008793    0.0305417  77.69  0.001509522    1.924    0.480
        65 -11.0300    113.5257    246.4508   2.7030727429e+02  -5.3636215662e+01    0.0501443   0.02596834  50.59  0.001324037    2.318    0.569
        66 -10.6020    180.8828    243.7493   2.7215706612e+02  -5.5796562919e+01   0.03567657   0.02381765 -11.40  0.001241308    2.062    0.515
        67  -9.9004    110.3801    241.1994   2.6993902972e+02  -5.3621986679e+01   0.02581352   0.01748561  10.73 0.0009456816    1.690    0.408
        68 -12.9715     37.9665     80.2185   2.5928235748e+02  -5.3456240176e+01     0.115641   0.06068076  36.64  0.001855815    1.852    0.460
        69  -9.7176    218.5185    239.5217   2.7312797022e+02  -5.7038495755e+01    0.0179678   0.01764152 -30.50 0.0001645924    1.021    0.020
        70 -12.9391     61.7810     44.3805   2.5764829883e+02  -5.4655720753e+01    0.1247118   0.06077942 -30.51  0.003760513    2.552    0.608
        71 -12.4673     51.5408     44.9287   2.5749415267e+02  -5.4300152734e+01    0.1308633   0.06133578  78.56  0.001471346    3.091    0.676
        72 -12.7230     86.5449     63.1956   2.5924289627e+02  -5.5295339346e+01   0.08113983   0.05692429 -49.07 0.0001984908    1.416    0.294
        73 -13.9145     77.5915     58.9119   2.5880999247e+02  -5.5038639784e+01    0.1894842   0.05710537 -70.94  0.003270581    3.249    0.692
        74 -10.1592     88.3414    238.7068   2.6920325622e+02  -5.2961727274e+01   0.01933418   0.01327891 -31.18 0.0003093445    1.655    0.396
        75  -9.9562     15.9942    238.4907   2.6734998470e+02  -5.0652718790e+01   0.02472553   0.01533333  77.05 0.0004933049    2.297    0.565
        76  -9.9854    157.5543    222.5474   2.7027237247e+02  -5.5420949150e+01   0.01792453   0.01761843 -28.69 7.561896e-05    1.015    0.015
        77  -9.9286    236.7115    146.0000   2.6812300713e+02  -5.9177003365e+01   0.02499907   0.02318202  26.18 0.0003492628    1.078    0.072
        78  -9.5773    182.9559    125.4571   2.6529255255e+02  -5.7733518003e+01   0.02636308    0.0176948 -63.74 0.0002916131    1.471    0.320
        79 -10.0925    163.6024    123.2101   2.6464181119e+02  -5.7127252084e+01    0.0265923   0.01586063  35.87 0.0006558684    1.640    0.390
        80 -11.0186    181.3207    118.8874   2.6484261096e+02  -5.7772279934e+01   0.04188774   0.02885136 -56.65 0.0005918968    1.415    0.293
        81 -12.3177     12.0593     24.6765   2.5564889080e+02  -5.3150048583e+01   0.05360416   0.04771528  -2.20 0.0007367726    1.143    0.125
        82 -13.4242     37.0459     56.5045   2.5790503613e+02  -5.3684209887e+01    0.2104792   0.08349786 -63.37  0.006379506    2.308    0.567
        83 -13.0845     57.1989     65.6681   2.5881257270e+02  -5.4270692682e+01     0.183975   0.07960398  28.06  0.005779702    2.144    0.534
        84 -12.8995     49.7699     54.4731   2.5801995412e+02  -5.4139295428e+01     0.146399   0.06907126 -70.59  0.004710489    2.084    0.520
        85 -12.0315     75.9820     52.0157   2.5836822440e+02  -5.5059158211e+01   0.03692688   0.03078737 -21.57 0.0003535516    1.255    0.203
        86 -10.5104    182.5030    115.6967   2.6467611127e+02  -5.7855793616e+01   0.05741982   0.03124543 -39.94  0.001899019    2.035    0.509
        87 -12.2518     45.2584     91.5036   2.6006855750e+02  -5.3573402094e+01   0.05218277   0.04563231 -13.61  0.001641155    1.185    0.156
        88 -11.7283    175.8206     85.7726   2.6262814972e+02  -5.8034971449e+01   0.09862124   0.04866516  56.21  0.002611846    2.630    0.620
        89 -12.9220    187.6041     59.4779   2.6122958377e+02  -5.8760383987e+01    0.1727387    0.0911724 -84.90  0.005151319    2.302    0.566
        90 -10.5898     72.9983    119.0149   2.6222284088e+02  -5.4170448937e+01   0.02632465   0.02575707 -32.20  0.001196335    1.018    0.018
        91  -9.7002     50.0191    116.9830   2.6161093127e+02  -5.3427442928e+01    0.0214538   0.02119155   0.55 0.0003127182    1.009    0.009
        92 -11.8542    202.8845     33.6710   2.5988710843e+02  -5.9582240698e+01    0.1091677   0.06425474 -83.51 0.0002387699    1.899    0.473
        93 -10.2463    202.9404    115.7712   2.6523375609e+02  -5.8528099463e+01    0.0597969   0.01737862 -46.78  0.001433104    3.727    0.732
        94 -13.5129    194.0790     85.1139   2.6304663289e+02  -5.8653048874e+01    0.1809173    0.1248726 -19.04  0.006307542    1.688    0.408
        95 -11.6943    208.6708     58.0543   2.6165098643e+02  -5.9486275615e+01   0.05602093   0.03648652 -39.96  0.001744768    1.613    0.380
        96 -10.6494     93.3040    116.0034   2.6250357077e+02  -5.4887210263e+01   0.02562069   0.02300773  23.91 0.0003492423    1.110    0.099
        97 -13.0076    194.4882     67.7631   2.6193602767e+02  -5.8889280668e+01    0.1389737   0.08306181 -82.85  0.004826022    1.903    0.475
        98 -13.2115    201.9388     60.4784   2.6164398099e+02  -5.9230183214e+01    0.1165442    0.1067062  52.12  0.004077982    1.116    0.104
        99 -12.1000    222.7738     60.9895   2.6220358520e+02  -5.9922123632e+01   0.09378248   0.03694863 -60.40  0.002456604    2.321    0.569
       100 -13.2945    216.2475     56.3838   2.6172962153e+02  -5.9761274560e+01    0.1829952   0.09251659  34.13  0.003016987    1.895    0.472
       101 -12.4259    196.7740     48.6480   2.6073930414e+02  -5.9200190221e+01     0.124866   0.06771412  83.50  0.002028032    2.477    0.596
       102 -12.5402    188.7067     43.9693   2.6024158493e+02  -5.8982783779e+01    0.1275442   0.07679389  81.64  0.001911292    2.058    0.514
       103  -9.8673     89.1261     93.7090   2.6110630234e+02  -5.5025583521e+01   0.02452796   0.02303314  86.19 0.0003028279    1.092    0.085
       104 -11.7271     54.8039     93.7668   2.6039023214e+02  -5.3868750422e+01   0.03794374   0.02584877  -0.13  0.001415118    1.624    0.384
       105 -10.2346    226.0383     92.0413   2.6434603757e+02  -5.9620626877e+01   0.03032906    0.0204771 -34.48 0.0008088131    1.625    0.384
       106 -12.4416    215.9257     90.8154   2.6398992419e+02  -5.9302926376e+01   0.05844274   0.03231272  24.08  0.002019456    1.783    0.439
       107 -11.0582    206.5677     91.2551   2.6376773518e+02  -5.8986801582e+01   0.03203837   0.02664685 -29.86 0.0003016445    1.259    0.206
       108 -13.2512    206.0654     78.7142   2.6294171884e+02  -5.9136310265e+01    0.1884999    0.0343522 -59.84  0.004328483    3.966    0.748
       109 -10.2436    168.0177     90.1185   2.6270867926e+02  -5.7718006270e+01   0.04449069   0.02657436 -51.00  0.001334503    1.643    0.391
       110 -10.7074    163.1332    115.1204   2.6413532039e+02  -5.7223068821e+01   0.02657617   0.02130824 -29.64 0.0008293639    1.324    0.245
       111 -11.1690     92.1103     33.7126   2.5757183601e+02  -5.5804464912e+01   0.08866229   0.07191902  59.14  0.003492599    1.293    0.227
       112 -11.9271    224.1036     87.0574   2.6396629005e+02  -5.9624662225e+01   0.07489017   0.03993638  75.26  0.002172359    2.944    0.660
       113 -10.1824    250.0918     93.9911   2.6515552021e+02  -6.0385211008e+01   0.02785872   0.02717439 -45.36 0.0008475178    1.021    0.021
       114 -11.8017     48.4844     85.4813   2.5978835705e+02  -5.3752020183e+01   0.04428455   0.03055253 -56.83  0.001294071    1.413    0.292
       115 -12.0746      6.3340     86.6665   2.5904905027e+02  -5.2314605900e+01   0.07886915   0.03412791  -3.12  0.002054223    3.492    0.714
       116 -13.1292    112.6037     81.9178   2.6091470492e+02  -5.5959423077e+01    0.1983765    0.1025927  49.94  0.006403412    2.170    0.539
       117 -10.3818    104.0196     75.8948   2.6036613748e+02  -5.5741376861e+01   0.04043491   0.02850157 -59.10 0.0006506719    1.382    0.276
       118 -12.0797    135.9450     71.5885   2.6080091433e+02  -5.6871467866e+01    0.1696538   0.04965473 -62.40  0.004524305    2.944    0.660
       119 -11.4043    144.8692     68.4222   2.6080480243e+02  -5.7210828016e+01   0.06940749   0.03494787 -47.40  0.002272731    2.000    0.500
       120 -11.7935    152.8717     64.0706   2.6071312912e+02  -5.7533256039e+01    0.1165812    0.1025089 -41.30  0.005073026    1.143    0.125
       121 -12.3597     97.9408     77.0189   2.6030444542e+02  -5.5522586685e+01    0.1301692   0.06285249 -26.01  0.002465096    2.905    0.656
       122 -11.9408     97.6009     69.2209   2.5982980113e+02  -5.5601910278e+01   0.07443157   0.04145117 -21.56  0.002392225    2.283    0.562
       123 -13.6366    116.7910     61.9719   2.5979223316e+02  -5.6336174237e+01     0.122066    0.1025849  54.76  0.001884549    1.235    0.190
       124  -9.6729    248.1994     87.4216   2.6466258284e+02  -6.0415071213e+01      0.02639   0.01801102 -66.06 0.0002184472    1.463    0.316
       125 -11.3476    246.5094     81.7533   2.6423490870e+02  -6.0437487815e+01   0.06109677   0.04792259   1.73  0.002486054    1.372    0.271
       126 -12.2144    235.2818     85.6475   2.6418070113e+02  -6.0013541089e+01    0.1105054   0.02831588 -54.36  0.002779252    3.324    0.699
       127 -11.7353    161.2363     84.3465   2.6218197049e+02  -5.7564995286e+01   0.09488593   0.05824673 -86.91  0.003309679    1.912    0.477
       128 -12.4371    168.6214     79.7557   2.6207160265e+02  -5.7870709887e+01   0.06896659   0.05280392   9.43  0.001351959    1.360    0.265
       129  -9.9532    173.5258     78.5270   2.6211281730e+02  -5.8050695405e+01   0.02756893   0.02307151 -83.88 3.275572e-05    1.247    0.198
       130 -11.4853     51.8293     86.9300   2.5993795043e+02  -5.3848299014e+01   0.04907814   0.02644319  40.64 0.0007353864    1.859    0.462
       131 -11.7922    167.0674     64.6510   2.6107663824e+02  -5.8005416084e+01     0.122828   0.07987892  79.62  0.004400664    1.851    0.460
       132 -11.6099    147.9369     84.8913   2.6189932614e+02  -5.7111969569e+01   0.05749945   0.04841977 -55.54  0.001239497    1.171    0.146
       133 -12.0860    147.2832     79.2609   2.6153493593e+02  -5.7160133010e+01   0.04392293   0.03740902  11.72 0.0002685999    1.193    0.161
       134  -9.9347    207.2318     85.5926   2.6341907230e+02  -5.9084578764e+01   0.02509891   0.01763931 -86.15 0.0009369417    1.595    0.373
       135 -12.2306    232.4589     75.5887   2.6343451091e+02  -6.0055508113e+01    0.1227722   0.03816946  28.63  0.003341205    2.848    0.649
       136 -13.4856    204.3857     70.0366   2.6233223524e+02  -5.9192096899e+01     0.128211   0.08165377 -77.03  0.004686792    1.672    0.402
       137 -12.3707    217.3193     75.2983   2.6301150290e+02  -5.9555930686e+01   0.04630306   0.04016752 -78.10 0.0007593487    1.182    0.154
       138 -12.9637    220.8122     69.9632   2.6275039716e+02  -5.9741738993e+01   0.08134132   0.05534547 -50.23   0.00265905    1.452    0.311
       139 -11.9719    238.0531     80.8969   2.6394159317e+02  -6.0169729153e+01   0.03968789   0.03191084  66.54 0.0003671955    1.365    0.268
       140 -11.9796    220.5555     79.5560   2.6337755416e+02  -5.9607536364e+01   0.03816501   0.03028709  57.03 0.0006740217    1.348    0.258
       141 -12.5349     73.3804     74.1121   2.5962518084e+02  -5.4724892079e+01   0.09710531   0.06632879 -58.29  0.002565995    1.423    0.297
       142 -11.9922     82.4060     76.3994   2.5994365551e+02  -5.5004231995e+01   0.08645095   0.04106418  24.42  0.001327579    2.010    0.503
       143 -10.1408    156.4153     76.9336   2.6160312004e+02  -5.7496093132e+01   0.03753082   0.02283186 -51.31  0.001222728    1.611    0.379
       144 -12.0709    249.1887     71.1926   2.6359722243e+02  -6.0668755330e+01    0.1485222   0.04170305  24.19   0.00377153    3.319    0.699
       145 -12.8957    231.5911     65.5181   2.6273736998e+02  -6.0158586682e+01    0.1380121   0.06942809 -81.84  0.004249756    2.452    0.592
       146 -11.9521    232.0532     57.4692   2.6220722245e+02  -6.0276950332e+01    0.1191534   0.06290494 -42.91  0.002414379    2.006    0.501
       147 -11.4147    241.1396     69.3527   2.6325170169e+02  -6.0426212723e+01   0.07509537   0.03173709  42.23  0.001798842    2.441    0.590
       148 -13.3095    242.5325     60.8952   2.6271627393e+02  -6.0582834286e+01   0.08375224   0.05887179 -46.24 0.0006834782    1.430    0.301
       149 -12.6091    237.3490     50.7568   2.6188895580e+02  -6.0538455302e+01    0.0694112   0.05168352 -33.41  0.001709844    1.423    0.297
       150 -12.1693    229.8008     47.6535   2.6148414742e+02  -6.0323891755e+01   0.09819787   0.05606426  61.73  0.002686339    2.191    0.544
       151 -11.7456    234.4118     46.1899   2.6150169234e+02  -6.0496593334e+01    0.0519661   0.02553459 -53.67 0.0009402281    1.942    0.485
       152 -10.3819     39.8880     41.3183   2.5707589428e+02  -5.3939065314e+01    0.1050383    0.0810781 -70.70  0.004306009    1.289    0.224
       153 -10.8966     86.7797     74.2291   2.5990505991e+02  -5.5177442892e+01   0.06898263   0.03326497  17.85  0.002027895    2.095    0.523
       154 -10.4013    136.8756     62.0851   2.6023180581e+02  -5.7015662311e+01   0.03890136   0.03136943  30.99 0.0006150002    1.228    0.186
       155  -9.7935    137.0084     57.9821   2.5997893151e+02  -5.7067982810e+01   0.02831244   0.02744678 -28.98 0.0006548042    1.032    0.031
       156 -11.1180    127.6531     58.3860   2.5980234726e+02  -5.6745981613e+01   0.06119343   0.03749445  65.91  0.002113429    1.965    0.491
       157 -11.4645     98.5578     54.7349   2.5897519383e+02  -5.5798398857e+01   0.08524451   0.05062206 -21.18  0.002895809    2.029    0.507
       158 -11.0020    101.6454     53.6789   2.5897328425e+02  -5.5915220996e+01   0.05253768   0.03916956 -72.48  0.001391359    1.346    0.257
       159 -10.1010    145.9809     58.3809   2.6020065705e+02  -5.7367424373e+01   0.05302086   0.01366477  36.08  0.001312226    3.394    0.705
       160 -11.8671    173.9175     56.2298   2.6069654439e+02  -5.8337916745e+01   0.06404204   0.04440128 -82.28  0.001133404    1.544    0.353
       161  -9.8370    155.3781     54.5691   2.6016858399e+02  -5.7730313608e+01   0.04408821   0.02180104  86.83 0.0009470055    2.814    0.645
       162 -11.1585    162.4616     57.4358   2.6051061736e+02  -5.7936365623e+01   0.05542694    0.0427109  82.55  0.002221895    1.424    0.298
       163 -12.5570    104.2420     65.9917   2.5977337231e+02  -5.5864265871e+01   0.05503203   0.04190826  58.48 0.0003514386    1.408    0.290
       164 -10.4129    248.9595     55.6618   2.6253090506e+02  -6.0864214593e+01    0.0489093   0.02865382  81.97  0.001204916    2.265    0.559
       165 -11.7273    145.9116     52.0344   2.5979941668e+02  -5.7438678556e+01    0.1073585   0.04541695  57.97  0.001735192    3.471    0.712
       166 -11.3205    138.5084    112.4768   2.6335884301e+02  -5.6440763542e+01   0.03940436   0.02357741  66.95  0.001273341    2.164    0.538
       167 -10.9294    159.0553     26.4328   2.5844364532e+02  -5.8171578647e+01   0.06062347   0.02691391  16.95  0.001582268    2.272    0.560
       168  -9.7269    155.2905     42.6135   2.5940475323e+02  -5.7864625156e+01   0.09739047   0.07484461  38.90  0.003965995    1.302    0.232
       169 -11.2977    149.8614     42.1533   2.5925840873e+02  -5.7685135168e+01   0.05067116   0.03303776  22.92 0.0004815021    1.508    0.337
       170 -11.2056    146.1384     39.8193   2.5903067711e+02  -5.7584435615e+01   0.04634073    0.0371169  75.44 0.0002648472    1.347    0.258
       171 -11.7253    161.5105     40.0602   2.5937604629e+02  -5.8104931511e+01   0.07661766   0.04351198  23.71  0.002689227    1.712    0.416
       172 -11.1429    158.1929     36.3589   2.5906610081e+02  -5.8033450192e+01   0.04777904    0.0267122 -73.65 0.0008836314    1.818    0.450
       173 -11.4314    142.2797     46.7056   2.5938479573e+02  -5.7375998236e+01   0.03565737   0.02794908 -41.05 0.0001687477    1.296    0.229
       174 -11.8265    144.9994     44.0058   2.5927214022e+02  -5.7498908855e+01   0.03630493   0.02802266  51.79 0.0003379683    1.352    0.260
       175 -10.8400    182.8444     52.6683   2.6067395041e+02  -5.8681924165e+01   0.07298921   0.02920464 -60.62  0.002205503    2.280    0.561
       176 -10.7920    135.9356     52.8076   2.5963244453e+02  -5.7091110682e+01   0.07680854   0.02072825 -66.18  0.001446669    3.251    0.692
       177 -10.6235    245.2838     50.3175   2.6206610887e+02  -6.0809337578e+01   0.03405719    0.0279338  14.92  0.000200467    1.233    0.189
       178 -10.4475    167.6925     51.7528   2.6026568807e+02  -5.8180324581e+01   0.03706425   0.02552413  68.63 0.0007351723    1.672    0.402
       179  -9.9715    124.1963     51.1185   2.5927890970e+02  -5.6711227720e+01   0.02617274   0.02327167  49.97 0.0002461837    1.147    0.128
       180 -10.6567     90.4398     51.1658   2.5859799951e+02  -5.5561220331e+01   0.02837696   0.02433847 -76.89   0.00030828    1.178    0.151
       181 -10.1346    161.4398     48.5673   2.5992084404e+02  -5.8005487283e+01   0.05199401   0.03487343  26.85  0.001978836    1.458    0.314
       182 -10.5107    249.4711     48.1244   2.6202535551e+02  -6.0976791529e+01   0.05706013   0.03299752 -29.38  0.001907799    2.078    0.519
       183 -11.6791    247.5225     42.7400   2.6160187155e+02  -6.0978536969e+01   0.07393766   0.03948467 -30.51  0.002038403    2.318    0.569
       184 -10.9149    135.4783     43.0131   2.5900847934e+02  -5.7185847699e+01   0.08151542   0.02964161  45.21  0.002192044    3.038    0.671
       185 -11.1980    133.6473     40.2758   2.5879828572e+02  -5.7153697543e+01   0.04878405   0.03118087 -67.10  0.001277119    1.530    0.347
       186  -9.7449    167.5611     42.0259   2.5963577744e+02  -5.8288280200e+01   0.02991958   0.02441444 -37.37 0.0004954395    1.252    0.201
       187 -12.0262    172.8497     44.6631   2.5992461646e+02  -5.8437513806e+01    0.1023458   0.05608976  71.29   0.00275295    2.437    0.590
       188 -12.0696    177.3327     38.9462   2.5965328539e+02  -5.8655189403e+01   0.09631253   0.04828501  57.27  0.001866747    2.496    0.599
       189  -9.8737     99.3901     47.4786   2.5855099891e+02  -5.5906585676e+01   0.02968235   0.01754598  16.87  0.001042499    1.701    0.412
       190  -9.9132    121.9682     44.7054   2.5883480481e+02  -5.6706779546e+01   0.05381008    0.0170395  44.58  0.001332338    3.526    0.716
       191  -9.8622    105.5177     44.4623   2.5848818296e+02  -5.6148423294e+01   0.05036706   0.02611632 -29.23  0.001565834    2.371    0.578
       192 -10.5319    240.4516     40.3995   2.6125830908e+02  -6.0770053516e+01   0.06209489   0.02947127  49.37  0.001756901    2.417    0.586
       193 -10.9568    229.5184     40.1592   2.6096656153e+02  -6.0405455157e+01   0.05337274   0.04009447  76.28  0.001633076    1.495    0.331
       194 -11.0177    234.1094     37.2012   2.6087834891e+02  -6.0595422092e+01   0.07365086   0.03341387 -32.78  0.001790657    2.923    0.658
       195 -10.4815    211.2499    112.0857   2.6523029680e+02  -5.8853512081e+01   0.03818097   0.02389387 -61.91 0.0006852387    1.562    0.360
       196  -9.6806    191.3436    111.7710   2.6466682675e+02  -5.8202229468e+01   0.02771813   0.01544603  33.70 0.0005152207    1.734    0.423
       197 -10.1354    214.6061     41.9106   2.6071881920e+02  -5.9882125034e+01   0.06002141   0.03705012 -50.45  0.002192095    1.593    0.372
       198 -10.7242    218.3290     29.0333   2.5993597513e+02  -6.0158572938e+01   0.04842327   0.03149623  35.31   0.00100526    1.512    0.339
       199 -11.2007    196.9624    108.5283   2.6461360727e+02  -5.8432763963e+01   0.07384459   0.04236984 -29.56  0.002427713    2.174    0.540
       200 -11.4368    209.5127     22.9398   2.5931646022e+02  -5.9928733313e+01   0.04274236   0.03770939  17.27  0.001859124    1.135    0.119
       201 -10.2752    192.5297    103.0354   2.6414811778e+02  -5.8361803900e+01   0.03874377   0.01783526  22.78 0.0007204365    2.162    0.537
       202 -10.1743     99.6799     42.2787   2.5823963395e+02  -5.5972727830e+01   0.04464772   0.02103743  48.13  0.001140152    2.333    0.571
       203  -9.3205    114.6285     38.8403   2.5832288087e+02  -5.6520264140e+01   0.02659687    0.0168607  -3.83 0.0009359875    1.787    0.440
       204  -7.6151    122.4981     36.5216   2.5833594669e+02  -5.6814050295e+01   0.05319995    0.0183941 -73.60  0.001415999    2.983    0.665
       205 -10.8921    121.9468     32.7940   2.5809209384e+02  -5.6835132799e+01   0.04027805   0.02525068  12.37  0.001161918    1.642    0.391
       206 -10.7059    131.7070     33.7774   2.5834955462e+02  -5.7158203646e+01   0.03776215   0.02677368 -15.41 0.0006134203    1.564    0.361
       207 -10.8412     75.1512     33.4875   2.5724364662e+02  -5.5225993736e+01   0.04672748   0.03169413 -63.42  0.001700067    1.434    0.303
       208  -9.9774    169.6265     32.7336   2.5907818428e+02  -5.8463070212e+01   0.03362959   0.02222319  89.23  0.001045008    1.697    0.411
       209 -10.3601    111.9474     32.9426   2.5790465766e+02  -5.6491519001e+01   0.03235794   0.02669124 -82.08  0.001093267    1.240    0.194
       210  -9.9927    242.2948     30.2372   2.6060109322e+02  -6.0953787377e+01   0.04162159   0.02843957 -72.67  0.001587359    1.484    0.326
       211 -10.0255    237.9898     31.0000   2.6054706909e+02  -6.0799748116e+01   0.04028904   0.02310632 -66.24  0.001416782    1.700    0.412
       212 -10.6038    226.7301     30.8250   2.6025946011e+02  -6.0421899741e+01   0.06439637   0.03471774 -89.79  0.001760311    2.322    0.569
       213 -10.4116    152.3625     29.4336   2.5849750352e+02  -5.7910601696e+01   0.03164481   0.02836434 -37.01  0.001378768    1.124    0.110
       214 -11.0330     62.3170    110.4314   2.6150040176e+02  -5.3920277652e+01   0.03314285   0.01824158 -75.97 0.0006886817    1.947    0.486
       215 -11.0473     97.8823     22.0124   2.5696264267e+02  -5.6122335383e+01   0.03722293   0.02774683  12.95 0.0007917937    1.356    0.263
       216 -11.1793    135.4391     26.8740   2.5798835953e+02  -5.7359522346e+01   0.04833243   0.03954095 -25.14  0.001080065    1.278    0.217
       217  -9.5867    114.3787     28.2392   2.5765967305e+02  -5.6624132389e+01    0.0237298   0.01640899  40.67 0.0008973216    1.451    0.311
       218  -9.4438    233.4952    109.0113   2.6566288133e+02  -5.9627114969e+01   0.02553413   0.01786757  24.29 -0.0002530375    1.424    0.298
       219  -9.4505    168.4065     26.7640   2.5866273815e+02  -5.8487162120e+01   0.03987535   0.02213903 -54.02  0.001380677    1.733    0.423
       220 -10.1054    234.0084     24.5158   2.6000054084e+02  -6.0740874048e+01    0.0543898   0.02765791  39.00  0.001804095    1.948    0.487
       221 -11.8881    161.3389    106.2481   2.6354456486e+02  -5.7283256744e+01   0.05141414   0.03160124   5.39  0.001304115    1.880    0.468
       222 -10.7211    147.4218     25.6218   2.5815087329e+02  -5.7782714270e+01   0.04083948   0.02779867  48.59 0.0007892555    1.533    0.348
       223 -12.7738    145.5533    103.0550   2.6295879566e+02  -5.6799565127e+01   0.08299689    0.0662346 -40.38  0.003429231    1.279    0.218
       224  -9.5691    153.3873     25.2954   2.5825235924e+02  -5.7990150779e+01   0.02412033   0.01735893  -0.61 0.0004411597    1.490    0.329
       225 -10.3037    118.6221     21.6879   2.5733202047e+02  -5.6837395861e+01   0.07791944   0.02460265 -39.81  0.001792707    4.198    0.762
       226 -10.5427    120.7995     16.3292   2.5703678217e+02  -5.6966731570e+01   0.05128488    0.0197299 -47.19  0.000992958    2.632    0.620
       227 -10.5926    209.6860    104.3281   2.6469192295e+02  -5.8911002284e+01   0.07550295   0.04096794 -28.92   0.00236047    2.425    0.588
       228 -11.3054    125.5115     24.2618   2.5762691624e+02  -5.7046992407e+01   0.06598224   0.02587964 -69.67  0.001779819    2.440    0.590
       229 -10.3320    124.0000     20.9831   2.5739106144e+02  -5.7029105490e+01   0.03658291   0.02177328  17.97 0.0003134783    1.671    0.402
       230 -11.6366    155.9464    105.0129   2.6333387372e+02  -5.7120246385e+01   0.03837268   0.02598565  20.84  0.001453016    1.483    0.326
       231  -9.0470    185.4914     23.4412   2.5881284657e+02  -5.9105964306e+01   0.01800346   0.01770453  66.80 0.0001510253    1.030    0.029
       232 -11.5338    202.1519     20.9364   2.5901408859e+02  -5.9700775861e+01    0.0472683   0.03727093 -23.24  0.001250233    1.346    0.257
       233 -10.7499     16.9699    105.5428   2.6029858116e+02  -5.2456982779e+01   0.04720595   0.02998938  80.67  0.001667347    1.902    0.474
       234  -9.9973    163.4976     20.8946   2.5817645345e+02  -5.8382742478e+01   0.02558738   0.02384434 -71.39  0.000318337    1.072    0.067
       235  -9.7896    151.9598     20.9881   2.5794524452e+02  -5.7987076521e+01   0.03266168   0.01930351 -38.38  0.001130948    1.808    0.447
       236 -10.3871    191.4526     19.5491   2.5868383364e+02  -5.9351608143e+01   0.03206563   0.02892676  50.39  5.93433e-05    1.131    0.115
       237 -10.0402    194.2867     18.2631   2.5865973749e+02  -5.9462192970e+01   0.02831187   0.02495543  67.54  0.001218143    1.184    0.156
       238  -9.6638    136.1046     19.6023   2.5753931614e+02  -5.7458434340e+01   0.02462624   0.02289315 -85.56 0.0004643058    1.089    0.082
       239 -10.7466    130.5244     19.2556   2.5740820998e+02  -5.7270662904e+01   0.03860734   0.02337498 -63.94  0.001048304    1.590    0.371
       240  -9.6715     14.6317     17.6953   2.5528853124e+02  -5.3304055140e+01   0.03093955   0.01863123  49.92  0.001092635    1.749    0.428
       241 -10.8942    109.4176    104.3320   2.6218465904e+02  -5.5574989559e+01   0.03428521   0.01651101  26.80 0.0007056891    1.980    0.495
       242  -9.3177    172.6541     16.3019   2.5806625078e+02  -5.8744581852e+01   0.02006553   0.01262607 -37.71 0.0007038977    1.685    0.407
       243 -11.6469    227.2606    100.5649   2.6493640608e+02  -5.9542546572e+01   0.06538151   0.04511219 -17.09  0.001175859    1.730    0.422
       244 -13.0074    122.1079    100.0605   2.6222145991e+02  -5.6054237208e+01   0.08337741   0.04872661  37.24  0.002969802    1.682    0.406
       245 -13.8423    130.8822     95.6125   2.6215683510e+02  -5.6404670548e+01    0.1566356    0.1009086  35.31  0.005863775    1.523    0.344
       246 -11.4484    126.8210     81.2181   2.6118795291e+02  -5.6447188324e+01   0.07245626   0.03259007  38.38  0.002269317    2.172    0.540
       247 -11.3772    132.0239     83.0528   2.6141780076e+02  -5.6599907921e+01   0.04314318    0.0291871  28.64 0.0003332366    1.445    0.308
       248 -12.1656    136.5415     80.9367   2.6139102094e+02  -5.6777996155e+01   0.09687232   0.05329676 -33.40 0.0006292589    2.138    0.532
       249 -11.7133    127.0254     89.5144   2.6169766444e+02  -5.6351832947e+01   0.05919981    0.0454178   6.04  0.001962143    1.372    0.271
       250 -12.3288    121.7820     87.0592   2.6142968780e+02  -5.6205938357e+01   0.06915092   0.05606508  25.34  0.002889788    1.223    0.182
       251  -9.5567    160.2364     14.0151   2.5766075148e+02  -5.8343476150e+01   0.02526267   0.02229725  25.03  0.000417246    1.129    0.114
       252 -12.5649     73.7712     98.2799   2.6104472337e+02  -5.4453455021e+01   0.08390952    0.0508915  -4.09  0.002888426    1.981    0.495
       253 -10.5751    228.7108     97.1046   2.6475147521e+02  -5.9638687607e+01   0.02951951   0.02848855 -31.10 0.0003273126    1.038    0.037
       254 -10.6131    215.1802    101.3514   2.6465150669e+02  -5.9133610987e+01   0.04129948   0.02537139  51.29  0.001174942    1.805    0.446
       255 -10.4199    183.1196    102.0964   2.6384241964e+02  -5.8062593522e+01   0.02792227   0.02391048  57.53 0.0003650558    1.225    0.184
       256  -9.9572    165.5438    101.5192   2.6335784102e+02  -5.7486100191e+01   0.01798248   0.01783387 -19.41 3.448578e-05    1.004    0.004
       257 -12.3709    151.6276     96.6675   2.6271462268e+02  -5.7085490440e+01   0.09053894     0.054205 -21.92  0.003043209    2.104    0.525
       258 -10.2006    157.4812     95.5094   2.6278565701e+02  -5.7296085182e+01   0.04383616   0.01678617 -64.70  0.001262448    2.463    0.594
       259 -12.4929    108.9403     92.6580   2.6147863875e+02  -5.5705013100e+01    0.1380285   0.03577359 -58.52  0.003539643    3.174    0.685
       260 -12.3217     95.5246     90.2359   2.6103961997e+02  -5.5283174862e+01   0.06863589    0.0540308 -34.75 0.0008819561    1.321    0.243
       261 -12.2836    102.3494     96.5268   2.6156233019e+02  -5.5435688518e+01   0.05849225   0.04280996  -3.33 0.0002334592    1.506    0.336
       262 -11.4378    107.0625     96.1194   2.6164319222e+02  -5.5599063519e+01    0.0392308    0.0335164  48.52 0.0006021785    1.198    0.165
       263 -12.5337     83.1957     98.7141   2.6127168652e+02  -5.4765078052e+01   0.07551932   0.05359387 -79.85  0.002925038    1.489    0.328
       264 -10.2987     87.8635     97.8446   2.6132186730e+02  -5.4932635695e+01   0.04080002   0.03066928 -14.44  0.001378658    1.470    0.320
       265 -10.1783    244.3653     98.8231   2.6531001087e+02  -6.0128930170e+01   0.04536446   0.01875236  32.22  0.001378732    2.252    0.556
       266 -10.4247    160.5268    100.0698   2.6314288044e+02  -5.7338113434e+01    0.0285058   0.01810264  18.67  0.001033076    1.603    0.376
       267 -11.0107    199.3533     96.2620   2.6389801128e+02  -5.8679960130e+01   0.04790102   0.04021539   1.23  0.001785951    1.252    0.201
       268 -10.6530    170.4718     98.0529   2.6326601356e+02  -5.7696098058e+01   0.04371024   0.03333677   1.55  0.001666804    1.419    0.295
       269 -11.7712     57.4278     99.4207   2.6076806532e+02  -5.3889895895e+01   0.05273652   0.01780402 -70.36  0.001409268    2.988    0.665
       270 -10.4400     46.3018     99.0392   2.6051837335e+02  -5.3520035122e+01   0.02575505   0.02315575  13.90  0.000340765    1.115    0.104
       271 -11.9672     11.7699     97.4918   2.5975178789e+02  -5.2375502813e+01   0.04869203   0.04418856  45.32  0.001388586    1.114    0.102
       272 -11.0531    140.9743     96.1742   2.6242860199e+02  -5.6735542361e+01    0.0478249   0.03726947 -59.93  0.001955109    1.260    0.207
       273  -9.4024    237.2743     96.2862   2.6493939935e+02  -5.9931944238e+01   0.01834797    0.0134376  57.55 0.0002829186    1.509    0.337
       274 -14.1422     65.7796     82.7638   2.5997764817e+02  -5.4367990098e+01    0.1876052    0.1621585  42.06  0.004789364    1.165    0.142
       275 -10.7202     36.4994    248.9852   2.6838927565e+02  -5.1150169023e+01   0.02872597   0.01770908  25.93  0.001042409    1.619    0.382
