#   1 NUMBER                 Running object number                                     
#   2 MAG_AUTO               Kron-like elliptical aperture magnitude                    [mag]
#   3 X_IMAGE                Object position along x                                    [pixel]
#   4 Y_IMAGE                Object position along y                                    [pixel]
#   5 X_WORLD                Barycenter position along world x axis                     [deg]
#   6 Y_WORLD                Barycenter position along world y axis                     [deg]
#   7 A_WORLD                Profile RMS along major axis (world units)                 [deg]
#   8 B_WORLD                Profile RMS along minor axis (world units)                 [deg]
#   9 THETA_WORLD            Position angle (CCW/world-x)                               [deg]
#  10 FWHM_WORLD             FWHM assuming a gaussian core                              [deg]
#  11 ELONGATION             A_IMAGE/B_IMAGE                                           
#  12 ELLIPTICITY            1 - B_IMAGE/A_IMAGE                                       
         1 -14.5068    158.5285     54.4124   7.9973168622e+01   3.8610885283e+01     1.473251     1.324369  41.84  0.003887828    1.130    0.115
         2 -14.6909    170.7366     39.0906   7.3361893153e+01   3.7747592085e+01     1.089029     1.005436  -3.54  0.004004769    1.271    0.213
         3 -14.6771    187.3427      7.6431   6.2686535785e+01   3.7264548553e+01     1.119437    0.8486016  69.86  0.004238832    1.147    0.128
         4 -13.1984    210.1180      2.6715   5.9133669145e+01   3.2377032933e+01     1.180966    0.2526528  72.78  0.003872739    4.296    0.767
         5  -9.9066    131.8350    237.1318   1.2702639016e+02   6.9444276016e+00    0.1647822     0.152466  89.14 0.0004152243    1.164    0.141
         6 -19.8284     61.9728    166.6643   1.3213503290e+02   3.3441427453e+01     19.44867      5.96125 -65.69   0.06880879    3.136    0.681
         7 -10.2401    112.0712    214.4494   1.2788877595e+02   1.4799094109e+01    0.1790735    0.1516227 -86.80 0.0002322908    1.159    0.137
         8 -12.1619    106.7042    206.0512   1.2781947594e+02   1.7495071840e+01    0.7599114    0.4151507 -63.94  0.001967274    1.914    0.478
         9 -11.5895    168.6783    249.7991   1.2167263907e+02  -1.5664810656e+00    0.3043131    0.2068441  30.10 0.0008895511    1.422    0.297
        10  -9.5897    116.6874    213.2170   1.2674569191e+02   1.4256908630e+01    0.1533915    0.1171651 -65.31 0.0002509944    1.366    0.268
        11 -10.1526    115.8543    209.8929   1.2643391586e+02   1.5096991534e+01    0.1836537    0.1392613  63.62 0.0004179317    1.243    0.196
        12  -9.7269    130.2429    212.5414   1.2379170771e+02   1.1988118085e+01    0.1430304   0.09960168  85.18  0.000685037    1.821    0.451
        13 -10.7418     12.6110    212.6832   1.4724311019e+02   2.8834635703e+01    0.1039995   0.07838655 -53.24  0.000701191    1.842    0.457
        14 -11.1852     29.5745    206.0096   1.4358993007e+02   2.8444414599e+01    0.1697873     0.165879 -14.71 0.0007434021    1.610    0.379
        15 -11.6253    163.7542    202.9871   1.1508733602e+02   7.6210889981e+00    0.2999549    0.2537903  59.50 0.0007299772    1.203    0.169
        16 -12.6116    157.3191    200.7343   1.1605105975e+02   9.3096298093e+00    0.7128155    0.4542132 -87.49   0.00278719    3.008    0.668
        17 -10.8176    153.5164    194.5395   1.1574863812e+02   1.1311538582e+01    0.2474755    0.2271924  55.08 0.0006831616    1.030    0.029
        18 -10.2400    140.3258    200.3259   1.1964340796e+02   1.2645014228e+01    0.3176497    0.2097377  22.05   0.00141196    2.134    0.531
        19  -9.8219    121.7363    198.9103   1.2346609838e+02   1.6393987297e+01    0.1890007    0.1602802 -71.78  0.000496398    1.193    0.162
        20 -10.4582      6.3394    197.8384   1.4730958604e+02   3.2564272805e+01    0.1359322   0.08179781 -78.03 0.0003620046    1.306    0.234
        21 -10.6584    112.4399    196.5356   1.2513218908e+02   1.8575182506e+01    0.4255818    0.2880432  10.00  0.001768013    2.949    0.661
        22 -10.2986      1.3945    196.1828   1.4810472185e+02   3.3362628840e+01   0.08753447   0.08017793 -54.01 0.0006611674    1.598    0.374
        23 -10.7480    103.6365    194.4251   1.2675140846e+02   2.0571820997e+01    0.3674136    0.2343637  24.44  0.001292008    2.286    0.563
        24 -13.2133    174.9669    187.8233   1.0984292799e+02   8.4281732635e+00    0.8563186    0.3678171 -41.47  0.003242143    2.501    0.600
        25 -11.4611    170.1422    183.6823   1.1005753278e+02   1.0239424750e+01    0.3442975    0.1925698  49.07  0.001371504    1.788    0.441
        26 -12.9543    165.6731    188.7200   1.1201349394e+02   1.0106482189e+01    0.4966293    0.4177092  -6.44  0.002349778    1.443    0.307
        27 -11.3580    180.7027    193.3951   1.0972132047e+02   6.1908164559e+00    0.3102873    0.2435997  87.08  0.001531197    1.779    0.438
        28 -11.7037    154.0771    187.2096   1.1425683318e+02   1.2732948869e+01    0.2856516    0.1974925 -82.26  0.001241171    2.112    0.527
        29 -12.0864    206.8538    178.1353   1.0128010451e+02   3.9350278081e+00    0.5323738    0.4349368 -12.57  0.002826317    1.311    0.237
        30 -11.9651    203.7356    171.7817   1.0055870816e+02   5.7672137693e+00    0.8230076    0.4720594 -43.62  0.003637733    1.741    0.426
        31 -10.2189    150.7469    250.2186   1.2514586627e+02   1.4204584854e+00    0.1744614    0.1456763  52.92 0.0004584729    1.074    0.069
        32 -10.1232    139.8354    250.0285   1.2719538225e+02   3.3037397688e+00    0.1957917     0.148111  63.67  0.001005711    1.302    0.232
        33 -10.6213    136.9353    179.3424   1.1661209008e+02   1.7828947030e+01     0.208459    0.1834179  47.92 0.0003574302    1.115    0.103
        34 -12.6674    195.5099    169.1084   1.0165528979e+02   7.9726676743e+00    0.4700931    0.3883163 -39.13 0.0005306533    1.204    0.170
        35 -11.6950    192.9778    164.2645   1.0112594517e+02   9.4670586436e+00    0.4542757    0.3710115  25.92  0.001751192    1.315    0.239
        36 -11.2278    164.4525    171.2308   1.0876264615e+02   1.4017419235e+01    0.4030536    0.2506059 -79.92  0.001187125    3.196    0.687
        37 -11.8077    230.1990    166.6664   9.4382347965e+01   1.4982227804e+00    0.3506087    0.1780858 -51.30   0.00141835    2.392    0.582
        38 -11.3124    122.3344    165.4106   1.1733877680e+02   2.3834313920e+01    0.2811029    0.2340991  76.96 0.0002782825    1.260    0.206
        39 -11.7627     25.2516    165.7400   1.4051001747e+02   3.7903569595e+01    0.2363226    0.2061582  13.94 0.0007492029    1.630    0.386
        40  -9.9094    199.3091    162.6167   9.9465034234e+01   8.4683425565e+00    0.1544841    0.1191775 -78.49  0.000140297    1.802    0.445
        41 -10.5327    177.0000    169.9212   1.0573475671e+02   1.1668751402e+01    0.2521338   0.08593703 -44.86 0.0008066286    2.972    0.663
        42 -10.1809    188.7230    158.6118   1.0076441675e+02   1.1517052536e+01    0.2456428    0.1844176   7.08  0.001102058    1.796    0.443
        43 -14.1946    133.7838    145.4680   1.1033261269e+02   2.6184925568e+01     1.663964    0.5528257 -56.24  0.004610684    4.010    0.751
        44 -13.6256    135.7034    127.2839   1.0555531842e+02   2.9932993472e+01     2.553157    0.3673373 -49.57  0.004481616    9.418    0.894
        45 -10.0545    135.1389    235.1722   1.2610637576e+02   6.7322148417e+00     0.187595    0.1643477  70.43 0.0005739529    1.113    0.101
        46 -11.0423     15.7878    150.4748   1.4093597958e+02   4.2278815059e+01     0.287686    0.2076073 -25.16  0.001049749    2.043    0.511
        47 -12.8512    144.6354    146.2956   1.0788651488e+02   2.3721858541e+01    0.5679644    0.4430645  74.65  0.002425533    1.517    0.341
        48 -12.7723    142.1164    139.5263   1.0692551473e+02   2.5793677543e+01     0.548209    0.3550368 -59.55  0.002323396    1.691    0.409
        49 -11.0592    174.2020    148.3750   1.0156265329e+02   1.6821749379e+01    0.4463165    0.2856007 -60.38  0.001536243    1.874    0.466
        50 -11.5548     20.2492    141.4422   1.3875137507e+02   4.3979817146e+01    0.2096671    0.1766063  13.53  0.001341365    1.608    0.378
        51 -12.2507      4.8687    140.0751   1.4232852125e+02   4.5500525626e+01    0.3992977    0.3383504 -84.51  0.002065399    1.135    0.119
        52 -11.2953    152.5323    139.0101   1.0430805858e+02   2.3651816187e+01    0.2971656    0.2228487 -87.29    0.0012895    1.778    0.437
        53 -12.7717      3.1386    112.2912   1.3923458849e+02   5.1850805313e+01    0.5531474     0.222082 -65.70  0.002848257    1.820    0.451
        54 -12.1898      9.2504    111.3688   1.3740284702e+02   5.1665513742e+01    0.4423132     0.224492   0.35  0.002227149    3.245    0.692
        55 -13.3254      2.6516    126.3209   1.4123777388e+02   4.8751788738e+01    0.7949259    0.3649247 -64.29  0.004394046    1.594    0.373
        56 -11.8780    160.4981    127.7443   9.9704236389e+01   2.4345812000e+01     0.472016    0.3279527 -61.98  0.001676733    1.656    0.396
        57 -12.7487    113.9781    119.0614   1.0913590159e+02   3.6249998727e+01    0.4737009    0.3413429 -63.49  0.002195889    1.515    0.340
        58  -9.9670    163.3033    236.6275   1.2075630617e+02   1.5232731498e+00    0.1315751   0.09791955  74.02 0.0007031171    1.756    0.431
        59 -10.6876    168.1971    113.1662   9.4253345617e+01   2.5648343427e+01    0.4150505    0.2691192 -81.10  0.001508494    2.665    0.625
        60 -12.8526    117.3236    109.7607   1.0584135827e+02   3.7662086371e+01    0.4369614     0.309469  39.85  0.002043971    1.476    0.323
        61  99.0000     18.6010    236.4369   1.4781973657e+02   2.3420232857e+01    0.1075965   0.08134824  84.55 0.0004173847    1.138    0.122
        62 -10.6892    205.4422    110.1812   8.5952109461e+01   1.7476731604e+01    0.3224899    0.2200188  44.97 0.0009569902    1.581    0.367
        63 -10.9212    219.5690    225.0862   1.0792323118e+02  -6.3946514241e+00      0.34358    0.1166023 -46.52  0.001257158    3.948    0.747
        64 -10.4215    147.4505     80.0780   8.9870909967e+01   3.7026232316e+01    0.2291151    0.1488415 -38.11 0.0006308865    1.563    0.360
        65 -10.3664     93.0862     79.1255   1.0405239581e+02   4.8643160589e+01    0.2075209    0.1960682 -19.54 0.0004542562    1.037    0.035
        66 -10.2167    125.1373    247.3818   1.2965079368e+02   6.2328941682e+00    0.1055431   0.08366354 -45.67 0.0001650787    1.613    0.380
        67  -8.6282     13.0767    244.6645   1.4921589760e+02   2.2441839090e+01    0.2162089    0.1022398 -63.74  0.001304206    2.293    0.564
        68 -13.0480    174.7816     32.0795   7.0773697670e+01   3.7636270462e+01    0.3950113    0.3669508  23.53  0.001067072    1.260    0.206
        69 -10.8805     13.5070     59.6231   1.2552430261e+02   6.2215708438e+01    0.2000137    0.1516364 -41.77 0.0004589824    1.025    0.024
        70 -10.8647    109.9968    222.6218   1.2943846586e+02   1.3475805685e+01    0.2753797    0.1824545 -79.71  0.001449047    1.703    0.413
        71 -11.4363    187.8476     30.8872   6.8534245933e+01   3.4575723401e+01    0.2104467    0.1782053  49.21 0.0006626475    1.277    0.217
        72 -10.4238    130.2578     28.5300   7.7781441371e+01   4.8715302015e+01    0.2501643    0.1269001  63.95  0.001109732    2.019    0.505
        73 -10.6882     15.4408    238.4158   1.4846284322e+02   2.3380099955e+01    0.1131382   0.07511939  74.94  0.000800193    1.084    0.078
