#   1 NUMBER                 Running object number                                     
#   2 MAG_AUTO               Kron-like elliptical aperture magnitude                    [mag]
#   3 X_IMAGE                Object position along x                                    [pixel]
#   4 Y_IMAGE                Object position along y                                    [pixel]
#   5 X_WORLD                Barycenter position along world x axis                     [deg]
#   6 Y_WORLD                Barycenter position along world y axis                     [deg]
#   7 A_WORLD                Profile RMS along major axis (world units)                 [deg]
#   8 B_WORLD                Profile RMS along minor axis (world units)                 [deg]
#   9 THETA_WORLD            Position angle (CCW/world-x)                               [deg]
#  10 FWHM_WORLD             FWHM assuming a gaussian core                              [deg]
#  11 ELONGATION             A_IMAGE/B_IMAGE                                           
#  12 ELLIPTICITY            1 - B_IMAGE/A_IMAGE                                       
         1 -15.7655     70.3814    144.8894   9.6169081166e+01   3.7118290897e+01     4.744696     2.466694  70.92  0.009847202    4.367    0.771
         2 -13.7858    199.4148     44.0889   4.0479370841e+01   2.9910315310e+01    0.8832074    0.7854443 -65.23  0.003038662    1.100    0.091
         3 -14.1045    208.5767     35.4833   3.7473955586e+01   2.9001243377e+01    0.6907533    0.6719651  41.69  0.001315814    1.375    0.273
         4 -14.0084    234.0414      9.2454   2.9836197516e+01   2.6736854235e+01    0.8329421    0.6370296 -70.57  0.004085263    1.027    0.026
         5 -13.8230      3.1244     14.2442   8.7280730117e+01   7.2297805418e+01     2.040808    0.2854729 -46.01  0.007277159    5.180    0.807
         6  -9.8936    167.8323    231.2242   8.6813815776e+01   1.7181521471e+00    0.1793524    0.1407079  -1.03 0.0005237086    1.321    0.243
         7 -15.3220     41.0801    193.3829   1.1100594947e+02   2.8862952704e+01     5.489258     1.966222  63.03   0.01608928    5.372    0.814
         8 -14.8831     19.9442    221.0428   1.1812839031e+02   2.4863080111e+01     0.965631    0.6271213  63.64  0.004113782    1.304    0.233
         9 -13.9802     28.8147    249.2037   1.1819555620e+02   1.8057977617e+01    0.3638583    0.2731504  33.56   0.00130889    1.473    0.321
        10 -18.1319     11.9696    240.3944   1.2090689011e+02   2.1616532638e+01     7.703723     5.382364  35.51   0.02986754    1.520    0.342
        11 -10.7319     58.7258    196.0546   1.0699454867e+02   2.6042611160e+01    0.2133515    0.1883082  41.69 0.0002749546    1.183    0.154
        12  -9.9549     82.8253    194.8437   1.0086658922e+02   2.2930017135e+01    0.2080503    0.1999856  -9.70  0.001137469    1.217    0.179
        13 -16.2463      2.7499    200.1982   1.2041255882e+02   3.1131710291e+01     9.288889          nan -68.87  0.009475425   11.321    0.912
        14 -10.4009    157.9793    192.8298   8.2385253828e+01   1.0668856693e+01     0.236788    0.2038027 -46.97 0.0004827592    1.224    0.183
        15 -11.7160    131.0758    191.3820   8.8405157440e+01   1.5754219294e+01      0.27698    0.2468868  26.47  0.001312539    1.107    0.097
        16 -10.6861     64.9572    179.0300   1.0321698923e+02   2.9326016729e+01     0.241427    0.2013544  44.86  0.000578237    1.193    0.161
        17  -9.9283     59.5788    191.7866   1.0626868858e+02   2.6948565278e+01    0.2046098    0.1295162 -74.04 0.0008868146    1.557    0.358
        18 -13.4426     56.2954    183.5954   1.0607628947e+02   2.9361148517e+01     0.779538    0.6916331 -65.99  0.003051542    1.152    0.132
        19 -11.7087     81.9237    183.1165   9.9383843936e+01   2.5868507267e+01    0.6249602    0.4109088  72.72  0.002259137    1.865    0.464
        20 -14.8535     54.8123    232.9459   1.1169101291e+02   1.8270658200e+01    0.7968404    0.6569067  54.54  0.002268768    1.073    0.068
        21 -10.7806    145.4304    184.2466   8.3677354900e+01   1.4740152272e+01    0.2587864    0.1776528  57.97 0.0007153782    1.762    0.432
        22 -11.3656     55.1241    221.7504   1.1058414844e+02   2.0635497817e+01    0.2424943    0.2013735  70.73 0.0006479587    1.047    0.045
        23 -11.2730     99.4377    180.9851   9.4507982324e+01   2.3596976683e+01    0.2710077    0.2558212  18.96  0.000632314    1.144    0.126
        24 -11.9218     42.6786    177.5378   1.0884572998e+02   3.2518622358e+01    0.6361294    0.3729667  16.52  0.002541598    2.292    0.564
        25 -14.6366     82.1371    157.7161   9.5122805361e+01   3.2107395856e+01     2.124797     1.086879  65.61   0.00685638    3.701    0.730
        26 -13.6046     70.7882    152.2932   9.7392628282e+01   3.5190752561e+01    0.5200294    0.4725418 -55.92  0.001176308    1.089    0.082
        27 -12.5350     83.4482    244.7969   1.0674115627e+02   1.2006696321e+01    0.3426379    0.2785448  33.35    0.0018395    1.234    0.190
        28 -12.2409     69.6263    170.1848   1.0067069248e+02   3.0864027670e+01    0.4722925    0.2884596 -40.15  0.002014348    1.993    0.498
        29 -12.6916     73.9804    165.6626   9.8762198112e+01   3.1361321252e+01    0.7731138    0.5155039  68.73  0.001118841    1.798    0.444
        30 -10.5989     90.6881    175.5761   9.5888878797e+01   2.6330836700e+01    0.2463823    0.1765109  89.99 0.0007839187    1.679    0.404
        31 -10.0459    185.6851    171.6665   7.2199450420e+01   9.9388802573e+00    0.1498159    0.1094614  -6.38 0.0007046483    1.687    0.407
        32 -15.4842     10.4095    206.6268   1.1917474519e+02   2.8993010710e+01    0.9572755    0.6729589  15.27   0.00404244    1.953    0.488
        33 -10.8100    191.8628    168.7100   7.0324221364e+01   9.3916242091e+00    0.3141281    0.2192138 -85.30  0.001280886    2.938    0.660
        34 -10.3264    110.8718    168.0415   8.9215011020e+01   2.4731753160e+01     0.237691    0.2023043  79.11 0.0005594497    1.303    0.233
        35 -10.9712     88.2537    210.3828   1.0165909442e+02   1.8543255044e+01    0.4350867    0.2411022 -77.10  0.001918625    2.277    0.561
        36 -10.7229    186.7873    166.3783   7.0881486322e+01   1.0784519811e+01    0.2023721    0.1341462  29.88 0.0009480874    1.640    0.390
        37 -12.4548    191.6405    192.2995   7.5041522942e+01   4.9220624043e+00     1.195397    0.5935345 -62.82  0.003296294    6.593    0.848
        38 -12.2049     89.3123    151.0396   9.1836901477e+01   3.2614477937e+01    0.6661279    0.4611736 -20.05  0.002455476    2.086    0.521
        39 -12.6319     54.9607    147.6708   1.0123126480e+02   3.8527379273e+01    0.7355704    0.5538083 -65.94  0.003878257    1.232    0.189
        40 -11.5231    133.8568    145.5432   7.8555274594e+01   2.5684262185e+01     1.130228    0.3011058 -54.40  0.002699715    5.368    0.814
        41  -9.6821    112.0635    150.4984   8.5388333259e+01   2.8734986273e+01    0.2277436    0.1508852  40.06 0.0004380014    1.508    0.337
        42 -10.1954    174.5248    149.0092   6.9750042735e+01   1.6689591606e+01    0.2313051    0.1434398 -45.33 0.0006028372    1.569    0.363
        43 -11.1648     38.8337    146.2048   1.0576806721e+02   4.0799755954e+01    0.3164657    0.2652508  87.34 0.0009986324    1.166    0.142
        44 -11.7787    104.8861    133.3840   8.3629353678e+01   3.4195482414e+01     1.070541    0.4668572 -36.60  0.003344841    3.291    0.696
        45 -12.2818     90.3974    136.9050   8.8624014823e+01   3.5933376450e+01    0.2896388    0.2627079 -39.83 0.0004212583    1.119    0.106
        46 -12.5157     44.0139    130.0018   1.0156719232e+02   4.4312242131e+01    0.4872807    0.2654147 -80.94  0.002033419    2.294    0.564
        47 -12.3402     40.5343    128.4624   1.0240589129e+02   4.5085193193e+01    0.5155206    0.2190114 -65.47  0.001961034    2.177    0.541
        48 -10.9578    134.9635    128.6954   7.4346639889e+01   2.9295495961e+01    0.3504547    0.3152235 -75.22  0.001785297    1.201    0.167
        49 -11.0847     99.1135    124.5517   8.3243428585e+01   3.7379224039e+01    0.2992213     0.247078 -10.42 0.0006366466    1.447    0.309
        50 -10.7520    117.2288    123.5887   7.7822100773e+01   3.4104656982e+01    0.2208012    0.1494008  29.09  0.000607975    1.674    0.403
        51 -10.4726    111.9392    128.7105   8.0537578889e+01   3.3960225097e+01     0.312002    0.2391757  11.33 0.0008733864    1.655    0.396
        52  -9.9944    107.9798    118.0423   7.9057593390e+01   3.7219081030e+01    0.2221932    0.2167363   7.96  0.001189991    1.043    0.041
        53 -10.5248    231.2401    113.8383   5.1713220860e+01   1.2234031134e+01    0.2210083    0.2120404 -47.70 0.0006966712    1.112    0.101
        54  -9.9166    205.5259    110.1114   5.4928851021e+01   1.7954504171e+01    0.2059981    0.1889257  67.28 0.0007229224    1.168    0.144
        55 -11.3472     45.1036    117.9065   9.8955566598e+01   4.7196537024e+01    0.2094925    0.1845002  84.74 0.0003274281    1.240    0.193
        56 -12.2514     45.3957    105.7641   9.6325854444e+01   5.0111825478e+01    0.3211297    0.2405878  29.06 0.0009308179    1.443    0.307
        57  -9.8465     65.3362    103.6677   8.8896551013e+01   4.7972331280e+01    0.1466877      0.11372  74.58 0.0007052132    1.737    0.424
        58 -11.0719     29.6596     98.8665   1.0049489502e+02   5.3405204010e+01     0.227888    0.1781594  -7.10  0.001312545    1.416    0.294
        59  -9.2457    158.6911     83.6946   5.7142279922e+01   3.3180202220e+01    0.1455798    0.1177972  16.77 0.0004169403    1.610    0.379
        60  -9.7039    150.9650     82.9779   5.8586616332e+01   3.5108256892e+01    0.2228231    0.1736307 -79.85            0    1.535    0.348
        61 -12.5282    113.0826    196.2733   9.3599227562e+01   1.7762298517e+01    0.4297172    0.3064432   5.52  0.001985769    1.972    0.493
        62 -11.1363     13.5060     59.9946   9.7798610124e+01   6.3331947868e+01    0.2110108    0.1713187  -0.57 0.0003844306    1.251    0.200
        63 -13.1202    187.7746     52.9640   4.4139963330e+01   3.1329962862e+01    0.6000381    0.4545267  40.15 0.0007905125    1.656    0.396
        64 -11.3044     85.9805    240.9846   1.0580195995e+02   1.2402191813e+01    0.1811108    0.1545534  53.55 0.0003212141    1.010    0.010
        65  -9.8861     67.5026    197.9611   1.0507271242e+02   2.4408027715e+01    0.2019757    0.1307346 -73.10  0.001012781    1.556    0.358
        66  -9.4465    198.2895     23.3457   3.5825245300e+01   3.2759704329e+01    0.1157978   0.09413698  40.20 0.0003204712    1.657    0.396
        67 -10.0585     66.0763    241.8348   1.1011483651e+02   1.4972019008e+01    0.1820463    0.1365824  60.93 0.0002817847    1.156    0.135
