#   1 NUMBER                 Running object number                                     
#   2 MAG_AUTO               Kron-like elliptical aperture magnitude                    [mag]
#   3 X_IMAGE                Object position along x                                    [pixel]
#   4 Y_IMAGE                Object position along y                                    [pixel]
#   5 X_WORLD                Barycenter position along world x axis                     [deg]
#   6 Y_WORLD                Barycenter position along world y axis                     [deg]
#   7 A_WORLD                Profile RMS along major axis (world units)                 [deg]
#   8 B_WORLD                Profile RMS along minor axis (world units)                 [deg]
#   9 THETA_WORLD            Position angle (CCW/world-x)                               [deg]
#  10 FWHM_WORLD             FWHM assuming a gaussian core                              [deg]
#  11 ELONGATION             A_IMAGE/B_IMAGE                                           
#  12 ELLIPTICITY            1 - B_IMAGE/A_IMAGE                                       
         1 -13.3030      2.4315     14.3698   1.1917834412e+02   7.2040608522e+01     2.911892    0.3003876 -51.39  0.009557806    5.643    0.823
         2 -13.6594    207.6810     12.3320   6.1568327320e+01   3.1537811688e+01     1.448395     1.042627  34.15  0.007850206    1.804    0.446
         3 -13.0945    193.6668     29.7561   6.7864655398e+01   3.3031142795e+01     1.174285     1.006989  38.09  0.006183678    1.322    0.243
         4 -13.3122      3.0590    245.0380   1.5002243413e+02   2.4103114934e+01     1.661149    0.7929241 -79.09   0.01153099    1.883    0.469
         5 -12.0069    139.7829    248.5957   1.2682939577e+02   5.8051875403e+00    0.5108552    0.3210925  47.82  0.003179985    1.299    0.230
         6 -11.9296    125.5474    249.2618   1.2947726589e+02   7.8827682401e+00    0.5873243     0.235422  35.59  0.002775559    2.428    0.588
         7  -9.6913     66.9371    250.1197   1.3989554007e+02   1.6034021739e+01    0.1675774    0.1216538  60.81 0.0003910319    1.025    0.024
         8 -13.3784     33.5041    247.3808   1.4530378808e+02   2.0536758853e+01     1.754611    0.6230258  41.88   0.00995025    2.267    0.559
         9 -13.8072      8.9130    207.3296   1.4727779782e+02   3.0494494578e+01     1.845144    0.7723707 -85.38  0.008225866    2.033    0.508
        10 -15.2383      8.5573    150.8147   1.4343549970e+02   4.2469136478e+01     6.079968     1.759481 -81.77   0.02365579    3.464    0.711
        11 -11.4853    100.5037    245.4881   1.3360313624e+02   1.2205116631e+01    0.2354425    0.1894294  58.32  0.001692238    1.037    0.036
        12 -11.2763     63.8283    196.6657   1.3576715258e+02   2.6526905968e+01    0.3224944    0.2473942 -42.78  0.001572322    1.836    0.455
        13 -11.5332    141.7471    230.4489   1.2421627991e+02   8.3273685403e+00    0.4913521    0.2075962  30.54  0.001992026    3.108    0.678
        14  -9.5470    193.5127    195.9969   1.0873674152e+02   5.0375009030e+00    0.1749534    0.1185737 -66.11 0.0008103214    2.593    0.614
        15 -11.6269     98.8652    249.1334   1.3424369191e+02   1.1843053511e+01    0.4833999     0.150186  38.82  0.002140765    2.821    0.646
        16  -8.6243     76.3117    235.6467   1.3707238372e+02   1.7299929222e+01     0.124414   0.06957229  66.97 0.0007044776    1.728    0.421
        17  -9.9428    126.8316    225.5276   1.2645039504e+02   1.1562240693e+01    0.2279526    0.1798388 -77.85  0.001264959    1.477    0.323
        18 -11.4846     69.3722    188.9159   1.3374595422e+02   2.7420134063e+01    0.2669632    0.2291951 -68.05  0.000489142    1.264    0.209
        19 -14.5469     53.2798    211.2737   1.3926580364e+02   2.4900453982e+01     7.520677          nan  45.84   0.02072512    7.291    0.863
        20 -10.6572     79.0540    176.4987   1.3005106142e+02   2.8755128836e+01    0.2335275    0.2174887  81.70 0.0003992587    1.125    0.111
        21 -12.8925     66.0741    174.2797   1.3271332764e+02   3.1059068505e+01     0.485255    0.2822159 -45.69     0.001698    2.215    0.549
        22 -11.5821     86.4143    167.3710   1.2703735890e+02   2.9691468603e+01    0.6176547    0.5342168  62.34  0.003722018    1.097    0.088
        23 -12.3303     37.5975    230.3735   1.4358495256e+02   2.3107174211e+01    0.2781475    0.2354347  85.22 0.0007531326    1.270    0.213
        24  -9.7045     98.8304    151.3360   1.2135053675e+02   3.1347504080e+01    0.2695692    0.2510352  33.02 0.0007978528    1.205    0.170
        25 -11.6996     87.4977    150.6495   1.2406186313e+02   3.3340417220e+01    0.2804157    0.2506106 -47.76 0.0004999316    1.232    0.188
        26 -12.2346     67.4432    143.8530   1.2803287604e+02   3.7861867032e+01    0.7668484    0.4980013  69.70  0.002709615    1.778    0.438
        27 -11.4637     58.3547    133.9096   1.2880089246e+02   4.1397704764e+01    0.7968099    0.2971528 -73.31  0.002676409    3.692    0.729
        28  -8.9209    134.0000    146.4881   1.1177090132e+02   2.5992033510e+01    0.3317721   0.08417363 -48.85 0.0009399005    3.976    0.749
        29  -8.9199    101.8802    147.1467   1.1980626673e+02   3.1790671029e+01    0.2200246    0.1736799 -23.00  0.001105705    1.701    0.412
        30  -8.6155    152.7078    212.9790   1.1961866663e+02   9.4139238020e+00     0.166037    0.1551339  43.37 0.0003514081    1.076    0.071
        31 -13.7211     43.9754    221.6429   1.4183999064e+02   2.4005967583e+01     1.018176    0.6194353  65.15  0.004476835    1.343    0.255
        32  -9.3535    110.2204    136.7647   1.1559619001e+02   3.2693644679e+01    0.2871732    0.2096988 -16.04  0.001290799    2.070    0.517
        33 -10.2068     97.5095    133.9124   1.1830793789e+02   3.5593654408e+01    0.2652052    0.2368457 -21.83 0.0004528163    1.328    0.247
        34 -10.4932     50.2890    129.7612   1.3030988518e+02   4.3354551353e+01      0.25576    0.2073163  74.76 0.0006997765    1.255    0.203
        35  -9.0174    107.0654    123.6241   1.1352101013e+02   3.6277404143e+01    0.1943005    0.1806285  42.87 0.0003830308    1.127    0.113
        36 -10.0471    168.0568    113.0826   9.5893621355e+01   2.5691573450e+01    0.3474361    0.2854246 -82.37 0.0008334839    1.509    0.337
        37  -8.9818    203.4981    111.5071   8.8366090485e+01   1.7885880454e+01    0.1492901    0.1418582 -19.82 0.0008105274    1.025    0.024
        38 -10.1659    248.8507    248.7270   1.0781086010e+02  -1.0497216558e+01    0.1906154    0.1095249  19.82   0.00122112    1.466    0.318
        39 -11.0855     82.3492    249.0736   1.3714924060e+02   1.4163281760e+01    0.2638859    0.1766965  38.06  0.001157035    1.507    0.336
