#   1 NUMBER                 Running object number                                     
#   2 MAG_AUTO               Kron-like elliptical aperture magnitude                    [mag]
#   3 X_IMAGE                Object position along x                                    [pixel]
#   4 Y_IMAGE                Object position along y                                    [pixel]
#   5 X_WORLD                Barycenter position along world x axis                     [deg]
#   6 Y_WORLD                Barycenter position along world y axis                     [deg]
#   7 A_WORLD                Profile RMS along major axis (world units)                 [deg]
#   8 B_WORLD                Profile RMS along minor axis (world units)                 [deg]
#   9 THETA_WORLD            Position angle (CCW/world-x)                               [deg]
#  10 FWHM_WORLD             FWHM assuming a gaussian core                              [deg]
#  11 ELONGATION             A_IMAGE/B_IMAGE                                           
#  12 ELLIPTICITY            1 - B_IMAGE/A_IMAGE                                       
         1 -14.2604    167.2839     49.8611   7.1207401696e+01   3.6940148418e+01     1.687781      1.27034  18.40  0.004715542    1.586    0.370
         2 -14.5625    181.2562     35.3669   6.4172443726e+01   3.5331723626e+01     1.154372     1.031432  12.22  0.003920633    1.216    0.178
         3 -13.6311    185.6415     28.6169   6.1413711105e+01   3.5030134980e+01    0.6079888    0.5670877 -53.88  0.001126338    1.080    0.074
         4 -13.0581    189.7711     14.7552   5.6634020616e+01   3.5516876287e+01    0.4196611    0.3587349 -14.98  0.001403661    1.274    0.215
         5 -14.3005    201.6442      4.7733   5.2360435420e+01   3.3457763787e+01     1.174829    0.6676671  62.99  0.005069171    1.641    0.391
         6 -11.5369     77.9433     10.2704   7.8015376599e+01   6.2730729538e+01    0.4354764    0.2143104  59.17  0.001869893    2.801    0.643
         7 -11.0839     68.2947      8.0201   8.0199261658e+01   6.4754717901e+01    0.3018493    0.1792415  56.31  0.001203758    2.219    0.549
         8 -12.6810     59.7604      6.4606   8.2545255843e+01   6.6392301256e+01    0.5759486    0.3348856  55.61  0.002133003    2.475    0.596
         9 -10.1272    114.2935      3.6696   6.5243838131e+01   5.5700509788e+01      0.13155    0.1028006 -56.83 0.0002793917    1.631    0.387
        10 -11.2221     57.8918    201.3441   1.2859777007e+02   2.7042453470e+01    0.1851338    0.1498221 -81.02 0.0003211518    1.263    0.208
        11 -18.5010     53.1600    241.5566   1.3237689316e+02   2.0592968866e+01     6.735111     5.512871  79.67   0.05243651    1.255    0.203
        12 -10.6649    153.5790    186.7326   1.0779702864e+02   1.4936923760e+01    0.1691622    0.1278144 -64.06 0.0009487288    1.607    0.378
        13 -11.9444    154.9240    196.6111   1.0910494720e+02   1.3024675584e+01     0.411865    0.2613942  75.11  0.001908485    2.686    0.628
        14 -12.7999    140.4208    199.8120   1.1241244724e+02   1.5005482603e+01    0.3494482    0.2649971  41.82  0.001812936    1.171    0.146
        15 -12.2583    193.0373    193.1905   1.0126495773e+02   6.7264554248e+00    0.7998422    0.4359111 -53.40  0.003717122    2.767    0.639
        16 -12.4634    144.5838    173.5080   1.0741399554e+02   1.8952846138e+01    0.4920586    0.3225804 -79.94   0.00216786    2.419    0.587
        17 -10.4736    209.7407    176.6810   9.5144089358e+01   6.1028732105e+00    0.2744266    0.1489437  29.57  0.001274977    1.943    0.485
        18 -11.6175     78.6376    174.3126   1.2162253926e+02   2.9647158428e+01    0.2738676    0.1686094  68.85  0.001080302    1.684    0.406
        19  -9.8552    202.7880    171.3890   9.5402552819e+01   8.2112608249e+00    0.1899359    0.1151378  34.97 0.0003450525    1.553    0.356
        20 -12.2551    194.8320    167.9430   9.6232450868e+01   1.0287017119e+01    0.6275117    0.4175273 -59.34  0.001912275    2.243    0.554
        21 -10.7834    156.3876    201.2650   1.0953454431e+02   1.2006543945e+01     0.292625     0.219875 -78.17  0.001181647    1.848    0.459
        22 -10.9866    229.6229    165.8198   8.9431599545e+01   3.9804796272e+00    0.1814719    0.1177268 -39.88 0.0007045959    1.717    0.418
        23  -9.4918    222.5275    162.0157   8.9899205256e+01   5.8578829862e+00    0.1752272    0.1140975 -55.60 0.0008081524    2.414    0.586
        24 -10.6351      4.6794    161.8149   1.3594511300e+02   4.0338277750e+01    0.1478143    0.1324432  68.83 0.0007711899    1.321    0.243
        25 -10.5177    113.2573    160.5289   1.1199975010e+02   2.7103030482e+01    0.2243175    0.1824519  62.60 0.0006883012    1.171    0.146
        26  -9.8608     19.9892    200.5550   1.3545791078e+02   3.1373127311e+01    0.1148409   0.09309117 -10.38 0.0008057819    2.492    0.599
        27 -11.2696    166.3704    154.6140   9.9264716113e+01   1.8245045521e+01    0.4754355    0.2915809  74.81  0.001763446    3.314    0.698
        28 -11.2024    208.4385    196.9276   9.9104071161e+01   3.4583827224e+00    0.2148459    0.1585844  44.27 0.0006238367    1.313    0.238
        29 -12.3597    133.9548    145.8966   1.0460741913e+02   2.6356184916e+01     1.265899    0.3106248 -54.43  0.003154648    6.202    0.839
        30 -11.1554    151.8542    151.4105   1.0171934357e+02   2.1757753354e+01    0.2944418    0.2209862 -83.85  0.001022013    1.833    0.455
        31 -10.5202    174.6890    149.0628   9.6371429423e+01   1.7562100186e+01    0.2514308    0.1956419  55.51 0.0006787823    1.341    0.254
        32 -12.0540    144.5250    145.9741   1.0223050180e+02   2.4279437157e+01    0.4270965     0.291652 -86.61  0.001845875    2.348    0.574
        33 -12.5617     99.9520    139.2366   1.1137282372e+02   3.3881583445e+01    0.2818294    0.2672725  52.56 0.0004322739    1.128    0.114
        34 -11.8812    105.9032    130.8359   1.0827858451e+02   3.4712368444e+01    0.4143506    0.3071798 -66.59  0.001218262    1.372    0.271
        35 -11.3019    105.2910    125.9579   1.0742901219e+02   3.5890852807e+01     0.282539    0.2317105 -27.53 0.0007169678    1.487    0.328
        36 -11.9416    135.5761    126.6420   1.0011249319e+02   3.0015956498e+01    0.7538363    0.1643139 -49.13  0.001957629    5.007    0.800
        37 -11.3520    117.0197    129.9445   1.0533798348e+02   3.2910535243e+01    0.3042227    0.2653422 -17.93 0.0006863291    1.396    0.284
        38 -11.2196    160.7905    128.1566   9.4670671848e+01   2.4432065887e+01     0.420474    0.3156513 -76.80  0.001943125    1.841    0.457
        39 -10.8362    120.9915    124.0285   1.0306752319e+02   3.3437040707e+01    0.2312283    0.1833427 -10.08  0.001132968    1.729    0.422
        40 -10.5376    111.9232    119.1218   1.0424980752e+02   3.6200169112e+01    0.2359903    0.2027099 -55.76 0.0003890196    1.131    0.116
        41 -11.0742    167.9284    112.8552   8.9355013938e+01   2.5801618321e+01    0.4057579    0.3082748 -81.77  0.001487391    1.859    0.462
        42 -10.6775    205.3396    110.2635   8.1185373855e+01   1.7714056781e+01    0.3600334    0.2188327  37.35  0.001088384    1.771    0.435
        43 -10.8212    114.5683    110.2317   1.0148420552e+02   3.7637806518e+01    0.2807725    0.1729757  53.23  0.001253783    1.772    0.436
        44 -10.8221    134.6234    105.0540   9.5072304743e+01   3.4697561981e+01    0.3506312    0.1422332 -44.20  0.001245659    2.436    0.589
        45 -10.6113    166.2412    187.9163   1.0548363829e+02   1.2431619452e+01    0.2704206    0.1805696 -35.20  0.001452878    1.764    0.433
        46 -10.2406     65.9592     98.9240   1.1240693309e+02   4.8063194220e+01    0.2161578    0.1863852 -62.28 0.0008625466    1.026    0.026
        47  -9.7161    151.0030     80.0158   8.4081492307e+01   3.5933444243e+01    0.1863816    0.1805173 -23.11 0.0004838262    1.019    0.019
        48 -11.2648    176.1642     74.4612   7.7025421289e+01   3.0790866789e+01    0.3252727     0.271798 -87.04 0.0008600472    1.423    0.297
        49  -9.1220    168.2603    248.2863   1.1374839500e+02   3.3500940774e+00     0.102962   0.07451985  22.27            0    1.486    0.327
        50 -19.1286     32.4369    103.5736   1.2310104948e+02   5.0733808621e+01      15.9949    0.8157573 -66.12   0.02685415   16.069    0.938
        51 -11.1272    169.0600    236.1415   1.1209622311e+02   4.7789647588e+00    0.1690092     0.166704 -75.75  0.000367538    1.310    0.237
        52 -10.6504     13.6262     59.8986   1.2110457130e+02   6.1860930823e+01    0.1736859    0.1686926  77.00 0.0004550423    1.284    0.221
        53 -12.3059    201.7660     23.4830   5.7701407311e+01   3.1459118347e+01    0.3054973    0.2411997  12.64  0.001596203    1.536    0.349
        54 -10.0658    220.5079    229.0390   1.0227540991e+02  -2.5267063137e+00    0.2309979    0.1065039 -42.14  0.001168693    2.968    0.663
        55 -10.0144    198.9526    222.6638   1.0498499374e+02   1.6774736292e+00    0.1697002    0.1234394  36.34 0.0003480605    1.113    0.101
        56 -11.4216     97.1919    213.2014   1.2237295873e+02   1.9558109556e+01    0.2858238    0.1994534  42.16  0.001840861    1.353    0.261
        57 -13.1207     10.6763    206.2620   1.3737850838e+02   3.1207608309e+01    0.4166119    0.2251968  37.82  0.002885841    1.948    0.487
        58 -10.5122    163.2207    203.5719   1.0858068396e+02   1.0447520910e+01    0.1954881    0.1773036 -41.93 0.0002820965    1.299    0.230
