#   1 NUMBER                 Running object number                                     
#   2 MAG_AUTO               Kron-like elliptical aperture magnitude                    [mag]
#   3 X_IMAGE                Object position along x                                    [pixel]
#   4 Y_IMAGE                Object position along y                                    [pixel]
#   5 X_WORLD                Barycenter position along world x axis                     [deg]
#   6 Y_WORLD                Barycenter position along world y axis                     [deg]
#   7 A_WORLD                Profile RMS along major axis (world units)                 [deg]
#   8 B_WORLD                Profile RMS along minor axis (world units)                 [deg]
#   9 THETA_WORLD            Position angle (CCW/world-x)                               [deg]
#  10 FWHM_WORLD             FWHM assuming a gaussian core                              [deg]
#  11 ELONGATION             A_IMAGE/B_IMAGE                                           
#  12 ELLIPTICITY            1 - B_IMAGE/A_IMAGE                                       
         1 -14.0208    190.6554     34.0139   5.8230288416e+01   3.3284550122e+01     1.113713     1.003149 -40.64  0.003089422    1.112    0.101
         2 -14.9208    199.2693     22.9863   5.3948257342e+01   3.2423723164e+01     2.194965     1.516469  16.78  0.001710627    1.989    0.497
         3  -9.3393     80.4571      5.4274   7.0388734077e+01   6.2851171808e+01    0.1288963    0.1101895  18.02 0.0001095874    1.026    0.025
         4 -11.1706     32.8122     29.7776   1.0055953069e+02   6.6815498861e+01    0.2830751   0.06322994 -43.36  0.001017413    3.538    0.717
         5 -10.2498     61.5244      1.4860   7.4764030316e+01   6.6811549135e+01    0.1264472    0.1015168  10.32 -3.830266e-05    1.016    0.015
         6 -11.1041    177.6493    237.0453   1.0717842983e+02   2.4576181056e+00    0.2038071    0.1794867 -89.77 0.0008949521    1.659    0.397
         7 -16.0321    115.6472    236.7461   1.1854510783e+02   1.2070472420e+01     7.623284     2.400022  38.68   0.03327008    2.718    0.632
         8 -10.1209    164.4548    205.9880   1.0506782538e+02   9.2568957092e+00    0.1926315    0.1559615  35.68 0.0004017342    1.070    0.065
         9  -9.5015    211.4411    202.9305   9.5579973608e+01   1.6946463007e+00    0.1715127    0.1202115 -32.17 0.0007142996    1.533    0.348
        10  -9.8650     95.0249    200.0159   1.1839499393e+02   2.1685283477e+01    0.2003949    0.1304086  69.11 0.0004977759    1.629    0.386
        11 -10.9725    204.2894    198.9978   9.6202690766e+01   3.4671676725e+00    0.1809562    0.1575323   6.14 0.0006621704    1.074    0.069
        12 -12.2813    193.4782    193.9989   9.7356185575e+01   6.1015871026e+00    0.7110528    0.4611688 -54.72  0.003608806    2.202    0.546
        13 -11.1677    101.5503    197.0841   1.1666938157e+02   2.1275183177e+01    0.3075444    0.2051905 -39.33  0.001650232    2.077    0.519
        14 -11.7680    112.8441    196.2285   1.1418210859e+02   1.9674501161e+01    0.3840625    0.2660443  -7.25  0.001781991    2.953    0.661
        15 -10.3827     64.4677    250.2509   1.2877129738e+02   1.6831777603e+01    0.1862797    0.1152001  44.68 0.0007171847    1.355    0.262
        16  -9.7047     36.0766    234.0660   1.3253050401e+02   2.2877039267e+01    0.1583917    0.1082346  64.86 0.0004433101    1.081    0.075
        17  -9.5903    180.1346    192.2299   9.9647590158e+01   8.7588343338e+00    0.1751228    0.1525076  58.85 0.0004861456    1.341    0.254
        18 -10.2719     95.9350    188.3988   1.1673471122e+02   2.3863654627e+01    0.3308126     0.183686  63.92   0.00150709    2.123    0.529
        19 -10.8070     84.7012    234.0132   1.2395082898e+02   1.6921623945e+01    0.2417572     0.200291  53.48 0.0005043823    1.134    0.118
        20 -19.3459      7.7387    135.1059   1.3111610643e+02   4.5735266445e+01     17.56935      1.86006 -75.48   0.03962823   10.065    0.901
        21 -10.8533    210.9485    179.1830   9.1243427975e+01   5.2793919801e+00    0.3509251    0.2588271  16.44  0.001838178    1.331    0.249
        22 -11.1431     99.5008    180.7451   1.1490355939e+02   2.4889184920e+01    0.2450518    0.2145897  54.17 0.0006306506    1.079    0.073
        23 -12.0242     77.1454    178.9891   1.1964349546e+02   2.8557905667e+01    0.3631468    0.2376997 -44.80  0.001955326    1.947    0.486
        24 -12.1349     80.9639    173.6463   1.1809265540e+02   2.9165706152e+01     0.345351     0.252117 -44.68 0.0008648048    1.672    0.402
        25 -11.2495    144.2345    179.3276   1.0481682820e+02   1.7573392974e+01     0.274078    0.1993986 -63.23  0.001437737    1.624    0.384
        26 -11.3581    206.0603    181.2727   9.2570912633e+01   5.8369548664e+00    0.3175387    0.2689856  60.63  0.001852341    1.547    0.354
        27 -13.8347    246.4686    169.5000   8.3012033607e+01   4.9148546413e-01       1.2376    0.6361029 -28.19  0.004832975    1.825    0.452
        28 -12.9191    249.6181    152.2909   7.8913934786e+01   2.3890074437e+00    0.9886304    0.4002146 -27.98  0.004008565    2.418    0.587
        29 -11.0256    195.7869    170.1972   9.2361997943e+01   9.5290671944e+00    0.3293834    0.2869446 -22.07  0.001292929    1.157    0.136
        30 -10.5874    193.3299    164.6473   9.1713584994e+01   1.0940607278e+01     0.367959    0.3149895 -79.29  0.002003705    1.652    0.395
        31 -11.9612    138.2856    171.7163   1.0477530179e+02   2.0142748276e+01    0.5041798    0.3947093  77.23  0.002666475    1.559    0.359
        32 -11.4825     44.3507    171.8182   1.2611975178e+02   3.4211017680e+01    0.4534239    0.1869542  43.26  0.001669515    2.245    0.555
        33 -10.7734    145.9279    168.2384   1.0243945792e+02   1.9417626902e+01    0.2352391    0.2064995 -48.47 0.0005515575    1.210    0.174
        34 -10.8828    163.8121    215.0656   1.0659403646e+02   7.9102963369e+00    0.2417187    0.1917471 -44.84  0.001090768    1.487    0.328
        35 -13.6948     56.0460    204.0584   1.2671186692e+02   2.6155914985e+01      1.90878     1.786737 -12.64   0.01401991    1.617    0.381
        36 -11.6849     72.1938    211.5945   1.2423793811e+02   2.2648375458e+01    0.3208877    0.2040473  58.91 0.0004649397    1.354    0.261
        37 -12.4387     94.3668    156.9097   1.1244126536e+02   3.0831746534e+01    0.5867076    0.4001272 -32.99   0.00286728    2.033    0.508
        38 -10.5694    141.4014    158.3683   1.0156134727e+02   2.2255156677e+01    0.2582891    0.2272329  77.62 0.0008934484    1.259    0.206
        39 -11.3911    133.7980    144.6169   1.0054069629e+02   2.6585938981e+01     1.041553    0.2694457 -53.95  0.002650571    5.456    0.817
        40  -9.6420    113.3815    151.3458   1.0682642900e+02   2.8897605002e+01    0.1924315    0.1330568 -66.28 0.0006765397    1.563    0.360
        41 -10.5023    174.9005    149.1117   9.2196594228e+01   1.7418079685e+01     0.220106    0.2055675  81.94  0.000663853    1.253    0.202
        42 -11.3602    106.5475    141.1752   1.0656653282e+02   3.2348410000e+01    0.5376443    0.3231963 -31.47  0.002241947    2.428    0.588
        43 -12.4401     94.3317    141.7060   1.0978636942e+02   3.4266899358e+01    0.2755277    0.2497312 -37.72 0.0005013772    1.233    0.189
        44 -10.6103     76.3461    206.9255   1.2296110552e+02   2.2988968368e+01    0.3101784    0.1785411 -59.16   0.00136753    1.894    0.472
        45 -10.8445    114.4226    131.2571   1.0249261970e+02   3.3169585050e+01    0.3134494    0.2796115  -9.83 0.0009806603    1.312    0.238
        46 -10.7420    106.1609    130.7912   1.0454055169e+02   3.4760928512e+01    0.3426771    0.2936977  87.43  0.001148644    1.264    0.209
        47 -11.0531    101.6371    127.5981   1.0505589660e+02   3.6274735903e+01    0.2715655     0.237631 -32.72 0.0006577273    1.251    0.201
        48 -11.0337    135.2471    121.8869   9.5031367309e+01   3.1163567613e+01    0.5709298    0.1343952 -50.63  0.001368446    5.454    0.817
        49 -11.5007    118.7543    126.8174   1.0038501600e+02   3.3349863651e+01    0.5291535    0.2607126 -44.31  0.002113133    2.058    0.514
        50  -9.9247    125.9336    127.7670   9.8766387578e+01   3.1758176216e+01    0.2469763    0.1719332  71.92 0.0007814011    1.985    0.496
        51 -10.1161    109.7570    119.9530   1.0117263018e+02   3.6563858126e+01    0.2288178    0.2076638  42.82 0.0003938029    1.138    0.121
        52 -10.0675    167.6975    112.4844   8.4994750410e+01   2.6043947346e+01    0.3053677    0.2276223 -67.84 0.0009438507    1.766    0.434
        53 -10.6339     33.1938    205.8942   1.3125436231e+02   2.8396055207e+01    0.2038135    0.1676041 -60.42  0.001510313    1.566    0.361
        54  -9.8299    103.0528    110.6282   1.0078330242e+02   3.9882434962e+01    0.2021778    0.1792151  46.98 0.0007221629    1.179    0.152
        55 -10.0750    205.6728    110.1212   7.6715081291e+01   1.7889508244e+01    0.2724899    0.2122599  38.52 0.0006299626    1.330    0.248
        56 -10.2198    134.6688    103.8940   9.0554717131e+01   3.5096474133e+01    0.4920318    0.1350099 -47.10  0.001370909    3.842    0.740
        57 -11.3920    120.4528    110.1133   9.5901956010e+01   3.6703328917e+01     0.460865    0.2779178 -57.90    0.0019415    1.862    0.463
        58 -12.8868    105.1064    206.2278   1.1708368958e+02   1.8978389165e+01    0.5343763    0.4347997 -17.60  0.003235441    1.868    0.465
        59  -9.5019    115.5204     94.4972   9.3051245880e+01   4.1055468211e+01    0.1510518     0.143696 -23.61 -4.102541e-05    1.037    0.036
        60 -10.0087     28.9069    210.0540   1.3232675825e+02   2.8042978930e+01    0.2827018   0.07394312  46.43  0.001347763    2.826    0.646
        61  -9.1087     67.6898     71.2896   1.0111151540e+02   5.4333345551e+01    0.1286685    0.1086171  87.79 0.0002936773    1.581    0.368
        62  -9.8689     61.8978     71.3571   1.0315331435e+02   5.5126399503e+01    0.1832774      0.16609 -14.52 0.0006286451    1.125    0.111
        63 -10.7615    164.4456     65.1501   7.2196910824e+01   3.5434690366e+01    0.2878941    0.2511944 -88.98 0.0005751936    1.300    0.231
        64 -13.7687    180.4841     42.4555   6.2284211963e+01   3.4774538089e+01      1.11677    0.8212935 -14.48  0.001029322    1.535    0.348
        65 -11.0756     55.7972    246.3456   1.2996383250e+02   1.8523634268e+01    0.2759541    0.1401652  85.16  0.001686341    2.125    0.529
        66 -10.0900     50.2032    243.0655   1.3069253877e+02   1.9732220318e+01    0.3027766    0.2261048  21.77  0.001764788    2.093    0.522
        67  -9.0645    154.6931     25.7117   6.1306117890e+01   4.3461461234e+01    0.1478959    0.1024831  33.21 0.0002032712    1.572    0.364
        68 -15.9314     71.8886    149.5437   1.1681454337e+02   3.5806237579e+01     5.365961     2.732374  79.51   0.01359901    3.776    0.735
        69 -10.6393     59.9616    245.3046   1.2919158352e+02   1.8194616968e+01    0.2537352       0.1247 -90.00  0.001101759    2.322    0.569
        70  -9.7605     57.1102    240.1279   1.2932276905e+02   1.9409997935e+01    0.3633995    0.1548972 -82.01  0.001977709    2.706    0.630
