#   1 NUMBER                 Running object number                                     
#   2 MAG_AUTO               Kron-like elliptical aperture magnitude                    [mag]
#   3 X_IMAGE                Object position along x                                    [pixel]
#   4 Y_IMAGE                Object position along y                                    [pixel]
#   5 X_WORLD                Barycenter position along world x axis                     [deg]
#   6 Y_WORLD                Barycenter position along world y axis                     [deg]
#   7 A_WORLD                Profile RMS along major axis (world units)                 [deg]
#   8 B_WORLD                Profile RMS along minor axis (world units)                 [deg]
#   9 THETA_WORLD            Position angle (CCW/world-x)                               [deg]
#  10 FWHM_WORLD             FWHM assuming a gaussian core                              [deg]
#  11 ELONGATION             A_IMAGE/B_IMAGE                                           
#  12 ELLIPTICITY            1 - B_IMAGE/A_IMAGE                                       
         1 -12.4784      2.4518     45.7837   1.4260127342e+02   6.6145596955e+01     1.545166    0.1571634 -72.68  0.003908438    6.857    0.854
         2 -13.8822      7.5281     12.2431   1.3038962118e+02   7.3666017380e+01     2.310335    0.8882618 -51.83    0.0112093    1.859    0.462
         3 -14.0974    199.5670     10.0809   6.7799457212e+01   3.3650770588e+01     2.025596     1.245294  38.31  0.009797904    1.839    0.456
         4 -13.3857    187.9165     26.8906   7.4396869965e+01   3.4853641035e+01     1.261077     1.102985   5.60  0.006307568    1.162    0.139
         5 -10.5188     81.6014    248.9144   1.4193222576e+02   1.6733445381e+01    0.2044308     0.124202  43.58 0.0009220231    1.202    0.168
         6 -11.4784    139.8653    249.0263   1.3184956472e+02   9.9161509056e+00    0.2757506    0.2400812  44.46  0.002374134    1.289    0.224
         7 -10.4067     98.7795    249.4604   1.3900614021e+02   1.4743997049e+01     0.155772    0.1389585  75.32  0.001097587    1.340    0.254
         8 -11.0441     66.9604    243.4064   1.4411695016e+02   1.9074638575e+01    0.3204064    0.2038547  54.08   0.00174683    1.273    0.214
         9 -10.3106     67.0065    250.1773   1.4450229217e+02   1.8108836731e+01    0.1848678    0.1357873  56.92 0.0009728757    1.158    0.136
        10  -9.4938     63.6532    250.7123   1.4509898585e+02   1.8379209491e+01    0.1902361     0.106908  30.03 0.0005729679    1.633    0.388
        11 -10.8085     46.3262    248.4943   1.4789600155e+02   2.0411885165e+01    0.2777627    0.1424067  58.11 0.0007897149    1.603    0.376
        12  -9.8945     37.4973    249.5061   1.4940158676e+02   2.1098149176e+01    0.1600852   0.07119259  34.58 0.0001872672    1.778    0.438
        13 -10.6544     28.8813    249.2901   1.5080226466e+02   2.1910517811e+01    0.2427423    0.2142057 -74.28  0.001786557    1.550    0.355
        14 -11.7785     35.2268    244.9042   1.4959425688e+02   2.1975398596e+01    0.4784837    0.3696191 -34.46  0.003924888    2.235    0.553
        15 -10.1847     29.0784    242.5879   1.5052976007e+02   2.2874426845e+01    0.2679233    0.1479677  49.74  0.001456367    1.278    0.218
        16 -13.1822      8.6291    186.7245   1.5217175072e+02   3.3986707376e+01     1.238384     0.716581 -68.26  0.002918734    1.831    0.454
        17 -14.9370      4.9592    238.6879   1.5437916925e+02   2.5490405603e+01     6.391636     0.917802 -77.70   0.01246869    6.171    0.838
        18 -13.9030     10.9039    207.6187   1.5247769812e+02   3.0045265625e+01     1.223747    0.7597184 -75.53  0.004478441    1.693    0.409
        19 -14.6578     56.2246    210.7442   1.4403057902e+02   2.5329789807e+01     8.399906    0.8235704  45.15   0.02975575    5.084    0.803
        20 -10.4480     95.0185    241.4879   1.3905577112e+02   1.6261947591e+01     0.184441    0.1499014 -72.26 0.0008156817    1.563    0.360
        21  -9.6980    152.4866    248.4879   1.2962207372e+02   8.4226833091e+00    0.1056271   0.07668975  29.96 -6.441888e-05    1.002    0.002
        22 -10.9504    196.8603    242.8224   1.2145898691e+02   3.4850897025e+00    0.4484798    0.2803644 -58.89  0.002279184    5.384    0.814
        23 -11.0296    232.9380    235.8941   1.1470241078e+02  -2.9112415333e-01    0.3399904    0.2194455 -49.50  0.001846591    4.774    0.791
        24  -9.8729    183.5584    238.2172   1.2311571704e+02   5.6539035948e+00    0.1353264   0.09019813 -12.38 0.0009514213    1.702    0.413
        25  -8.7646    172.3121    238.6732   1.2510261080e+02   7.0464233165e+00   0.09903636   0.07339267  48.46 0.0007041638    1.664    0.399
        26 -11.1145     16.7346    231.3116   1.5222022465e+02   2.5666314861e+01    0.2941171    0.1419032  77.48  0.002070447    1.921    0.479
        27 -10.6985     20.4564    227.9605   1.5146929386e+02   2.5879160581e+01    0.1985529    0.1256025  54.76  0.001016583    1.150    0.130
        28 -10.1661     17.6997    225.6514   1.5186852796e+02   2.6482067408e+01    0.1691043    0.1127485   6.83  0.001144722    2.485    0.598
        29 -10.5533     34.7932    229.7896   1.4903757522e+02   2.4313751692e+01    0.2307119    0.1373007  50.56 0.0008038635    1.239    0.193
        30  -9.6741     36.6702    226.3045   1.4854790598e+02   2.4692276849e+01    0.1669181    0.1093621  70.87 0.0006106546    1.353    0.261
        31 -11.0408    173.1530    221.8518   1.2283334015e+02   8.9279385215e+00    0.3407333    0.2800173  53.47  0.002301816    1.671    0.401
        32  -9.9375     27.5641    221.4673   1.4996700029e+02   2.6305338220e+01    0.1748743    0.1203091  52.35 0.0006625743    1.086    0.080
        33 -15.0416     20.6186    173.3435   1.4906019408e+02   3.5624387121e+01     6.807745     1.835574  84.52   0.02152727    6.715    0.851
        34  -8.6747    152.4865    212.9430   1.2547653761e+02   1.2936508764e+01     0.135673    0.1141012 -36.02 0.0003994899    1.442    0.307
        35 -11.9593     31.0788    205.1336   1.4857005355e+02   2.8758619290e+01    0.2616217    0.1558756  45.91 0.0005539363    1.329    0.248
        36 -12.7065     45.8561    233.6860   1.4727387095e+02   2.2658616601e+01    0.2987032    0.2501682  62.68 0.0007605551    1.160    0.138
        37 -11.4866     69.6656    198.7930   1.4044476503e+02   2.5945850516e+01    0.2941097    0.2157671 -48.50  0.001612156    1.727    0.421
        38  -9.1608     66.3521    195.7076   1.4087032668e+02   2.6872213854e+01    0.1754906    0.1274635  61.63 0.0006319707    1.243    0.195
        39 -10.1469    193.0772    195.2516   1.1529229569e+02   9.4544982053e+00    0.5485646      0.29924 -57.26  0.001980466    6.567    0.848
        40 -11.6083     74.6808    191.0592   1.3870803603e+02   2.6760449444e+01    0.2300125    0.2144586 -24.71 0.0007833221    1.365    0.267
        41  -9.3300    106.4735    182.0114   1.3082971245e+02   2.4334942158e+01    0.1733594    0.1405277  40.83 0.0003737778    1.084    0.078
        42 -10.9233     83.4359    178.4432   1.3550143661e+02   2.8052500015e+01     0.210431    0.1931751  53.03 0.0003640305    1.054    0.052
        43 -13.2259     71.0275    176.2254   1.3805271440e+02   2.9997883119e+01    0.4308656    0.2564832 -41.45  0.001833662    2.303    0.566
        44  -9.1752    172.8945    174.6627   1.1566764867e+02   1.5443723440e+01    0.1788436     0.141153  30.48 0.0006027362    1.141    0.124
        45 -11.8968     90.2147    169.1268   1.3284225874e+02   2.8977777469e+01    0.6001241    0.4767521  51.80  0.003813651    1.167    0.143
        46 -10.2937     97.7948    171.6278   1.3142085684e+02   2.7466868374e+01    0.3417516    0.1370726  41.79 0.0007513659    2.213    0.548
        47  -9.2168    250.5332    171.5137   1.0130502519e+02   3.8568145786e+00    0.1213462   0.08915253   2.72 -1.80276e-05    1.004    0.004
        48  -9.6347    230.2443    167.0027   1.0370472238e+02   7.3678182936e+00    0.1602552   0.09168047 -24.43  0.000891144    1.621    0.383
        49 -10.3405    194.4223    158.2250   1.0837792395e+02   1.4326205652e+01    0.3022681    0.2420488 -60.04  0.001229039    2.054    0.513
        50  -9.9631    101.4326    152.4182   1.2778987998e+02   3.0754543167e+01    0.2510867    0.2365371  10.57 0.0007487517    1.133    0.117
        51 -12.0581     90.5083    151.9310   1.3041226080e+02   3.2418787147e+01    0.2604169    0.2334439 -11.00 0.0005768932    1.313    0.238
        52 -12.9671     65.8942    142.7185   1.3540973265e+02   3.7595652754e+01        1.258     0.632963  70.69   0.00310457    3.114    0.679
        53  -9.1868    104.1629    148.1289   1.2642293744e+02   3.1225792732e+01    0.2015228    0.1725428 -20.26 0.0009372528    1.352    0.260
        54 -12.6531     30.6056    144.6050   1.4476171076e+02   4.0813315086e+01     0.523393    0.3254592  31.45  0.003148102    1.670    0.401
        55  -8.6166    191.9804    144.0002   1.0591794369e+02   1.6872107929e+01    0.1625052    0.1378208  -1.53 0.0003542035    1.043    0.041
        56 -10.7276    175.1059    138.5367   1.0813041318e+02   2.0813934142e+01     0.471787    0.3418435  80.75  0.002037244    3.039    0.671
        57 -10.0944    169.6706    133.3976   1.0814187091e+02   2.2693374290e+01    0.2440575    0.2369105  71.70 0.0009399768    1.318    0.241
        58  -9.3852     89.8020    138.6343   1.2851521800e+02   3.5347639211e+01     0.215515    0.1502241  45.88  0.000456191    1.411    0.291
        59  -9.6324    111.5764    137.3192   1.2264657603e+02   3.2302779263e+01    0.2996352    0.2078449 -16.98  0.001113453    2.041    0.510
        60 -10.6401     99.4115    134.7188   1.2531112548e+02   3.4769733467e+01    0.2661936    0.2184211 -28.50 0.0003552572    1.387    0.279
        61 -10.3270     43.5547    127.2355   1.3952930151e+02   4.3553288042e+01    0.2434695    0.1153531 -77.02 0.0009261629    2.073    0.518
        62 -11.7974     54.1040    120.8090   1.3563844472e+02   4.3953937586e+01    0.8191696    0.3068316 -77.03  0.002885842    3.602    0.722
        63  -9.3024    108.3549    124.0801   1.2086971767e+02   3.5631361079e+01    0.1862806     0.168492 -50.85 0.0003316872    1.112    0.101
        64  -9.9223    151.3354    117.5454   1.0854676056e+02   2.9074481392e+01    0.5316406    0.3388445  77.11  0.001766372    4.290    0.767
        65 -13.9711     52.0664    224.1152   1.4564499413e+02   2.3547601011e+01    0.9380398    0.6356233  66.48  0.006095305    1.321    0.243
        66 -10.7235    168.1158    113.3310   1.0372305090e+02   2.6481678405e+01    0.3596856    0.3111035 -75.69  0.001072362    1.624    0.384
        67  -9.0122    203.4915    111.5265   9.6244958786e+01   1.9634879332e+01    0.1446958    0.1231978  -1.33 0.0003365643    1.027    0.027
        68  -9.9598    129.9641    102.1188   1.0993330588e+02   3.6317679007e+01      0.26727     0.216599  59.67            0    1.456    0.313
        69  -8.7421    184.4627     77.4746   9.0615267524e+01   2.8907251430e+01    0.1515983    0.1358999  -4.55 0.0008087921    1.028    0.027
        70  -9.7110    155.4508     75.4885   9.5970480468e+01   3.5887529712e+01    0.1539845    0.1435249 -11.80 7.618614e-05    1.022    0.022
        71  -9.9236     24.2236     68.9493   1.3727649534e+02   5.9311279010e+01    0.2024483    0.1839135  44.44 0.0004398318    1.287    0.223
        72 -10.4298    249.0329    249.0418   1.1406700670e+02  -3.2703035981e+00    0.2631054    0.1140326  19.88   0.00166756    1.881    0.468
        73 -10.6125     83.2388    244.2742   1.4133560547e+02   1.7199342976e+01    0.2735517    0.1188642  55.25  0.001613401    2.323    0.570
        74 -10.0336     76.9082    245.1385   1.4249706169e+02   1.7769053923e+01    0.1592106     0.100591  53.56 0.0007297902    1.320    0.242
