#   1 NUMBER                 Running object number                                     
#   2 MAG_AUTO               Kron-like elliptical aperture magnitude                    [mag]
#   3 X_IMAGE                Object position along x                                    [pixel]
#   4 Y_IMAGE                Object position along y                                    [pixel]
#   5 X_WORLD                Barycenter position along world x axis                     [deg]
#   6 Y_WORLD                Barycenter position along world y axis                     [deg]
#   7 A_WORLD                Profile RMS along major axis (world units)                 [deg]
#   8 B_WORLD                Profile RMS along minor axis (world units)                 [deg]
#   9 THETA_WORLD            Position angle (CCW/world-x)                               [deg]
#  10 FWHM_WORLD             FWHM assuming a gaussian core                              [deg]
#  11 ELONGATION             A_IMAGE/B_IMAGE                                           
#  12 ELLIPTICITY            1 - B_IMAGE/A_IMAGE                                       
         1 -12.9962    240.7398     66.8229   2.1930619461e+01   2.0015924095e+01     1.271848    0.7843848 -49.26  0.008047336    1.351    0.260
         2  -7.4441    189.0000     76.9826   2.9832358252e+01   2.8142393796e+01     0.232013   0.06774314 -34.81 0.0008035467    2.950    0.661
         3  -8.4405    249.1884    250.1118   5.3539028219e+01  -3.8902791446e+00     0.150815   0.08620046  -5.77 0.0007395507    1.262    0.207
         4  -8.9484    192.4858    249.4864   6.2287072741e+01   1.1354645194e+00    0.1901464    0.1522116 -18.27  0.001537199    1.367    0.268
         5  -8.7498    196.4815    246.9704   6.1278269340e+01   1.0509490177e+00     0.286579    0.1514667  28.99  0.001721078    1.755    0.430
         6  -9.3941    176.5666    247.4601   6.4824693889e+01   2.9628799821e+00    0.2314461    0.1672951   5.25  0.001279981    1.034    0.033
         7  -8.3128    156.3198    247.1180   6.8543004464e+01   5.1166076308e+00    0.2381723     0.115252 -32.22  0.001356276    2.280    0.561
         8  -8.7852     63.2041    248.0109   8.8128788286e+01   1.5059729175e+01    0.1689083    0.1144661   8.34  0.001040097    1.605    0.377
         9  -9.1618    109.0175    245.7904   7.7969894224e+01   1.0498185979e+01    0.1714731    0.1536526  17.19 0.0004134574    1.156    0.135
        10  -8.7974    168.4934    243.9880   6.5860502335e+01   4.2506784239e+00    0.1828719    0.1226463 -25.35 0.0007328453    1.468    0.319
        11  -9.3387    171.8598    240.5167   6.4790252117e+01   4.3586432965e+00     0.215298    0.1612237   7.96   0.00119017    1.025    0.024
        12  -9.0787    187.2941    242.6466   6.2291135612e+01   2.4854802841e+00    0.3012767     0.155816  27.86  0.001914756    1.697    0.411
        13 -11.4888    240.9767    155.7145   3.9781958797e+01   8.0165277833e+00     1.347555     0.911634  29.18  0.009297609    1.726    0.421
        14 -10.5909    225.6758    187.1742   4.7505286850e+01   5.6038253442e+00     1.085604    0.4535503  29.54  0.005833014    2.608    0.617
        15 -11.2037    218.8554    174.3969   4.6332439627e+01   8.1636873789e+00     1.656669    0.3544929 -35.93  0.006005193    4.111    0.757
        16 -10.9018    224.8565    171.7393   4.4948206994e+01   7.7983389250e+00     1.809969    0.2552807 -39.23   0.00546195    6.133    0.837
        17  -9.7678    185.7821    214.0593   5.8507247343e+01   6.4758856758e+00    0.3934492    0.2196847 -32.38  0.001465573    1.682    0.406
        18 -10.0425    186.3617    191.7135   5.4830744748e+01   9.7128737999e+00    0.5092335    0.2941985 -32.31  0.002912355    1.585    0.369
        19  -9.8521    198.1742    189.6632   5.2383013802e+01   8.5289389427e+00    0.5097045     0.389536 -50.81  0.003252731    1.843    0.457
        20 -10.8319    201.5524    179.3773   5.0019420393e+01   9.6282781163e+00     1.039889    0.4145945 -37.10  0.005025309    2.220    0.550
        21  -9.6995    206.1164    169.4984   4.7475728445e+01   1.0511768677e+01      0.43883    0.1952692 -37.66  0.001638346    1.957    0.489
        22  -9.7138    202.6983    197.0514   5.2843347125e+01   6.9128884339e+00    0.3914446    0.2338271  -5.98  0.001542901    1.763    0.433
        23 -11.4486    209.9662    182.7074   4.9205805625e+01   8.0787958133e+00     1.532461    0.4710969 -33.39  0.006459995    3.066    0.674
        24 -11.3002    195.3227    204.7500   5.5360696319e+01   6.6900574741e+00     1.124927    0.5064446 -33.49  0.006034513    2.047    0.511
        25 -10.0951    186.4904    202.5439   5.6585055721e+01   8.0634188387e+00    0.6106038    0.3003632 -42.00  0.002434158    2.071    0.517
        26 -11.6713    212.1923    201.6435   5.2014836672e+01   5.1872633848e+00     1.430366    0.7462301  -5.49  0.007541095    2.420    0.587
        27  -9.0520    158.9480    239.0343   6.7034374036e+01   5.9555478867e+00     0.234405    0.2227408 -24.68  0.001547922    1.479    0.324
        28  -8.0181     34.4978    240.5528   9.4124682859e+01   1.9243492723e+01    0.1174208   0.09374991  36.47 8.159018e-05    1.070    0.065
        29 -10.9737    202.7662    219.8455   5.6406330841e+01   3.8042708636e+00    0.7608094    0.6769952 -88.10  0.005177829    2.691    0.628
        30  -8.8604    177.0003    236.4509   6.3307531903e+01   4.3562554591e+00    0.2709669    0.1923766 -64.34  0.001584564    3.163    0.684
        31  -8.2129    221.0274    234.9484   5.5630185737e+01   1.3283798848e-01      0.17788    0.1119602 -21.58 0.0008650432    1.309    0.236
        32 -10.8397    234.0027    174.5460   4.4109301053e+01   6.3299347128e+00     1.386618     0.494859 -35.21  0.007007371    2.260    0.557
        33  -8.0935    140.0000    236.0065   7.0411765227e+01   8.5248004270e+00     0.166554   0.06590971 -49.92  0.000805845    2.966    0.663
        34  -8.2128    170.5837    235.2599   6.4333949617e+01   5.2092404697e+00    0.1487026   0.09082851 -24.81 0.0009401336    1.609    0.378
        35  -9.2757    209.0904    233.3484   5.7315619934e+01   1.4622885226e+00    0.1874916    0.1325227 -27.90  0.001020235    1.423    0.297
        36  -7.9146    153.1261    234.1912   6.7548719035e+01   7.3019195346e+00    0.1442329     0.126227  23.81 0.0008500486    1.303    0.233
        37  -7.9915    158.4444    231.8834   6.6203439523e+01   7.0372499983e+00    0.1545398     0.107414 -37.39 0.0008981635    1.563    0.360
        38  -9.1128    177.4269    230.2021   6.2376505155e+01   5.1573554553e+00    0.2432489    0.1766112 -20.22   0.00104799    1.268    0.212
        39  -8.4885    172.5480    230.1939   6.3280209851e+01   5.6961778774e+00    0.2300312     0.101187 -40.30  0.001246174    2.344    0.573
        40  -8.6399    143.7750    230.1131   6.8902999973e+01   8.9936156226e+00    0.2540116    0.1620307 -58.90  0.001481223    2.287    0.563
        41  -8.2831    151.6406    228.8978   6.7153519331e+01   8.2624867491e+00    0.1829519    0.1275205 -17.33 0.0009560868    1.434    0.302
        42  -8.6648    167.5759    227.3423   6.3826255598e+01   6.6590491723e+00    0.2395657     0.102988 -41.52  0.001096046    2.421    0.587
        43  -8.7579    161.7987    226.5145   6.4825985362e+01   7.4415972456e+00    0.2691863    0.1518165 -43.69  0.001586825    1.966    0.491
        44  -9.9054    180.0576    224.0530   6.1025742830e+01   5.7176298430e+00     0.338935    0.1560807 -44.12   0.00184162    2.421    0.587
        45  -9.1737    174.1572    224.2663   6.2150318921e+01   6.3524828191e+00    0.2492457    0.1337865 -25.44  0.001074315    1.918    0.479
        46  -9.8166    216.8001    222.6114   5.4513842317e+01   2.0066338117e+00    0.2369746    0.1450516  19.40  0.001417589    1.467    0.318
        47  -9.8788    211.7707    219.8412   5.4912013952e+01   2.8616109166e+00    0.2725908    0.1976115 -29.08  0.001360308    1.399    0.285
        48  -9.0568    148.6156    220.5360   6.6640076711e+01   9.9193827279e+00    0.4904741    0.2025556 -27.52  0.001905369    4.035    0.752
        49  -8.3516    139.9940    221.2311   6.8525540539e+01   1.0857648504e+01     0.216361    0.1354516 -32.12  0.001253865    1.713    0.416
        50  -8.4054    154.4677    224.4626   6.5992175212e+01   8.6063222782e+00    0.1970112   0.09616038 -33.56  0.001026804    2.217    0.549
        51  -8.8142    159.2346    218.4803   6.4206881427e+01   8.9569938117e+00    0.2518685     0.168152 -19.69  0.001454643    1.498    0.332
        52  -9.1432    179.8218    217.0495   6.0047049034e+01   6.7367911651e+00    0.2363189    0.1529195 -46.69  0.001080091    1.932    0.482
        53  -9.8480    169.7274    214.7904   6.1616834221e+01   8.2584737083e+00    0.4382703    0.2051662 -44.01  0.001897901    2.279    0.561
        54  -9.3318    221.8373    216.8834   5.2859535804e+01   2.2047595358e+00    0.3973059    0.1199991  28.96  0.001928482    3.311    0.698
        55  -9.4703    219.7175    210.7259   5.2247417857e+01   3.1899239362e+00    0.5764258    0.2214587 -18.48  0.002204803    4.802    0.792
        56  -8.8757    213.4639    213.5884   5.3688607224e+01   3.4807281159e+00    0.2861288    0.1883585  42.33  0.001830805    2.354    0.575
        57  -9.0366    209.1284    213.8685   5.4439847230e+01   3.9047809560e+00    0.2064213    0.1747954 -15.75  0.001246888    1.338    0.253
        58  -8.0784    143.4099    216.7723   6.7201646921e+01   1.1167504151e+01    0.1615669    0.1054353 -30.78 0.0007350218    1.608    0.378
        59  -7.8866    135.4870    217.0467   6.8922925470e+01   1.2109721917e+01    0.1781435   0.09006709 -27.06 0.0008094743    2.672    0.626
        60  -8.4801    225.7615    213.7259   5.1769904451e+01   2.1977667649e+00    0.1326902    0.1082847 -16.57 0.0007181735    1.341    0.255
        61  -8.2536    154.1712    213.7610   6.4548201762e+01   1.0318867136e+01    0.1860471    0.1599317 -40.08 0.0008189427    1.386    0.278
        62  -7.7789    130.6670    214.6989   6.9653181604e+01   1.3118405396e+01    0.1285909   0.08717446  -5.14 0.0007034237    1.653    0.395
        63  -9.9550    178.5012    209.2921   5.9119914354e+01   8.0279912437e+00    0.4965209    0.2796179 -14.54  0.002497476    2.023    0.506
        64  -9.1149    161.9629    209.8962   6.2407786421e+01   9.9643142379e+00    0.3936953    0.2114065 -21.06   0.00197339    2.264    0.558
        65  -7.8289    141.0000    211.9996   6.7044456654e+01   1.2267681300e+01    0.1822325   0.06973798 -49.49 0.0007949274    2.891    0.654
        66  -8.5036    146.4877    210.5511   6.5674170643e+01   1.1811787529e+01    0.2244352    0.1194092 -46.72 0.0008392471    2.049    0.512
        67  -9.1178    182.9448    238.6146   6.2523534022e+01   3.4453813309e+00    0.3798269    0.1103069 -33.91  0.001655675    3.860    0.741
        68  -8.3806    172.5735    207.2467   5.9927956422e+01   9.0600650012e+00     0.205275    0.1058357 -35.10 0.0007529513    1.892    0.472
        69  -8.9260    175.3331    203.5535   5.8823174286e+01   9.2856596542e+00    0.2670855     0.158591 -26.52  0.001012115    1.640    0.390
        70  -7.4507    241.7115    207.6666   4.8468822801e+01   1.3543863716e+00     0.109082   0.06037319 -10.04 0.0005189865    1.627    0.385
        71  -8.5462    156.4799    206.5361   6.3007600087e+01   1.1198468511e+01    0.2349277    0.1172099 -45.32  0.001199456    2.131    0.531
        72  -8.8695    231.6876    205.7724   4.9635893625e+01   2.5758072076e+00    0.1844855    0.1317363  26.26  0.001100764    1.595    0.373
        73  -8.6249    149.2685    205.5561   6.4353772532e+01   1.2292687819e+01     0.222148    0.1690703 -37.86  0.001012714    1.381    0.276
        74  -7.8229    138.6016    206.2120   6.6731901546e+01   1.3574486973e+01    0.1744665    0.1090755 -33.79 0.0009480646    1.697    0.411
        75  -9.8371    124.0185    206.0020   6.9952023904e+01   1.5533572373e+01    0.1833489    0.1579837  15.97  0.001163444    1.002    0.002
        76  -9.7944    167.5895    200.5726   5.9851052078e+01   1.0736958010e+01     0.582388    0.1835731 -40.26  0.002404125    3.143    0.682
        77  -8.1421    167.9218    192.2659   5.8435250017e+01   1.2045490640e+01    0.2239202    0.1389962 -26.97  0.001000653    1.594    0.372
        78  -9.4987    172.3636    190.0387   5.7189649316e+01   1.1815008110e+01    0.3922966    0.2040563 -33.55  0.001598327    1.871    0.466
        79  -9.2730    160.9369    200.8808   6.1228365841e+01   1.1550280338e+01    0.4351189    0.1838606 -34.41  0.001837934    2.574    0.612
        80  -7.6913    245.5155    202.0302   4.7047861679e+01   1.6514609664e+00    0.1501218   0.06620672 -17.51 0.0008064986    2.399    0.583
        81  -8.3731    149.9694    199.6945   6.3311408673e+01   1.3200034614e+01    0.2379619     0.157698 -16.80  0.001143178    1.653    0.395
        82  -8.8884    182.9507    162.5062   5.0198984546e+01   1.4891070335e+01    0.3875498    0.1699602 -45.31  0.001730791    2.303    0.566
        83  -8.2154    186.2061    167.7905   5.0604903746e+01   1.3537504184e+01    0.2316355    0.1541116 -15.80  0.001058042    1.540    0.351
        84  -9.8647    182.6026    182.4781   5.3936579160e+01   1.1657613848e+01    0.4689087     0.225923 -36.50  0.002208585    1.927    0.481
        85  -9.1039    182.8664    175.4370   5.2630749924e+01   1.2760536385e+01    0.3471551    0.2031672 -31.12      0.00118    1.581    0.367
        86  -8.1804    183.3103    171.3228   5.1794970010e+01   1.3372145775e+01    0.2076179    0.1033315 -31.91 0.0007655626    1.933    0.483
        87  -9.8151    177.4993    196.7796   5.7322310271e+01   1.0063468282e+01    0.3598594    0.2666117 -11.48  0.001289336    1.212    0.175
        88  -8.8720    179.2136    190.3170   5.5923011182e+01   1.0859394133e+01    0.3381881    0.1600767 -38.37  0.001638019    1.998    0.500
        89  -7.6212    132.9960    199.0557   6.6917421147e+01   1.5607685966e+01    0.1522496    0.1326991  11.15            0    1.001    0.001
        90  -8.3116    237.5040    196.7883   4.7347362677e+01   3.0894215358e+00    0.2542162    0.1235052  -1.65    0.0012794    3.004    0.667
        91  -9.0834    156.6683    195.0760   6.1177516999e+01   1.3091003440e+01    0.3578363    0.1826847 -35.10  0.001351286    2.013    0.503
        92  -9.1255    123.8089    195.2484   6.8457029868e+01   1.7587722635e+01    0.2782088    0.1778313 -43.64 0.0007004499    1.659    0.397
        93  -8.7700    247.1549    193.0592   4.5384415824e+01   2.5619031594e+00    0.2601689    0.1819078  -2.80  0.001749965    1.195    0.163
        94  -8.7249    146.9726    193.6180   6.2993677036e+01   1.4672450823e+01    0.3416913    0.1998444   5.07  0.001595245    2.271    0.560
        95  -8.9203    161.8569    191.8970   5.9592441754e+01   1.2927079420e+01    0.2984666    0.1704144 -38.57   0.00151487    1.721    0.419
        96 -10.5007    191.1981    177.7761   5.1534974263e+01   1.1240833416e+01     1.055356    0.2931713 -34.47  0.003757792    3.920    0.745
        97  -8.2341    155.0183    188.9647   6.0520046838e+01   1.4376581582e+01    0.2071759    0.1396361 -12.90 0.0006616436    1.641    0.390
        98  -9.3849    166.6889    185.0630   5.7462701083e+01   1.3419931033e+01    0.4319221     0.192115 -37.90  0.001602416    2.199    0.545
        99  -7.9830    158.5715    186.1742   5.9308508939e+01   1.4366555304e+01    0.1803212    0.1099143 -30.33 0.0009391496    1.660    0.398
       100  -8.6340    177.3517    183.6193   5.5126379455e+01   1.2187644457e+01    0.2641773      0.16352 -32.31  0.001267872    1.501    0.334
       101  -9.4748    244.9480    181.1540   4.3716510671e+01   4.2571970872e+00    0.5105492    0.2137765 -17.99  0.002374694    3.197    0.687
       102  -8.2911    172.8438    183.4687   5.5969738542e+01   1.2832723272e+01    0.2493576    0.1423733 -26.55  0.001015242    1.803    0.445
       103  -9.0454    176.2087    177.9570   5.4343907448e+01   1.3280528757e+01    0.3545005    0.1926463 -23.93  0.001646859    2.065    0.516
       104  -8.1572    162.5148    183.7439   5.8079781820e+01   1.4232558499e+01    0.2311038    0.1144627 -38.22  0.001107127    1.974    0.493
       105  -8.3635    154.4999    182.9219   5.9606297905e+01   1.5522977788e+01    0.1909578    0.1232605 -42.38 0.0006680083    1.560    0.359
       106  -8.2624    157.8435    179.5733   5.8318815527e+01   1.5638051188e+01    0.2117779     0.156512 -45.19  0.001209112    1.436    0.304
       107  -9.1590    169.8424    177.5060   5.5505506084e+01   1.4262766787e+01     0.376866    0.1725744 -33.25  0.001323613    2.258    0.557
       108  -7.9269    145.3981    178.8015   6.0865796372e+01   1.7615229322e+01    0.1920421     0.116317 -34.58 0.0009516806    1.699    0.411
       109  -8.5951    163.8307    176.7528   5.6579353559e+01   1.5264517465e+01    0.2299779    0.1587813 -27.59 0.0007554861    1.399    0.285
       110 -10.9656    226.5210    195.7812   4.8808995764e+01   4.3801024389e+00    0.7919369    0.4693999 -26.79  0.005266672    1.358    0.263
       111  -8.4108    152.3083    175.6025   5.8790314828e+01   1.7179111986e+01    0.2635003    0.1534417 -40.46  0.001316732    1.688    0.408
       112  -8.3970    158.4816    174.5265   5.7284247142e+01   1.6451934874e+01     0.260367    0.1233259 -43.80 0.0008921621    2.076    0.518
       113  -8.0941    173.4348    172.7630   5.3938012311e+01   1.4554821701e+01    0.2059099    0.1379516  -7.79 0.0008894437    1.686    0.407
       114  -8.6390    176.7987    170.0920   5.2793779360e+01   1.4518583150e+01    0.2683252    0.1978708 -43.26 0.0009952107    1.409    0.290
       115  -8.3923    179.0112    166.0042   5.1604274454e+01   1.4886152568e+01    0.2361044    0.1657517 -32.62 0.0009211061    1.291    0.225
       116  -8.1316    146.6094    173.2000   5.9605221426e+01   1.8493559506e+01     0.192059     0.117952 -34.72 0.0009468718    1.658    0.397
       117  -8.7593    164.8849    171.7187   5.5448538149e+01   1.5998634899e+01    0.2319745    0.1639167 -25.79  0.001041096    1.367    0.269
       118  -9.4708    169.7564    168.7831   5.3923265349e+01   1.5787255707e+01    0.4507918    0.1540165 -39.49  0.001762472    2.816    0.645
       119 -10.2573    206.7849    161.2010   4.5820270246e+01   1.1677120819e+01    0.4386145    0.2980022  13.03  0.002630854    1.620    0.383
       120  -8.5735    197.5037    168.4678   4.8731970653e+01   1.1836850363e+01    0.2771937    0.1404126 -31.37  0.001146173    1.787    0.440
       121  -9.3234    200.6290    165.2234   4.7594951330e+01   1.1909590049e+01    0.3963802     0.176517 -33.84  0.001926422    1.996    0.499
       122  -8.0516    158.5098    168.9838   5.6259818730e+01   1.7457852121e+01    0.1907899    0.1038093 -23.25  0.000620514    2.419    0.587
       123  -9.0965    191.6670    165.5083   4.9194960709e+01   1.3125488367e+01    0.3122545    0.1838886 -23.35  0.001224175    1.698    0.411
       124  -9.0270    247.5312    168.8366   4.1257919454e+01   5.5348287376e+00    0.3504757    0.1916804 -20.05  0.002196938    1.582    0.368
       125  -7.7562    147.6802    167.6765   5.8355573269e+01   1.9385292824e+01    0.1422446    0.1003785  -8.89 0.0003456406    1.674    0.403
       126  -9.0477    212.4656    163.8078   4.5402069871e+01   1.0515636456e+01    0.3839574    0.2053389 -18.20   0.00195856    2.115    0.527
       127  -8.0806    159.8118    164.1597   5.5074851076e+01   1.8143892571e+01    0.1918474     0.146232 -13.60  0.001061697    1.345    0.257
       128  -8.1636    191.7191    160.6415   4.8257613209e+01   1.3905001328e+01    0.1851945    0.1396118 -21.85 0.0007143464    1.161    0.139
       129  -7.9623    187.5819    163.1118   4.9469140747e+01   1.4106270703e+01    0.1829115    0.1040699 -27.20 0.0008870549    1.714    0.417
       130  -8.2457    212.9474    168.7197   4.6232003356e+01   9.7289100555e+00    0.2240865    0.1344297 -16.47 0.0007507094    1.667    0.400
       131  -8.6162    153.2543    160.9954   5.5860862525e+01   1.9779862877e+01    0.1780955    0.1121609 -42.84 0.0007998503    1.546    0.353
       132  -9.7963    217.9474    156.9654   4.3271934244e+01   1.0790557286e+01    0.3507602    0.1325376 -30.80  0.001575137    2.456    0.593
       133  -7.9658    196.4799    158.0642   4.6933934701e+01   1.3626434876e+01    0.1895615    0.1079429 -35.16 0.0008443758    1.529    0.346
       134  -7.9899    183.4878    157.8681   4.9198755192e+01   1.5591863556e+01    0.1948668    0.1151111 -38.66 0.0007945503    1.538    0.350
       135  -8.6551    187.8114    171.7259   5.1044699602e+01   1.2669322217e+01    0.2755009    0.1640121 -35.18  0.001041385    1.511    0.338
       136  -8.5292    204.7248    155.0594   4.4977562222e+01   1.2910910554e+01     0.232152    0.1404484 -23.12 0.0008830534    1.568    0.362
       137  -9.9999    223.9964    151.4653   4.1334292690e+01   1.0778190310e+01    0.2396328    0.1386196 -29.02 0.0008292309    1.412    0.292
       138  -8.2397    225.7270    147.6285   4.0352683841e+01   1.1097444200e+01    0.2552572    0.1297105 -22.53  0.001312422    2.010    0.502
       139  -8.5934    212.4666    152.5720   4.3268802234e+01   1.2195671388e+01    0.3249409    0.1013435 -35.61  0.001332993    2.756    0.637
       140  -8.6624    188.0049    153.1747   4.7452133088e+01   1.5691022452e+01     0.427711    0.1126654 -39.38  0.001502184    3.418    0.707
       141  -8.7891    212.2509    158.2867   4.4397870878e+01   1.1366762909e+01    0.3157927    0.1672744  13.15   0.00142264    3.148    0.682
       142  -7.8778    184.3730    152.8125   4.8034061699e+01   1.6312244779e+01    0.1868005    0.1078447 -30.01 0.0006372266    1.641    0.391
       143  -9.2965    167.8634    157.7308   5.2172249622e+01   1.8047204351e+01    0.2637232    0.1337914 -31.55  0.001170747    2.073    0.518
       144  -7.7566    158.3114    153.3480   5.3259765510e+01   2.0409025403e+01    0.1444703    0.1015038  -9.90 0.0004136817    1.714    0.416
       145  -7.9038    203.3016    150.3469   4.4285508840e+01   1.3853162523e+01     0.130243   0.08615429  -9.88 0.0007038799    1.687    0.407
       146  -7.7395    175.7005    150.6647   4.9217110940e+01   1.8056016915e+01    0.1378423   0.09619898  -9.51 0.0007033622    1.655    0.396
       147  -7.8098    159.6398    158.7050   5.4051069164e+01   1.9184072155e+01    0.1417511   0.09987194  -3.55 0.0007031727    1.704    0.413
       148 -11.9996    195.6982    229.3178   5.8995179064e+01   3.3200636229e+00     1.247126    0.9944543   7.75  0.009612896    1.200    0.166
       149  -8.5809    155.8091    148.7989   5.2858489587e+01   2.1698838743e+01    0.2420477    0.1470594  -6.36 0.0009537651    2.860    0.650
       150  -9.4287    234.7507    146.2402   3.8846593856e+01   1.0094470141e+01    0.3616919    0.1942799 -16.62  0.001926922    2.122    0.529
       151  -9.9902    214.5533    147.5137   4.1964154879e+01   1.2663377679e+01    0.3245572    0.1924026  36.17  0.001866447    1.941    0.485
       152  -9.3827    185.5542    221.7346   5.9690306373e+01   5.4259220950e+00    0.3805185    0.1957093 -38.71  0.002227888    1.954    0.488
       153  -7.9465    192.0629    147.4599   4.5589378252e+01   1.6015335143e+01    0.1685814    0.1040591  11.31 0.0008037371    2.284    0.562
       154  -7.8097    162.3203    147.3317   5.1184544875e+01   2.0873369426e+01    0.1435037    0.1023161  -7.89 0.0005918844    1.695    0.410
       155  -7.6506    143.2996    147.3570   5.5334790159e+01   2.4139939998e+01    0.1491612    0.1075938 -12.43 0.0006078886    1.707    0.414
       156 -10.1370    248.7470    114.8204   3.1054756797e+01   1.2500479156e+01    0.6200544    0.2046133 -30.61  0.002714821    2.583    0.613
       157  -8.6967    250.2359    107.3434   2.9418524145e+01   1.3284771997e+01    0.2380306    0.1293475 -28.16  0.001413729    1.500    0.333
       158 -10.1384    243.5771    140.6156   3.6641632985e+01   9.7226565014e+00    0.6697623    0.3039188 -23.16  0.003386821    2.281    0.562
       159  -8.8534    242.9651    132.3247   3.5134585987e+01   1.0925569200e+01    0.4202465    0.2019248 -23.48  0.002062319    2.063    0.515
       160 -10.1829    248.9196    128.1649   3.3629089584e+01   1.0699337849e+01    0.7497663    0.2408173 -33.03  0.003497414    2.404    0.584
       161  -8.5946    207.7593    143.7595   4.2262015999e+01   1.4224297783e+01     0.377019    0.1903177 -17.83  0.001613334    2.876    0.652
       162  -8.1202    182.0000    145.9626   4.7072431535e+01   1.7861871824e+01    0.2159175   0.06804635 -40.69 0.0006827217    2.857    0.650
       163  -8.5647    200.4193    144.2267   4.3528414590e+01   1.5255688470e+01    0.3090751      0.19125   2.75  0.001504131    2.376    0.579
       164  -8.0549    218.5187    143.6811   4.0620962348e+01   1.2673401858e+01    0.2278848    0.1756531   9.21  0.001487879    1.404    0.288
       165  -7.5988    195.3582    142.8306   4.4081406349e+01   1.6263920205e+01    0.1869643    0.1043496 -29.49 0.0009341702    1.667    0.400
       166  -8.2354    230.4016    141.6508   3.8551993079e+01   1.1317907331e+01    0.2635197    0.1743459  14.18  0.001516861    1.882    0.469
       167  -8.3119    225.1661    140.8550   3.9115971241e+01   1.2152647834e+01    0.3761954     0.206677   2.09  0.001606114    3.704    0.730
       168  -8.4496    230.1038    136.9656   3.7678484450e+01   1.2025253419e+01    0.2104872    0.1367439   2.26  0.001198942    1.996    0.499
       169 -10.1114    231.9891    130.0775   3.6069587992e+01   1.2741555465e+01    0.5470966    0.3248016 -12.21  0.002802961    2.074    0.518
       170 -10.0792    240.6797    124.2518   3.3835148907e+01   1.2339300827e+01    0.4963781    0.2856639 -15.50  0.002259447    2.013    0.503
       171  -8.4328    249.9846    140.0876   3.5759036261e+01   8.9837013124e+00    0.3366271    0.1446761 -22.06  0.001608121    2.668    0.625
       172  -8.6485    214.6595    139.6693   4.0390267068e+01   1.3832639229e+01    0.3422873    0.1875376  13.19  0.001470634    3.494    0.714
       173  -8.6831    219.7836    137.6394   3.9237798142e+01   1.3389795773e+01    0.2754367    0.1544117 -31.90  0.001250975    1.457    0.314
       174  -7.5446    175.2907    139.3293   4.6923699923e+01   2.0140762850e+01    0.1380127   0.09920008  -9.62 0.0003154859    1.623    0.384
       175  -8.0505    235.5040    137.5208   3.7075978213e+01   1.1208631258e+01    0.2124662   0.09066002 -26.75  0.001015947    2.250    0.556
       176  -8.0653    166.6804    138.6450   4.8448591089e+01   2.1748050241e+01    0.1453456    0.1030199  -8.19 0.0007046204    1.753    0.430
       177  -8.9303    210.5109    135.7922   4.0222166511e+01   1.5045397212e+01    0.4086783    0.2023776 -18.56  0.001711044    2.989    0.665
       178  -8.0748    206.2170    135.6762   4.0852947490e+01   1.5721845118e+01    0.1958448   0.08640929 -29.20 0.0007079428    2.260    0.557
       179  -8.9056    200.1338    133.2000   4.1290560068e+01   1.7074280038e+01    0.3605992     0.152711 -37.19  0.001629009    2.012    0.503
       180  -8.5619    218.1051    132.9081   3.8521448918e+01   1.4342280478e+01    0.2941022    0.1905921  -0.30   0.00159218    2.078    0.519
       181  -9.2180    221.4123    127.2491   3.6902727370e+01   1.4691470050e+01    0.4384285    0.2427503 -13.24   0.00174142    2.600    0.615
       182  -9.1748    224.7831    120.6992   3.5101551687e+01   1.5146828710e+01    0.3759008     0.216455 -26.63  0.001561547    1.549    0.354
       183  -7.3495    178.3286    130.3163   4.4391107215e+01   2.1222194455e+01    0.1388604    0.1012916  -4.66 0.0004477152    1.678    0.404
       184  -8.2944    205.9111    129.1264   3.9529430777e+01   1.6801468260e+01    0.1996697    0.1408255  -5.68  0.001008896    1.680    0.405
       185  -8.1259    212.1534    127.8528   3.8333258462e+01   1.6016343192e+01    0.1765559    0.1276357 -18.39 0.0006603868    1.336    0.252
       186  -8.2757    192.5665    128.1129   4.1428628180e+01   1.9152711628e+01     0.241566    0.1581411   1.05  0.001158547    2.257    0.557
       187  -7.7697    186.3873    127.8032   4.2404053662e+01   2.0258548905e+01    0.1941199    0.1126045 -28.36 0.0005702953    1.711    0.416
       188  -8.4991    224.7563    133.1289   3.7639443928e+01   1.3334982034e+01    0.2250407    0.1378277 -19.62  0.001062019    1.625    0.385
       189  -7.9901    172.2254    134.9831   4.6564239695e+01   2.1452870739e+01    0.1866546    0.1037718 -40.30 0.0007291205    1.635    0.388
       190  -8.1577    217.6837    124.6467   3.6877508027e+01   1.5646597654e+01    0.1867598    0.1285738  -6.09  0.001060207    1.751    0.429
       191  -7.8529    181.6301    124.1478   4.2416231200e+01   2.1724037825e+01    0.2020641     0.114849 -29.47 0.0009398779    1.759    0.432
       192  -8.8898     45.7969    123.5947   8.0234765142e+01   4.6084118988e+01    0.2547884    0.2273943 -88.47 0.0003760286    1.074    0.069
       193  -8.7395    212.5065    121.1271   3.6861173714e+01   1.6993546042e+01    0.2346967    0.1749283  -7.91 0.0008998994    1.494    0.331
       194  -7.8750    188.0000    121.9929   4.0834170249e+01   2.0968338911e+01    0.2297408   0.06770951 -38.74 0.0008034647    2.950    0.661
       195  -8.0277    202.4837    119.5183   3.7978481940e+01   1.8887071645e+01    0.2328043    0.1099456 -28.14  0.001024568    2.184    0.542
       196  -9.1993    240.9758    116.6591   3.2290558928e+01   1.3340144629e+01    0.3151579    0.2049565  -7.55  0.001487966    1.919    0.479
       197 -10.2329    231.6245    113.0814   3.2665353473e+01   1.5209034603e+01    0.6555258    0.2356644 -32.38  0.002900793    2.314    0.568
       198  -8.2304    236.2066    106.7491   3.0819136738e+01   1.5406255668e+01     0.213823    0.1313865 -14.35 0.0007638658    1.956    0.489
       199  -9.4871    220.1751    113.6382   3.4219722683e+01   1.6900696669e+01    0.4552615    0.2975877  12.31  0.002415364    2.352    0.575
       200  -8.9827    210.1729    111.5516   3.5113977607e+01   1.8846897094e+01     0.402533    0.2256631 -18.22  0.001892009    2.296    0.564
       201  -8.0189    203.5417    114.2117   3.6648798611e+01   1.9551945805e+01    0.1844192    0.1090701 -26.11 0.0009327275    1.660    0.397
       202 -11.1697    248.4830     85.7057   2.5217495562e+01   1.6372067262e+01    0.7293035    0.2127148 -40.30  0.003335905    2.418    0.586
       203  -9.3039    249.0583     96.0191   2.7266507565e+01   1.4943520737e+01    0.3523383    0.1538762 -32.00  0.001886165    1.761    0.432
       204  -9.0644    243.2092     86.9152   2.5961755305e+01   1.7021023519e+01    0.2642015    0.1720384 -10.85  0.001208975    1.988    0.497
       205  -9.8791    242.0448    107.1975   3.0261125355e+01   1.4477752618e+01    0.5544345     0.272474 -19.32   0.00232119    2.623    0.619
       206  -8.9106    247.8651    101.5619   2.8505632048e+01   1.4386924908e+01    0.2754293    0.2000291  -0.82  0.001186283    1.767    0.434
       207  -9.4124    242.7937     97.2450   2.8144854613e+01   1.5710597748e+01    0.3072065    0.2044335 -25.98  0.001271917    1.310    0.237
       208  -9.1886    242.7784     91.5225   2.6962695954e+01   1.6477301138e+01     0.321223    0.1938104 -21.02  0.001313695    1.703    0.413
       209  -8.1894    193.4197    111.5712   3.7584383520e+01   2.1748649246e+01    0.2577836    0.1751256   0.28  0.001257083    2.184    0.542
       210  -8.1587    200.9514    109.0168   3.5861429881e+01   2.0825076903e+01    0.2041009    0.1492035  -5.99  0.001037642    1.700    0.412
       211  -8.8243    219.8655    102.3963   3.1831332994e+01   1.8609256239e+01    0.3229161    0.1920113 -24.02  0.001459959    1.669    0.401
       212  -8.1882    189.6554    106.3527   3.6959018875e+01   2.3297574477e+01    0.2801008     0.155011 -19.01  0.001170156    2.571    0.611
       213  -8.6105    212.1049    102.9245   3.2939323033e+01   1.9835952852e+01    0.2682224    0.1619802 -27.78  0.001339114    1.524    0.344
       214  -8.4679    217.1240    107.5520   3.3305115052e+01   1.8299001035e+01    0.2518821     0.189619  -5.78  0.001119526    1.571    0.364
       215  -9.4996    230.8377    100.7658   3.0175421108e+01   1.7070200439e+01    0.4239569     0.287103  -1.55  0.002405039    2.094    0.522
       216  -9.2027    235.0481     94.4073   2.8362430548e+01   1.7288912155e+01    0.2892993    0.2112712  16.15  0.001326741    1.961    0.490
       217  -8.3993    225.4992     97.9791   3.0191941108e+01   1.8322232680e+01    0.2690321    0.1043432 -29.43   0.00116262    2.443    0.591
       218  -8.7819    203.0000     97.9730   3.3033350287e+01   2.2196270059e+01    0.2277377   0.06360938 -35.94 0.0001700213    2.976    0.664
       219  -8.5129    221.7596     94.5383   2.9875684531e+01   1.9434989495e+01    0.3976577    0.1809607 -21.44  0.001617903    3.116    0.679
       220  -7.7916    197.6803     96.6360   3.3461087960e+01   2.3380720857e+01    0.1336378   0.09912042  -3.00 0.0007040501    1.778    0.438
       221  -9.5468    217.3889     90.6511   2.9522751659e+01   2.0742967587e+01     0.484681    0.2283364 -20.56  0.001977895    3.085    0.676
       222  -9.6903    218.9028     83.2923   2.7683430712e+01   2.1533427993e+01    0.3236121    0.2008323 -13.83  0.001660371    2.147    0.534
       223  -8.6551    209.0445     91.3238   3.0695881736e+01   2.2118695332e+01     0.373854    0.1597856 -29.07  0.001608283    2.321    0.569
       224  -8.5652    226.9624     92.0343   2.8732202508e+01   1.8923932048e+01    0.1944063    0.1554466 -34.74 0.0009671539    1.043    0.041
       225  -8.5357    231.1698     89.2125   2.7662746969e+01   1.8625646516e+01    0.2632509    0.1464443 -22.43 0.0008608496    1.904    0.475
       226  -9.5127    237.0447     87.9624   2.6787845210e+01   1.7849023366e+01    0.3112921     0.190504 -39.36  0.001911649    1.241    0.194
       227  -8.9096    239.4695     84.0631   2.5721481831e+01   1.7984732242e+01    0.2291778   0.09518526 -30.41   0.00107911    2.021    0.505
       228  -9.1074    226.1222     86.3706   2.7581472367e+01   1.9856939027e+01    0.3466681    0.1482196 -30.07  0.001259613    2.074    0.518
       229  -7.7560    197.3632     88.1901   3.1483253771e+01   2.4761555893e+01    0.2002708     0.100871 -43.13 0.0009434854    1.681    0.405
       230  -8.5936    206.1272     84.9543   2.9571555559e+01   2.3602248817e+01    0.3133449    0.1534811 -29.32  0.001461238    1.940    0.485
       231 -10.5421    231.7248     81.5042   2.5931813931e+01   1.9586795816e+01    0.4796491    0.1213244 -32.11  0.001775176    3.364    0.703
       232  -8.3316    193.5957     82.7719   3.0666763866e+01   2.6330034078e+01    0.2039713    0.1027359 -44.19  0.000747966    1.702    0.413
       233  -8.0563    185.5448     83.0136   3.1853286118e+01   2.7902131623e+01    0.2168582    0.1184298 -37.19 0.0006972069    1.578    0.366
       234  -7.7367    170.0000     82.9622   3.4239515856e+01   3.1154673862e+01    0.2389747   0.07371429 -36.61 0.0007972802    2.907    0.656
       235  -8.8010    225.5433     80.2883   2.6293317458e+01   2.0797840195e+01    0.2468021   0.09083337 -37.46 0.0009158844    2.032    0.508
       236  -8.4206    164.6249    248.5117   6.7145802434e+01   4.0550516633e+00    0.1660638    0.0981578 -39.00  0.001086934    1.871    0.466
       237  -8.1312    200.7694     76.7385   2.8256702277e+01   2.5837873108e+01    0.2238995   0.07543138 -42.46 0.0008866717    2.405    0.584
       238  -8.3632    211.2812     76.2200   2.6899394716e+01   2.3916620065e+01    0.2359414     0.135451 -32.57  0.001250619    1.487    0.327
       239  -7.4560    172.3076     49.7275   2.4640079508e+01   3.5782555762e+01    0.1419194   0.09160461 -62.53 0.0001800356    1.544    0.353
       240  -9.4257    204.2621     66.8826   2.5436013850e+01   2.6577387481e+01    0.3681606    0.1549916 -50.59  0.001604407    2.292    0.564
       241  -8.0605    215.3874     78.7743   2.7038118678e+01   2.2801115018e+01    0.1820083    0.1050458 -26.64 0.0009456735    1.675    0.403
       242  -7.8512    178.3020     49.6642   2.3895693839e+01   3.4435545660e+01    0.1477477   0.08697411 -58.30  0.000703654    1.662    0.398
