#   1 NUMBER                 Running object number                                     
#   2 MAG_AUTO               Kron-like elliptical aperture magnitude                    [mag]
#   3 X_IMAGE                Object position along x                                    [pixel]
#   4 Y_IMAGE                Object position along y                                    [pixel]
#   5 X_WORLD                Barycenter position along world x axis                     [deg]
#   6 Y_WORLD                Barycenter position along world y axis                     [deg]
#   7 A_WORLD                Profile RMS along major axis (world units)                 [deg]
#   8 B_WORLD                Profile RMS along minor axis (world units)                 [deg]
#   9 THETA_WORLD            Position angle (CCW/world-x)                               [deg]
#  10 FWHM_WORLD             FWHM assuming a gaussian core                              [deg]
#  11 ELONGATION             A_IMAGE/B_IMAGE                                           
#  12 ELLIPTICITY            1 - B_IMAGE/A_IMAGE                                       
         1 -14.1558    185.4725     29.8504   6.7955139621e+01   3.5297867649e+01    0.9429219    0.8675675  84.14  0.003061358    1.084    0.078
         2 -14.5360    193.4369     18.2132   6.3949816036e+01   3.4680439436e+01     0.895363    0.7845644  18.11  0.001702238    1.539    0.350
         3 -10.1448     57.3997    239.5673   1.4156172218e+02   1.8079405922e+01     0.178354    0.1487593  89.53  0.001187547    1.223    0.182
         4 -16.1902    106.4344    229.7509   1.3089837529e+02   1.2628932939e+01      9.14756     2.992762  51.99   0.03305323    3.154    0.683
         5 -12.1922     63.0545    250.0995   1.4141469476e+02   1.5271538317e+01    0.2677465     0.185651  44.01 0.0004567349    1.432    0.302
         6 -10.6323     40.7262    219.9733   1.4304476348e+02   2.4215312758e+01    0.3287045    0.1581709  42.29  0.001314194    1.946    0.486
         7 -11.7141     45.6093    216.0766   1.4175836622e+02   2.4437467930e+01    0.5982367    0.2175678  51.68  0.002742185    2.456    0.593
         8 -19.3356     16.1190    130.9196   1.3929943505e+02   4.6796652407e+01     18.42466     1.817432 -69.74   0.03703961   11.387    0.912
         9 -10.1284     49.0899    212.7297   1.4075829308e+02   2.4716001897e+01    0.2739901   0.09398448  51.70  0.001172522    2.684    0.627
        10 -10.7434     42.6330    209.1528   1.4172121577e+02   2.6290577451e+01    0.4476462    0.1146857  51.87   0.00163923    3.862    0.741
        11 -12.1083     72.5366    250.4680   1.3972208959e+02   1.3863384156e+01    0.5703139    0.2091879  42.05  0.002698417    2.304    0.566
        12 -11.0916     71.5786    236.4897   1.3860809486e+02   1.6709574631e+01    0.2512399    0.1713054  83.61 0.0007852115    1.361    0.265
        13 -12.0517    111.0514    204.3220   1.2643463141e+02   1.7155748716e+01    0.2753889    0.2045812 -74.35  0.001394136    1.423    0.297
        14 -12.0890    191.4263    191.2955   1.0614497547e+02   4.3445712315e+00     1.352044    0.6090589 -60.65  0.003533475    6.297    0.841
        15 -11.9655    199.2110    199.6050   1.0613244066e+02   1.2806006222e+00    0.3487343    0.2497291  27.04  0.001324879    1.378    0.274
        16 -12.2832     82.7113    230.8293   1.3584865426e+02   1.6197126703e+01    0.3788085    0.2599407  72.93  0.001998955    1.348    0.258
        17 -16.1049     69.1385    150.0572   1.2803398830e+02   3.6605827636e+01     5.053344     2.808661  69.42   0.02042826    2.698    0.629
        18 -11.0011    208.7911    188.1987   1.0189534684e+02   1.5244845592e+00    0.2070679    0.1650091   5.10  0.001065565    1.348    0.258
        19 -12.2465     81.3765    182.6302   1.3009348483e+02   2.7003689884e+01    0.5225368     0.282369 -43.11  0.001218774    2.485    0.598
        20 -12.0212     84.8208    176.9808   1.2841759902e+02   2.7799873377e+01    0.3179847    0.2586106 -51.02 0.0007762018    1.347    0.258
        21 -10.1028     90.5517    184.0382   1.2812226746e+02   2.5223806901e+01    0.2610483    0.1714354  60.40 0.0007233163    1.544    0.352
        22 -10.6732    199.9203    180.2503   1.0210355270e+02   4.7668375448e+00    0.3154542    0.2125279 -57.58  0.001127487    1.880    0.468
        23 -11.9145     70.1453    245.9415   1.3975819320e+02   1.5066734795e+01    0.4624842    0.3489434  49.19  0.002996375    1.267    0.211
        24 -10.9192     92.4794    177.6494   1.2665936529e+02   2.6408910985e+01    0.3501059    0.2166611  64.89 0.0009884506    1.845    0.458
        25 -10.2659     72.4694    175.2234   1.3114958931e+02   3.0081727975e+01    0.3431459    0.1491322  53.41  0.001337777    2.582    0.613
        26 -11.2319    125.6974    172.9698   1.1768296937e+02   2.1528757542e+01    0.2193855    0.2036956 -78.51  0.001179244    1.079    0.073
        27 -11.3016    191.1694    231.2112   1.1350723855e+02  -2.7057025172e+00    0.3879547    0.2149916 -59.80  0.001648289    3.182    0.686
        28 -11.4456    137.2344    170.4367   1.1436770255e+02   1.9823981477e+01    0.3056754    0.1478116  38.61   0.00114937    2.087    0.521
        29 -12.5939     97.1686    159.1626   1.2228806416e+02   3.0038815783e+01    0.6972551    0.4181575 -35.15  0.001986817    2.330    0.571
        30 -12.5277    103.3254    236.3908   1.3233751243e+02   1.1832357339e+01    0.3135317    0.2678051 -88.65 0.0002555719    1.203    0.168
        31 -10.0104     40.8898    232.5626   1.4402955492e+02   2.1608312438e+01    0.1587092    0.1153815  63.58 0.0005038838    1.121    0.108
        32 -11.3031    133.7107    144.4881   1.0973636247e+02   2.6550557736e+01     1.033659    0.2315859 -54.12  0.002128198    7.031    0.858
        33 -10.5321    179.9564    147.7180   9.9315208600e+01   1.5652821042e+01    0.2237188     0.203635  49.68 0.0005055098    1.090    0.083
        34 -11.7533    108.1886    142.5652   1.1604780518e+02   3.2064502317e+01     0.582407    0.2896205 -35.27   0.00199373    2.993    0.666
        35 -12.3667     96.4714    143.5192   1.1942537533e+02   3.3933591283e+01    0.2747118     0.258515 -37.19  0.001519021    1.147    0.128
        36 -11.1583    115.1883    132.2497   1.1183763913e+02   3.3176130504e+01     0.307787    0.2585584 -19.00 0.0007566645    1.417    0.294
        37 -11.6342    104.1217    129.4632   1.1425658694e+02   3.5932088645e+01    0.5057412    0.3646366  73.95  0.001029505    1.839    0.456
        38 -10.1185    160.6515    127.3238   9.8905078808e+01   2.4462751868e+01    0.1679269    0.1279802  89.34 0.0007049286    1.747    0.428
        39 -10.2372    110.6088    120.7642   1.1036313328e+02   3.6740780301e+01    0.2348126    0.2046551  27.09 0.0005654606    1.221    0.181
        40 -10.9880     67.0126    115.6826   1.2200514771e+02   4.5116276322e+01    0.1888535    0.1823715 -26.38 0.0008364487    1.093    0.085
        41 -12.5218     42.7078    114.6903   1.2916918028e+02   4.8224939504e+01    0.3889116    0.1872634  36.42  0.001853874    2.320    0.569
        42 -10.4948    168.4745    113.4551   9.3550499872e+01   2.5569916479e+01    0.3214105    0.2562329 -83.34  0.001051277    1.538    0.350
        43 -10.0974    204.9224    110.3763   8.5132261487e+01   1.7476128251e+01    0.3089143     0.186556  39.58  0.001283901    1.914    0.477
        44 -10.3380     67.8620    225.9967   1.3830361950e+02   1.9375814637e+01     0.239101    0.1431011  78.33 0.0008936918    1.676    0.403
        45 -11.0642     65.9637    104.6866   1.1983836225e+02   4.7782492437e+01    0.1876744    0.1818678  -2.98 0.0008144727    1.106    0.096
        46 -10.5892     52.3089     89.5598   1.2063309498e+02   5.2822240858e+01    0.2221695    0.1252621  32.75  0.000844708    1.957    0.489
        47  -9.2058     63.3398     83.2769   1.1525401244e+02   5.2782086742e+01    0.1375024    0.0962081 -16.62 0.0002984472    1.617    0.382
        48  -9.5099    249.3122     55.3175   6.5725326137e+01   1.6643684031e+01    0.1188302    0.1049366  27.98 0.0005125784    1.643    0.391
        49 -13.5585    175.9772     38.4644   7.1711947637e+01   3.6590965781e+01    0.6798043    0.5284477  -1.68  0.001487428    1.760    0.432
        50 -10.2518     37.0653    223.9991   1.4406606600e+02   2.3818390526e+01    0.1828867    0.1322071  77.53 0.0007405191    1.072    0.067
