#   1 NUMBER                 Running object number                                     
#   2 MAG_AUTO               Kron-like elliptical aperture magnitude                    [mag]
#   3 X_IMAGE                Object position along x                                    [pixel]
#   4 Y_IMAGE                Object position along y                                    [pixel]
#   5 X_WORLD                Barycenter position along world x axis                     [deg]
#   6 Y_WORLD                Barycenter position along world y axis                     [deg]
#   7 A_WORLD                Profile RMS along major axis (world units)                 [deg]
#   8 B_WORLD                Profile RMS along minor axis (world units)                 [deg]
#   9 THETA_WORLD            Position angle (CCW/world-x)                               [deg]
#  10 FWHM_WORLD             FWHM assuming a gaussian core                              [deg]
#  11 ELONGATION             A_IMAGE/B_IMAGE                                           
#  12 ELLIPTICITY            1 - B_IMAGE/A_IMAGE                                       
         1 -13.6619    200.6382     65.2906   1.6120663105e+01   2.8450229328e+01     6.552424     1.527307 -39.22  0.008412725    3.375    0.704
         2 -14.3600    232.6589     50.5964   1.0431191519e+01   2.4950495303e+01       3.2515     1.744916 -36.83   0.01968119    1.633    0.388
         3 -13.4664    242.2008    120.8178   2.2210045347e+01   1.4222371411e+01     1.643967    0.5220079 -48.15  0.002774104    2.941    0.660
         4 -14.4133    236.0238    102.1083   1.9552024406e+01   1.7689150807e+01     2.059307     1.340744 -27.88   0.01363532    1.616    0.381
         5 -11.0995    247.4691     16.2578   3.5015449754e+00   2.6451618099e+01    0.3615624    0.3386551  -8.62  0.001831463    1.761    0.432
         6  -9.8124    205.0563      7.9714   3.9926959129e+00   3.4346195815e+01    0.3629062    0.1906007  42.42  0.001798239    4.392    0.772
         7  -9.4279    203.9254     18.8439   6.2464029399e+00   3.3453409064e+01    0.2991908    0.1691834 -41.20  0.001135462    1.519    0.341
         8  -9.8685    199.3840     15.3337   5.8113440081e+00   3.4654177878e+01    0.2788652    0.1898683 -32.26  0.001935127    1.612    0.380
         9 -12.4418    221.5123     23.3450   6.0698478165e+00   2.9879835770e+01     1.178948    0.7673826 -16.26  0.005810136    2.531    0.605
        10  -8.5917     92.0291     14.2793   1.7570680772e+01   5.8267275906e+01    0.1919478    0.1816678 -63.61 0.0004564753    1.188    0.158
        11  -9.3669    120.1713      9.3999   1.1351734918e+01   5.2057969926e+01    0.2852773     0.227514 -74.22 0.0009490305    1.150    0.130
        12 -14.2713    205.2001    106.3255   2.3943388097e+01   2.1664297227e+01     2.816402      2.27232 -79.10   0.01589273    1.452    0.311
        13  -8.3236    224.6155      6.9100   2.8472514069e+00   3.1031245097e+01     0.148649     0.118756 -84.85 0.0004132248    1.293    0.226
        14  -9.0702     98.9419      5.1666   1.2966382771e+01   5.7446255355e+01    0.2044044     0.184789 -14.33 0.0004322358    1.394    0.283
        15  -9.1667    233.3389      4.0253   1.9644519568e+00   2.9871732706e+01    0.1716027    0.1540094 -60.82 0.0005978508    1.400    0.286
        16 -13.7384    241.4953     35.2321   7.0887604627e+00   2.5350563966e+01     4.706296    0.7390196 -39.00   0.01388597    3.628    0.724
        17 -11.0092    194.4520    192.8880   4.1622689370e+01   8.8971853567e+00    0.6846017    0.4149632 -50.97  0.002541353    1.925    0.481
        18  -8.0246    183.7288    199.9961   4.4746261406e+01   8.9538970341e+00     0.168958    0.1322878 -22.50 0.0003851513    1.058    0.055
        19  -9.7361    178.6227    194.6087   4.4819924638e+01   1.0480118046e+01    0.2413453    0.2033255 -45.25  0.001570611    1.380    0.275
        20  -8.7402     36.9753    192.9950   8.0926396683e+01   2.8608368993e+01    0.2038361    0.1916273  25.43            0    1.030    0.029
        21 -10.1822    188.2009    163.8060   3.7644404703e+01   1.4619520900e+01    0.8983411    0.3179417 -30.94  0.002973867    4.460    0.776
        22 -11.1665    222.0495    187.0333   3.6140581038e+01   6.7621924908e+00     1.236603     0.887181  75.82  0.005543767    5.680    0.824
        23 -10.4352    215.4200    187.8862   3.7301672863e+01   7.3431103535e+00    0.6625673     0.442076  52.08    0.0039094    2.727    0.633
        24 -11.4879    193.9231    168.0042   3.7411166168e+01   1.3133802147e+01    0.5997967    0.3494991 -51.11  0.001714138    1.854    0.461
        25 -11.0812    202.6940    166.9975   3.5767366950e+01   1.2173245258e+01    0.7706585    0.4119898 -39.12  0.003254138    1.551    0.355
        26  -8.1769    250.6722    188.5767   3.2367870801e+01   3.7127804342e+00    0.1781585   0.07257783 -39.60  0.000543824    1.842    0.457
        27  -8.5453    236.6434    186.1597   3.3878822395e+01   5.3929143083e+00    0.1694124    0.1100274 -41.01 0.0008492718    1.380    0.276
        28  -8.5063    181.0000    183.9962   4.2560043643e+01   1.2036176693e+01     0.352579   0.06339231 -45.63  0.001059979    5.013    0.801
        29 -12.2839    244.0305    179.3400   3.1786875926e+01   5.6321304877e+00     1.613157      1.05763  52.30  0.000597952    2.860    0.650
        30  -8.3575    248.6593    245.9802   4.1034106697e+01  -3.5874380316e+00    0.1353921   0.07528408 -52.45 0.0007050197    4.376    0.771
        31  -9.3482    228.8587    181.2100   3.4183087089e+01   6.9138365981e+00    0.1951891     0.138763 -33.31 0.0003182421    1.116    0.104
        32  -7.9145    184.5344    179.6100   4.1138493715e+01   1.2351629615e+01    0.2134568    0.1106389 -52.79  0.001014398    2.305    0.566
        33  -8.4819    180.7487    174.9647   4.1016723463e+01   1.3660805088e+01    0.1829845    0.1475676 -30.36 0.0007640027    1.074    0.069
        34  -8.7760    111.2790    171.0188   5.6003023229e+01   2.4528073587e+01    0.3437181    0.2225693 -29.60  0.001547376    1.727    0.421
        35  -8.6220      4.2102    170.1053   8.9356814176e+01   3.7255489525e+01    0.2095158    0.1783708 -37.94  0.000770967    1.266    0.210
        36  -8.7699    237.1122    169.0220   3.1032932052e+01   7.8299105874e+00    0.1716611    0.1278264 -32.25  0.001271958    1.051    0.049
        37  -8.4657    178.9123    169.3787   4.0351394742e+01   1.4904858803e+01    0.3821533    0.1210072  36.12  0.001494486    3.474    0.712
        38  -9.2899    222.3796    163.4483   3.2136741161e+01   1.0327511798e+01    0.2960726    0.1676155 -49.36 0.0009726177    1.809    0.447
        39  -8.0006    142.4317    165.2383   4.7163588261e+01   2.1022781305e+01    0.1841674    0.1318747 -56.54 0.0007555744    1.563    0.360
        40 -10.6102    191.7240    152.6949   3.4976528724e+01   1.6054375609e+01    0.6379826    0.2854412 -52.79  0.002776622    2.692    0.629
        41  -8.3701    185.1143    158.3448   3.7179815420e+01   1.6004382293e+01    0.1638377    0.1503575 -23.28 0.0005528734    1.109    0.098
        42  -7.3913    130.6810    244.3345   6.2322950264e+01   7.1988652039e+00    0.1179866   0.09065299  44.75 0.0007049005    1.699    0.411
        43  -9.9224    201.5435    149.1184   3.2709427917e+01   1.5287357932e+01    0.6026287    0.2662291 -56.28  0.002331886    3.861    0.741
        44  -9.0401    182.0731    150.7555   3.6283220644e+01   1.7789592571e+01    0.3365335    0.1867137 -50.61  0.001390899    1.828    0.453
        45  -7.7757     97.5225    152.4984   5.6398164370e+01   3.1001713280e+01    0.1494849    0.1451708  17.16 0.0008099223    1.041    0.039
        46 -10.2812    135.6972    128.6268   4.1170982602e+01   2.9753466997e+01    0.8462548    0.1928051 -46.34   0.00242249    4.198    0.762
        47 -10.7506    144.4507    136.9818   4.0996779151e+01   2.6485353707e+01    0.4069677    0.3359566  23.32  0.001437416    1.305    0.234
        48 -10.4855    133.4568    143.5006   4.4930455287e+01   2.7031484274e+01     1.198641    0.3486358 -54.43  0.003290732    4.845    0.794
        49 -11.3438    138.6891    140.4069   4.3038574467e+01   2.6780942811e+01    0.8685132    0.6649666 -64.31  0.004475747    1.535    0.349
        50 -10.8748    152.4137    145.0708   4.0951846705e+01   2.3513088993e+01    0.7985175    0.4795145  40.90    0.0036003    1.781    0.439
        51  -9.9718    165.0135    143.6568   3.8079409314e+01   2.1729556374e+01    0.4308509    0.2817996 -51.32   0.00147797    1.535    0.348
        52 -10.1180    159.3388    143.3746   3.9158297813e+01   2.2705388990e+01    0.3579448    0.3180932  11.38  0.001250431    1.186    0.157
        53  -7.4910     83.7414    151.3188   6.0355456500e+01   3.3449203478e+01    0.1487799    0.1186852  70.19 0.0003817687    1.542    0.352
        54  -8.1540    173.9813    147.7794   3.7182807471e+01   1.9548743505e+01    0.2006202    0.1575497  79.91 0.0009239872    1.994    0.499
        55 -10.4595     67.8632    143.7385   6.4127211826e+01   3.7749899722e+01       0.7602    0.5440407  70.04  0.003252133    1.809    0.447
        56  -9.7002    192.5319    144.2110   3.3234492643e+01   1.7395037979e+01    0.2462356    0.2147451  23.62 0.0005933841    1.300    0.231
        57  -7.9368    173.2411    143.6026   3.6493897882e+01   2.0430256468e+01    0.1767977    0.1230471  25.18 0.0009536956    1.694    0.410
        58  -9.6800    236.9451    227.6405   4.0156233927e+01  -3.8147431751e-01    0.3300532    0.2391143  42.00  0.002335831    2.611    0.617
        59  -8.4847     81.2496    141.6844   5.9279625756e+01   3.6250032407e+01    0.2929587    0.2010017 -60.00  0.001322532    1.530    0.346
        60 -10.9623     21.6088    132.5959   7.9505702527e+01   4.6208794876e+01    0.4688397    0.3377812  22.81 0.0001049758    1.381    0.276
        61 -11.5997      2.6672    125.2674   8.6308104686e+01   4.9570510161e+01     0.916247    0.4297358 -62.28  0.003851843    1.915    0.478
        62 -12.1613      9.6980    120.5193   8.2850577363e+01   5.0450211816e+01     1.039836    0.6300518 -66.82   0.00481696    1.554    0.356
        63 -11.9509     37.8478    121.7065   7.1258606625e+01   4.7558690653e+01     1.012614    0.7583494 -55.07  0.002920558    1.312    0.238
        64 -11.4262     29.8975    122.8743   7.4719087509e+01   4.8103211919e+01    0.6236743    0.4148667  10.48  0.001226939    1.578    0.366
        65  -9.7750    142.4679    123.6544   3.8510893348e+01   2.9523179194e+01    0.2813628    0.2204218  78.08  0.001367833    1.691    0.409
        66  -9.4837    135.0567    119.8129   3.9313263122e+01   3.1677987689e+01    0.3230887    0.1979518 -42.05 0.0009563594    1.590    0.371
        67  -9.3419    143.5507    118.7897   3.7167466539e+01   3.0285880847e+01    0.2687387    0.2323684 -61.59  0.000384202    1.196    0.164
        68  -9.2134    153.0045    119.0212   3.5233239877e+01   2.8489166075e+01    0.2268085    0.1710689 -79.57  0.001152085    1.785    0.440
        69 -11.3332     21.7841    117.7975   7.7318702751e+01   5.0260142325e+01    0.6282738    0.3367755  35.17  0.002665124    1.851    0.460
        70 -10.5945     19.9034    112.4865   7.7300717204e+01   5.1870501161e+01    0.4044124    0.2914365   8.81  0.001975648    1.424    0.298
        71  -8.0452    154.3463     94.7631   2.9349440757e+01   3.2675629516e+01    0.1961426    0.1582179 -43.59 0.0008655296    1.177    0.150
        72 -10.1034    159.3179    113.1693   3.2679028486e+01   2.8421514211e+01    0.2773729    0.2426327 -48.72  0.001050815    1.058    0.055
        73 -10.5228    160.3598    108.5849   3.1449058778e+01   2.9061966133e+01    0.7059722    0.2955062  52.05  0.002225277    2.671    0.626
        74 -11.2383    160.0156    101.6267   2.9921084672e+01   3.0368283747e+01    0.6246111    0.3632648 -56.79  0.001050338    1.879    0.468
        75 -10.7479    168.5312    107.0451   2.9636058847e+01   2.7825747700e+01    0.4283029    0.3299626 -23.77  0.002250927    1.481    0.325
        76  -9.7277    134.3202    112.2755   3.7708884894e+01   3.3335912102e+01    0.6166745     0.249523 -38.05  0.002226114    2.773    0.639
        77  -9.0668    135.3317    104.3097   3.5549089669e+01   3.4701144659e+01    0.3401436    0.2655929 -39.17  0.000578015    1.278    0.218
        78  -9.1040    150.5376    110.2271   3.3728240641e+01   3.0610872659e+01    0.2433965    0.2191216  21.00 0.0006082612    1.264    0.209
        79 -11.5370     45.9347    123.3985   6.8329398049e+01   4.6123646993e+01    0.8722366     0.570603 -58.48  0.002727227    1.514    0.339
        80 -11.5901     58.7934    120.9218   6.2846293352e+01   4.5007925702e+01     2.282671    0.9999177  45.79  0.007957545    2.587    0.613
        81 -10.6730    179.5412    107.2241   2.7843735310e+01   2.5819166715e+01    0.4770792    0.3499261  50.89  0.001637366    1.541    0.351
        82  -7.8744     98.0218    109.0461   4.6526064086e+01   4.1111241974e+01    0.1768845    0.1699267 -45.67 0.0003212245    1.054    0.051
        83  -9.6466    125.7684    106.5759   3.8342626539e+01   3.6161340499e+01    0.3068589    0.2536141  31.60 0.0007518766    1.318    0.241
        84  -9.3506    144.3864    102.4007   3.3135005140e+01   3.3265962218e+01    0.3116251    0.2755105 -72.31 0.0009335939    1.167    0.143
        85  -8.3805    107.4736    107.2331   4.3302221737e+01   3.9664190811e+01    0.2119774    0.1435512 -60.54 0.0006929131    1.673    0.402
        86 -11.5206    179.4703     98.2187   2.5905605083e+01   2.7330158350e+01    0.4073321    0.3411748 -33.40  0.001321307    1.213    0.175
        87  -8.3825      2.3257    102.3196   8.3854831341e+01   5.5850836287e+01    0.1581967   0.09170866 -38.70 0.0007046335    1.679    0.404
        88 -14.0309    243.4203    109.3596   2.0079834983e+01   1.5674763284e+01     5.198645     1.344153  42.18   0.01618453   10.834    0.908
        89 -10.4353    169.4027    112.1105   3.0600794545e+01   2.6777947757e+01    0.3499811    0.2378986 -43.65 0.0007419986    1.325    0.245
        90  -8.6001    140.1047     95.1616   3.2249690840e+01   3.5462681913e+01    0.3052629    0.1774905 -47.48 0.0009767041    1.665    0.399
        91  -8.2147     72.0886     91.4872   5.0492065659e+01   4.9987530220e+01    0.2123808    0.1970016 -45.74 0.0003318735    1.117    0.104
        92 -13.7928    247.2438    146.2152   2.5970068819e+01   1.0002243968e+01     2.266696      1.92088 -37.94   0.01859229    1.193    0.162
        93  -8.8672    158.3235     90.2820   2.7563924820e+01   3.2661368529e+01    0.2595638    0.1932269 -53.79  0.000922167    1.268    0.211
        94  -7.8467    139.5114     79.4668   2.8362943055e+01   3.8359944355e+01    0.1340401    0.1291292 -77.36 0.0002336816    1.060    0.057
        95  -8.2084    123.9935     77.3531   3.1061982307e+01   4.2061671945e+01    0.1901618    0.1679878  57.52 0.0008465263    1.122    0.109
        96  -7.4008    108.2290     72.6492   3.3510716525e+01   4.6347969000e+01    0.1409212    0.1066233 -71.50 0.0002384311    1.559    0.359
        97  -9.6985    173.2238     65.2398   1.9350862473e+01   3.3625104949e+01    0.2726277    0.1466589 -68.23  0.001246563    2.406    0.584
        98  -9.5194    163.4986     62.8914   2.0127997848e+01   3.5930771864e+01    0.2859718    0.1938077 -49.09  0.001012706    1.343    0.256
        99  -9.1753    193.8158     63.5747   1.6491507911e+01   2.9919843083e+01    0.2202653    0.1595615 -45.98 0.0005208486    1.196    0.164
       100  -8.4147     85.0063     63.2187   3.7184599696e+01   5.3124000882e+01    0.2325878    0.2024824 -45.87 0.0007033041    1.229    0.186
       101  -8.3820    161.5491     66.4150   2.1271094265e+01   3.5814328414e+01    0.2356062     0.174509 -39.40 0.0001311712    1.342    0.255
       102  -9.0176    144.4472     59.4208   2.2176901869e+01   4.0478270040e+01    0.2610395    0.1980535 -52.16 0.0009096229    1.256    0.204
       103  -8.8556    135.2468     59.7946   2.3883497772e+01   4.2445768953e+01    0.2399501     0.157841 -44.52 0.0007272099    1.499    0.333
       104  -9.1640    188.9195     56.9604   1.5592242269e+01   3.1728443478e+01     0.355568    0.1542004 -35.29  0.001471583    2.220    0.550
       105 -10.5392    187.0907     49.7133   1.4189827966e+01   3.3027642154e+01    0.3872283    0.2955184 -19.42    0.0024524    1.773    0.436
       106  -7.2360     72.7006     58.3200   3.9657604898e+01   5.6626062269e+01    0.1412671    0.1128201  86.14 0.0005735764    1.621    0.383
       107 -10.5902    160.7742     51.2803   1.7646074812e+01   3.8126197702e+01    0.4315391    0.2347579 -67.14    0.0020821    2.161    0.537
       108 -12.3418    247.9493     49.2998   9.1613001178e+00   2.2776371642e+01    0.8630556    0.2600099 -40.17  0.002691954    2.320    0.569
       109  -9.8192    209.3895     47.4640   1.1638497783e+01   2.9208205368e+01    0.2695928    0.1675965 -37.65  0.001594104    1.489    0.328
       110 -10.0854    213.1829     45.1282   1.0862103274e+01   2.8831225494e+01    0.2151502    0.1586794 -45.94 0.0004412928    1.187    0.157
       111  -8.5336    166.4704     49.5044   1.6477310679e+01   3.7174329081e+01    0.1236461     0.107086 -71.09  0.000188746    1.026    0.025
       112  -8.8331      2.3374    226.7550   9.2779235057e+01   2.3442751401e+01    0.2388074     0.160704   5.62 0.0007461212    1.594    0.373
       113 -10.4598    195.9766     43.4578   1.1974389514e+01   3.2129733166e+01    0.2876981    0.1879808 -32.17 0.0003894739    1.641    0.390
       114  -9.2546    196.9433     32.9700   9.6680553309e+00   3.3194404147e+01    0.1868882    0.1372825 -44.66 0.0003903092    1.254    0.203
       115  -7.9451     16.3093    220.2895   8.8820700535e+01   2.3844118247e+01    0.1261537   0.09529898 -27.97 0.0004391375    1.579    0.367
       116  -9.9522    156.6717     43.8612   1.6318182174e+01   3.9978042559e+01    0.3714573     0.249062 -32.97  0.002129493    1.622    0.383
       117  -8.6035    197.8355     37.1417   1.0475737295e+01   3.2542404619e+01    0.1806061    0.1402449 -80.41 0.0003498039    1.164    0.141
       118  -7.9760    204.1959     36.0043   9.7291268807e+00   3.1507376861e+01     0.146478    0.1153818 -60.30            0    1.037    0.036
       119  -8.2575     17.5573     35.0619   5.7786859622e+01   7.0608988315e+01    0.1872449    0.1266956 -45.43 0.0005996483    1.562    0.360
       120  -8.5911    181.4048     29.0964   1.0117660663e+01   3.6636517932e+01    0.2223704    0.1263872 -63.60 0.0003387606    1.589    0.371
       121  -9.2560    199.6441     27.2920   8.2719532682e+00   3.3331789696e+01    0.1834048    0.1578348 -63.78 0.0005203229    1.169    0.144
       122  -7.6160     87.3066     26.2738   2.3183300357e+01   5.8094213324e+01    0.1322492   0.09241852  39.87 0.0002766705    1.545    0.353
       123  -9.1999    179.5973     23.8565   9.0833156422e+00   3.7579239975e+01    0.3515541    0.2096717 -88.35  0.002142345    1.579    0.367
       124  -8.5224     33.4924    218.5101   8.4062350961e+01   2.2774007362e+01    0.1329391    0.1209291  22.80 9.822127e-05    1.061    0.058
       125  -9.0565    221.2270    216.2462   4.0869588646e+01   2.5412904453e+00    0.2335917    0.2012555  51.22  0.001692771    2.221    0.550
       126  -9.4250     92.9507    214.0906   6.7522842033e+01   1.7366313858e+01    0.2150786    0.1863545 -30.67 0.0003974203    1.193    0.162
       127  -8.8221    128.1811     18.3374   1.3034573823e+01   4.9328765141e+01    0.2147612    0.1852543  80.19 0.0004481876    1.091    0.084
       128  -8.1383    250.2001    211.8082   3.5949463185e+01   6.2997196887e-01    0.1466523    0.1057841 -24.95 0.0005221487    1.118    0.106
       129  -8.6223    246.1894    209.0776   3.6094161912e+01   1.3278543717e+00    0.1970273    0.1372762 -48.93  0.001409279    1.970    0.492
       130  -8.1355    108.4923     13.5181   1.4357196600e+01   5.4423604275e+01    0.1285348    0.1075604  83.78 5.123364e-05    1.017    0.017
       131  -7.6730    210.6506    208.3250   4.1353980339e+01   4.7195094147e+00   0.09588161    0.0910638 -59.23 0.0005538961    1.753    0.429
       132  -8.2061    215.2276    207.2379   4.0438442357e+01   4.4275884791e+00    0.1354644    0.1196919 -20.57 0.0003867997    1.351    0.260
       133  -8.3461     10.3390    206.3380   8.9681021215e+01   2.7603172703e+01    0.1383335   0.09394398 -34.96 0.0007050849    1.760    0.432
       134  -8.5796    203.9686    202.4074   4.1532900854e+01   6.3166403365e+00    0.2872504    0.1273025 -38.75  0.001528984    1.878    0.468
       135  -9.8191    198.4569    197.4754   4.1679199964e+01   7.6970450372e+00    0.2969677    0.1911591 -31.74 0.0005409049    1.280    0.219
