#   1 NUMBER                 Running object number                                     
#   2 MAG_AUTO               Kron-like elliptical aperture magnitude                    [mag]
#   3 X_IMAGE                Object position along x                                    [pixel]
#   4 Y_IMAGE                Object position along y                                    [pixel]
#   5 X_WORLD                Barycenter position along world x axis                     [deg]
#   6 Y_WORLD                Barycenter position along world y axis                     [deg]
#   7 A_WORLD                Profile RMS along major axis (world units)                 [deg]
#   8 B_WORLD                Profile RMS along minor axis (world units)                 [deg]
#   9 THETA_WORLD            Position angle (CCW/world-x)                               [deg]
#  10 FWHM_WORLD             FWHM assuming a gaussian core                              [deg]
#  11 ELONGATION             A_IMAGE/B_IMAGE                                           
#  12 ELLIPTICITY            1 - B_IMAGE/A_IMAGE                                       
         1 -12.8558    219.5634     17.4690   5.4002012198e+01   2.7635746277e+01     1.311274     1.000231  31.27  0.002520602    1.599    0.375
         2 -12.4198    234.8037      4.8394   4.9334432484e+01   2.5257350297e+01     1.546805    0.9235739  80.12  0.006564487    1.652    0.395
         3  -8.4518    190.3481     15.6626   5.6833788802e+01   3.5271363398e+01    0.1555959   0.09865467 -62.23 0.0004779452    1.783    0.439
         4 -11.3318    248.3458    247.1712   1.0051531353e+02  -8.4531893907e+00    0.7350613    0.4436046   8.84  0.004991855    1.581    0.367
         5 -12.0936    239.5795    244.0422   1.0142987205e+02  -6.9291990280e+00    0.3163826    0.2255423  15.70  0.000409433    1.134    0.118
         6 -11.0976     11.6724    247.3399   1.3902602321e+02   2.4146066909e+01     0.286397     0.156235  67.08  0.002269656    1.263    0.208
         7 -10.6217     37.9512    242.2695   1.3482512806e+02   2.2220721419e+01    0.2092084     0.190312  26.01  0.001799783    1.865    0.464
         8 -10.0438    228.8775    249.1576   1.0387442853e+02  -5.8878346160e+00    0.2554107    0.1561347  53.07  0.001550624    2.294    0.564
         9 -10.2674      3.7016    236.6116   1.3979551817e+02   2.6622792856e+01     0.194124    0.1371489  62.99 0.0008128409    1.167    0.143
        10 -10.4323      6.1310    249.9156   1.3992086527e+02   2.4276930975e+01    0.3261591    0.1466497  44.66  0.001862761    1.797    0.443
        11  -9.0073     39.5295    234.4980   1.3414236414e+02   2.3316214283e+01    0.1872802   0.05776644  49.00  0.001027878    2.299    0.565
        12  -9.3234    116.7711    230.3222   1.2062589894e+02   1.3804845670e+01    0.2125551    0.1334133  38.68  0.001322757    1.471    0.320
        13  -9.7654     51.1403    226.7750   1.3174579930e+02   2.3284951041e+01     0.188258    0.1142127  79.67   0.00130358    1.444    0.307
        14 -11.8688     54.1250    192.3254   1.2852600621e+02   2.9229912617e+01     1.318027    0.9501778 -21.52  0.001732562    3.154    0.683
        15 -11.5104     25.8864    222.7933   1.3570552292e+02   2.6772987431e+01    0.2763355    0.2149611 -85.98 0.0007359763    1.337    0.252
        16 -13.6224     32.5503    214.7559   1.3412789575e+02   2.7487303371e+01     1.293694     1.142289  69.09  0.002515582    1.361    0.265
        17  -8.5912      2.1749    222.9044   1.3950319995e+02   2.9050523511e+01     0.156137   0.08813516  69.03  0.000614487    1.245    0.197
        18  -9.9576    151.9314    221.2473   1.1319860362e+02   9.6488330224e+00    0.1826352    0.1659768  52.76 0.0002391597    1.130    0.115
        19 -11.0704     10.6098    207.1116   1.3743218182e+02   3.1059454320e+01    0.4518671    0.3013516  32.07  0.003147261    1.949    0.487
        20  -8.9014      6.4467    185.8264   1.3704705789e+02   3.5417624871e+01    0.2254931    0.1040482  60.46 0.0007458383    1.790    0.441
        21 -10.6033     61.5397    184.0451   1.2627206847e+02   2.9949701505e+01    0.2457464    0.2229897  70.24 0.0004242888    1.223    0.182
        22 -10.1350     24.5612    180.1501   1.3327729002e+02   3.4867741184e+01    0.3154158    0.1526004  85.04  0.001799694    1.910    0.476
        23 -10.0442     17.8300    170.2741   1.3388674817e+02   3.7493882715e+01    0.2563996    0.1279759  77.58  0.001489717    1.827    0.453
        24  -9.6247     72.6438    172.4608   1.2267842047e+02   3.0856070783e+01    0.2181266    0.1930823 -88.82 0.0002977415    1.124    0.111
        25 -11.8242     59.0270    169.5082   1.2525590395e+02   3.3239455648e+01    0.4383902    0.2541819 -48.48  0.001959251    2.216    0.549
        26  -8.7904    245.0830    166.2902   8.6905254813e+01   1.1237762179e+00    0.2011009    0.1685662  48.11 0.0002822528    1.446    0.309
        27 -11.0646     80.9371    163.7481   1.1974512418e+02   3.1522181528e+01    0.5794443    0.4782707  61.00  0.003678199    1.122    0.109
        28  -9.2087    101.0231    162.7149   1.1509809921e+02   2.8681222973e+01    0.2125907    0.1785015 -63.48 0.0003091372    1.221    0.181
        29  -8.8362    245.6919    161.5490   8.5834679855e+01   1.6490157467e+00    0.2124574    0.1798675  -9.30 0.0004532082    1.092    0.085
        30  -8.1825    167.0967    159.1213   1.0002234376e+02   1.7276204032e+01    0.1975081    0.1741505  22.28  0.001117808    1.154    0.134
        31 -11.8748      5.1494    142.0213   1.3442976795e+02   4.4434510891e+01    0.7650784    0.2826868  89.43  0.003598403    2.709    0.631
        32 -10.2582    213.8878    154.6779   8.9920823930e+01   8.6411444715e+00    0.2318478    0.2141303  15.13 0.0003636724    1.061    0.057
        33  -9.5867     94.4705    149.3471   1.1446045476e+02   3.2567251690e+01    0.3252235    0.2364523  53.04  0.001257138    1.336    0.252
        34  -9.4218     99.2598    147.0079   1.1292956169e+02   3.2304186217e+01    0.3366894     0.243496  70.02 0.0007629654    1.497    0.332
        35 -10.6448     82.9872    147.7745   1.1692901621e+02   3.4663780939e+01    0.2656645    0.2225823 -57.97 0.0003921597    1.239    0.193
        36 -11.0405     68.6822    144.2473   1.1981900832e+02   3.7448746687e+01    0.6086504    0.3601413  88.53  0.002136048    2.029    0.507
        37 -10.2796     64.4977    142.5180   1.2057752042e+02   3.8381219937e+01    0.3991167    0.2432965 -78.24  0.001137984    1.615    0.381
        38  -8.2352    246.0314    156.6889   8.4768650546e+01   2.2454761732e+00    0.1808014    0.1499915  15.08 0.0004265482    1.081    0.075
        39  -8.5924    233.0098    136.9562   8.2653151258e+01   7.5427375113e+00     0.198433     0.178448   0.59  0.001175411    1.013    0.013
        40  -8.9898     94.4320    132.0402   1.1139255668e+02   3.6372428558e+01    0.2200117    0.1935623  16.36 0.0003945083    1.411    0.291
        41  -7.7010    105.3860    122.4911   1.0666899217e+02   3.6637749201e+01    0.1402543    0.1312698 -62.29 0.0002070336    1.048    0.046
        42 -10.4270      4.3110    117.1476   1.3244427206e+02   4.9871352968e+01    0.3118253    0.1996462   7.34  0.001988713    2.372    0.578
        43 -10.6019      4.4242    111.7223   1.3186526235e+02   5.1054818888e+01     0.368214    0.1751566 -54.83  0.002100232    1.919    0.479
        44  -8.2898    188.4723    112.9738   8.5105454994e+01   2.1093884917e+01    0.2225414     0.146218 -37.42 0.0003390814    1.512    0.339
        45  -7.9825    249.6929    110.6933   7.3923546787e+01   8.0592211062e+00    0.1399819     0.100436   9.81 0.0002899297    1.609    0.379
        46  -8.8860    174.0078     90.0348   8.1941469522e+01   2.8609231308e+01    0.2239127    0.2143698   5.82            0    1.050    0.048
        47  -9.6851      2.1863     89.3753   1.2989226571e+02   5.6109560189e+01    0.2345783   0.06217283 -69.37  0.001017306    2.644    0.622
        48  -9.0154    151.3264     89.3044   8.6725213450e+01   3.4117491007e+01     0.222717    0.1622935 -20.49 0.0007847546    1.584    0.369
        49  -7.6810    136.9812     89.7871   9.0310941974e+01   3.7276302533e+01    0.1931042    0.1232144  47.50 0.0004042074    1.591    0.371
        50  -9.8387    230.0393     81.6228   6.9710596264e+01   1.6604613109e+01    0.2679712    0.2425669  33.22 0.0004038541    1.165    0.142
        51  -9.4833    234.2510     77.7950   6.8113758031e+01   1.6207673933e+01    0.2613051    0.1701575  30.34  0.000681581    1.920    0.479
        52 -10.6317    166.5519     73.2930   7.8637566898e+01   3.3368737162e+01    0.4466285    0.3802159 -75.26  0.002150857    1.373    0.272
        53  -8.9810    146.4236     75.3830   8.3746590288e+01   3.7862460691e+01    0.3020607     0.182637 -39.47  0.001021998    1.630    0.387
        54 -10.7730    160.8883     78.2333   8.1327971437e+01   3.3890059387e+01    0.6347957    0.3240422  32.77  0.002190138    2.807    0.644
        55  -9.7527      5.0982     71.9650   1.2641253211e+02   5.9762503209e+01    0.2367214    0.1178368  55.19  0.001229694    2.851    0.649
        56  -7.9155    116.5456     72.6059   9.0484679027e+01   4.5048608442e+01    0.1447037    0.1409011 -16.82 5.731048e-05    1.023    0.023
        57  -8.6670    173.4136     63.7579   7.4360721327e+01   3.3238387325e+01    0.2105852    0.1485245 -17.09 0.0004699122    1.599    0.374
        58 -10.2502    162.2998     62.1697   7.6107686100e+01   3.6285831174e+01    0.3970793    0.2664524 -20.87  0.001599179    1.650    0.394
        59 -10.0519    181.6764     57.5347   7.0919668436e+01   3.2111794671e+01    0.3680653    0.3319705  46.95  0.001170955    1.112    0.101
        60  -9.3019      4.5071     60.5393   1.2457342744e+02   6.2257445194e+01    0.1154821    0.0883399 -62.01 7.787217e-05    1.022    0.021
        61  -8.2389    146.6665     53.6754   7.6731431184e+01   4.1525985646e+01    0.1607226    0.1149445  20.16 0.0007050959    1.710    0.415
        62 -10.3226    129.0920     50.4522   7.9780455513e+01   4.6237803187e+01    0.2560601      0.22345 -24.21 0.0004616173    1.128    0.114
        63  -8.7628    188.5366     49.5169   6.7317084014e+01   3.1531829614e+01    0.1472283    0.1449364 -65.21 2.055307e-05    1.011    0.011
        64 -11.9892    201.7061     36.1581   6.1375385181e+01   2.9943998678e+01    0.6959863    0.5633622  34.42 0.0007039774    1.374    0.272
        65 -10.8307    195.0268     31.4884   6.0935725438e+01   3.2245349048e+01    0.4301333    0.3232685 -12.73  0.001801395    1.490    0.329
        66  -9.9229    184.0270     34.1470   6.3359421286e+01   3.4766834362e+01    0.3439822    0.2648904   0.95 0.0005057527    1.533    0.347
        67 -10.1885    224.3509     33.1171   5.7668549897e+01   2.4639476078e+01    0.3746195    0.2587245 -33.02  0.001445319    1.383    0.277
        68 -10.7026    210.1423     28.2924   5.8035138088e+01   2.8762481642e+01    0.3463624    0.3123462  26.76 0.0006215147    1.245    0.197
        69  -9.9321     22.7013    246.6161   1.3736761780e+02   2.3154918633e+01    0.1533023    0.1238616 -57.11  0.001197959    2.064    0.515
        70  -8.1837     44.2829    247.6207   1.3413337349e+02   2.0658847262e+01    0.1083145   0.05201869  66.96 0.0007011545    1.721    0.419
        71  -9.9664    198.7870     26.4612   5.8946623441e+01   3.1879404138e+01    0.3478245    0.2063795 -67.97  0.001330576    2.110    0.526
        72  -9.4587    182.0874     38.5088   6.5014744263e+01   3.4706827430e+01    0.2487494    0.2345811 -16.83 0.0004750236    1.095    0.087
        73  -9.1098    177.9831     29.8045   6.2945413270e+01   3.6881916317e+01    0.2631635    0.2170743 -28.00  0.001385147    1.243    0.196
        74  -7.7392    170.3011     17.3310   6.0123525777e+01   4.0321432227e+01    0.1510119    0.1027001  32.57 0.0002463003    1.649    0.394
