#   1 NUMBER                 Running object number                                     
#   2 MAG_AUTO               Kron-like elliptical aperture magnitude                    [mag]
#   3 X_IMAGE                Object position along x                                    [pixel]
#   4 Y_IMAGE                Object position along y                                    [pixel]
#   5 X_WORLD                Barycenter position along world x axis                     [deg]
#   6 Y_WORLD                Barycenter position along world y axis                     [deg]
#   7 A_WORLD                Profile RMS along major axis (world units)                 [deg]
#   8 B_WORLD                Profile RMS along minor axis (world units)                 [deg]
#   9 THETA_WORLD            Position angle (CCW/world-x)                               [deg]
#  10 FWHM_WORLD             FWHM assuming a gaussian core                              [deg]
#  11 ELONGATION             A_IMAGE/B_IMAGE                                           
#  12 ELLIPTICITY            1 - B_IMAGE/A_IMAGE                                       
         1 -13.5229    215.1620     13.8231   5.0078298408e+01   2.9012511251e+01     1.327999     1.100528 -78.16  0.005397796    1.227    0.185
         2 -16.3656    213.0851     70.5986   6.6885881003e+01   2.2301850859e+01     10.97993     5.500911 -47.34   0.03176183    2.238    0.553
         3 -14.4104    249.2938      4.0761   4.4463121512e+01   2.1606915319e+01     1.060127    0.5386177  -5.13  0.003458823    2.732    0.634
         4 -15.0925    221.4258     59.4657   6.2514517555e+01   2.1847369049e+01     3.594355     1.899201  76.39    0.0139399    2.647    0.622
         5 -15.0637    240.5687     44.3914   5.5926757256e+01   1.9206194866e+01     2.716729    0.7799003 -43.99   0.00866035    3.568    0.720
         6 -15.2947    234.3906      7.7913   4.6595369554e+01   2.4801475942e+01     1.312409    0.9663202  39.32  0.004428354    1.591    0.372
         7 -16.7543    241.5957     28.9931   5.1670153699e+01   2.0790175522e+01      9.00264     3.128292  53.70   0.03387035    2.993    0.666
         8 -11.2623    179.3035     24.2083   5.7805847302e+01   3.7307386363e+01      0.66213    0.5027257  57.10  0.003088296    1.301    0.231
         9  -9.0525    164.8147     11.9849   5.5730814585e+01   4.2531504977e+01    0.2905472     0.204674 -11.41  0.000934298    1.508    0.337
        10 -10.5175    135.0976     15.7556   6.2343241386e+01   4.9867445726e+01    0.4507219     0.290365 -17.36  0.002105087    1.582    0.368
        11  -9.4675    177.9156     10.7561   5.3453770275e+01   3.9154538055e+01    0.6879182    0.1355976 -20.65  0.001746929    5.356    0.813
        12  -9.8805    115.9938     12.5118   6.5123713402e+01   5.4915382058e+01    0.3109277    0.2869321  60.47  0.001144693    1.180    0.152
        13 -11.7014    120.2334      8.9762   6.2622370512e+01   5.4295080221e+01    0.6847888    0.4288284 -28.59   0.00221471    1.570    0.363
        14  -9.0674    171.6847      9.3433   5.3809547140e+01   4.0964628572e+01     0.184844    0.1556102  27.82 0.0005196003    1.247    0.198
        15 -10.7561    184.1843      5.9100   5.1040450393e+01   3.7953234016e+01    0.5685657    0.3602506 -43.93  0.001551517    1.593    0.372
        16  -9.6054    187.5617      5.5332   5.0520114925e+01   3.7087424368e+01    0.3059427    0.2094276 -30.02 0.0005404382    1.439    0.305
        17  -8.8681    129.0132      4.9875   5.9106758716e+01   5.2541667293e+01    0.1708034    0.1592621  19.43 0.0004084494    1.014    0.014
        18  -9.5993    171.8875      2.4636   5.1386611013e+01   4.1563894154e+01    0.2657803    0.1945568 -48.99 0.0006386003    1.429    0.300
        19  -9.2240    143.4946     11.1302   5.8906902047e+01   4.8231116185e+01    0.3126898    0.1477486 -12.40  0.001132467    2.451    0.592
        20  -9.8578    143.0839      1.6985   5.5255936873e+01   4.9257304765e+01    0.2228884    0.1906586  53.12  0.001225859    1.112    0.100
        21  -8.8580    217.1134      1.1611   4.6213089968e+01   2.9760009417e+01    0.1862193   0.09631002  72.65 0.0008212366    1.909    0.476
        22 -12.4032     68.4955    146.0784   1.1606992300e+02   3.7058735372e+01    0.9474525    0.6050051  88.86  0.003389453    1.585    0.369
        23 -11.9496    233.6046    249.2850   9.9780739479e+01  -4.3480397171e+00    0.1997564    0.1393641  34.97 0.0003311682    1.177    0.151
        24 -10.5850    191.6468    151.7663   9.0769771004e+01   1.4283202157e+01     0.414182    0.2562345 -55.44  0.001927174    2.276    0.561
        25 -10.5541    133.7631    145.2134   1.0122887700e+02   2.6758775494e+01     1.036821    0.2809604 -55.70   0.00285279    5.704    0.825
        26  -9.7751    227.4684    149.1820   8.3860019371e+01   7.6499410991e+00    0.3030493    0.2106155 -52.04  0.001565549    2.051    0.512
        27  -9.9434    151.7109    149.5246   9.8231999855e+01   2.2540091929e+01    0.3081016    0.2262772 -81.82  0.001183933    1.882    0.469
        28  -8.6061    219.1982    149.1933   8.5270184548e+01   9.2409929046e+00    0.1669407    0.1549004  57.96 0.0003999681    1.322    0.243
        29 -10.6257    180.1297    145.0838   9.1595675076e+01   1.7675233227e+01    0.2920935    0.2005163 -12.17  0.001397239    1.958    0.489
        30  -8.9572    222.8080    145.2532   8.3815273517e+01   9.0897308428e+00    0.1863827    0.1746986  38.30 0.0006319836    1.210    0.174
        31 -10.2268    198.7208    144.6753   8.7972971830e+01   1.3972252927e+01    0.3243638    0.2220297  69.82  0.001522813    2.183    0.542
        32  -9.9692    192.2470    144.2804   8.9098337981e+01   1.5346514158e+01    0.2385579    0.2231041  54.84  0.000410873    1.170    0.145
        33 -11.8872    189.2146    138.6148   8.8454485653e+01   1.6883861726e+01    0.5534639    0.3913139  40.78  0.001537232    1.343    0.256
        34 -11.6448    156.5268    140.2822   9.5378988445e+01   2.3286500986e+01    0.9627545    0.5430037  73.13   0.00324255    4.072    0.754
        35 -10.3874    152.9791    135.4864   9.5125788050e+01   2.4890433048e+01    0.3248124    0.2176684  61.80  0.001113463    1.696    0.410
        36 -10.5577    150.2748    140.9348   9.6833935809e+01   2.4408059283e+01    0.3994711    0.2682558  89.50  0.001727349    2.522    0.604
        37 -10.6779    160.3643    137.2531   9.3939888150e+01   2.3066978990e+01    0.3469599     0.287393  78.80  0.001870285    1.432    0.302
        38 -10.0350    194.8888    198.7306   9.8648524009e+01   6.9551208966e+00    0.2689345    0.2147622  88.91   0.00163737    2.091    0.522
        39  -9.7939    166.4780    134.7412   9.2129578824e+01   2.2267620493e+01    0.2768904    0.2203748 -23.85  0.001464355    1.409    0.290
        40  -9.5497    203.8044    152.6133   8.8703001769e+01   1.1754206197e+01    0.2359614    0.1894711 -22.12 0.0009530358    1.283    0.220
        41 -11.3780    159.5317    129.0556   9.2328411652e+01   2.4749254091e+01    0.4966536    0.4129552  10.48  0.002636129    1.428    0.300
        42  -9.9717    133.7977     96.9813   9.0351498043e+01   3.6450838187e+01    0.3983001    0.2618524 -58.03  0.001135932    1.695    0.410
        43 -10.5641    134.7538    109.0149   9.3197740562e+01   3.3809742282e+01     1.420856    0.2760461 -45.80  0.003642928    5.113    0.804
        44 -11.6353    133.7056    122.2830   9.6543003028e+01   3.1327363862e+01     1.096368    0.5262482 -64.98  0.003011509    3.902    0.744
        45 -10.2682    127.6935    113.0700   9.5856203891e+01   3.4401372860e+01    0.3737781    0.2382991 -66.12  0.001076687    1.939    0.484
        46 -11.0928    221.7213    128.5422   8.0295626475e+01   1.1693393745e+01    0.4657709    0.2990755  45.18  0.002340838    1.534    0.348
        47 -10.1058    216.9162    124.9348   8.0285887392e+01   1.3225621081e+01    0.2834346    0.2290694  73.71 0.0004893767    1.661    0.398
        48 -10.6633    153.0497    127.5040   9.3373155900e+01   2.6385120423e+01    0.3681052    0.3224374  28.23  0.002035204    1.207    0.172
        49 -10.0209    191.3825    192.0638   9.8187845952e+01   8.4381998945e+00    0.4929472    0.2911864 -66.97  0.001943445    4.877    0.795
        50  -8.6844    175.3055    125.3047   8.8195964989e+01   2.2087980834e+01    0.1461186    0.1118985  11.58 0.0002412584    1.602    0.376
        51 -10.5224    217.9706    190.5120   9.3364127106e+01   4.0466964543e+00    0.3647107    0.1750164  43.04  0.001887393    1.801    0.445
        52  -9.8516    140.5281    121.0279   9.4694839725e+01   3.0212141434e+01    0.4871967    0.2848151  86.75  0.001367313    5.630    0.822
        53 -11.0359    167.0917    114.7034   8.7359982845e+01   2.5785582015e+01     0.748668    0.5469939   2.10   0.00229211    1.901    0.474
        54 -10.6907    158.5648    114.2718   8.9077905422e+01   2.7729656943e+01    0.5857519      0.49258 -13.43   0.00305252    1.359    0.264
        55 -10.0635    174.6979    115.1596   8.5893718904e+01   2.4023869048e+01    0.3491309     0.270223  80.79 0.0007520678    1.719    0.418
        56 -13.6441    250.0934     41.7591   5.4190482143e+01   1.7311876320e+01    0.6771193    0.3046373 -25.88  0.002585297    2.005    0.501
        57 -11.0988    124.7352    103.6789   9.4304704908e+01   3.6938218071e+01    0.5312921       0.4446 -79.43  0.002408091    1.324    0.245
        58  -8.7331    141.4127    104.8460   9.0587138301e+01   3.3255684511e+01    0.2044363    0.1402345 -31.43 0.0007049052    1.627    0.385
        59 -10.1176    147.5312    101.1893   8.8223990690e+01   3.2655217521e+01    0.3178785    0.3054204  70.88 0.0006897902    1.064    0.060
        60 -10.6392    157.2555     95.4237   8.4487098146e+01   3.1584572278e+01    0.5045945     0.332576  33.85  0.002220452    1.744    0.427
        61  -9.7972    169.8349     95.0169   8.1673777859e+01   2.8754355267e+01    0.4054756    0.2646518 -40.41 0.0004421097    1.515    0.340
        62 -10.2335    166.0035     93.4960   8.2062493587e+01   2.9923237859e+01    0.3555007     0.298814   5.94  0.001046731    1.361    0.265
        63  -9.5427    174.5786     90.4916   7.9446570463e+01   2.8443700963e+01    0.2741436    0.2542991  74.26 0.0006283592    1.171    0.146
        64 -11.4653    173.2799     85.8341   7.8397324323e+01   2.9570601522e+01    0.6867029    0.5070151  16.76 0.0008590975    1.700    0.412
        65 -10.5230    141.0343     91.6011   8.7148032570e+01   3.5962323864e+01    0.4919562    0.2837611 -45.90  0.001857061    1.716    0.417
        66  -8.8524    204.7422    189.7896   9.5484959959e+01   6.4134612305e+00    0.1791098    0.1409112  77.93  0.001040168    2.091    0.522
        67 -11.0358      3.5865     90.1785   1.2572404174e+02   5.5762186043e+01    0.2750023    0.1492383 -59.19  0.001688115    1.570    0.363
        68 -11.9347    155.5391     85.4089   8.2052067905e+01   3.3852508012e+01    0.5460544    0.5139216 -86.75  0.001197718    1.146    0.127
        69  -9.8603    164.2810     85.4738   8.0168046727e+01   3.1782482855e+01    0.2619286    0.2391784 -22.11 0.0005362602    1.095    0.087
        70 -11.1247      4.7385     82.3518   1.2443987497e+02   5.7435664118e+01    0.2337416    0.2228953  42.14  0.001875471    1.381    0.276
        71 -11.7291    224.1841    175.8098   8.9690005339e+01   4.7794636703e+00    0.5658229    0.3677271   8.50  0.003119117    1.737    0.424
        72  -8.6685    113.0966     76.8271   8.9969187892e+01   4.4837499132e+01    0.2124509    0.1891178 -74.01 0.0003384801    1.216    0.178
        73  -8.5033     84.0236     77.2129   9.8436146317e+01   5.0046983765e+01    0.1792967    0.1150674  40.12 0.0008768531    1.733    0.423
        74 -11.1024    151.9243     72.4211   7.8967322508e+01   3.7081356985e+01    0.6302714    0.3243856 -54.00  0.001852891    2.561    0.609
        75 -11.0666      7.6270     68.6122   1.2154365904e+02   6.0328593499e+01    0.2025149    0.1877284  23.99  0.001574162    1.426    0.299
        76 -11.1441      2.5245     62.3874   1.2230181816e+02   6.1992021553e+01    0.4316297   0.08894784 -71.59  0.001591275    3.715    0.731
        77  -9.2071     97.1386     60.2755   8.9264694293e+01   5.1281511880e+01    0.2906941    0.1573979 -51.03  0.001243005    1.878    0.468
        78  -8.6881     72.4898     58.2858   9.6430650065e+01   5.5895393638e+01    0.1794167    0.1214625 -57.70  0.000915917    1.467    0.318
        79 -10.6053    100.7776     63.6402   8.9304263698e+01   4.9920973773e+01    0.3611541     0.262182 -28.75   0.00179245    1.447    0.309
        80 -10.4606    107.0211     62.2785   8.7051108790e+01   4.8965982074e+01    0.2017114     0.199842 -14.55 0.0006206424    1.067    0.063
        81  -9.7701    200.8158    173.6512   9.3327307859e+01   9.2832578943e+00    0.2154402    0.1706666  -7.49  0.001304779    1.358    0.264
        82 -12.4706     43.4904    164.9593   1.2356426786e+02   3.6158880646e+01    0.5668163    0.3730052  54.90  0.001339891    1.351    0.260
        83 -11.2826    102.1111     34.0540   7.7993072727e+01   5.5037986275e+01    0.5548516    0.2748924 -21.13  0.002124415    2.538    0.606
        84 -10.0088    183.9782     30.7133   5.9263340936e+01   3.5274745900e+01    0.3843522    0.2459676 -19.98  0.001240934    1.610    0.379
        85 -13.4227     12.7914    182.9440   1.3074607813e+02   3.5729350790e+01     0.771351    0.5325539  77.44  0.003883278    1.036    0.035
        86 -12.7002     56.4362    156.3360   1.1998248077e+02   3.6426667041e+01    0.7397338    0.4937708 -89.31   0.00172858    1.336    0.252
        87 -10.4390    109.7414     30.3184   7.4315660235e+01   5.3975951542e+01      0.26224    0.1921287  76.40  0.001253817    1.881    0.468
        88 -10.5092    125.1444     31.1161   7.0707060300e+01   5.0319710421e+01    0.3111199    0.1946091 -23.82  0.001077279    1.596    0.373
        89 -10.9469    213.7490    167.4664   8.9890643603e+01   7.7512884549e+00    0.5876793    0.3297436  65.18   0.00232981    3.702    0.730
        90  -9.7356    154.0898     25.3256   6.2375539937e+01   4.3841746355e+01    0.2510594    0.2041525  -0.53 0.0005041982    1.304    0.233
        91  -9.8717    159.9195     19.2796   5.9141293119e+01   4.3034826754e+01    0.2915771    0.2111529  -9.21 0.0004319565    1.478    0.324
        92  -9.4154    195.3542     18.8103   5.3847827892e+01   3.3652634112e+01    0.3726761    0.2335025   7.27  0.001596558    2.089    0.521
        93  -9.4714    164.5039     15.9962   5.7215760515e+01   4.2186930969e+01    0.3237874    0.2460945  20.90  0.001359028    1.452    0.311
        94 -11.4123     33.5791    179.4276   1.2667546368e+02   3.4378522066e+01    0.4280306    0.1645713  52.57  0.002368696    2.155    0.536
        95  -9.9696    249.6515    175.1001   8.5439197470e+01   4.8852602530e-01    0.2626252     0.202385 -17.39  0.001219456    1.286    0.223
        96 -11.4217     24.5860    166.1757   1.2748296163e+02   3.7861955503e+01     0.285473    0.2266597  88.98  0.002201614    1.155    0.134
        97 -13.3240    171.1823     71.9681   7.4737609366e+01   3.2468295413e+01     1.475286     1.156984 -46.43  0.005764141    1.302    0.232
        98  -8.2851    250.7625    238.0450   9.5699982246e+01  -5.7844747782e+00    0.1091027   0.07756354 -10.92  0.000840497    1.483    0.326
        99 -10.2228    145.6966    225.7099   1.1080102483e+02   1.1371937621e+01     0.201216    0.1580753  45.05 0.0003849844    1.053    0.050
       100 -12.8435     50.5249    160.7431   1.2170348346e+02   3.6219096214e+01    0.8198332    0.6041067  84.66  0.002768638    1.118    0.105
       101  -8.4169     95.5165    166.0728   1.1282749635e+02   2.9119265137e+01    0.1599649    0.1159535 -68.82 0.0002930563    1.386    0.279
       102  -8.5085    161.9686    163.9640   9.8845345084e+01   1.8049018432e+01     0.161034    0.1358296  44.30 0.0009582581    1.071    0.066
       103  -9.6582     23.4916    202.6879   1.2990639558e+02   3.1136139636e+01    0.1947264    0.1001033  46.17  0.001346484    1.646    0.392
       104  -9.9375    208.7305    160.2610   8.9364124960e+01   9.6913484921e+00    0.2201243    0.1889582  22.87 0.0004538481    1.028    0.028
       105  -9.7082    195.4049    158.7018   9.1462698796e+01   1.2479549124e+01    0.2417441    0.1535916  53.79 0.0006616025    1.674    0.403
       106  -9.3368    159.2615    158.0858   9.8308842123e+01   1.9567375012e+01    0.2453505    0.1876106 -69.46  0.001332698    1.650    0.394
       107  -8.1576    178.6231    156.3168   9.4158124573e+01   1.6121685187e+01    0.1365841    0.1063344  80.97 0.0007028323    1.806    0.446
