#   1 NUMBER                 Running object number                                     
#   2 MAG_AUTO               Kron-like elliptical aperture magnitude                    [mag]
#   3 X_IMAGE                Object position along x                                    [pixel]
#   4 Y_IMAGE                Object position along y                                    [pixel]
#   5 X_WORLD                Barycenter position along world x axis                     [deg]
#   6 Y_WORLD                Barycenter position along world y axis                     [deg]
#   7 A_WORLD                Profile RMS along major axis (world units)                 [deg]
#   8 B_WORLD                Profile RMS along minor axis (world units)                 [deg]
#   9 THETA_WORLD            Position angle (CCW/world-x)                               [deg]
#  10 FWHM_WORLD             FWHM assuming a gaussian core                              [deg]
#  11 ELONGATION             A_IMAGE/B_IMAGE                                           
#  12 ELLIPTICITY            1 - B_IMAGE/A_IMAGE                                       
         1 -14.5834    176.4683     86.8414   8.2338180354e+01   2.8936782637e+01     1.462862     1.301074 -65.18 0.0008351924    1.111    0.100
         2 -16.6959    202.7485    112.3269   8.3681649303e+01   1.7916748740e+01     4.292151     2.818273 -36.21   0.01764278    1.555    0.357
         3 -14.5710    234.1267     78.4146   7.0812774081e+01   1.6993804683e+01     2.748687     2.080768  62.78   0.01538021    1.394    0.283
         4 -15.5641    186.2228     89.4274   8.1120975655e+01   2.6123982863e+01     3.301487     2.212972 -12.06    0.0109764    2.493    0.599
         5 -11.3050    183.4917     28.9917   6.6123014885e+01   3.6018326294e+01    0.5422155    0.2415088 -50.50   0.00160258    2.468    0.595
         6 -10.0087    189.4351     19.9247   6.3112770030e+01   3.5653865874e+01    0.2040194    0.1804214  56.04 0.0004119145    1.267    0.211
         7  -9.0941    248.4712     11.4636   5.5539173411e+01   2.3378985440e+01    0.1970948    0.1302121 -56.33 0.0008636386    1.294    0.227
         8 -10.3271    242.1979      8.3851   5.5440959988e+01   2.5049340898e+01    0.2539238    0.1697942  79.93  0.001631351    1.307    0.235
         9  -9.9902    219.4193     11.4513   5.7987319317e+01   2.9667506727e+01    0.2122204     0.170564 -85.24 0.0005063193    1.026    0.025
        10  -9.5744    247.4310     16.5162   5.6575948890e+01   2.2994969051e+01    0.3049806    0.1381517 -39.45  0.001596752    2.133    0.531
        11  -8.7214    233.9915      7.0241   5.5827792796e+01   2.6954203575e+01    0.1438508    0.1100584 -80.94 0.0003449365    1.006    0.006
        12  -8.5109     66.3299      6.6831   8.3644368680e+01   6.3735348267e+01    0.0995649   0.09349743 -79.54 0.0007046543    1.683    0.406
        13  -8.8765    216.4780      5.4538   5.7001063694e+01   3.0977871957e+01     0.123685   0.09703998 -85.99 0.0001107097    1.005    0.005
        14  -8.9324    141.4447      3.4537   6.5443221251e+01   4.8556848010e+01    0.1251584    0.1041514  64.78 8.059419e-05    1.009    0.009
        15  -9.1323    130.4824      2.4417   6.6941348945e+01   5.1132025049e+01    0.1248151    0.1026845  59.25 7.721302e-05    1.008    0.008
        16  -9.4078    222.0268      1.4190   5.5692777414e+01   3.0167296848e+01    0.1774142   0.09688505  77.33 0.0004200795    1.536    0.349
        17  -9.0739    238.4832    183.5231   9.2790802335e+01  -2.8288025391e+00    0.1363164     0.119863 -15.34 9.507562e-06    1.023    0.022
        18 -12.2756    189.0689    200.6122   1.0583160138e+02   2.9812881965e+00    0.8763424    0.3302571  40.45  0.001508759    2.573    0.611
        19 -11.1444    184.5474    198.5432   1.0638255166e+02   4.2365514511e+00    0.3008884    0.2776622  13.21 0.0005617802    1.064    0.060
        20  -9.8679    206.0994    202.7943   1.0277501072e+02  -5.6015551276e-01    0.1988264    0.1912327  48.55 0.0006334048    1.194    0.163
        21  -8.9486     68.1582    201.7734   1.3287344672e+02   2.4218942303e+01    0.1686419    0.1500503 -64.37 0.0006216312    1.275    0.216
        22 -10.6956    213.1712    197.3788   1.0032290728e+02  -8.5034699258e-01    0.4940914    0.4186703  80.78  0.002532782    1.688    0.408
        23 -10.5798    208.1604    192.0311   1.0025750102e+02   1.0429576351e+00    0.3301336    0.2520979  30.51  0.001600132    1.307    0.235
        24  -8.7883    230.4056    198.1998   9.7184156927e+01  -3.9948545314e+00    0.1809274     0.121285 -47.17 0.0005349048    1.636    0.389
        25 -11.7922    155.4132    195.0451   1.1205077339e+02   1.0578596210e+01    0.5196449     0.351039  38.41  0.001608263    1.446    0.308
        26  -9.7701     50.6511    196.7964   1.3611571585e+02   2.7739087158e+01    0.1884774    0.1063856 -81.67  0.000942321    1.684    0.406
        27  -8.5459    249.4306    195.4472   9.3208074920e+01  -6.6367223023e+00    0.1299759    0.1108077 -14.17 0.0001803967    1.006    0.006
        28 -11.4264    141.4149    192.5104   1.1474724399e+02   1.3836932672e+01    0.5312434    0.3118526  63.10  0.001753407    2.259    0.557
        29  -9.6593    187.2498    193.7612   1.0488582965e+02   4.6583563876e+00    0.2011519    0.1674516   1.85  0.001056594    1.338    0.252
        30 -11.5298    227.3823    190.8328   9.6297034235e+01  -2.1952603346e+00    0.4570403    0.3294641  -4.58  0.001011109    1.611    0.379
        31 -10.2500    128.4542    188.5036   1.1701727065e+02   1.7206618036e+01     0.272286    0.2551513  45.94 0.0006742982    1.096    0.087
        32 -10.3969    129.9826    192.0574   1.1729498302e+02   1.6114164631e+01     0.257736    0.2171616 -77.94 0.0003052042    1.241    0.194
        33 -10.2025    182.9418    192.1289   1.0547695711e+02   5.8142550327e+00    0.2181954    0.1946882  69.63 0.0005148844    1.282    0.220
        34 -10.6881    118.0374    191.7269   1.2001182975e+02   1.8400417233e+01    0.3281152    0.2702508  24.02  0.001116194    1.450    0.310
        35 -10.4920    212.9656    188.2414   9.8547434227e+01   8.6153248696e-01    0.3479247    0.2217042  39.45  0.001433115    1.584    0.369
        36  -9.8364    216.0249    185.9956   9.7495672685e+01   7.1500741152e-01    0.1965156    0.1934041 -68.57 0.0003247162    1.187    0.158
        37 -12.5499    179.7696    183.8075   1.0449779352e+02   8.1297111553e+00    0.6933928    0.4851387 -61.53   0.00322051    1.724    0.420
        38 -11.6832    174.1652    180.0821   1.0496035257e+02   1.0031554017e+01    0.5319714    0.3052214 -28.63   0.00207657    2.385    0.581
        39 -13.6351    199.4327    180.6802   9.9719959617e+01   4.8767552165e+00     3.290319     1.705716  27.19   0.01237287    2.721    0.632
        40 -15.2660    140.2680    123.0031   9.9983950173e+01   2.9970669637e+01     4.180017      2.89143  60.27   0.01722738    1.626    0.385
        41 -14.8284    175.5079    100.2241   8.6008586782e+01   2.6635804057e+01     3.211447     1.295061  53.81   0.00895309    2.522    0.603
        42  -9.4355    132.3358    246.8646   1.2520169326e+02   4.4518430114e+00    0.2127155    0.1518928  53.55 0.0004165644    1.245    0.196
        43 -14.5470    214.9961    103.1875   7.9354754034e+01   1.6884634850e+01    0.9832078    0.8226302 -27.74  0.002579976    1.340    0.254
        44 -14.5787    212.6365    120.4664   8.3795073142e+01   1.4127162057e+01     1.456391    0.6529487  58.74  0.003584856    2.678    0.627
        45  -9.2926    215.4920    243.8075   1.0831140804e+02  -8.8810354287e+00     0.205381     0.149546  12.40 0.0009565458    1.309    0.236
        46 -11.4022    158.1861    181.8813   1.0889263001e+02   1.2869336148e+01    0.3848647    0.2354642 -48.45  0.001127238    1.674    0.403
        47 -10.6423    217.4873    177.4675   9.5464821254e+01   2.0365440978e+00    0.4414783    0.3578721 -82.44  0.001205366    1.773    0.436
        48 -10.5003    220.3132    175.2955   9.4472167418e+01   1.9151628527e+00    0.3001877     0.263651  32.88   0.00100751    1.178    0.151
        49  -9.1395    243.2608    185.0542   9.2245332333e+01  -3.8998133770e+00    0.1920239    0.1569874 -25.64 0.0009953186    1.092    0.084
        50 -11.4113    161.5314    176.4137   1.0703040521e+02   1.3387467276e+01    0.3327709    0.2651887  68.01 0.0007861789    1.433    0.302
        51 -11.4527    142.2085    175.7020   1.1136134445e+02   1.7455106653e+01    0.3512819    0.2502286 -40.49  0.001627331    1.527    0.345
        52 -10.4357    123.0778    176.4928   1.1608588835e+02   2.1002032690e+01     0.251953    0.2053278  89.68  0.000514233    1.333    0.250
        53  -8.7259     87.7836    172.9766   1.2411305616e+02   2.8070251018e+01    0.1946291    0.1109691 -60.79  0.000724834    1.663    0.399
        54 -13.2377    241.7538    130.9901   8.1207823784e+01   6.0960540190e+00     1.329332    0.8896587 -28.97  0.002735839    1.584    0.369
        55 -13.3151    188.5089    167.9633   9.9318782749e+01   9.6415737280e+00    0.9805531    0.8908293  69.40  0.001317523    1.213    0.176
        56 -13.5504    199.4901    164.0025   9.6180365680e+01   8.2014913020e+00     1.493324    0.9717798  33.01  0.002384626    1.715    0.417
        57  -9.4929     79.8015    171.8563   1.2590470645e+02   2.9598810595e+01    0.2790769    0.1868423 -85.42  0.001332977    1.638    0.389
        58 -13.8143    197.1823    148.3195   9.3177287929e+01   1.1891371524e+01      1.23705    0.8347549 -61.76  0.003065305    1.781    0.438
        59  -9.0751    118.7875    169.5901   1.1581554691e+02   2.3445209277e+01    0.2181798    0.1373471  52.05 0.0007363858    1.630    0.387
        60 -10.1311    218.3342    166.3489   9.2967968921e+01   3.9890949800e+00    0.4043218    0.2442542 -44.50  0.001411673    1.594    0.373
        61  -8.6761     70.3155    168.3426   1.2770183685e+02   3.1864918831e+01    0.1407783    0.1048049 -36.29 0.0007048082    1.710    0.415
        62  -9.8296    246.1023    166.3590   8.7956771986e+01  -1.1228280216e+00     0.229199    0.1732269 -43.58 0.0004588276    1.252    0.201
        63 -10.5587     28.1583    166.1564   1.3768371614e+02   3.7523056643e+01    0.2209843    0.1726543 -71.06 0.0002708713    1.114    0.102
        64 -11.1884    129.0169    164.1110   1.1220227514e+02   2.2769636148e+01     0.430107    0.2981568  50.86 0.0004087357    1.455    0.313
        65 -13.2433    129.3663    156.6367   1.1055490771e+02   2.4466368744e+01     1.286438    0.8251705 -87.98  0.002900558    2.606    0.616
        66  -9.7131     22.8662    165.3022   1.3883014056e+02   3.8241310332e+01    0.1657201    0.1428848 -80.76 0.0004416989    1.109    0.098
        67 -10.6392    237.1579    162.0818   8.8616868815e+01   1.2441344318e+00    0.3417533    0.2348883 -27.45 0.0005622689    1.457    0.313
        68  -9.0531    242.0078    162.2844   8.7815143425e+01   3.2894776122e-01    0.1798146    0.1682827   5.34 0.0003871767    1.119    0.106
        69 -11.1623    119.5048    158.7576   1.1347577559e+02   2.5896185295e+01    0.4864742    0.3138492  68.91  0.001990675    2.078    0.519
        70  -9.1762     91.1666    158.8713   1.2076385166e+02   3.0957740905e+01    0.1887827    0.1758889 -13.25 0.0003899332    1.299    0.230
        71 -10.6267    133.9613    153.5057   1.0873556302e+02   2.4275993905e+01    0.3753733    0.2723822 -78.88 0.0008110107    1.733    0.423
        72 -10.1404    240.4691    151.3992   8.5790230716e+01   2.5906014973e+00    0.3076009    0.2188436 -25.28 0.0006701404    1.463    0.316
        73 -11.3636    115.2526    151.0517   1.1295178302e+02   2.8559875119e+01    0.3785411    0.2849884 -53.19 0.0009543085    1.294    0.227
        74  -9.3829     34.0082    150.0248   1.3417275204e+02   4.0785046050e+01    0.1551977    0.1356538 -80.07 0.0004611544    1.064    0.060
        75  -9.8883     90.2793    151.2998   1.1955340669e+02   3.2958358997e+01     0.364199    0.1861661 -55.45 0.0009515855    1.827    0.453
        76  -9.6697    245.8314    146.2664   8.3809361900e+01   2.5335703743e+00    0.3651581    0.2926351 -75.20    0.0019986    1.588    0.370
        77  -9.9102     21.7594    145.9275   1.3675325817e+02   4.2923869692e+01    0.1963851    0.1725495  64.13  0.001323594    1.254    0.202
        78 -12.1789    140.2799    141.4795   1.0445272531e+02   2.5764881389e+01     0.917689    0.3309618 -53.45  0.002810059    3.111    0.679
        79 -12.4156    135.8624    143.1466   1.0594009073e+02   2.6308296415e+01    0.8921919    0.3812682 -44.95  0.003122514    2.366    0.577
        80 -11.4330    134.8101    138.4028   1.0510327698e+02   2.7631431347e+01    0.4453111    0.3045068  32.05  0.001874339    1.675    0.403
        81  -9.3102    246.8893    138.1529   8.1919997282e+01   3.8083062291e+00    0.2061248    0.1742347 -60.55 0.0005809242    1.229    0.186
        82  -9.8181    250.0568    134.8882   8.0729503122e+01   3.8056001187e+00    0.2643415    0.1672473 -41.10  0.000469215    1.380    0.275
        83  -9.6100    118.1293    134.1637   1.0842949219e+02   3.2027278763e+01    0.2253658    0.2104722 -20.28 0.0002818211    1.176    0.149
        84  -9.2772    110.3154    133.3911   1.1034183311e+02   3.3724787247e+01    0.2614396    0.1928052 -42.45  0.001226965    1.375    0.273
        85 -11.6192    126.6442    130.3046   1.0527143691e+02   3.1208188703e+01    0.4619256    0.3215394  30.43  0.001583799    1.667    0.400
        86  -8.8584    248.5076    233.4897   1.0044990210e+02  -1.2287904626e+01    0.1213433   0.09996232   0.44  0.000154203    1.034    0.033
        87  -9.4660     91.0003    116.4688   1.1173823544e+02   4.1183444103e+01    0.3251526    0.1499523  30.39  0.001197141    2.710    0.631
        88  -9.3060    100.3097    114.3151   1.0851726634e+02   4.0031598813e+01    0.1514868    0.1170052 -14.94 0.0007030559    1.633    0.387
        89 -14.1086    189.5403    121.0176   8.8332359455e+01   1.9200888499e+01     1.183547    0.6464202  36.26  0.004509583    2.367    0.578
        90 -14.1618    203.3415    143.0551   9.0750754920e+01   1.1651668023e+01     2.420644     1.422202  75.67  0.000482546    3.557    0.719
        91 -10.2901    126.1462    101.0060   9.7846988297e+01   3.7800900986e+01     0.316848    0.2564807  71.76 0.0004094618    1.453    0.312
        92 -11.3744    129.8950    111.4191   9.9657080699e+01   3.4774248239e+01    0.5103112    0.3659155  84.75  0.002142519    2.060    0.514
        93 -11.1392    130.0507    105.9918   9.8174773260e+01   3.5909349693e+01     0.430782    0.2712459 -41.79 0.0005039345    1.592    0.372
        94  -8.7690      2.9948    109.0000   1.3673053141e+02   5.2813709623e+01    0.1555676   0.06922951  17.56  0.000454365    2.885    0.653
        95 -10.4178    101.6337    105.1119   1.0575427670e+02   4.1842859438e+01    0.4759829     0.355097 -74.49  0.002232205    1.743    0.426
        96 -13.5509    202.8063    135.4126   8.9104283234e+01   1.3313946382e+01    0.8193191    0.7507618 -54.86  0.003129336    1.055    0.052
        97 -10.0809    127.8223     95.2786   9.5821158274e+01   3.8618678113e+01    0.3145718    0.2348844 -70.70 0.0009628313    1.717    0.417
        98 -10.6844    125.0676     90.4301   9.5177002099e+01   4.0184906487e+01      0.49587    0.2422543 -55.29  0.001775757    2.700    0.630
        99  -9.1988    192.4532    232.2667   1.1084553037e+02  -3.3170629374e+00      0.16348     0.129492 -54.75 0.0009376295    1.572    0.364
       100 -11.4429    132.5992     88.5221   9.2683923879e+01   3.8907736587e+01    0.7774241    0.1936992 -42.44  0.002188435    4.016    0.751
       101 -11.1443    136.4406     85.8093   9.0948350668e+01   3.8565888283e+01    0.3170119    0.2839506  22.60 0.0005559453    1.198    0.166
       102 -14.5748    227.7641    107.9879   7.8366703462e+01   1.3197161671e+01     2.114189      1.26086  29.92  0.006890113    2.932    0.659
       103  -9.8599     52.3018     88.0620   1.1668144955e+02   5.3129232178e+01    0.1921391    0.1529023 -45.08 0.0004103179    1.108    0.098
       104  -9.4281    115.9977     85.1912   9.6107625284e+01   4.3130616912e+01    0.2391874    0.1760395  77.13 0.0008068249    1.955    0.488
       105  -9.2055     82.4897     95.4856   1.0889749975e+02   4.7273100064e+01    0.1409768    0.1328204 -37.39 -4.664885e-05    1.041    0.039
       106  -9.0091    148.0188     85.4866   8.8079631775e+01   3.5963596901e+01    0.2270251    0.1459792  49.81 0.0005347197    1.521    0.343
       107  -9.0627     85.4389     82.5462   1.0431764661e+02   4.9445176249e+01    0.2327141    0.1319799  26.56 0.0007938808    2.098    0.523
       108 -10.3596    223.0714    183.8816   9.5712370425e+01  -1.8137146330e-01    0.4172946    0.1915596 -39.66  0.001058311    2.082    0.520
       109 -15.6770    171.9273    156.5477   1.0043011809e+02   1.5565534691e+01     4.136402     3.334728 -35.50   0.02022489    1.288    0.224
       110  -9.0472    102.4780     79.4553   9.8235392487e+01   4.6943472679e+01    0.1422595    0.1356389  -1.08 6.565562e-05    1.005    0.005
       111 -11.0344    148.2324     76.7295   8.5561785934e+01   3.7505204230e+01    0.4763765    0.3284457  -6.93  0.002025068    2.243    0.554
       112  -9.8607    144.5464     74.8436   8.5865325641e+01   3.8700120253e+01    0.2591738    0.2169011  25.68 0.0003394563    1.342    0.255
       113  -9.1623     67.1236     77.8014   1.0885607898e+02   5.3262963322e+01    0.1862081    0.1802839 -45.10 0.0005880469    1.192    0.161
       114 -14.8013    185.7295    114.0945   8.7411107100e+01   2.1480566252e+01     2.764713     1.161742  50.65  0.005257152    2.424    0.587
       115 -10.4134    131.7844     72.4516   8.8213181969e+01   4.2046289918e+01    0.2995037    0.2606111  34.22 0.0006985808    1.155    0.134
       116 -11.3192    167.7346     70.4934   7.9703403219e+01   3.3908177404e+01    0.3595117    0.3283086   1.62  0.001146358    1.307    0.235
       117  -9.7430    172.8180     69.4228   7.8434832884e+01   3.2853268978e+01    0.3057863    0.1314056  53.35 0.0007967739    2.206    0.547
       118 -10.6450    157.5072     65.5205   8.0385069226e+01   3.7193021937e+01    0.2866635    0.2120638  83.82  0.001384977    1.584    0.369
       119 -11.7743    165.8539     65.7224   7.8770484726e+01   3.5146151955e+01    0.6442664    0.2788045  51.16  0.002301513    2.202    0.546
       120  -8.6400     96.5062     72.4520   9.7861550831e+01   4.9380756385e+01    0.1407398    0.1298568   1.42 6.193769e-05    1.027    0.026
       121 -10.1230    118.7640     68.8192   9.0447427667e+01   4.5535824384e+01    0.2815372    0.2442995 -67.58 0.0008784003    1.370    0.270
       122 -11.3627    243.1635     66.1107   6.7009005507e+01   1.7025384777e+01    0.6077054     0.316191  79.22   0.00186703    2.331    0.571
       123  -8.7381    145.4916     67.5525   8.3544727587e+01   3.9718577202e+01    0.1457157    0.1380449  54.62 0.0001261302    1.015    0.015
       124 -10.5991    136.1408     66.4921   8.5386337763e+01   4.2065647457e+01    0.3568658    0.2676823  12.08 0.0009373939    1.747    0.428
       125 -10.4574    176.7698     65.2478   7.6592792324e+01   3.2572212473e+01    0.4065868    0.2543141  36.17  0.001646168    2.097    0.523
       126  -9.3085     32.1267     67.1183   1.1816088710e+02   5.9520113516e+01    0.1824599    0.1360885 -27.82 0.0002958082    1.167    0.143
       127  -9.1899     10.8534     66.1880   1.2586533104e+02   6.1384375272e+01    0.1629366    0.1038691 -35.06 0.0002585491    1.315    0.239
       128 -10.6450    235.1786     60.8771   6.6849688139e+01   1.9562914278e+01    0.3414354    0.2552927 -51.68  0.001108573    1.211    0.174
       129 -10.5620    229.9436     61.5004   6.7631414225e+01   2.0624665727e+01    0.3118588    0.2288224  80.90  0.001290573    1.324    0.245
       130  -9.8292    173.5883     61.2932   7.6117664877e+01   3.3970408259e+01    0.2493012    0.1588004  43.31 0.0008760541    1.737    0.424
       131 -10.7527    111.0772     59.6281   8.9630851728e+01   4.8680101430e+01    0.3124268    0.2622077  -7.25 0.0005757854    1.264    0.209
       132  -9.1344     88.5217     60.9928   9.6642272426e+01   5.2849320061e+01     0.193837    0.1290069 -37.41 0.0003715071    1.497    0.332
       133 -10.7960    226.9801     56.0494   6.6799254114e+01   2.2117596562e+01    0.3886667    0.2875035 -26.63   0.00211758    1.723    0.420
       134  -9.4336    226.7840     50.8151   6.5670486013e+01   2.2935941520e+01    0.1928062    0.1555479 -60.69 0.0007602583    1.116    0.104
       135  -9.4615    241.1860     56.3757   6.5186281270e+01   1.8938828928e+01    0.3329111    0.1517415  75.87  0.001381476    2.561    0.610
       136  -9.0161    237.5207     54.4979   6.5207415471e+01   2.0013330866e+01    0.2119048    0.1175482 -41.24  0.001060761    1.708    0.415
       137  -9.3851    115.9188     56.1131   8.7217883830e+01   4.8208914269e+01    0.1978387    0.1870489  88.25 0.0003211899    1.221    0.181
       138  -9.9434    158.9854     55.4752   7.7266065615e+01   3.8397575077e+01    0.2142588    0.1328356  59.11 0.0004184271    1.504    0.335
       139  -9.8142    145.6980     54.9763   7.9827450691e+01   4.1645326735e+01    0.1868576     0.185133 -49.64 0.0003517352    1.082    0.076
       140  -9.6717    249.2363     52.4390   6.3493386044e+01   1.7810302503e+01    0.2357022    0.1509711 -75.49 0.0004088015    1.522    0.343
       141 -11.4849    151.3243     52.6928   7.7994642598e+01   4.0645636677e+01    0.4447437    0.2330453  59.17  0.001082087    1.796    0.443
       142  -9.6625    134.7849     52.9980   8.1637830295e+01   4.4481527058e+01    0.1843179    0.1805851  37.43            0    1.054    0.051
       143  -9.0119     24.9239     52.6938   1.1670365747e+02   6.2850282140e+01    0.1580053     0.130922 -12.61 0.0005243506    1.126    0.112
       144 -10.8820    213.6845     45.5413   6.6098750484e+01   2.6690268506e+01    0.4706238     0.359091  56.10  0.002690205    1.426    0.299
       145 -11.0592    221.4556     48.1899   6.5733558578e+01   2.4523902208e+01    0.4998679    0.2631641  56.45  0.001835174    1.962    0.490
       146 -12.1213    229.7474     46.6840   6.4424319510e+01   2.2866774580e+01    0.5869814    0.3174615  83.75  0.001617857    2.023    0.506
       147 -11.0428    235.2194     44.8181   6.3415465298e+01   2.1919291708e+01    0.7505659    0.2707232 -56.61  0.002832959    3.196    0.687
       148 -10.8355    202.5572     46.8339   6.7863505626e+01   2.9121436581e+01    0.6046113    0.2507611 -50.86  0.002279836    2.530    0.605
       149 -10.7409    167.3092     45.1855   7.2885589491e+01   3.7852814106e+01    0.4805278    0.3002482 -11.75  0.002134164    2.499    0.600
       150 -11.0263    168.8870     49.4347   7.3764366957e+01   3.6878536435e+01    0.4565211    0.2187177  48.56  0.001917312    2.100    0.524
       151  -8.9925    140.9949     50.5030   7.9509436349e+01   4.3402782346e+01    0.2048192    0.1299279  55.74 0.0009866133    1.455    0.313
       152  -8.6895      1.5621     49.4601   1.2519416001e+02   6.5089505302e+01    0.1111238   0.08359522 -38.18 0.0001860553    1.027    0.026
       153 -10.1821    246.6602     46.6827   6.2591574653e+01   1.9185564905e+01    0.2200673    0.1536454 -75.89 0.0006619379    1.286    0.223
       154 -10.8429    242.4932     46.4964   6.2986618073e+01   2.0100930949e+01    0.5924168    0.2532949  87.18  0.002172528    3.787    0.736
       155 -10.7286    182.0705     46.1121   7.0692221471e+01   3.4144163713e+01    0.4873306    0.2253017  77.90  0.001378595    2.954    0.661
       156  -9.3200    190.7762     46.1759   6.9380640272e+01   3.2031508461e+01    0.1839138    0.1626957  39.84  0.001069487    1.359    0.264
       157  -9.6742    194.9374     43.9072   6.8217552743e+01   3.1346512364e+01    0.1958172    0.1764512  50.04 0.0004254743    1.283    0.220
       158 -10.7958    174.6066     44.2301   7.1398412152e+01   3.6213195745e+01    0.2512008    0.1839652 -18.07  0.001297954    1.770    0.435
       159 -11.5596    241.4339     39.4449   6.1648484623e+01   2.1314968992e+01    0.2506606    0.2422049 -73.47 0.0006157735    1.352    0.261
       160  -9.5257    189.2840     40.7517   6.8246295726e+01   3.3132175853e+01    0.3747044    0.1664969  46.56  0.001497066    2.711    0.631
       161  -9.2231    224.3159     39.9174   6.3574184669e+01   2.5031960460e+01    0.1809525    0.1468303 -59.93 0.0004195991    1.143    0.125
       162 -10.1821    168.7942     38.8091   7.0906616701e+01   3.8340494799e+01    0.2564745     0.203674 -76.41 0.0008458211    1.318    0.241
       163 -10.4647    167.5022     34.9506   7.0077548142e+01   3.9141806727e+01    0.2684702    0.2225416 -33.78  0.001030804    1.361    0.265
       164 -11.1846    204.2616     34.9269   6.4829414222e+01   3.0331724633e+01    0.4351125    0.2800498  74.77 0.0004971617    1.413    0.292
       165 -10.4921    209.4985     34.5316   6.4097498007e+01   2.9156400536e+01    0.2562867    0.2210444 -44.25 0.0008692541    1.296    0.228
       166 -10.6778    218.0522     34.4881   6.3091080223e+01   2.7185046266e+01    0.2600031    0.2171039  40.19  0.001085799    1.627    0.385
       167  -9.4886    220.9772     31.9833   6.2217229405e+01   2.6844132347e+01    0.1971855    0.1527945 -73.79            0    1.113    0.102
       168  -9.3575    146.7295     36.0281   7.4048248376e+01   4.3980876705e+01    0.2636543    0.1525108  47.87  0.001273262    1.622    0.384
       169  -8.8171     69.3192    230.2927   1.3586078235e+02   1.7763078884e+01    0.1095119    0.1016804 -32.07 0.0003178618    1.606    0.377
       170  -9.9578    171.8213     33.1720   6.8915157632e+01   3.8319530862e+01    0.2132343    0.1740354 -84.93  0.001235351    1.203    0.169
       171 -11.2924    176.7563     30.1150   6.7369541297e+01   3.7501848906e+01    0.3202009    0.3091409  22.25 0.0008343806    1.266    0.210
       172  -9.9760    236.5175     30.9719   6.0402582750e+01   2.3514302465e+01    0.1847437     0.113635 -42.19  0.001005745    1.596    0.374
       173  -9.0007    157.1707     31.2199   7.0775577804e+01   4.2078235950e+01    0.1794264    0.1478381 -75.21 0.0006397009    1.297    0.229
       174  -9.2757     36.9554     30.0195   1.0395780623e+02   6.5276852320e+01     0.172737    0.1377102  -9.82 0.0003897702    1.043    0.042
       175 -10.7618    192.0100     25.7302   6.4190314708e+01   3.4373631986e+01    0.3820613    0.2520703  34.95  0.001943037    2.186    0.542
       176 -10.1937    162.1997     26.8597   6.8734616037e+01   4.1381289955e+01    0.2143317    0.1459261  38.38 0.0005538908    1.688    0.407
       177  -9.9620    240.8263     24.0218   5.8598023900e+01   2.3471079022e+01    0.4344066    0.1535077 -57.79  0.001786081    3.003    0.667
       178  -8.9608    130.6709     25.3094   7.3972296568e+01   4.8953415231e+01    0.1296863    0.0990535 -78.54 0.0003589078    1.663    0.399
       179 -10.3084    225.8437     23.3050   5.9858755573e+01   2.6841239905e+01     0.298664    0.1978291  58.14  0.001569523    1.643    0.391
       180 -10.3566    187.8477     32.3888   6.6369287135e+01   3.4557682008e+01    0.2547081    0.1790432  47.51 0.0008434046    1.578    0.366
       181 -14.6947    224.6813    137.3538   8.5479175141e+01   8.3107631820e+00     2.312836     1.604147 -19.80   0.01080478    1.815    0.449
       182  -8.5253      1.2422     21.3442   1.1645430535e+02   6.9785658749e+01    0.1100748   0.05635967 -27.60 0.0002778834    1.565    0.361
       183  -9.3479     29.8686    228.8426   1.4329544202e+02   2.3199960039e+01    0.1659351    0.1369685  89.44 0.0004742985    1.201    0.168
       184 -10.0616    159.9036    226.7303   1.1658108747e+02   3.3812905258e+00    0.2172368    0.1982852 -59.98 0.0003114029    1.231    0.188
       185  -9.6694    154.0807     13.9978   6.6464881442e+01   4.4669197375e+01    0.1919471    0.1652261  67.95 0.0003404255    1.018    0.018
       186 -12.6011    176.4425    220.6317   1.1211196620e+02   1.5375736515e+00    0.6027097    0.3687544  59.78  0.002718458    2.205    0.546
       187 -10.3403    203.8095    218.6069   1.0618543017e+02  -2.9480806952e+00    0.4574057    0.3022299 -64.91  0.002121449    2.570    0.611
       188  -8.9820    143.2465    215.9724   1.1837987686e+02   8.5090638526e+00    0.1713885    0.1212521 -55.06 0.0004962106    1.536    0.349
       189  -9.7636    195.8449    214.5941   1.0705272626e+02  -8.4886642691e-01    0.2930933    0.2062131 -10.14  0.001466902    1.784    0.440
       190  -9.1033    124.1850    215.5943   1.2246412408e+02   1.2027470421e+01    0.1911267    0.1285965  32.61 0.0008010357    1.601    0.375
       191  -9.7814    235.4341    213.7043   9.9215006154e+01  -7.3762695990e+00    0.2613399    0.2441894   1.11  0.001727082    1.182    0.154
       192  -8.8837    241.8916    207.8064   9.6925313954e+01  -7.4501906161e+00    0.1535315    0.1524315 -11.67 0.0004112849    1.344    0.256
       193 -12.2920    197.7410    196.4237   1.0323002226e+02   2.1544295734e+00     0.644284    0.4196936 -18.35 0.0007369362    2.009    0.502
       194 -11.1787    195.8293    203.0442   1.0490008524e+02   1.2638492191e+00    0.2845174    0.2257988  36.95 0.0003539665    1.213    0.176
