#   1 NUMBER                 Running object number                                     
#   2 MAG_AUTO               Kron-like elliptical aperture magnitude                    [mag]
#   3 X_IMAGE                Object position along x                                    [pixel]
#   4 Y_IMAGE                Object position along y                                    [pixel]
#   5 X_WORLD                Barycenter position along world x axis                     [deg]
#   6 Y_WORLD                Barycenter position along world y axis                     [deg]
#   7 A_WORLD                Profile RMS along major axis (world units)                 [deg]
#   8 B_WORLD                Profile RMS along minor axis (world units)                 [deg]
#   9 THETA_WORLD            Position angle (CCW/world-x)                               [deg]
#  10 FWHM_WORLD             FWHM assuming a gaussian core                              [deg]
#  11 ELONGATION             A_IMAGE/B_IMAGE                                           
#  12 ELLIPTICITY            1 - B_IMAGE/A_IMAGE                                       
         1 -14.8228     68.5269    144.1798   1.0519947740e+02   3.7247639492e+01     5.108938     2.588001  70.85   0.00786514    3.782    0.736
         2 -14.5504    200.1960     37.7535   4.5940778125e+01   3.0559440757e+01     2.112044     1.485851  28.37  0.007061712    1.995    0.499
         3 -14.4745    211.8943     25.7507   4.1465225217e+01   2.9270923726e+01      1.31251     1.016299  15.24  0.007235457    1.865    0.464
         4 -13.1296      3.5415      7.5060   9.2186502745e+01   7.3215232910e+01     1.084017    0.4181449 -40.23  0.005980811    1.975    0.494
         5 -12.6590    236.4566      2.8450   3.3961929855e+01   2.6262949005e+01    0.7305445    0.3143133  77.70  0.003595962    2.217    0.549
         6 -12.9489     24.1716    225.1809   1.2380554099e+02   2.4300407510e+01    0.4873481    0.3358902  55.17 0.0008413349    1.242    0.195
         7 -11.6718    139.6825    248.4944   1.0427386842e+02   4.3311574368e+00    0.4218696    0.2706631 -69.94   0.00241702    2.233    0.552
         8 -11.2669    117.1407    248.9683   1.0857355538e+02   7.6742847924e+00    0.3350738    0.2277152  77.64  0.002008787    1.827    0.453
         9 -13.0405     49.1286    220.6927   1.1883252601e+02   2.2355597180e+01     1.706573    0.9598219  67.70  0.009863255    1.626    0.385
        10 -12.9595     13.3547    189.5161   1.2352593971e+02   3.2797086040e+01    0.3498609    0.2487302 -69.92 0.0005467627    1.372    0.271
        11 -12.6020     28.2674    215.7794   1.2243859816e+02   2.5746325394e+01    0.7745544    0.3073858 -87.56  0.002868592    2.591    0.614
        12 -14.1142     86.1252    227.0973   1.1220115369e+02   1.6169482966e+01     1.094397     1.012882 -88.76  0.004857236    1.217    0.178
        13 -14.5920     44.8564    203.0817   1.1817955730e+02   2.6534548270e+01     3.521933     1.359089  63.38   0.00996443    3.187    0.686
        14 -14.1529     53.2243    191.4370   1.1528796334e+02   2.8071797350e+01     1.400702    0.9987738  63.25  0.008464066    1.262    0.208
        15 -10.1773    108.7407    203.4195   1.0463841801e+02   1.7471043060e+01    0.1873247    0.1238483  30.60 0.0009549313    1.664    0.399
        16 -10.0640    152.2882    197.5030   9.4287801290e+01   1.1205742409e+01    0.3134961    0.1947455 -59.72  0.001488741    1.973    0.493
        17 -10.8723    111.7318    197.7179   1.0316841708e+02   1.8172466437e+01    0.2419492    0.2213282  -7.69  0.001164005    1.373    0.272
        18 -10.7447    208.2807    196.0202   8.2616075987e+01   1.5565845310e+00    0.1901061    0.1671318  -5.70 0.0006531276    1.056    0.053
        19  -9.3450     82.0647    194.7054   1.0932478770e+02   2.3445729699e+01    0.1906432    0.1584162  57.66  0.001152303    1.109    0.098
        20 -10.6429     34.0004    227.4335   1.2216935080e+02   2.2784804715e+01    0.1732306    0.1352416 -75.12 0.0003456065    1.383    0.277
        21 -15.7818      2.7529    197.8780   1.2614467744e+02   3.1952566926e+01     9.241284          nan -71.85   0.02237765    8.524    0.883
        22 -16.3281     50.1709    246.9509   1.2061445902e+02   1.7205715080e+01     9.226437     2.754786  29.29   0.01490615   11.208    0.911
        23 -14.6233     10.4876    206.2928   1.2517477462e+02   2.9493538341e+01    0.7100275    0.5736905  26.95  0.002550566    1.727    0.421
        24 -16.4221      8.4404    242.2088   1.2740962867e+02   2.2677488333e+01     5.509961     1.255285 -74.62   0.02560681    3.718    0.731
        25 -10.8948    145.4530    181.2256   9.2887610394e+01   1.5708727235e+01    0.3068141     0.281419  85.67  0.001371025    1.190    0.160
        26 -10.5727     99.0894    180.8298   1.0349521844e+02   2.3921430959e+01    0.3353527    0.2624416  14.02  0.001613856    1.726    0.421
        27 -12.2139    195.4563    197.5094   8.5387106613e+01   3.5215864724e+00     1.227588     0.951297 -81.52  0.006221934    2.306    0.566
        28 -10.2649     46.4936    176.9869   1.1523931519e+02   3.2170722344e+01     0.362696    0.1734101 -57.88  0.001314322    2.023    0.506
        29 -12.1262     68.1426    176.3396   1.1012805030e+02   2.9577704612e+01    0.4186832    0.2772223 -40.04   0.00166539    2.032    0.508
        30 -12.1861     72.6685    171.3675   1.0837057540e+02   3.0114283981e+01    0.3387645    0.2563447 -51.71   0.00188019    1.424    0.298
        31  -9.6196    204.1577    176.6332   7.9588133471e+01   5.5732242914e+00    0.2452523    0.1875645 -45.19  0.001310945    1.420    0.296
        32 -11.2763    140.0500    172.6237   9.2498950186e+01   1.8534726661e+01    0.5016852    0.3781305 -78.36  0.002170869    1.682    0.405
        33 -13.7408     69.5807    157.4763   1.0708256780e+02   3.3861419203e+01    0.6337912    0.5427137 -34.64  0.003635542    1.432    0.302
        34 -10.2351    105.6518    211.0942   1.0633417268e+02   1.6396364524e+01    0.3876378    0.2382962  18.32   0.00175498    2.659    0.624
        35  -9.7282     35.7752    167.1672   1.1665444444e+02   3.5657919031e+01    0.1906081    0.1634314  69.62 0.0002138542    1.145    0.127
        36 -10.5527    158.5672    161.5862   8.6039463589e+01   1.7294301152e+01    0.3783264    0.2693717 -66.90  0.001045402    1.803    0.445
        37  -9.2020     37.9171    162.0000   1.1556895909e+02   3.6650993028e+01    0.1832783   0.07265674  30.47 0.0007904033    2.860    0.650
        38 -10.0107     35.9301    158.3138   1.1562576949e+02   3.7738745652e+01    0.2259127    0.1504405 -88.52  0.000652023    1.353    0.261
        39 -12.2488     88.3562    155.0204   1.0186878037e+02   3.1673629232e+01    0.6240954    0.4532425 -28.27  0.003012024    1.892    0.472
        40 -12.3881     55.0105    146.4114   1.0916742269e+02   3.8460288730e+01    0.8529451    0.6979932 -86.10  0.005017988    1.113    0.102
        41 -10.3747    134.0000    147.9943   8.8907694671e+01   2.5159411423e+01    0.4153845    0.2227941 -61.64  0.001563852    2.339    0.572
        42 -11.0177    134.0000    144.0112   8.8029307501e+01   2.6064040313e+01    0.9630796    0.3226444 -57.76  0.002449076    4.990    0.800
        43  -8.8250    112.5178    150.5703   9.4830569850e+01   2.8636020173e+01    0.1482738    0.1410744  89.10 0.0001520707    1.022    0.022
        44 -10.5868    174.4706    148.9321   7.9728206174e+01   1.6684245596e+01    0.2884239    0.2629068  75.10 0.0008304388    1.265    0.210
        45 -10.8814     38.8795    146.1807   1.1337219087e+02   4.0353221100e+01    0.3336802    0.2349229  80.53 0.0008434114    1.410    0.291
        46  -9.7112    143.6602    145.3421   8.5971222800e+01   2.3818773258e+01    0.1603894     0.122672  86.91 0.0007049213    1.773    0.436
        47 -10.8751     81.4078    141.2944   1.0120111850e+02   3.6085080051e+01    0.5139948    0.2776062  66.07   0.00190966    2.973    0.664
        48 -10.7559    102.2117    140.1629   9.5375449900e+01   3.2948454238e+01    0.5457841    0.3332595 -29.78  0.002182348    2.401    0.583
        49 -12.4936     89.5394    140.0933   9.8765597237e+01   3.5100121840e+01    0.2925958    0.2582354 -53.45 0.0004511121    1.113    0.101
        50 -12.4976     43.8138    129.3042   1.0955423240e+02   4.3955525488e+01    0.5028784    0.3531567  61.35  0.002744657    1.591    0.372
        51 -10.2031    111.4130    130.5138   9.0790933580e+01   3.3584272282e+01    0.3045382    0.2545932 -12.90   0.00081443    1.470    0.320
        52 -11.3199    135.8342    127.5390   8.3710931896e+01   2.9428063234e+01    0.5824811    0.1652539 -50.31   0.00160256    3.808    0.737
        53 -10.7868     29.9751    129.7497   1.1351675054e+02   4.5233893792e+01    0.3694331     0.175629  56.56  0.001634346    2.677    0.626
        54 -10.2829    160.5530    127.8768   7.7835436326e+01   2.4058484187e+01    0.3796998    0.2576182 -66.74  0.001566266    1.987    0.497
        55 -11.0248     98.6581    126.5681   9.3378573320e+01   3.6838614169e+01    0.3034957    0.2529159  -4.48 0.0008226086    1.514    0.339
        56  -8.7960     93.7065    126.2762   9.4699866218e+01   3.7762713159e+01    0.1455791    0.1144206  80.98 0.0002816412    1.525    0.344
        57 -11.0096    117.2077    124.7670   8.7877302990e+01   3.3827341007e+01    0.3445276    0.2396793 -11.37 0.0009890619    2.286    0.563
        58 -10.4684    105.9637    130.7552   9.2318233987e+01   3.4532252012e+01    0.3564181    0.3042141 -84.17   0.00127063    1.271    0.213
        59 -11.2344    135.1149    118.7320   8.1678379378e+01   3.1556382044e+01    0.7083137    0.1147015 -43.75   0.00149528    6.294    0.841
        60 -11.4142     34.0426    119.1268   1.1073400060e+02   4.7441614132e+01    0.2762118    0.2121394 -25.66  0.001106377    1.609    0.379
        61  -9.9324    107.8869    119.1339   8.9045216263e+01   3.6930301977e+01    0.2172803    0.2074783 -43.93 0.0003175479    1.036    0.035
        62 -13.0282     81.5418    162.0343   1.0477963575e+02   3.1039456228e+01      1.25648    0.4772637  53.64 0.0004169259    3.588    0.721
        63  -9.8105    168.2225    113.1143   7.2328695319e+01   2.5427931695e+01     0.355281    0.2358846 -71.34  0.001381289    2.313    0.568
        64 -12.0504     19.4658    109.4563   1.1357714111e+02   5.1029275368e+01    0.4539043    0.2695557 -41.27  0.002389062    1.759    0.432
        65 -11.1368    117.7113    109.3886   8.3828280578e+01   3.7265712244e+01    0.4915669    0.2842741  56.37  0.001941583    2.141    0.533
        66  -9.4297     59.3215    108.3110   1.0093170247e+02   4.7263557169e+01    0.1443068   0.09954814 -32.20 0.0003555621    1.650    0.394
        67 -10.1927    205.3902    110.0891   6.4101098331e+01   1.7612414641e+01    0.3103079     0.228508  44.48 0.0009566973    1.463    0.316
        68 -10.5469    134.5556    104.8043   7.8105157567e+01   3.4738281443e+01    0.4913221     0.151026 -42.24  0.001451961    3.199    0.687
        69 -12.1305     42.9475    104.6291   1.0534694026e+02   5.0065107258e+01    0.6106358    0.2633708  45.74  0.002533136    2.933    0.659
        70  -8.9448    114.5307    169.4840   9.7933256377e+01   2.3891783468e+01    0.1427238    0.1375879  81.25 -7.942804e-05    1.030    0.029
        71 -10.0491     41.7658     91.9487   1.0301153605e+02   5.3200262925e+01    0.2020444    0.1909113 -19.05 0.0004747038    1.175    0.149
        72 -10.1610     53.0649     90.1882   9.8733583324e+01   5.2335063676e+01    0.2223024    0.1689146 -32.85  0.001225441    1.315    0.240
        73  -9.8609    158.6874     81.4324   6.5609141417e+01   3.3879358193e+01    0.2144005    0.1452093  42.43 0.0009424769    1.558    0.358
        74  -9.2946    243.3064     77.6722   5.0367548703e+01   1.4905659352e+01    0.1438818   0.09314565 -60.50 0.0007037043    1.654    0.395
        75  -9.1485    184.4959     77.4428   5.9291366088e+01   2.8348787631e+01    0.1485139    0.1453072 -47.29  8.92829e-05    1.036    0.035
        76  -9.3022     56.0110     66.2638   9.0912361767e+01   5.7232568072e+01    0.1784975    0.1611051 -16.99 0.0002779562    1.083    0.076
        77 -10.6987     13.4474     59.7119   1.0578622263e+02   6.2827059554e+01    0.2208654    0.1861337 -55.53   0.00039247    1.147    0.128
        78 -12.6131    190.7838     44.7543   4.9133095847e+01   3.1912361988e+01    0.6894404    0.5454206  42.89 0.0009137786    1.419    0.296
        79  -9.8325    172.5159    238.8055   9.6728477981e+01   7.0096608807e-01    0.2494606    0.1728508 -57.51  0.001458182    1.988    0.497
        80  -8.6302     66.5605     51.5234   8.1911628825e+01   5.8582580079e+01    0.1365172    0.1182817 -17.57 0.0001871597    1.006    0.006
        81 -10.1143      2.0000     51.0010   1.0837453558e+02   6.5323823451e+01    0.1987115   0.05297776 -62.36 0.0008042337    2.955    0.662
        82 -10.3875    146.0428     42.7500   5.6232548205e+01   4.3300714316e+01    0.2498339    0.2256375 -57.47 0.0003654007    1.173    0.147
        83 -10.1600    113.6231    207.8002   1.0419789070e+02   1.5787675480e+01    0.2551629    0.1799095  73.74 0.0007513595    1.635    0.388
        84  -9.9450     14.1525     32.1467   9.6957130577e+01   6.8255444315e+01    0.1427723    0.1319735 -31.42 0.0005321318    1.313    0.238
        85  -9.1587     41.8246    232.1523   1.2106979431e+02   2.0969286421e+01    0.1384529    0.1148747 -79.71 0.0003703968    1.335    0.251
        86 -11.5555      2.5094     29.4921   1.0176444714e+02   6.9531719386e+01    0.2421201    0.1853122 -49.52 0.0009797147    1.231    0.188
        87 -11.2263    143.4933     48.5099   5.8653835737e+01   4.3095415454e+01    0.4403647    0.2992291 -74.95  0.001918433    2.137    0.532
        88  -9.4224    189.6952     14.9955   4.1110887511e+01   3.5830129504e+01    0.1837246    0.1649752 -55.17 0.0006720472    1.120    0.108
