#   1 NUMBER                 Running object number                                     
#   2 MAG_AUTO               Kron-like elliptical aperture magnitude                    [mag]
#   3 X_IMAGE                Object position along x                                    [pixel]
#   4 Y_IMAGE                Object position along y                                    [pixel]
#   5 X_WORLD                Barycenter position along world x axis                     [deg]
#   6 Y_WORLD                Barycenter position along world y axis                     [deg]
#   7 A_WORLD                Profile RMS along major axis (world units)                 [deg]
#   8 B_WORLD                Profile RMS along minor axis (world units)                 [deg]
#   9 THETA_WORLD            Position angle (CCW/world-x)                               [deg]
#  10 FWHM_WORLD             FWHM assuming a gaussian core                              [deg]
#  11 ELONGATION             A_IMAGE/B_IMAGE                                           
#  12 ELLIPTICITY            1 - B_IMAGE/A_IMAGE                                       
         1 -11.1580    250.0017     19.8622   3.3175057167e+01   2.2115470241e+01    0.6128231    0.3388295 -49.55  0.002462358    1.476    0.323
         2 -10.3006    157.5468     22.9420   4.3811499301e+01   4.2815996838e+01    0.3491243    0.1857742  63.70  0.001657221    1.675    0.403
         3 -10.4811     16.0062     17.2360   8.6232013970e+01   7.0861339026e+01    0.4651735    0.1376285 -47.94   0.00191382    3.679    0.728
         4 -10.8118    239.1274      8.6031   3.1683591307e+01   2.5602789533e+01    0.6022187    0.2691067 -64.59  0.003030821    2.183    0.542
         5 -10.3766    237.3305     14.4454   3.3014708250e+01   2.5328871941e+01    0.3874406    0.2702735 -33.29  0.002197926    1.551    0.355
         6  -9.6752    234.3148      1.5532   3.0576666804e+01   2.7348459304e+01    0.3119823    0.1921714 -58.41 0.0003639277    1.354    0.262
         7  -8.5890    230.4932      1.5281   3.0829960720e+01   2.8153540535e+01    0.2966251    0.1123755 -58.33  0.001379017    2.514    0.602
         8 -10.1484    133.5555     17.9539   4.6273793879e+01   4.9161762124e+01    0.6768857    0.2600936  48.98  0.002777258    2.349    0.574
         9 -10.8741     87.9971     16.4231   5.6156489596e+01   5.9645202401e+01    0.3974679    0.3210584 -46.88  0.002392544    1.582    0.368
        10 -10.2932     66.4139     13.9764   6.1935455998e+01   6.4143169339e+01    0.3806592    0.2301199  -0.23  0.001674876    1.873    0.466
        11 -12.5092    113.1185     12.5132   4.8416897409e+01   5.4496639917e+01    0.3557988    0.2653084 -17.50 0.0003129467    1.493    0.330
        12  -9.8218    113.2026      5.0901   4.5687639216e+01   5.5123786259e+01    0.4203598    0.2386983  57.59  0.002214005    1.477    0.323
        13 -10.3700    204.5092     12.4199   3.5333356531e+01   3.2742358168e+01    0.3437786    0.1966124 -57.05 0.0009051613    1.663    0.399
        14 -11.3156    101.3753     13.7306   5.1551254314e+01   5.7034765572e+01    0.2631984    0.2374441  35.35 0.0002827314    1.051    0.048
        15  -9.5366    100.2808      9.7026   5.0244114469e+01   5.7650620563e+01    0.2040897    0.1686702 -89.49 0.0002183934    1.527    0.345
        16  -9.7785     42.5203     12.1831   7.0569228457e+01   6.8325785195e+01    0.5652391     0.297911  13.48  0.002101958    2.324    0.570
        17  -9.6651    231.7747     11.9890   3.2923288422e+01   2.6771519077e+01    0.4182349    0.1964324  48.70   0.00194801    3.137    0.681
        18 -10.8189    141.1656     12.6918   4.3256064585e+01   4.7842941691e+01    0.3304348    0.2527499   6.06  0.001450716    1.609    0.379
        19  -9.3865     60.9835     12.5939   6.3256112165e+01   6.5271903526e+01    0.2997077    0.1746397  27.79  0.001029775    1.604    0.377
        20 -10.3975      6.5012      9.4945   8.7989195909e+01   7.2878693391e+01    0.4562822    0.1088688 -45.79  0.001902868    3.685    0.729
        21 -10.8154     26.4079     10.5265   7.7464774902e+01   7.0706915353e+01    0.4088914    0.2443068  45.48  0.001539314    2.592    0.614
        22 -11.0347     14.8527      9.7162   8.3278217727e+01   7.2089141516e+01     0.343468     0.209298  11.25  0.001613925    1.518    0.341
        23  -9.2966    209.1157     10.0189   3.4353190790e+01   3.1949057286e+01      0.18307    0.1516873 -75.25  0.001203282    1.022    0.021
        24  -8.8057     91.4894     12.4667   5.3566952054e+01   5.9304411132e+01    0.2352837    0.1708649  30.89  0.001376594    1.255    0.203
        25 -10.0165    250.0508      7.8167   3.0793506103e+01   2.3473484970e+01    0.2157012      0.15668 -56.70 0.0006424098    1.125    0.111
        26  -9.2197    182.9648      8.5661   3.6545905146e+01   3.8159839510e+01    0.2626598    0.1744142  75.09  0.001492324    1.328    0.247
        27 -10.9397    186.3711      3.9914   3.5031125544e+01   3.7794601096e+01    0.3302286    0.2242347 -30.77  0.001017637    1.633    0.388
        28 -10.3013     32.5816      6.4303   7.2269203240e+01   7.0430632893e+01       0.2483    0.2126317 -12.23 0.0006783696    1.322    0.244
        29 -11.4094     65.5970      6.1263   5.8588191088e+01   6.5092557670e+01    0.4616408    0.2479358  36.95  0.001509249    1.604    0.376
        30  -9.2875     73.5636      4.7909   5.5400254547e+01   6.3686538001e+01    0.3412504    0.2147059 -51.23  0.001755062    2.622    0.619
        31 -10.5610    223.6738      6.1321   3.2293753569e+01   2.9136365277e+01    0.2820734    0.1727594 -58.92 0.0004186339    1.423    0.297
        32  -9.1071    138.6870      6.0146   4.1527112711e+01   4.9038441519e+01    0.2015223    0.1621313  64.56 0.0004743965    1.074    0.069
        33  -9.8954     94.6478      5.3743   4.9879191872e+01   5.9259932388e+01    0.3859993    0.2056669  66.18  0.001713183    1.981    0.495
        34 -10.3165    241.8091      1.9944   3.0176935110e+01   2.5756510137e+01    0.2999413    0.1741725  89.56   0.00123992    1.551    0.355
        35  -9.2488      1.4941      3.9359   8.8288931809e+01   7.4100153373e+01    0.1591583   0.08716346 -38.60  0.001019188    1.550    0.355
        36  -8.9724    218.0159      3.3081   3.2113217324e+01   3.0658974579e+01    0.1713973    0.1343266 -87.13 0.0005954037    1.090    0.082
        37  -8.3465    148.9683      3.0159   3.9105542516e+01   4.6819436445e+01    0.1604202    0.1324349  71.59 0.0009964694    1.043    0.041
        38  -9.7797     78.1436      2.7283   5.3118906801e+01   6.2948371133e+01    0.2038867    0.1670232  18.82 0.0002886231    1.113    0.101
        39  -8.3101     37.7221      3.3338   6.8217610294e+01   7.0054223999e+01    0.0988536   0.09073265 -28.70 0.0006999695    1.607    0.378
        40  -8.8070     15.0010      2.9765   7.9701316813e+01   7.2991976525e+01    0.1782596    0.1052891  -5.33 0.0007092568    1.571    0.364
        41  -7.8391     57.2793      9.3548   6.3108142238e+01   6.6268404183e+01    0.1288758   0.07936855  13.52 0.0001741473    1.655    0.396
        42  -8.9614     72.5613     95.7069   8.9381947818e+01   4.8707297127e+01    0.2760001    0.1289862 -48.18 0.0007620541    1.948    0.487
        43  -8.4572    111.0000    249.9935   1.0600399352e+02   7.6426740832e+00    0.1751477   0.07087591 -58.86 0.0008008216    2.931    0.659
        44  -8.8298    165.0997     94.8982   6.3236287657e+01   2.9928635327e+01    0.2320951    0.2054333 -71.36 0.0004609668    1.216    0.178
        45  -8.1912    178.3729     93.6706   6.0159371308e+01   2.7070498318e+01    0.1621398     0.117236 -76.30 0.0003035515    1.832    0.454
        46  -8.1312    145.3566     92.7586   6.7154961443e+01   3.4927587616e+01    0.1529299    0.1221051  85.17 0.0005958513    1.588    0.370
        47  -9.3717     19.7009     91.3851   1.0716172015e+02   5.5654516927e+01     0.261682    0.1874114 -46.20  0.001346777    1.198    0.165
        48  -9.5397    119.9756    102.9970   7.6693607887e+01   3.8381368543e+01    0.3067372    0.2360972  61.82 0.0007984489    1.523    0.344
        49  -8.7006    210.4928     91.4604   5.3858038873e+01   2.0186401590e+01    0.2338635    0.1409839  71.86 0.0008072886    2.149    0.535
        50  -8.5243    192.5008     91.4986   5.6924248222e+01   2.4209824222e+01    0.1472471    0.1404488 -46.29 0.0008104842    1.032    0.031
        51  -8.7858     99.7321     90.4083   7.9034448630e+01   4.5190570728e+01    0.2131411    0.1435134  27.92 0.0007668384    1.657    0.397
        52  -8.7857     38.3200     90.0200   1.0007115090e+02   5.4367039556e+01    0.1894407    0.1515793 -52.17 0.0002876117    1.082    0.075
        53  -8.5459     54.3168     88.6375   9.3890606531e+01   5.2876498008e+01    0.1384424    0.1093597  81.54 0.0007041562    1.766    0.434
        54  -9.9333    188.9791     88.0292   5.6663606208e+01   2.5638077756e+01    0.2144786    0.2047988 -59.32            0    1.009    0.009
        55  -9.1342    228.9991     84.3545   4.9415464581e+01   1.7416233761e+01    0.1834676    0.1684474 -87.57 0.0004295076    1.145    0.126
        56 -10.0160    199.5438     76.9170   5.1995046691e+01   2.5109373294e+01    0.3368936    0.3036315  -3.88  0.001445392    1.320    0.242
        57  -8.7121    195.5386     77.5202   5.2802817728e+01   2.5932690823e+01    0.2612077     0.210644 -63.49 0.0006382322    1.257    0.204
        58 -11.0331    195.5822     82.1491   5.3985590213e+01   2.5139823335e+01    0.2987267    0.2856695  70.41  0.000237992    1.093    0.085
        59 -10.3261    189.0173     82.0510   5.5095920003e+01   2.6677420903e+01    0.3594196    0.2612815  37.83 0.0003780574    1.611    0.379
        60  -8.6955    235.7413     83.0075   4.8201805698e+01   1.6243519180e+01    0.1821747    0.1039397 -38.84 0.0004929156    1.540    0.351
        61  -8.7253    135.4837     83.1306   6.6784438013e+01   3.9074392344e+01     0.230125    0.1501114 -40.06 0.0008750111    1.529    0.346
        62  -9.8749     87.8161     82.3159   8.0397616036e+01   4.9132177235e+01    0.3301476    0.2650089 -63.24  0.001446673    1.481    0.325
        63  -9.0481    124.2979     82.6666   6.9564788433e+01   4.1682025296e+01    0.1532665    0.1226128 -78.40 0.0002252905    1.647    0.393
        64  -8.4980     48.6703     79.8113   9.3597282336e+01   5.5560784573e+01    0.1877086    0.1579935 -16.90  0.000715863    1.170    0.145
        65  -9.4174    174.9263     78.9963   5.6872208766e+01   3.0528727720e+01    0.2257264    0.2171793 -62.20 0.0004495211    1.009    0.009
        66 -10.1999    148.8766     76.2288   6.1520057786e+01   3.7230808676e+01    0.3190041    0.2229279 -60.29  0.001234417    1.714    0.416
        67  -9.0038    131.0032     79.6707   6.6882209299e+01   4.0755923609e+01    0.2486294     0.129169  70.00 0.0007051903    4.358    0.771
        68  -9.0627     32.2890     77.0729   9.9189265553e+01   5.7910056457e+01    0.2804103     0.173007  -5.87  0.001171213    2.001    0.500
        69  -9.0994     63.5637     82.6305   8.8883610571e+01   5.2985221353e+01    0.2763055    0.1204357 -46.03 0.0009254405    2.065    0.516
        70  -8.6380    234.4733     75.1932   4.6596523880e+01   1.7735675311e+01    0.2556298    0.1479928 -68.99  0.001154574    2.257    0.557
        71  -9.2072     19.6826     74.0668   1.0344574959e+02   5.9630685416e+01     0.253104    0.1839743  70.15  0.001415511    2.022    0.505
        72 -10.7415    128.9632     71.0255   6.4728158601e+01   4.2814959865e+01    0.3645486      0.30646   1.13 0.0003694982    1.348    0.258
        73  -8.5012    243.2523     71.9995   4.4816399311e+01   1.6437510519e+01    0.2216198    0.1352103  25.92 0.0009066294    3.615    0.723
        74  -9.5840    160.9090     71.1740   5.7447166051e+01   3.5234336123e+01    0.2914305    0.2326538 -65.22 0.0008379371    1.387    0.279
        75 -10.5311    114.2762     70.5672   6.8529946968e+01   4.6175535630e+01    0.4789803    0.3540881 -83.33  0.001513678    2.157    0.536
        76  -9.8151     28.8793     71.5446   9.9110847158e+01   5.9443368336e+01    0.2314508    0.1747207 -50.51 0.0003034961    1.145    0.127
        77 -10.7087    139.0226     69.2240   6.1687690126e+01   4.0795663564e+01    0.5104904    0.3058659  43.52  0.001261411    1.690    0.408
        78  -8.1951     80.3493     71.7099   7.9554514624e+01   5.2627860740e+01    0.1373255    0.1167244  80.32 0.0007026641    1.666    0.400
        79  -8.6208     71.3600     71.1816   8.2553166504e+01   5.4233003765e+01    0.1972243    0.1279493 -53.59 0.0007315493    1.688    0.407
        80  -8.8492     59.5049     70.9987   8.6876360722e+01   5.6051807305e+01    0.2143357    0.1256186 -46.49 0.0006716633    1.569    0.363
        81  -9.3601     37.3289     71.1307   9.5590737892e+01   5.8723980333e+01    0.2103307    0.1833043  13.91 0.0003387746    1.260    0.206
        82  -8.5530    212.0049     70.0184   4.8389863361e+01   2.3393334529e+01     0.197931    0.1683337  15.83 0.0004371776    1.555    0.357
        83  -8.9433    204.2019     68.6609   4.9188738564e+01   2.5375674640e+01    0.2284258    0.1756078  54.41    0.0007583    1.385    0.278
        84  -8.6306    191.9429     69.4951   5.1310759261e+01   2.8089281321e+01     0.213131    0.1378474  56.36  0.001011682    1.573    0.364
        85 -10.7794     94.8725     67.0029   7.3168417619e+01   5.0849739980e+01    0.4756856    0.2705133 -25.39  0.001413513    2.121    0.529
        86 -10.3335    149.1287     66.9793   5.8700488685e+01   3.8775564864e+01    0.3616698    0.2340815  43.39 0.0004008749    1.589    0.371
        87 -10.0538    144.5411     64.3213   5.8906564306e+01   4.0316899354e+01    0.3489262    0.2845006  86.03 0.0009929892    1.434    0.303
        88  -9.3574    173.1345     66.6949   5.3804694434e+01   3.3028118684e+01    0.2640495    0.2108945 -31.09  0.000552817    1.310    0.236
        89  -9.2267     39.0976     66.6856   9.3584535063e+01   5.9487305234e+01    0.2323675     0.160699  12.61  0.001116659    1.573    0.364
        90 -10.1501     15.1158     66.0958   1.0338318331e+02   6.1706081783e+01    0.2329816    0.1698837 -19.39 0.0003180586    1.369    0.270
        91  -9.4281     28.7962     65.9617   9.7624357455e+01   6.0658164072e+01    0.1945485    0.1682323 -17.82  0.000290306    1.129    0.114
        92  -9.2973    208.6875     64.2730   4.7448652572e+01   2.5034510176e+01    0.3303041    0.2115465 -20.49  0.001324164    2.020    0.505
        93 -10.6808    101.1302     62.7506   6.9778584773e+01   5.0366092435e+01    0.4249885    0.3249749 -68.30 0.0009961564    1.865    0.464
        94  -8.5025     67.0208     64.9501   8.2084299289e+01   5.6161974620e+01    0.1701534    0.1418917 -31.26 0.0004176506    1.104    0.094
        95 -10.9365     39.5104     60.2892   9.1438474684e+01   6.0765289288e+01    0.3791682    0.3089994  64.00 0.0005988016    1.872    0.466
        96 -10.4440     34.7694     59.7191   9.3257129743e+01   6.1387123691e+01    0.2655348    0.2061733 -24.40 0.0004693144    1.140    0.122
        97  -9.2614     49.3418     65.3553   8.9038019533e+01   5.8570020466e+01    0.2420722     0.182504 -20.63 0.0009140864    1.272    0.214
        98  -8.7803    160.8749     62.8324   5.5031087022e+01   3.6618365421e+01    0.2264837    0.1998576  24.76  0.001021584    1.274    0.215
        99  -9.2805    235.4798     61.5639   4.3403550291e+01   1.9588589554e+01    0.2155397    0.1798311 -58.91 0.0001682823    1.029    0.029
       100 -10.5064    134.9902     59.8031   5.9686250845e+01   4.3325219678e+01    0.6022225    0.2719791 -52.05  0.002071202    3.150    0.683
       101  -8.9002     81.7845     62.0261   7.5793694317e+01   5.4237509784e+01    0.2602426    0.1804037  18.12  0.001272573    1.619    0.382
       102 -10.5660     25.4668     59.3987   9.7150517988e+01   6.2332929523e+01    0.3795484    0.3371592 -72.17  0.002500183    1.412    0.292
       103  -8.9027     28.4693     54.2372   9.4253870209e+01   6.3113889067e+01    0.2510115      0.12013 -41.01  0.001241732    1.750    0.429
       104 -10.2400    243.8793     58.4812   4.1794920666e+01   1.8307138180e+01     0.278893    0.2300106 -80.63 0.0005298198    1.182    0.154
       105  -9.1418     92.9853     59.4338   7.1169820271e+01   5.2591426212e+01    0.2198252    0.1832537 -30.47 0.0004897479    1.184    0.156
       106  -8.9753    185.2185     60.5604   5.0037310828e+01   3.1089982985e+01    0.3332536    0.1079465  51.41  0.001132908    3.107    0.678
       107  -8.5425    174.1990     59.3727   5.1568922204e+01   3.3926684180e+01    0.2310994    0.1758189  44.79 0.0005780082    1.405    0.288
       108  -8.8748    176.0000     56.0167   5.0324334443e+01   3.3999354101e+01    0.3190754   0.09852184 -38.50  0.001082857    3.022    0.669
       109  -9.0450    149.3560     58.9402   5.6214515853e+01   4.0027473742e+01    0.2443263    0.1966542  73.41 0.0005060975    1.317    0.241
       110  -9.3101    235.1257     57.0702   4.2438516990e+01   2.0316035436e+01    0.1981657    0.1640678 -62.92 0.0004174371    1.051    0.048
       111  -9.9093    192.3218     56.1078   4.7749580039e+01   3.0069445302e+01    0.3235673    0.2158811 -57.07 0.0008827063    1.535    0.348
       112  -9.1469    120.1224     56.6529   6.2343677720e+01   4.7278160193e+01    0.2342952    0.2005551 -46.76 0.0004028815    1.262    0.208
       113  -8.4414     89.7605     57.1820   7.1415463037e+01   5.3614376726e+01    0.1881705    0.1517726   9.85 0.0002609496    1.274    0.215
       114  -9.8856     63.8625     56.3872   8.0305761261e+01   5.8286162637e+01    0.3118187    0.2662732  76.82  0.001101484    1.817    0.450
       115  -9.7162     20.0863     57.0329   9.8809891969e+01   6.3265591231e+01    0.1938644    0.1520415 -38.82 0.0005164949    1.027    0.026
       116 -10.0164    112.7265     54.9296   6.3737111615e+01   4.9211736584e+01    0.3298878    0.3201631 -64.65  0.001198977    1.162    0.139
       117  -9.9100    208.1030     55.0303   4.5249912801e+01   2.6548831451e+01    0.2787723    0.1911822  62.71  0.000909967    1.482    0.325
       118  -9.8741    204.9973     51.5687   4.4805211485e+01   2.7761502655e+01    0.2495359    0.2131053 -40.72 0.0003107318    1.186    0.157
       119  -9.7862    207.3447     48.0652   4.3634898516e+01   2.7714544180e+01    0.2451153    0.2009773 -61.22 0.0003813671    1.115    0.103
       120  -9.7824    142.4369     54.2292   5.6235729194e+01   4.2425002574e+01    0.3292119    0.2212531  44.18 0.0005616738    1.484    0.326
       121 -10.1141    125.1987     54.0788   6.0191791781e+01   4.6522894899e+01     0.296459    0.2169304  64.75 0.0004104738    1.494    0.331
       122  -9.0852    153.6145     53.2706   5.3623967101e+01   3.9862527587e+01     0.241882    0.1710732 -70.92  0.001127588    1.783    0.439
       123 -10.0037      9.8627     52.4915   1.0210378444e+02   6.4917648386e+01    0.2478955    0.2160426  21.29 0.0007125661    1.417    0.295
       124  -9.8145    244.0776     50.7160   4.0098171550e+01   1.9362139385e+01    0.2983201    0.2602224 -67.67  0.001419349    1.075    0.069
       125  -9.8507    189.2356     44.3354   4.5111169213e+01   3.2477911919e+01    0.2730651    0.2048746 -70.78  0.001190459    1.362    0.266
       126 -10.5346    192.6669     48.9188   4.5823953545e+01   3.1025914621e+01    0.4351839    0.2897277 -76.59   0.00213178    1.724    0.420
       127  -8.8623    197.4860     48.4882   4.5040313012e+01   2.9947873220e+01    0.2039348    0.1277193  81.08 0.0009771202    1.740    0.425
       128  -9.5402    185.5451     51.3173   4.7507329087e+01   3.2385076637e+01    0.3662086    0.2723545  72.71  0.001855755    1.329    0.248
       129  -9.9508     84.7692     51.0440   7.0839812367e+01   5.5612761407e+01     0.262141    0.2238577  -8.99  0.000815778    1.114    0.102
       130  -8.8448    227.4963     51.5187   4.2041013474e+01   2.2731970469e+01    0.1334334    0.1124948 -64.00 0.0001100763    1.026    0.026
       131 -10.0415    120.2845     50.5615   6.0243858638e+01   4.8194289784e+01    0.2456779    0.2440038 -10.28 0.0002668898    1.079    0.074
       132  -9.8807     72.9317     49.1519   7.4260848191e+01   5.8078743496e+01    0.4946243    0.2557028 -30.70  0.002229913    1.989    0.497
       133  -9.0819    159.4877     49.9599   5.1509216969e+01   3.8914623428e+01    0.2663633    0.1924917  80.00 0.0007118038    1.525    0.344
       134  -8.9589     92.5851     48.2726   6.7279766034e+01   5.4532353824e+01    0.2660159    0.1287889 -40.25   0.00112913    2.156    0.536
       135  -9.5160     41.6770     47.0436   8.5967813492e+01   6.3074851409e+01    0.2877645    0.1884501  51.38  0.001455625    2.475    0.596
       136  -9.0299    213.1070     47.2360   4.2719452336e+01   2.6515395037e+01    0.2465726    0.1670398 -81.82 0.0008575714    1.576    0.366
       137  -8.9821    109.4202     47.1311   6.1919642830e+01   5.1151452289e+01    0.2349976    0.1588549  53.69 0.0006018195    1.476    0.322
       138  -9.5025     80.1539     49.9570   7.2005703985e+01   5.6654837584e+01     0.332604    0.1960337  35.16  0.001596319    1.677    0.404
       139  -8.7749     54.9675     46.2570   8.0072422988e+01   6.1441257432e+01    0.2697735    0.1476761 -39.30  0.001170956    1.709    0.415
       140  -8.9410     20.0027     47.2009   9.5824865349e+01   6.5248335470e+01    0.1655495    0.1570415 -20.35 0.0005395353    1.280    0.219
       141  -8.1128    226.3042     46.6642   4.1065083104e+01   2.3665000782e+01    0.1406334   0.08487268 -63.30 0.0007038751    1.667    0.400
       142  -8.8184    164.1340     46.1445   4.9554146119e+01   3.8318025448e+01    0.1999483    0.1600236 -66.66 0.0006260017    1.329    0.248
       143  -9.4034    156.1636     44.9050   5.0615188907e+01   4.0440431070e+01    0.3356881    0.2252243 -48.16 0.0003957336    1.576    0.366
       144  -9.0515    153.0238     41.2876   5.0099640631e+01   4.1698864617e+01    0.2416647    0.1952938 -49.18  0.001265818    1.297    0.229
       145  -8.7099    233.6585     45.0825   3.9927650322e+01   2.2301023490e+01    0.1813129    0.1434922 -49.85 0.0005188438    1.127    0.113
       146 -10.3442    134.1248     43.4859   5.4600435745e+01   4.5978076463e+01    0.5215302    0.3684089 -84.18  0.002447329    1.972    0.493
       147  -9.4236    139.0432     43.9630   5.3697991199e+01   4.4732822946e+01    0.2196856    0.1594283  29.45 0.0003480562    1.575    0.365
       148  -8.1000    199.3041     43.6973   4.3580538523e+01   3.0181147777e+01    0.1417584   0.09384587 -67.34  0.000282205    1.595    0.373
       149  -9.6415     96.6135     43.1330   6.4135181142e+01   5.4490985702e+01    0.2731684    0.1853649  36.84 0.0007147266    1.404    0.288
       150  -9.1965      3.6026     43.2267   1.0239583970e+02   6.7148231655e+01    0.1720714   0.07893648 -47.40 0.0003644646    1.607    0.378
       151  -8.8995    163.3198     42.2730   4.8565871876e+01   3.9046142397e+01    0.1403003    0.1034413  35.76 0.0002823703    1.569    0.363
       152 -10.6854     32.1206     43.7163   8.9011478325e+01   6.4772230591e+01    0.5663568    0.2576035  26.04  0.002059336    2.315    0.568
       153 -10.0705    250.3104     40.8451   3.7425433306e+01   1.9438211577e+01    0.2619314    0.1832678  80.11 0.0005126733    1.463    0.316
       154 -10.8397    248.0077     37.5146   3.6937329135e+01   2.0334830358e+01     0.486628    0.2898722 -35.28    0.0024357    1.625    0.385
       155  -9.1301    223.5154     40.7219   4.0007926784e+01   2.5075719533e+01    0.3089497    0.1679798 -60.62  0.001509129    1.872    0.466
       156  -8.6183    127.0395     41.4757   5.5522186728e+01   4.7933551348e+01    0.2160848    0.1329769  57.30 0.0006388187    1.548    0.354
       157  -8.2163     92.6821     41.2673   6.4627724338e+01   5.5575347426e+01    0.1259598    0.1110345 -89.80 0.0002105763    1.555    0.357
       158  -8.4713     89.2396     40.6355   6.5460339174e+01   5.6364170454e+01     0.290749    0.1185518  43.83 0.0008070791    2.305    0.566
       159  -8.7962    185.2122     36.4300   4.3580574508e+01   3.4485373354e+01    0.1920073    0.1229834  83.38 0.0007502404    1.638    0.389
       160  -8.4228    106.6266     39.8255   6.0052247652e+01   5.2817675939e+01     0.179978    0.1276565 -39.72 0.0003114363    1.537    0.350
       161  -9.4060     18.9550     40.0584   9.3901732716e+01   6.6698339819e+01    0.3755201    0.1299032  31.47  0.001684991    3.222    0.690
       162  -9.9591      1.7788     39.2810   1.0211235679e+02   6.8018700069e+01    0.2667724    0.1410474 -46.66 0.0009895824    1.413    0.292
       163  -9.2008    119.8065     38.9440   5.6358049278e+01   4.9962028901e+01    0.2268601    0.1848156  54.93 0.0004110282    1.173    0.148
       164  -9.6538     61.3885     38.2693   7.4354593191e+01   6.1778855124e+01    0.2642709    0.2185996 -34.49  0.001046049    1.303    0.233
       165  -9.9588     51.7347     37.6121   7.7997368008e+01   6.3362920824e+01    0.2613564    0.2155666 -35.88 0.0006335133    1.313    0.238
       166  -9.7092    215.7184     37.9903   4.0219266992e+01   2.7167421747e+01     0.262387    0.2054093 -86.95  0.000837978    1.198    0.165
       167  -9.8504    212.0938     37.2154   4.0439323214e+01   2.8086944364e+01    0.3069442    0.2001353  68.53   0.00103673    1.501    0.334
       168  -8.9079    237.2085     36.6117   3.7724327677e+01   2.2672817836e+01    0.2685032    0.1331886 -55.30 0.0008102066    1.858    0.462
       169 -10.5773    124.4388     35.4351   5.4057933689e+01   4.9340697203e+01     0.405805    0.2515625 -33.54  0.001643236    1.709    0.415
       170  -9.6570    113.2225     36.3308   5.7058240220e+01   5.1814490397e+01    0.3137887    0.2176477  29.25  0.001011962    1.527    0.345
       171  -8.8940     99.4644     36.5133   6.0817230449e+01   5.4823632355e+01    0.2387444    0.1180756 -42.47  0.001021097    2.348    0.574
       172  -9.2455    191.4520     36.3894   4.2735326233e+01   3.2998474434e+01    0.3054194    0.1631152  76.97  0.001389707    1.977    0.494
       173  -9.3484     92.3049     35.7640   6.2634211803e+01   5.6428803725e+01    0.3097315    0.1637742  48.01  0.001439754    1.776    0.437
       174  -9.5518     69.7589     31.9741   6.8596469166e+01   6.1293774697e+01    0.3703694    0.2632604  19.01  0.001348784    1.361    0.265
       175  -8.9779     67.4660     28.6219   6.8021541437e+01   6.2162739206e+01    0.2652043    0.1492569 -15.74  0.001276259    2.049    0.512
       176  -8.5536     20.4800     36.5163   9.1874966875e+01   6.7217413473e+01     0.124099   0.09495983 -24.34 5.843433e-05    1.030    0.029
       177  -8.2570     12.3374     36.2965   9.5842833467e+01   6.7917918069e+01    0.1273036   0.06980541 -26.08 0.0007030975    1.653    0.395
       178  -8.9414    165.6311     35.1787   4.6125131303e+01   3.9400659741e+01    0.2274393    0.1735176  82.32 0.0004217431    1.308    0.236
       179  -8.9887    153.1754     34.0153   4.7857825388e+01   4.2595658450e+01    0.2675428    0.1815023 -55.89  0.001337848    1.657    0.397
       180  -8.5583     33.4494     33.9963   8.4645229787e+01   6.6338852902e+01     0.187749    0.1067689 -40.95 0.0008455473    1.601    0.376
       181 -10.1117      4.8637     33.2469   9.8597769999e+01   6.8987644046e+01    0.2453234    0.1765001 -59.73   0.00161459    1.553    0.356
       182  -9.5970    134.0959     32.2981   5.0919343111e+01   4.7437743325e+01     0.223675    0.1990091 -40.33 0.0003605247    1.216    0.177
       183  -8.7600     59.4643     33.4579   7.3126749525e+01   6.2824964215e+01    0.1311744    0.1097804   1.53 0.0001126716    1.010    0.010
       184  -9.2011     39.5307     32.6611   8.1281182932e+01   6.5824423288e+01    0.2180317    0.1677921   0.68 0.0006145273    1.148    0.129
       185  -9.5260    211.7695     31.6831   3.9160052528e+01   2.8863183085e+01    0.2448863    0.1862773 -71.33  0.000630579    1.201    0.168
       186  -9.5585     20.3617     31.9611   9.0194280530e+01   6.8036487330e+01    0.1953737    0.1383337  -7.33 0.0003842456    1.281    0.219
       187  -9.4565     23.9912     30.7703   8.7906250077e+01   6.7895587650e+01      0.22356    0.1433702 -37.61 0.0002021387    1.337    0.252
       188  -9.5360    239.6232     30.9858   3.6300579183e+01   2.2883463937e+01    0.2798088    0.1538883  74.04  0.001524083    1.826    0.452
       189 -10.1864     14.2471     30.4007   9.2701747013e+01   6.8836143324e+01     0.346392    0.1820441  11.48  0.001473534    2.016    0.504
       190 -10.5916      8.5030     26.3259   9.4150918734e+01   6.9989933027e+01    0.3016047    0.2604614  21.51 0.0007999434    1.501    0.334
       191  -9.0370    167.1279     28.8500   4.4078454142e+01   3.9803888353e+01    0.2087411    0.1694617 -74.91 0.0005452933    1.249    0.199
       192  -9.0758     84.7030     28.9957   6.2301138833e+01   5.8864449964e+01    0.2253822    0.1756568  38.98 0.0004887245    1.179    0.152
       193  -9.1454    123.6369     26.5030   5.1148421603e+01   5.0605095138e+01    0.2831087    0.1742651 -17.46 0.0009964237    1.898    0.473
       194  -9.3414     52.5002     26.7730   7.3077583906e+01   6.4894881232e+01    0.3369202    0.1695795 -43.24 0.0008601801    2.344    0.573
       195  -8.9246     29.2909     28.0181   8.4148384376e+01   6.7794046817e+01    0.2580283    0.1337053  -0.89  0.001189231    2.712    0.631
       196  -9.8524    224.6568     26.7822   3.6739736062e+01   2.6593844678e+01    0.2285046    0.1761431 -69.13 0.0002074952    1.118    0.105
       197 -10.1368    192.4619     25.6971   3.9863873411e+01   3.4067914056e+01    0.3714879    0.2666218  25.09  0.001669043    2.056    0.514
       198  -9.0794    174.1569     25.8776   4.2239615539e+01   3.8438289435e+01    0.2891087    0.1617098 -46.26  0.001403196    1.821    0.451
       199  -8.8884    232.3177    246.6646   8.1957666710e+01  -9.4833521158e+00   0.09866031    0.0922249  34.13 0.0007048503    1.698    0.411
       200  -9.5563    246.0307     23.4504   3.4200808964e+01   2.2489340560e+01    0.2058084    0.1317501 -89.97 0.0003768684    1.495    0.331
       201 -10.1726    218.6508     25.8186   3.7093645232e+01   2.8033605902e+01    0.2197405    0.1836122 -79.47 0.0002719264    1.041    0.040
       202  -9.8943    136.9971     25.6483   4.8162939567e+01   4.7515780720e+01    0.2263334    0.1985863 -23.24 0.0003404576    1.256    0.204
       203  -8.1285    105.4691     26.4359   5.5390064387e+01   5.4778055816e+01    0.1344284    0.1206309  38.07  0.000106568    1.025    0.025
       204  -9.7386     63.0195     25.6272   6.8389912336e+01   6.3338423323e+01    0.2501456    0.1862815  21.68 0.0004648011    1.202    0.168
       205  -9.0929     37.8588     25.8651   7.9123550186e+01   6.7101288751e+01    0.1912665    0.1375773  -8.89 0.0004637138    1.219    0.180
       206  -9.3709    142.2951     23.5783   4.6525466020e+01   4.6462931289e+01    0.3121484    0.2123707 -31.83  0.001658115    1.592    0.372
       207  -9.3092     78.3083     25.0404   6.2728038637e+01   6.0617834717e+01    0.2607689    0.2069408 -18.71  0.001393922    1.270    0.212
       208  -9.6985    225.6260    241.8631   8.2380130900e+01  -7.9815474242e+00    0.2947157    0.1757188 -37.89  0.001747199    1.864    0.463
       209 -10.4797    246.9417    240.2054   7.8331943220e+01  -1.0510529854e+01    0.2658589    0.1637673 -23.33  0.001414848    1.453    0.312
       210  -8.5791    232.4120     20.7343   3.4731395617e+01   2.5642357709e+01    0.1476709    0.1137185 -30.05 0.0004553943    1.502    0.334
       211  -8.5370    199.3243     21.3289   3.7999871096e+01   3.2960765598e+01    0.1997088    0.1445398  54.70 0.0009166426    1.491    0.329
       212  -9.1487    196.1874     17.8838   3.7486112338e+01   3.4077220917e+01    0.3634591    0.1794693 -66.99   0.00160549    2.400    0.583
       213  -9.5081     70.7836     20.2680   6.3221162865e+01   6.2621721632e+01    0.2213748    0.2156612 -57.55 0.0007367302    1.420    0.296
       214  -9.6596    240.0565    240.1708   7.9523737061e+01  -9.6427867764e+00    0.2359175    0.1517121 -32.83  0.001177588    1.616    0.381
       215  -9.1471    239.5788     19.8340   3.3960713604e+01   2.4242116310e+01    0.2200914    0.1718344 -82.55  0.001432559    1.129    0.114
       216  -9.0880    230.4867    236.5079   8.0614206257e+01  -7.9143637701e+00    0.1210405   0.09490378   3.99 -5.294509e-05    1.023    0.022
       217  -9.3285    249.1304    234.2060   7.6945134683e+01  -1.0020561340e+01    0.1799871    0.1490925 -46.32 0.0009924842    1.980    0.495
       218 -10.3966    171.6131    233.7258   9.1487704800e+01   1.1225222100e+00    0.3634233     0.323632 -59.04   0.00234484    1.464    0.317
       219  -9.6299    170.1393     17.9934   4.0597142354e+01   4.0281129165e+01    0.4420005    0.1673818  54.64  0.001558125    2.420    0.587
       220  -9.2301    244.8723    231.1366   7.7156014528e+01  -9.0827516293e+00    0.1701986    0.1114096  -8.94 0.0007661472    1.345    0.257
       221  -9.0749    228.8263    227.5529   7.9391702605e+01  -6.4560740554e+00    0.2194425   0.08153268 -34.46  0.000981928    2.649    0.622
       222 -11.2482    247.8431    216.0777   7.3996924925e+01  -7.4281587345e+00     0.600275    0.2416763 -31.20   0.00287298    2.295    0.564
       223  -9.9786     50.6140     18.3322   7.0031469552e+01   6.6324934734e+01     0.379242     0.184485  34.97  0.001277477    1.914    0.477
       224  -9.4705     45.2763     17.2571   7.1807202045e+01   6.7279012328e+01    0.3738765    0.1958012  17.12  0.001492892    2.269    0.559
       225 -10.1551    121.7599     17.7053   4.8472030420e+01   5.1987220243e+01    0.2187096    0.2014901  75.67 0.0001984532    1.137    0.120
       226 -10.1303     24.7347     17.9095   8.1919119070e+01   6.9863652230e+01    0.2815146    0.1672581  21.11 0.0006563403    1.616    0.381
       227  -9.3812     20.3189     17.6966   8.4127469104e+01   7.0366482690e+01    0.1711344    0.1402842  -6.57 0.0005169336    1.149    0.130
       228  -9.2669    103.1842     20.9753   5.3897423415e+01   5.5896555720e+01    0.2825486    0.1708086 -34.81 0.0008546006    1.824    0.452
       229 -10.5855    238.4136    218.8172   7.6135126863e+01  -6.5405469320e+00     0.467102    0.2070292 -34.49  0.002331648    2.115    0.527
       230  -7.9945    223.5038    219.5358   7.8966018869e+01  -4.5441477654e+00    0.1260378     0.104337   2.08 0.0001958653    1.044    0.042
       231  -9.0791    208.8356     15.8670   3.5734882071e+01   3.1384339661e+01    0.2352607    0.1613516 -67.07 0.0003661873    1.337    0.252
       232  -8.4730    212.7437    219.5681   8.0993841640e+01  -2.9641665959e+00    0.1671488    0.1127675  39.37 0.0009389134    1.570    0.363
       233  -9.4798    233.4957    211.4848   7.5691641107e+01  -4.7871125818e+00    0.2948008    0.1647067  -1.21  0.001384332    2.395    0.582
       234  -8.0904    221.9628    211.0193   7.7721139533e+01  -3.0281513238e+00    0.1443847    0.1189721   3.35 -0.001877172    1.028    0.027
       235  -8.4137     64.7670    203.0428   1.1061447825e+02   2.3705324667e+01    0.1673753    0.1026062 -72.20 0.0008158233    1.599    0.375
       236  -9.6968    249.9240    200.9481   7.0866427961e+01  -5.5464385913e+00    0.3267208    0.1493649 -40.16  0.001599429    2.152    0.535
       237  -9.7823    242.5749    200.2297   7.1995131268e+01  -4.4047830596e+00    0.2968494    0.1073097 -34.87  0.001272679    2.521    0.603
       238 -10.8321    247.0510    192.6099   6.9776964112e+01  -3.8954202237e+00    0.4040658    0.1694598 -41.26  0.001840457    2.345    0.574
       239  -9.4211     33.3303     12.6535   7.5074259657e+01   6.9553094011e+01    0.2059436    0.1247546  27.53 0.0006213683    1.532    0.347
       240  -9.5871    237.3006    187.4588   7.0469381720e+01  -1.6457807667e+00    0.2205993    0.1531929 -49.38  0.001195633    1.827    0.453
       241  -9.5143    249.7356    184.8647   6.7828310976e+01  -3.0984259693e+00    0.2434292    0.1617516 -44.34  0.001364516    1.678    0.404
       242 -10.1442    242.1091    178.9013   6.7946308920e+01  -1.0142830887e+00    0.2570041    0.1620172 -27.83  0.001392704    1.395    0.283
       243 -10.2002    244.0009    168.2598   6.5486459365e+01   4.1582312578e-01    0.3031428    0.1465481  27.30  0.001300814    2.768    0.639
       244  -9.8473    246.1190    157.8598   6.3005669703e+01   1.7876250889e+00    0.2013262    0.1689023 -42.18 0.0009725331    1.258    0.205
       245 -10.5641    250.0534    151.1115   6.0978827682e+01   2.2622374689e+00    0.4158347     0.162334 -36.56  0.001677579    2.186    0.543
       246  -8.8602    235.3115    147.6799   6.2648814834e+01   5.3355799641e+00    0.1320312    0.1046407 -63.00 0.0006003377    1.648    0.393
       247  -9.9218    248.9550    135.4811   5.7867124610e+01   5.0428315273e+00    0.2629294     0.164482 -47.54  0.001143976    1.561    0.360
       248 -10.6042    242.6043    134.3512   5.8602039927e+01   6.3399911785e+00    0.3531738    0.1813975 -48.57  0.001590668    2.008    0.502
       249  -8.4606     13.4992    133.0181   1.1552963222e+02   4.6003201627e+01    0.1923581    0.1060703 -73.64 0.0004998739    1.492    0.330
       250  -8.9154     65.3257    132.0219   1.0002538233e+02   4.0908782128e+01    0.2042362    0.1689343 -62.56 0.0003234386    1.105    0.095
       251  -8.8574    249.4970    130.3247   5.6688961089e+01   5.8103013273e+00     0.209172    0.1262888  48.63  0.001076583    1.964    0.491
       252  -8.2252     16.9681    124.0024   1.1337258918e+02   4.7963546072e+01    0.1514544    0.1320328 -70.70 0.0003676974    1.063    0.059
       253  -9.8534     69.3283    122.9395   9.6962258544e+01   4.2624192292e+01    0.2399583    0.2140832  31.90 0.0002997595    1.220    0.180
       254  -9.9764    248.3071    112.9312   5.3121595979e+01   8.9180812206e+00    0.1944084    0.1545065 -37.09 0.0005054597    1.072    0.067
       255  -8.8491    104.9981    111.7051   8.3364584863e+01   3.9403553950e+01    0.2167377    0.1969113  35.21 0.0005586867    1.139    0.122
       256  -9.5116     25.9933    111.9781   1.0873057107e+02   5.0211784009e+01    0.1969707    0.1638989 -60.95            0    1.013    0.013
       257  -9.3666     15.6370    112.1075   1.1209353607e+02   5.0970792474e+01    0.1901907    0.1718772  67.29 0.0005596399    1.255    0.203
       258 -10.2321    247.5265    103.4956   5.1179303367e+01   1.0616649466e+01    0.2861522    0.1475031 -48.09  0.001345408    1.783    0.439
       259  -8.3501    136.3388     98.3156   7.0983614105e+01   3.5841625119e+01    0.1615823    0.1243872   5.11 0.0007047934    1.701    0.412
       260  -8.2575    130.6363     98.2779   7.2460595930e+01   3.7110884296e+01    0.1574583    0.1251381  86.05 0.0006300121    1.672    0.402
       261  -8.8756    192.7412     12.9726   3.6630128799e+01   3.5409430063e+01    0.1888508    0.1624609  53.41 0.0007019099    1.317    0.240
       262  -8.9385     33.5063     16.5102   7.6871381134e+01   6.9012783058e+01    0.1847897    0.1053741  41.40 0.0008836432    2.143    0.533
