#   1 NUMBER                 Running object number                                     
#   2 MAG_AUTO               Kron-like elliptical aperture magnitude                    [mag]
#   3 X_IMAGE                Object position along x                                    [pixel]
#   4 Y_IMAGE                Object position along y                                    [pixel]
#   5 X_WORLD                Barycenter position along world x axis                     [deg]
#   6 Y_WORLD                Barycenter position along world y axis                     [deg]
#   7 A_WORLD                Profile RMS along major axis (world units)                 [deg]
#   8 B_WORLD                Profile RMS along minor axis (world units)                 [deg]
#   9 THETA_WORLD            Position angle (CCW/world-x)                               [deg]
#  10 FWHM_WORLD             FWHM assuming a gaussian core                              [deg]
#  11 ELONGATION             A_IMAGE/B_IMAGE                                           
#  12 ELLIPTICITY            1 - B_IMAGE/A_IMAGE                                       
         1 -15.1546    183.3618     28.9577   6.6308650662e+01   3.5627827958e+01     2.661641     1.391884  14.28  0.009267993    3.097    0.677
         2 -11.4256     55.2218      5.6176   9.1975075166e+01   6.8221880762e+01    0.1812929    0.1099389  24.59 0.0006043341    1.676    0.403
         3 -10.8161    173.1647    245.6625   1.1660045254e+02   5.2584849536e+00    0.1546053    0.1443516  32.90  0.001093693    1.376    0.273
         4 -14.1967     65.2378    209.1944   1.3276459600e+02   2.5135766977e+01     2.386927     1.637551  42.64  0.008490257    1.257    0.204
         5 -11.4170     94.0656    199.1942   1.2624893443e+02   2.3244274442e+01    0.4885606    0.2346063  71.45  0.002037774    3.926    0.745
         6 -10.7420     90.4361    193.7637   1.2642767273e+02   2.4680543882e+01    0.2343217    0.1511468  54.73  0.001066836    1.370    0.270
         7 -12.8740    108.8178    211.0939   1.2456158831e+02   1.9240899409e+01    0.5223456    0.2457226  35.82  0.002682787    1.831    0.454
         8 -10.6141     87.1399    203.8445   1.2808528075e+02   2.3361887542e+01    0.2559361    0.1904975  24.53  0.001711477    1.582    0.368
         9 -12.6139    117.4891    201.6273   1.2179923503e+02   1.9532296629e+01    0.4874387    0.1648267  39.17  0.002179918    2.387    0.581
        10 -11.0497     58.6511    201.6359   1.3346312309e+02   2.7189136640e+01    0.1987356    0.1400482  54.38  0.001231381    1.130    0.115
        11 -13.2061    195.7251    195.5224   1.0547396624e+02   7.8903881323e+00    0.7188922    0.5537719  56.77  0.003648858    1.794    0.443
        12 -10.7103    140.5255    199.4991   1.1689718903e+02   1.6364716519e+01    0.1242177     0.101194  37.85 0.0001270454    1.013    0.013
        13 -12.4789    112.4374    196.2896   1.2219412788e+02   2.1161976176e+01    0.4580711    0.2794334  11.72  0.002147248    3.117    0.679
        14 -11.7263    103.7384    194.5477   1.2377784593e+02   2.2711912139e+01    0.3572046    0.2008699  32.08  0.001975217    1.739    0.425
        15 -16.2634     71.7929    149.3064   1.2549818964e+02   3.5763825564e+01      4.96268     2.659807  68.75   0.02187555    2.463    0.594
        16  -9.9860    180.6427    193.3235   1.0800904218e+02   1.0713083085e+01    0.1222527   0.09452701  60.61 0.0007044985    1.770    0.435
        17 -10.7589    157.3573    192.4705   1.1250029943e+02   1.4733532855e+01    0.1783855    0.1518766  87.64 0.0006277082    1.659    0.397
        18 -16.5437    108.7354    245.4380   1.2777588724e+02   1.4184472978e+01     5.399703     1.933156  33.43   0.02396494    2.667    0.625
        19 -12.7136    117.1839    206.4754   1.2241994661e+02   1.8790284598e+01    0.3772661    0.1698543  45.09  0.001971789    1.810    0.448
        20 -11.8442    207.9175    184.7036   1.0132019461e+02   7.2462944494e+00    0.3124215    0.2588931  -0.18  0.001253535    1.175    0.149
        21 -11.6530    211.7643    181.1073   9.9952983489e+01   7.0545775771e+00    0.3307632    0.2232694  11.99  0.001280829    1.420    0.296
        22 -11.4866     98.5939    180.6654   1.2323606040e+02   2.5929494187e+01    0.3415678    0.1957928  34.90  0.001538959    1.633    0.387
        23 -10.0420    145.4976    178.4733   1.1279897033e+02   1.8969127308e+01    0.1316473    0.1118971  34.58 5.120446e-05    1.017    0.017
        24 -10.6366    197.7079    176.1262   1.0171145386e+02   1.0177383416e+01    0.2901335    0.2409352 -51.49  0.001740138    1.740    0.425
        25 -12.3315    136.0636    171.2325   1.1369080494e+02   2.1814093088e+01    0.5751437    0.2488749  28.26  0.002173477    3.113    0.679
        26  -9.8462     91.7284    184.9962   1.2521383414e+02   2.6087087682e+01    0.1606078    0.1359111  60.78 0.0002611353    1.048    0.045
        27 -12.9506    107.7416    205.3739   1.2416618456e+02   2.0318615191e+01    0.5208068      0.38517  13.92  0.002628637    1.826    0.452
        28 -11.2014    145.7635    168.3676   1.1108921424e+02   2.0655390320e+01     0.239654    0.2009475  68.92 0.0006444825    1.434    0.303
        29 -10.3721    202.6580    166.9722   9.9021781805e+01   1.0577736031e+01    0.1940069    0.1059104 -55.22 0.0007047413    4.350    0.770
        30 -11.5772     10.0074    233.1758   1.4352222291e+02   2.6758355071e+01    0.2065388    0.1598105  -9.08  0.001634189    2.752    0.637
        31  -9.6643    120.1745    163.7178   1.1606791258e+02   2.5826444873e+01    0.2083959    0.1414072  53.52 0.0006862691    1.466    0.318
        32  -9.1832    115.3022    162.2903   1.1696619473e+02   2.6883512190e+01    0.1236797    0.1014369  -0.21 0.0001930153    1.567    0.362
        33 -11.7704    181.4936    232.8688   1.1356940484e+02   5.5088807254e+00    0.2702298    0.1700145  39.29  0.001755161    1.248    0.198
        34 -12.8400    100.2621    156.5841   1.1962785729e+02   3.0335444590e+01    0.5760485    0.3881026 -38.88   0.00308821    1.864    0.464
        35  -9.9296    119.9643    156.0093   1.1487431719e+02   2.7339407342e+01    0.2177856    0.1511979  63.18  0.001123933    1.686    0.407
        36 -11.7604    133.7238    144.5972   1.0957153259e+02   2.7176061085e+01    0.9157857    0.2563208 -54.56  0.002566481    5.515    0.819
        37 -10.9192    174.6379    148.8827   1.0112253008e+02   1.8659588120e+01    0.2467558    0.2269664  68.05 0.0008830506    1.377    0.274
        38 -11.8136    145.1642    145.9759   1.0713958226e+02   2.4814017612e+01    0.3566269    0.2675762  56.98  0.001042761    1.481    0.325
        39 -12.1911    110.3531    140.8083   1.1459656702e+02   3.1968748550e+01    0.4909858    0.3070126 -33.07  0.002001416    2.131    0.531
        40 -12.5660     99.1308    141.5206   1.1754202245e+02   3.3600264649e+01    0.2505969    0.2303768  29.18 0.0004577668    1.143    0.125
        41  -9.9874     83.5123    229.6393   1.3094700963e+02   1.9658526158e+01    0.2040119    0.1061195  37.35 0.0009850897    1.599    0.375
        42  -9.5518    168.3065    134.6677   9.9472852751e+01   2.2360602875e+01    0.1388631    0.1183175  85.82 0.0007039438    1.664    0.399
        43 -11.7980    117.0214    130.9559   1.1105185581e+02   3.2881453973e+01    0.3965945    0.2966602  11.42  0.001456203    1.699    0.411
        44 -11.8991    105.2695    129.1527   1.1375534782e+02   3.5244398014e+01    0.5124089     0.323544 -69.55  0.001784311    1.947    0.486
        45 -11.1180    159.9608    128.0977   9.9895980071e+01   2.5241627253e+01    0.3782391    0.2219294 -31.64  0.001659528    1.897    0.473
        46 -11.0291    125.3133    127.1580   1.0814975463e+02   3.2183343763e+01    0.2740506    0.1807721  64.42  0.001068109    2.064    0.515
        47 -11.6044    135.4147    121.7708   1.0440274393e+02   3.1367811411e+01    0.5583004     0.144351 -47.85  0.001626014    4.220    0.763
        48 -10.3095    111.5546    119.8950   1.1022089639e+02   3.6158163988e+01    0.2243739    0.1893448  26.01 0.0003848783    1.230    0.187
        49 -12.0864     74.3374    117.4560   1.2007190653e+02   4.2398120069e+01    0.3058588    0.1960588  48.95  0.001591432    1.626    0.385
        50 -10.8885    168.4945    113.3683   9.4408832411e+01   2.6120673874e+01    0.3409137    0.2788756 -81.75 0.0009881088    1.809    0.447
        51 -19.3146     29.6976    140.1696   1.3481430768e+02   4.2134467601e+01      17.3652     2.123508 -74.62   0.04322996    9.087    0.890
        52 -10.3278    205.5048    110.1623   8.5828790471e+01   1.8538914794e+01    0.2647983    0.1991147  39.38  0.000644533    1.279    0.218
        53 -12.2800    115.3145    211.0046   1.2328963468e+02   1.8338158795e+01    0.2884032    0.1855467 -85.61  0.001128915    2.275    0.561
        54 -12.2957     11.8385    206.7615   1.4233804123e+02   3.0862409743e+01    0.3919002    0.2712439  45.38  0.003230187    1.311    0.237
        55  -9.9984    134.5052    102.9425   1.0008718174e+02   3.5336371220e+01    0.2297494    0.1481159 -41.77 0.0009292114    1.581    0.367
        56 -13.6774    169.5376     43.9003   7.3694357989e+01   3.7358406472e+01    0.7366445    0.5967932   2.35 0.0008043815    1.298    0.230
        57 -10.7629     93.1947    206.9976   1.2719599809e+02   2.2036927875e+01    0.2664978    0.1809109 -52.78  0.001108542    1.847    0.459
        58 -10.9817     10.9350     36.9800   1.2658279633e+02   6.6503945510e+01    0.2413623    0.1679983   6.46  0.001190508    1.723    0.420
        59  -9.9166     87.9733     13.0108   8.2507571130e+01   6.1244800740e+01    0.1735515    0.1465801  23.34 0.0005031616    1.091    0.083
