#   1 NUMBER                 Running object number                                     
#   2 MAG_AUTO               Kron-like elliptical aperture magnitude                    [mag]
#   3 X_IMAGE                Object position along x                                    [pixel]
#   4 Y_IMAGE                Object position along y                                    [pixel]
#   5 X_WORLD                Barycenter position along world x axis                     [deg]
#   6 Y_WORLD                Barycenter position along world y axis                     [deg]
#   7 A_WORLD                Profile RMS along major axis (world units)                 [deg]
#   8 B_WORLD                Profile RMS along minor axis (world units)                 [deg]
#   9 THETA_WORLD            Position angle (CCW/world-x)                               [deg]
#  10 FWHM_WORLD             FWHM assuming a gaussian core                              [deg]
#  11 ELONGATION             A_IMAGE/B_IMAGE                                           
#  12 ELLIPTICITY            1 - B_IMAGE/A_IMAGE                                       
         1  -9.7936    234.0970      7.9854   5.7567973243e+01   2.5023375660e+01    0.3935247    0.2707708 -25.12  0.001013189    1.356    0.262
         2  -7.7487    205.9937      3.3073   5.8825937993e+01   3.2448955157e+01    0.1868113    0.1758413  66.07  0.000306006    1.067    0.062
         3  -7.0856    192.2922      1.6970   5.9760880798e+01   3.6154812806e+01    0.1466677    0.1012589 -54.94 0.0006506447    1.572    0.364
         4 -11.5435    207.2005    239.6749   1.1364028925e+02   1.9865318154e+00    0.4974167    0.3443944  58.28   0.00332568    2.256    0.557
         5 -11.5132    222.3961    247.4488   1.1228600388e+02  -8.4059223289e-01    0.5715966    0.3775671  39.38  0.004337517    1.350    0.259
         6 -11.9196    242.7258    247.3959   1.0921455716e+02  -3.5719633546e+00     1.032082    0.5789614  28.11  0.007521056    1.235    0.190
         7  -8.0160     52.9666    250.6971   1.3912362442e+02   2.0792527246e+01    0.1271379   0.06219526  42.92            0    1.557    0.358
         8  -6.7672    126.0000    235.9921   1.2648018195e+02   1.3933408915e+01    0.1383692   0.06062824 -55.91 -9.288117e-06    2.995    0.666
         9  -9.1277     64.9829    229.1661   1.3603094202e+02   2.2565550559e+01     0.208485   0.08740639  83.60  0.001056024    3.746    0.733
        10 -10.2260    190.4143    242.3134   1.1663735809e+02   4.1138000638e+00     0.262868    0.1174242  35.75   0.00157689    1.681    0.405
        11  -8.2971     30.9536    229.0904   1.4146916867e+02   2.6146590495e+01    0.1369686   0.09726768  63.16 0.0004173152    1.033    0.032
        12  -9.8282    249.9944    222.7618   1.0457367021e+02  -2.5366425381e+00    0.2391045    0.1459727   8.16  0.001366699    1.454    0.312
        13 -10.5323     45.6906    216.3696   1.3844192517e+02   2.6648952175e+01    0.5806096   0.05640922  44.41  0.002485221    4.119    0.757
        14 -10.8077     55.7779    215.6292   1.3669491670e+02   2.5687071715e+01    0.2494133     0.215893 -82.10  0.001276687    1.381    0.276
        15 -10.3290     53.2725    213.4525   1.3698239009e+02   2.6310290084e+01    0.2774401    0.2014008 -34.06  0.001908169    2.724    0.633
        16  -9.4612     81.9700    220.9967   1.3260635597e+02   2.1799884551e+01    0.2618589    0.1199565  70.74  0.001186741    3.087    0.676
        17  -9.9104     64.8690    216.9585   1.3523376661e+02   2.4456092846e+01    0.2141516    0.1066221 -82.74  0.001352569    2.255    0.557
        18  -9.2756    192.1590    246.1673   1.1682506487e+02   3.4796191377e+00    0.1374016    0.1046865  44.95  0.001076265    1.347    0.257
        19  -6.8878     28.2834    216.2874   1.4131309203e+02   2.8398440211e+01   0.07642536   0.07062438 -82.83 0.0002515953    1.526    0.345
        20  -9.4833     46.5178    211.5385   1.3801734325e+02   2.7342295721e+01    0.1913084   0.08756943 -77.90  0.001122821    2.207    0.547
        21 -10.7717     50.3755    206.1546   1.3701232705e+02   2.7820188002e+01    0.3162665    0.1801441  77.57  0.001516449    1.645    0.392
        22 -10.8334     42.1380    201.8071   1.3818383937e+02   2.9416718889e+01    0.3123103    0.2450019 -29.88  0.002289986    2.365    0.577
        23 -10.6525     61.5678    204.1576   1.3489066848e+02   2.6915351181e+01    0.3212568    0.1742409  50.86  0.001972894    1.468    0.319
        24 -10.0107    175.5990    202.2893   1.1381143896e+02   1.1007834987e+01    0.2119304    0.1737842  37.23 0.0002810464    1.075    0.070
        25  -9.7997     28.3900    202.2565   1.4060484799e+02   3.0696773884e+01    0.2342714     0.101317  36.61   0.00148557    2.154    0.536
        26 -10.7287     35.3690    190.6890   1.3871088933e+02   3.2026153969e+01    0.3434058    0.1172405  48.29  0.001924796    2.273    0.560
        27  -8.8027    248.5233    188.4594   9.9129022946e+01   8.8606061349e-01    0.2226569    0.1260936  14.58 0.0008710874    1.693    0.409
        28  -7.9994    176.6713    187.8500   1.1141064781e+02   1.2787475481e+01    0.2235378    0.1458796  60.48 0.0008491995    2.082    0.520
        29 -11.0561     25.4624    191.2386   1.4053502188e+02   3.2872575103e+01    0.5078304    0.1533166  64.13  0.002333776    3.667    0.727
        30  -9.8002     24.2418    181.1308   1.4019268148e+02   3.4797161028e+01    0.2107529    0.1115215  76.72  0.001387086    1.636    0.389
        31  -9.6694      8.7501    181.8699   1.4307618923e+02   3.5989817399e+01    0.2005395   0.07758345  55.93  0.001011738    2.036    0.509
        32 -10.5325     17.1425    176.1562   1.4124497499e+02   3.6335221976e+01    0.2970765    0.1311305  87.21  0.001780851    2.038    0.509
        33  -9.5262      5.0416    172.9758   1.4335292891e+02   3.7905064456e+01    0.1582859    0.1189099  78.13  0.001305893    1.056    0.053
        34  -8.8484    249.5962    169.7934   9.5495582802e+01   2.6711499359e+00    0.1618551    0.1048056 -29.86 0.0009538315    1.691    0.409
        35  -9.5975      3.9191    155.8081   1.4273723452e+02   4.1244444050e+01    0.2418139    0.1569267 -64.41  0.001269464    1.628    0.386
        36  -9.0207    249.3610    150.8184   9.1729780620e+01   4.8357054086e+00    0.1772095    0.1488903  14.66  0.001144731    1.133    0.118
        37  -8.8979      6.1125    149.2791   1.4193319511e+02   4.2367993474e+01    0.1434404    0.1116367  70.27  0.001115874    1.119    0.106
        38  -9.1354    121.7945    147.5165   1.1583627392e+02   2.8875022665e+01    0.2115165    0.2020979 -73.60  0.000299191    1.091    0.084
        39  -8.4665    243.4881    147.4858   9.1972704242e+01   6.2615489284e+00    0.1312359    0.1075801   7.68 0.0003314148    1.033    0.032
        40  -8.7845    248.5344    141.5216   8.9893187115e+01   6.0706911565e+00    0.1338737    0.1057714   7.09  1.31879e-05    1.035    0.034
        41  -8.2969    186.9834    139.0190   1.0027429087e+02   1.8206120973e+01    0.2025934    0.1751418  18.28   0.00116959    1.055    0.052
        42 -10.3821    233.0080    131.8046   9.0275273778e+01   1.0164213261e+01      0.27658    0.2210384  31.50 0.0004317984    1.197    0.165
        43  -8.2671    119.2872    132.3248   1.1362170833e+02   3.2275686933e+01    0.2015085    0.1887433  13.90 0.0003790091    1.171    0.146
        44  -7.0534    162.2800    122.7224   1.0173306079e+02   2.5937328544e+01    0.1328097    0.1149317  89.80  0.000172636    1.503    0.335
        45  -7.8238    179.6858    116.8824   9.6656487732e+01   2.3312305264e+01    0.1957475    0.1780987 -20.03 0.0006415644    1.103    0.094
        46  -9.0321    250.3743    113.0155   8.3170095431e+01   9.1973620332e+00    0.1996345    0.1617053  -5.68  0.001175845    1.048    0.046
        47  -7.9873    236.3420    112.8126   8.5302047275e+01   1.1996460777e+01    0.2199055    0.1934219  53.94  0.001153273    1.402    0.287
        48  -7.6859    183.6833    111.9113   9.4613415178e+01   2.3281734485e+01     0.196362    0.1780204  -7.36 0.0002954767    1.058    0.055
        49  -7.5313     21.9273    111.6515   1.3523321024e+02   4.9089034939e+01    0.1535313   0.09101563  46.18 0.0009333428    1.770    0.435
        50  -7.4129    204.7981     91.1453   8.5137045128e+01   2.1847617507e+01    0.2020685    0.1590331  18.36 0.0003395383    1.286    0.222
        51  -7.3756     11.7767     72.9919   1.3337903769e+02   5.8423359105e+01    0.1590406   0.07640652 -71.02  0.000274813    1.605    0.377
        52  -8.1155    150.9793     72.0729   9.0591652439e+01   3.7551440613e+01    0.2250396    0.2144752 -23.34 0.0002824499    1.059    0.056
        53  -8.8176    188.2971     69.0607   8.1870989292e+01   2.9076975671e+01    0.2590519    0.2166396  44.44 0.0002869265    1.204    0.169
        54  -9.7397    243.6834     56.8560   6.9888184957e+01   1.7558454293e+01    0.2676585    0.2335101  15.38 0.0008886537    1.153    0.133
        55  -8.6018    128.9850     56.7118   9.0950879801e+01   4.5282508396e+01    0.2733761    0.2258866 -52.44 0.0003412174    1.358    0.264
        56  -8.4688    247.8923     52.6027   6.8248218331e+01   1.7119598229e+01     0.257291    0.1936757  11.46 0.0006051454    1.422    0.297
        57  -7.8363    185.1356     42.5494   7.4138724222e+01   3.3619902577e+01    0.2164826    0.1497263  60.11 0.0003156017    1.490    0.329
        58  -7.6920    228.1816     38.9935   6.6878783965e+01   2.3253767045e+01    0.2103142    0.1592854 -72.52  0.001064038    1.610    0.379
        59  -7.8482    157.3132     35.0139   7.6647551356e+01   4.1782987956e+01    0.3225143    0.2089098  18.01  0.001362544    1.867    0.464
        60 -10.2483    139.6460     33.2751   7.9745721197e+01   4.6469693355e+01    0.2779623    0.2512907  -6.06 0.0002874408    1.051    0.048
        61  -7.4946    150.4716     28.5749   7.5650276867e+01   4.4373217126e+01    0.1530064    0.1400195  19.74 7.547785e-05    1.037    0.035
        62  -7.4630     15.0278     17.9709   1.1898238073e+02   7.0218914319e+01    0.1391499    0.1062576 -43.41            0    1.020    0.019
        63 -11.7237    195.8245    238.3783   1.1528478807e+02   3.7407994200e+00    0.7621994    0.5497606  84.02  0.004176215    4.169    0.760
        64  -6.9738    120.4484    240.5432   1.2781596342e+02   1.4086991722e+01    0.1040354    0.0762791  48.66 0.0006012034    1.024    0.024
