#   1 NUMBER                 Running object number                                     
#   2 MAG_AUTO               Kron-like elliptical aperture magnitude                    [mag]
#   3 X_IMAGE                Object position along x                                    [pixel]
#   4 Y_IMAGE                Object position along y                                    [pixel]
#   5 X_WORLD                Barycenter position along world x axis                     [deg]
#   6 Y_WORLD                Barycenter position along world y axis                     [deg]
#   7 A_WORLD                Profile RMS along major axis (world units)                 [deg]
#   8 B_WORLD                Profile RMS along minor axis (world units)                 [deg]
#   9 THETA_WORLD            Position angle (CCW/world-x)                               [deg]
#  10 FWHM_WORLD             FWHM assuming a gaussian core                              [deg]
#  11 ELONGATION             A_IMAGE/B_IMAGE                                           
#  12 ELLIPTICITY            1 - B_IMAGE/A_IMAGE                                       
         1 -12.9535    142.9780     47.4172   5.9422973241e+01   4.3429010015e+01     1.058601    0.3886454 -43.12   0.00362959    2.972    0.663
         2 -12.4959    247.4382     33.2891   4.0491918871e+01   2.0181656330e+01     1.223054     0.227595 -39.85  0.004247953    3.565    0.719
         3 -12.4271    192.4298     27.0729   4.4851727996e+01   3.3762559394e+01    0.6471255    0.2173681 -33.97  0.002463115    2.743    0.635
         4 -12.1256     42.4814     21.2632   8.0405460128e+01   6.7076349519e+01    0.5320226    0.4816934  51.06  0.002600116    1.720    0.419
         5 -11.1528     46.4399     16.7694   7.6552073178e+01   6.7168026149e+01    0.3253506    0.1746072 -23.05  0.001052895    1.763    0.433
         6 -12.0152    233.4418     17.7525   3.8195860085e+01   2.5149574123e+01    0.5640476    0.2208214 -33.10    0.0025255    2.353    0.575
         7 -11.6638    216.2250     13.2249   3.8658488781e+01   2.9607302012e+01     0.400445    0.2536663 -65.53 0.0008590865    1.520    0.342
         8 -12.1845    207.0240     10.4944   3.8850326902e+01   3.2076432270e+01    0.4786856    0.3261049 -26.70  0.002666675    1.614    0.380
         9 -13.5143    185.1290      6.4315   4.0028628760e+01   3.7801142478e+01    0.7800259    0.6451391 -57.54  0.004754744    1.190    0.159
        10 -12.1082     43.3011      8.3629   7.3720432579e+01   6.8709080322e+01    0.3139287    0.2426098  34.98  0.000843928    1.454    0.312
        11 -10.6333    109.3203      8.9082   5.2848126261e+01   5.6045375365e+01    0.1833531    0.1625626  19.74 0.0006586739    1.086    0.079
        12 -11.2444     58.1661      7.1954   6.7086982547e+01   6.6503841635e+01     0.384215     0.260885  16.31  0.002322763    1.338    0.252
        13 -10.3166    167.9646      8.4841   4.2659746206e+01   4.1860718883e+01     0.203625    0.1212558  70.86 0.0004408929    1.527    0.345
        14 -10.0478     65.2612     11.4295   6.6559993603e+01   6.4807279366e+01    0.1571035    0.1170608  50.46 0.0007348941    1.563    0.360
        15 -12.4695    221.3945    247.8208   9.0194882727e+01  -7.8050186595e+00    0.5670245    0.3849213  42.32  0.003651987    1.625    0.385
        16 -10.1229    248.4011    224.2486   8.1614184477e+01  -8.7036843379e+00    0.1504633    0.1021261 -33.98 0.0008721651    1.646    0.392
        17 -12.6047    227.7538    221.1963   8.4683881202e+01  -5.3278799437e+00    0.4087644    0.3769493 -49.96   0.00269472    1.652    0.395
        18 -10.5111    173.7809    221.7174   9.4959455612e+01   3.2321119646e+00    0.2935512    0.1715003 -45.34  0.001538431    1.966    0.491
        19 -11.4160    148.8123    222.4016   1.0003889176e+02   7.2837960196e+00    0.3436201    0.1963587 -53.64  0.001766733    2.068    0.516
        20 -11.1174    150.6555    218.6608   9.9112520997e+01   7.6283669751e+00    0.2391197    0.1402166 -46.20  0.001229313    1.940    0.485
        21 -10.2179     36.4625    223.0233   1.2227776487e+02   2.3420134484e+01    0.1660231   0.09539638 -81.76 0.0009512858    1.571    0.363
        22 -11.0509    238.9773    221.7270   8.2794302650e+01  -7.0514849407e+00    0.1957992    0.1498333 -37.20  0.001205088    1.624    0.384
        23 -12.0932    233.2644    217.7139   8.3090045431e+01  -5.6830480753e+00    0.4384387    0.1736759 -33.90  0.002047043    2.535    0.606
        24 -11.0994    100.7903    218.5826   1.0929254636e+02   1.5717689669e+01    0.2764867    0.1115675  40.17  0.001232537    2.187    0.543
        25 -11.0635    211.6375    217.7710   8.7030071314e+01  -2.3568799180e+00    0.3115983    0.2272186 -36.37  0.001407706    1.519    0.342
        26 -10.7238    239.5164    215.1016   8.1523930988e+01  -6.2590411604e+00    0.4017038   0.09764201 -42.63   0.00122199    6.398    0.844
        27 -12.0202    219.4965    212.2979   8.4609205193e+01  -2.8100009392e+00    0.4778782    0.3944079 -67.48  0.002803221    2.119    0.528
        28 -10.2518    185.5620    213.2850   9.1252588516e+01   2.6179804434e+00    0.2365097    0.1283414 -45.92  0.001153841    2.123    0.529
        29 -11.1912    233.5033    210.7215   8.1790736915e+01  -4.7627599948e+00    0.3330017     0.154407  31.23  0.001506336    2.069    0.517
        30 -10.4083    176.7104    209.1462   9.2309198981e+01   4.8181418375e+00    0.2972558    0.1174783 -41.57  0.001220313    2.787    0.641
        31 -11.0092    115.7627    209.2421   1.0498651918e+02   1.5195933846e+01    0.3057747     0.160438 -65.43  0.001424112    2.267    0.559
        32  -9.8047    192.2427    209.2572   8.9245109409e+01   2.1362944251e+00    0.1922554    0.1077849 -52.07 0.0008912617    2.420    0.587
        33 -10.3100    156.5372    206.0119   9.5914039909e+01   8.8857304781e+00    0.1954844    0.1343152 -46.40  0.001035261    1.607    0.378
        34 -11.1329    185.4742    203.1581   8.9504827982e+01   4.3094981323e+00    0.3332058    0.1318205 -42.91  0.001359632    2.723    0.633
        35 -11.3932      4.7453    200.6591   1.2675230341e+02   3.1177813182e+01    0.3923529    0.1172779  48.96  0.001770433    2.684    0.627
        36  -9.7020    250.4828    200.4729   7.6935503834e+01  -5.8979817881e+00    0.1265878    0.0998399  -1.68 6.803322e-05    1.020    0.020
        37 -11.0093    237.2130    197.8244   7.8727709177e+01  -3.5059783377e+00    0.4664679    0.1659902 -36.15  0.001967703    2.707    0.631
        38 -11.2370    149.1352    198.2630   9.6187351887e+01   1.1645100211e+01    0.3090159    0.2058693 -66.76  0.001469636    1.979    0.495
        39 -10.6800    205.6224    207.5809   8.6360144080e+01   1.5075564529e-01    0.3325628    0.1212168 -39.72  0.001359757    2.889    0.654
        40 -10.8328    185.1390    194.0904   8.7917193530e+01   5.9322064135e+00      0.41688    0.1833253 -34.59  0.001675097    2.633    0.620
        41 -10.1836    133.1475    195.4698   9.9185335471e+01   1.5020259521e+01    0.2491987    0.1640126 -80.86  0.001139884    2.234    0.552
        42 -12.6520    158.1867    189.7592   9.2760760214e+01   1.1649868288e+01    0.8387525    0.5432256 -70.87  0.003143196    2.428    0.588
        43 -10.6232    215.0320    193.2887   8.1905558663e+01   8.1273371267e-01    0.2838491    0.1742278 -44.30   0.00117438    1.849    0.459
        44 -10.4617    223.8632    191.7729   7.9966919288e+01  -4.3867917791e-01    0.2455234      0.14464 -42.95   0.00123106    1.887    0.470
        45 -10.0259    217.5421    187.3394   8.0272236882e+01   1.3354647853e+00    0.2537712    0.1243892 -41.16  0.001143786    2.110    0.526
        46 -10.9791    241.2807    184.5906   7.5433918503e+01  -2.2006543799e+00    0.5066094    0.1926646 -46.89  0.001792124    4.116    0.757
        47  -9.6010    192.3090    187.6613   8.5244487490e+01   5.7637898246e+00     0.131431    0.1131227  87.33  0.000542519    1.685    0.406
        48 -10.6011    223.7003    183.4171   7.8346333098e+01   9.0583380960e-01     0.373168    0.1700465 -38.59  0.001651551    2.152    0.535
        49 -11.2052    183.1908    182.9462   8.6185200237e+01   8.2921298336e+00    0.4490491    0.2349617 -39.15  0.001739321    1.979    0.495
        50 -10.4902    210.4332    182.7981   8.0718073364e+01   3.3296133670e+00    0.3231451    0.1278684 -36.32   0.00127829    2.537    0.606
        51 -11.0308    174.3447    181.6878   8.7790149490e+01   1.0187546088e+01    0.4780605    0.1298331 -41.97  0.001482971    3.912    0.744
        52 -10.6475    243.5795    180.2106   7.4159216774e+01  -1.9124450298e+00    0.3136721    0.1144864 -33.08  0.001278253    2.566    0.610
        53 -11.7178    147.6365    178.3212   9.2972347965e+01   1.5901397680e+01    0.5828006    0.1624565 -46.66  0.001826943    3.727    0.732
        54 -10.7345    191.9334    176.6198   8.3126247669e+01   7.8087064243e+00    0.4254788     0.191228 -32.85  0.001646583    2.534    0.605
        55  -9.9002    205.4826    177.0867   8.0519957902e+01   5.2014149048e+00    0.2146356    0.1322682 -36.56  0.001035946    1.600    0.375
        56 -10.0654    217.5861    176.2017   7.8018645446e+01   3.1571742011e+00    0.2006809    0.1218313 -25.41 0.0008625771    1.678    0.404
        57 -10.6831    183.2715    174.8700   8.4554527256e+01   9.7795136290e+00    0.4082605    0.1939435 -37.62  0.001660456    2.201    0.546
        58  -9.6323     28.4925    176.5803   1.2018602859e+02   3.4173261628e+01    0.1218907   0.09877621  88.52 0.0001449825    1.044    0.042
        59 -11.0762    159.2671    174.6828   8.9680164296e+01   1.4435215700e+01     0.271598    0.1788851 -57.28  0.001205824    1.763    0.433
        60 -10.1216    224.8221    171.9949   7.5804794375e+01   2.5671578769e+00    0.2338521    0.1442259 -10.63  0.001070949    2.012    0.503
        61 -10.1775    175.6889    170.4897   8.5259100413e+01   1.2085364025e+01    0.2678874    0.1320469 -42.96  0.001092115    2.066    0.516
        62 -12.8758     55.6185    167.6660   1.1299562343e+02   3.3198834669e+01    0.6719125    0.3291013 -87.51  0.002806993    2.557    0.609
        63 -12.0815     51.4936    159.6467   1.1296880142e+02   3.5604376256e+01    0.3589785    0.2407075  60.24  0.001777866    1.507    0.336
        64  -9.9714    205.4962    169.5596   7.8954053511e+01   6.5212019532e+00    0.2536994     0.128258 -48.85  0.001033071    2.359    0.576
        65  -9.9287    212.2868    177.6467   7.9319609439e+01   3.8659805842e+00    0.1293669    0.1118573 -70.82 0.0006719065    1.668    0.400
        66  -9.7728    212.5388    169.0506   7.7484930920e+01   5.2946036567e+00    0.2125595    0.1310562 -37.41 0.0008830946    1.571    0.363
        67 -10.4842    167.5619    167.8394   8.6471916261e+01   1.4203496421e+01    0.3676448    0.1436084 -47.50  0.001309942    2.694    0.629
        68 -11.7165    121.0000    168.5141   9.7319497566e+01   2.2943262285e+01    0.3691344    0.1715683 -57.89  0.001443323    2.306    0.566
        69 -10.4730    191.5374    165.2537   8.0836426000e+01   9.9886597444e+00    0.3616257    0.1392358 -38.93   0.00130873    2.616    0.618
        70 -10.1574    213.4705    163.5442   7.6133793342e+01   6.0810307171e+00    0.2584158    0.1247932 -47.69  0.001032078    2.410    0.585
        71 -10.8048    159.3438    163.8505   8.7469139243e+01   1.6643346499e+01    0.3041318    0.1367532 -53.61  0.001093883    2.641    0.621
        72 -10.3925    196.2254    156.9085   7.8067556449e+01   1.0632651033e+01    0.3154206    0.1902118 -48.90  0.001392518    1.822    0.451
        73 -11.1976    167.1883    156.6574   8.4178267379e+01   1.6556156631e+01    0.4589674    0.3200916 -61.25  0.002078412    1.767    0.434
        74 -11.3945    118.0702    156.9003   9.5830207675e+01   2.6119312852e+01    0.3360134    0.2043984 -49.61  0.001163721    1.640    0.390
        75 -10.3677    250.4931    156.9919   6.8185444395e+01   5.2628407027e-01    0.1865687    0.1034593 -51.45  0.000810444    2.545    0.607
        76 -10.5562    218.1305    155.6889   7.3546672532e+01   6.5762928607e+00    0.3588414    0.1896563 -41.84  0.001579008    1.852    0.460
        77 -10.4330    122.7916    157.4110   9.4766922511e+01   2.5132298983e+01    0.2102883    0.1432258  28.98 0.0009514285    1.690    0.408
        78 -10.2875    247.3266    156.3002   6.8557546885e+01   1.1752906301e+00    0.1377548   0.09531754   0.67 0.0003345431    1.637    0.389
        79 -10.8093    139.2136    159.1871   9.1158689305e+01   2.1606155545e+01    0.3289902    0.2120795 -29.03  0.001394925    2.028    0.507
        80 -12.3994    106.1380    156.8221   9.8791066088e+01   2.8260760417e+01     0.731504    0.4568321 -72.69  0.003218472    1.901    0.474
        81 -11.2035     40.1770    152.9191   1.1492038975e+02   3.8497201372e+01    0.2745081    0.1841048 -84.00  0.001209805    1.330    0.248
        82 -11.5445     23.4732    153.9563   1.1914473431e+02   3.9900879820e+01    0.2174657    0.1824578  52.45 0.0006006016    1.308    0.236
        83 -11.3311    232.4090    152.1876   7.0200464231e+01   4.5022915438e+00    0.4218777    0.1773874 -41.17  0.001707364    2.262    0.558
        84 -11.8489    234.5166    148.2269   6.8961825890e+01   4.7798284844e+00    0.5652959    0.2630668 -46.56  0.002303468    2.400    0.583
        85 -11.1675    189.5536    149.6534   7.7805538360e+01   1.3372090808e+01     0.470504     0.265895 -44.44  0.001935934    1.772    0.436
        86 -10.0437    223.5685    146.3263   7.0465234578e+01   7.1737399174e+00    0.2763725    0.1271385 -40.12  0.001131024    2.030    0.507
        87 -11.0120    107.2364    145.6852   9.6337424828e+01   3.0699633607e+01    0.3572411    0.2050659  78.19  0.001138315    3.878    0.742
        88 -10.8313    148.3159    144.6318   8.5841502106e+01   2.2991483142e+01    0.3442849    0.2352545 -74.08  0.001415116    2.134    0.531
        89 -10.3771    124.3902    142.6220   9.1281728661e+01   2.8236572980e+01    0.2999704    0.1391801 -63.68 0.0009534046    3.241    0.691
        90 -10.4071    181.6674    141.4749   7.7570782175e+01   1.6636134526e+01    0.3103037     0.227953 -64.86  0.001402167    1.766    0.434
        91  -9.7707    162.0000    134.9655   8.0370856168e+01   2.2196543194e+01    0.2638147   0.08728149 -43.55 0.0008060948    2.968    0.663
        92 -10.8722    249.4855    140.5356   6.4788314570e+01   3.3282891855e+00    0.2553363    0.1077754 -43.80  0.001035769    2.360    0.576
        93 -10.1786    227.1201    132.6983   6.6723301710e+01   8.8633025358e+00    0.2592548    0.1788041 -42.62  0.001095892    1.387    0.279
        94 -10.6959    131.7815    131.2779   8.6803232879e+01   2.9380960387e+01    0.3879266    0.2104716 -62.25  0.001408746    2.435    0.589
        95 -12.2827     98.6630    128.2761   9.4928550589e+01   3.6375445673e+01    0.6252731    0.3739481  86.12  0.002097546    3.571    0.720
        96 -10.5785    118.2191    126.1059   8.9100544226e+01   3.3280096645e+01    0.3100942    0.2048094  69.39  0.001250217    2.187    0.543
        97 -10.4410    180.3421    124.1249   7.3635212076e+01   2.0415644298e+01    0.4330751    0.2622308 -64.21  0.001600634    2.580    0.612
        98 -11.4436    249.3257    122.9638   6.0892677356e+01   6.2222443950e+00    0.3339087    0.2331247 -49.80   0.00175869    1.500    0.333
        99 -11.6931    192.7549    117.9649   6.9529648716e+01   1.8858208644e+01    0.6590521     0.504798 -71.07   0.00305693    1.698    0.411
       100 -10.7533     16.4295    120.6267   1.1710068022e+02   4.8443757673e+01    0.2100058    0.1826044  82.13 0.0008425837    1.183    0.155
       101 -10.0944    246.6894    129.3450   6.2737548520e+01   5.6665534478e+00    0.2107447    0.1592803 -63.98  0.001099545    1.775    0.437
       102 -11.7328    141.4186    115.0779   8.0293261301e+01   3.0980708737e+01    0.8435431    0.3043086 -41.86   0.00269485    2.758    0.637
       103 -10.7388    185.9027    115.9348   7.0395149942e+01   2.0793841297e+01     0.367482    0.2117667 -51.17  0.001476493    1.898    0.473
       104 -11.0647    108.3842    113.1482   8.8588282368e+01   3.8195053425e+01    0.5550241    0.2746818 -63.04  0.001890332    2.854    0.650
       105  -9.8407     71.3384    115.3315   9.9949754605e+01   4.3850805631e+01    0.1500082    0.1050226 -29.34 0.0007051904    1.741    0.425
       106 -10.9245    249.2318    113.3852   5.8729266443e+01   7.8072918827e+00    0.3663481    0.1892011 -60.08  0.001333149    3.519    0.716
       107 -12.2155    159.1251    109.7328   7.4598405561e+01   2.8162567700e+01    0.8930271    0.3912721 -52.72    0.0028919    2.867    0.651
       108 -12.0765    121.7434    110.9295   8.4320030227e+01   3.6069512693e+01    0.6731029    0.3790571 -62.41  0.002496035    2.373    0.579
       109 -11.5090     91.8060    111.2308   9.2886471752e+01   4.1633992537e+01    0.4650478    0.1989795 -61.55  0.001551104    2.967    0.663
       110 -10.8968     78.2974    112.2933   9.7171563836e+01   4.3560231614e+01    0.3007019    0.1747528 -76.46  0.001174385    2.513    0.602
       111 -11.2304    173.9892    110.6314   7.1516888871e+01   2.4566100543e+01    0.4410539    0.2912149 -53.61  0.001009254    1.656    0.396
       112 -11.2658    222.4949    109.4870   6.1986158694e+01   1.3894170757e+01    0.4675115    0.1680778 -44.82   0.00160978    2.752    0.637
       113 -10.5830    222.5086    104.4738   6.0756045225e+01   1.4767114741e+01    0.3467141    0.1896066 -42.76  0.001510248    1.682    0.405
       114 -12.0770    149.2368    108.9964   7.6740951659e+01   3.0560710796e+01    0.6836849    0.4344949  84.16  0.002280128    3.330    0.700
       115 -12.7817    141.0749    102.5881   7.6988449086e+01   3.3752816280e+01    0.8330332    0.5717732 -41.08  0.003704941    1.418    0.295
       116  -9.6872     40.5342    111.4893   1.0855696157e+02   4.8543263830e+01    0.1355093    0.1134516 -64.65  5.84252e-05    1.003    0.003
       117 -12.4808    150.4663    102.1742   7.4568161572e+01   3.1713358186e+01    0.6750578    0.4620571 -57.80  0.002897727    1.674    0.403
       118 -12.4767    126.7391    100.5612   8.0135036648e+01   3.7325642909e+01     0.657644    0.4770932 -75.80  0.002808045    1.946    0.486
       119 -13.3269    108.9526     99.6643   8.4822353499e+01   4.1167696846e+01     1.079322    0.7033613  65.94  0.004407401    2.253    0.556
       120 -11.8092    245.0460     99.8718   5.6210383251e+01   1.0837638023e+01    0.4209143      0.17185 -50.44  0.001537189    2.908    0.656
       121 -11.5845     43.9028    100.8048   1.0540437951e+02   5.0771609656e+01    0.3981256    0.2479762  86.75  0.001832526    2.317    0.568
       122 -12.5075    170.1795     90.9754   6.6954674834e+01   2.9310414118e+01    0.4831782    0.4202998 -71.90  0.001043728    1.273    0.214
       123 -11.4211    122.7405     91.2266   7.8516301351e+01   4.0179011968e+01    0.4917492    0.3664144  35.35   0.00230738    1.428    0.300
       124 -11.4567    151.0904     87.9891   7.0352726559e+01   3.4430645887e+01    0.4586221    0.2406169 -33.14  0.001746591    2.012    0.503
       125 -11.6779    118.1493     84.1496   7.7647556507e+01   4.2630352391e+01    0.8491043    0.3121597 -37.34  0.002744102    2.892    0.654
       126 -11.4177     86.1990     86.5599   8.7965428522e+01   4.8259892752e+01     0.360688    0.2667278 -83.02  0.001654147    2.028    0.507
       127 -11.2918    140.6080     83.3340   7.1486712084e+01   3.7792111949e+01    0.5339743     0.246667 -40.68  0.001971473    2.109    0.526
       128 -11.5138     45.0879     81.8546   1.0062084589e+02   5.5077576430e+01    0.3614171    0.1729305 -58.52 0.0009912358    1.858    0.462
       129 -12.8020    249.0527     80.8517   5.1238888734e+01   1.3052969774e+01    0.6218662    0.2979331 -30.12  0.002707053    2.042    0.510
       130 -12.3941    249.5450     73.2328   4.9411772885e+01   1.4120653341e+01    0.4816811     0.215001 -34.04  0.002098437    1.993    0.498
       131 -11.7673    104.1124     82.6259   8.1233442237e+01   4.5816722028e+01     0.509455    0.2645855 -55.56  0.001929165    2.365    0.577
       132 -10.5102    151.8465     78.1238   6.7229140519e+01   3.6130340687e+01    0.4718609    0.2233767  37.05  0.001608784    2.761    0.638
       133 -10.2468    128.3142     75.9758   7.2333488384e+01   4.2029112539e+01     0.257373    0.1111014 -55.63            0    4.280    0.766
       134 -11.0056     62.4069     75.1893   9.2603038568e+01   5.4425099752e+01    0.3060059      0.12695 -53.86  0.001207287    2.322    0.569
       135 -11.1299    115.9584     72.7391   7.4646389548e+01   4.5370444165e+01    0.4644781    0.2368674 -49.56  0.001792472    2.195    0.544
       136 -12.3030    222.8957     70.7005   5.2264522088e+01   2.0308587862e+01    0.3722833     0.286046 -73.83 0.0005938119    1.427    0.299
       137 -11.2775     81.7616     72.4361   8.5071431176e+01   5.2033193253e+01    0.3532667    0.1989405 -61.40  0.001398187    2.583    0.613
       138 -10.1651      3.6702     73.6656   1.1384518789e+02   6.0207350501e+01    0.1316479   0.06512031 -43.73 0.0007052074    1.726    0.421
       139 -10.7236     94.4924     70.0384   8.0151054070e+01   5.0237261357e+01    0.4928513    0.1320954 -47.83  0.001376757    4.280    0.766
       140 -14.0084    232.2013     61.0523   4.8642099206e+01   1.9684815580e+01     1.047462     0.748873 -56.37  0.000752145    1.328    0.247
       141 -13.1087    233.3102     51.8795   4.6282907835e+01   2.0771017842e+01     1.084743    0.2972903 -46.02  0.003651048    3.386    0.705
       142 -12.4365    228.2523     51.7298   4.6842283245e+01   2.1933638517e+01    0.5630712    0.3125103 -44.07  0.002700674    1.604    0.377
       143 -10.4416     51.9882     70.7414   9.5048863718e+01   5.6744505405e+01    0.1887709     0.169543 -25.74 0.0008575831    1.079    0.073
       144 -11.1763    194.2831     65.9665   5.5367429636e+01   2.7831603914e+01    0.5763192    0.2346341 -40.47  0.002147408    2.285    0.562
       145 -10.7243    138.5412     64.9994   6.6231591779e+01   4.1668063124e+01    0.2389513    0.1479832 -35.25  0.001035291    1.608    0.378
       146 -12.7395     40.1368     51.1059   9.3418621281e+01   6.2174924977e+01     0.802947    0.2561468 -47.61  0.003258578    2.565    0.610
       147 -13.6393     29.1117     59.9894   1.0073774760e+02   6.1455866791e+01     1.011088    0.7260678  29.83  0.002769325    1.665    0.399
       148 -12.1611    216.3077     56.4481   4.9542937578e+01   2.4010792732e+01    0.5295879    0.2681991 -34.00  0.002315904    1.868    0.465
       149 -11.7109     19.6473     59.4482   1.0442828421e+02   6.2339933252e+01    0.5223752     0.181473 -54.73 0.0007308634    2.135    0.532
       150 -10.9283    119.4238     56.1713   6.8101952541e+01   4.7597569947e+01    0.2737529    0.1991938 -78.73  0.001199785    2.186    0.543
       151 -10.4326    105.4960     52.5181   7.0684609052e+01   5.1241723733e+01    0.2665201    0.1263801 -45.57  0.001036933    2.368    0.578
       152 -11.7518     29.0707     52.3599   9.8448620008e+01   6.3038997652e+01     0.252374     0.194099 -31.81  0.001053528    1.096    0.087
       153 -10.1744    187.4865    248.5015   9.6394500146e+01  -2.9156726174e+00    0.2277963   0.09317745  30.06  0.001031246    2.436    0.590
       154 -10.8293    160.0393     53.5053   5.7868927817e+01   3.8293466167e+01    0.3737007    0.3015205  27.68  0.001882954    1.399    0.285
       155 -11.4762    189.2616     44.4819   5.0150544026e+01   3.2293412843e+01    0.3278772    0.2182332 -52.48  0.001582457    1.529    0.346
       156 -11.3864      9.8016     44.0086   1.0427795072e+02   6.6201416133e+01    0.3776699    0.1737751  15.17  0.001656901    2.567    0.610
       157 -10.3299      4.6792     41.3361   1.0581744891e+02   6.7036542400e+01     0.200983      0.14146 -60.95 0.0008598926    1.351    0.260
       158 -11.5895    234.8793     40.3324   4.3344423234e+01   2.2011432793e+01    0.6132448    0.1999985 -50.11  0.002227397    3.121    0.680
       159 -11.0077     68.8429     41.0293   7.8305209601e+01   6.0059433363e+01    0.2113113    0.1580456 -61.33  0.001092027    2.052    0.513
       160 -10.6045    197.0030    246.9772   9.4433285154e+01  -4.1455704371e+00    0.1721927    0.1410953  58.57  0.001133077    1.723    0.420
       161 -12.2886     41.9724     37.6332   8.7671241505e+01   6.4479908125e+01    0.3910651      0.30946 -10.61  0.001254302    1.129    0.114
       162 -11.0235     91.8950     49.3502   7.3652267278e+01   5.4529613428e+01    0.5156593    0.1262347 -43.29  0.001466516    4.615    0.783
       163 -11.5814    120.3569     34.4923   6.0075036888e+01   5.0641904432e+01     0.311408     0.253538  52.61 0.0006599677    1.197    0.165
       164 -11.1589     49.9346     34.8368   8.3169048155e+01   6.3934885592e+01    0.3279454     0.200772  29.07  0.000936517    1.699    0.411
       165 -10.6358     73.1228     31.9274   7.3004134172e+01   6.0754904449e+01    0.2679853    0.2116912 -75.47  0.001389164    2.345    0.574
       166 -11.4216    106.2502     30.4624   6.2140070002e+01   5.4356109864e+01    0.4358273    0.2524945  66.94  0.001377567    2.299    0.565
       167  -9.5783    119.3149    247.6756   1.0901165069e+02   7.6784284410e+00    0.1226655    0.0786538  63.55 0.0005118351    1.665    0.399
       168 -10.4553    101.2221     28.5581   6.2757139001e+01   5.5693311039e+01      0.34448    0.1732455 -32.53  0.001522729    2.008    0.502
       169 -10.0670     69.4826    245.5184   1.1796828992e+02   1.5118260936e+01    0.1172845   0.08709714  63.12 0.0008096853    1.048    0.046
       170 -12.5630     22.0633    239.0480   1.2579640332e+02   2.1936227511e+01    0.5407627    0.2054483  66.78  0.002847655    2.432    0.589
       171 -11.0139    239.1241     20.6332   3.8367981010e+01   2.3550237913e+01    0.3445792    0.2293274  73.00  0.000819494    1.503    0.335
       172 -11.0809    247.8279    240.8000   8.4517207859e+01  -1.0598176934e+01    0.1422632    0.1221165   9.24 0.0005840428    1.328    0.247
       173 -11.9081    201.4143     19.2084   4.1672398687e+01   3.2476261967e+01    0.3418701    0.2135508 -44.03  0.001778676    1.529    0.346
       174 -10.2929     89.1254     17.7747   6.1730849170e+01   5.9529297845e+01    0.2877093    0.2021516 -75.06  0.001339903    2.825    0.646
       175  -9.8389    170.4805    234.9904   9.7624732259e+01   1.6824189828e+00    0.1685393    0.1244805 -42.74  0.001033793    1.596    0.373
       176 -10.2917    109.7075    232.9732   1.0919547069e+02   1.1662939959e+01    0.1678987    0.1426814  63.06 0.0003748654    1.068    0.064
       177 -10.2875    144.3583    231.8685   1.0225879668e+02   6.3988019807e+00    0.2219061    0.1209016 -62.52  0.001085608    2.560    0.609
       178 -11.0629     12.3954    227.5235   1.2683210433e+02   2.5093248589e+01    0.2435392    0.1345099  75.97 0.0006111262    1.427    0.299
       179 -10.7528     72.0178    228.2178   1.1600665127e+02   1.7985075895e+01    0.2022815    0.1556312 -85.30  0.000915996    1.266    0.210
       180 -11.0619    200.7793    226.7294   9.0575008289e+01  -1.9315287368e+00    0.3111358    0.1759243 -57.58  0.001380938    3.539    0.717
       181 -10.4596    104.3187    224.9574   1.0933275961e+02   1.3959244281e+01    0.1706063    0.1505637  89.72 0.0007605244    1.173    0.148
