#   1 NUMBER                 Running object number                                     
#   2 MAG_AUTO               Kron-like elliptical aperture magnitude                    [mag]
#   3 X_IMAGE                Object position along x                                    [pixel]
#   4 Y_IMAGE                Object position along y                                    [pixel]
#   5 X_WORLD                Barycenter position along world x axis                     [deg]
#   6 Y_WORLD                Barycenter position along world y axis                     [deg]
#   7 A_WORLD                Profile RMS along major axis (world units)                 [deg]
#   8 B_WORLD                Profile RMS along minor axis (world units)                 [deg]
#   9 THETA_WORLD            Position angle (CCW/world-x)                               [deg]
#  10 FWHM_WORLD             FWHM assuming a gaussian core                              [deg]
#  11 ELONGATION             A_IMAGE/B_IMAGE                                           
#  12 ELLIPTICITY            1 - B_IMAGE/A_IMAGE                                       
         1 -16.3994     83.9776     38.0294   9.0692270573e+01   5.6934289186e+01     6.347501       4.4672 -58.73   0.03308789    2.329    0.571
         2 -17.3726     89.8831    100.0327   1.0826359784e+02   4.4798733044e+01     4.214818     3.213417  47.61   0.01518785    1.436    0.304
         3 -13.5795    184.0168     31.8119   6.7131355089e+01   3.5420751125e+01    0.7868195     0.716157  33.95  0.003955729    1.342    0.255
         4 -13.3506    189.2046     24.1136   6.4514457354e+01   3.5108314383e+01    0.6336987    0.5897706  17.39  0.001720705    1.402    0.287
         5 -11.3889    106.1210    233.6479   1.2902981774e+02   1.1242971226e+01    0.2230514    0.1703804  89.54 0.0006133586    1.355    0.262
         6 -19.4683     23.2962    133.4706   1.3479447915e+02   4.5444752661e+01     20.02584      3.63103 -68.85   0.05459819    5.799    0.828
         7 -15.8342      5.5835    246.5338   1.4871320329e+02   2.2157049955e+01     1.105896    0.7084519 -71.43  0.006273789    1.605    0.377
         8 -11.1031    169.7857    233.3891   1.1591387040e+02   3.0193566653e-01    0.1959449    0.1150505  32.05  0.000950592    1.658    0.397
         9 -11.7501    150.2883    233.0481   1.1985849984e+02   3.7916273536e+00    0.1854312    0.1746848  56.31 0.0006875194    1.081    0.075
        10 -10.7813     78.5894    232.1660   1.3439832291e+02   1.5863272242e+01     0.203884    0.1411195  42.56 0.0006913025    1.425    0.298
        11 -12.7619    125.6183    229.5373   1.2446272458e+02   8.7796351843e+00    0.4574814    0.3178478  56.64  0.002474727    1.348    0.258
        12 -11.0437     83.0377    229.2923   1.3319074338e+02   1.5789849862e+01    0.1837948    0.1457242  59.26  0.000379352    1.096    0.087
        13 -10.3927    109.9854    223.0095   1.2683813893e+02   1.2777103679e+01    0.1690836    0.1471768  65.92 0.0006001989    1.007    0.007
        14  -9.4116      1.3836    210.2037   1.4726256880e+02   2.9919572441e+01   0.09042867    0.0815175 -57.51 0.0006793895    1.592    0.372
        15  -9.4233     92.4951    206.4794   1.2834593138e+02   1.9248073261e+01     0.141071    0.1192125  74.21 -3.335952e-05    1.052    0.049
        16 -13.1545     74.1568    194.6179   1.3082132849e+02   2.4799318213e+01    0.7187115    0.5902093 -84.55  0.004241331    1.092    0.085
        17 -11.6881    195.4412    194.4812   1.0366454829e+02   2.8099019454e+00    0.5636056    0.3973553  44.71  0.002846627    1.422    0.297
        18 -11.0487     64.2956    193.0723   1.3283480821e+02   2.6572724302e+01    0.2144291    0.1903687  35.40  0.001316776    1.375    0.273
        19 -10.5839    207.8079    183.7908   9.9014186675e+01   2.5086472677e+00    0.1955967    0.1750425 -74.10  0.001079043    1.379    0.275
        20  -9.9194     90.6244    183.9795   1.2546752608e+02   2.4748969436e+01    0.2530345    0.1746645  68.54 0.0007255961    1.551    0.355
        21 -11.4806     84.2449    178.6662   1.2615607021e+02   2.7034969411e+01    0.4350986    0.2569762 -43.99  0.001408342    2.039    0.510
        22 -11.2992     87.3077    173.6090   1.2459834320e+02   2.7765551625e+01    0.3312859    0.2408339 -44.00  0.001120943    1.568    0.362
        23 -10.3687     92.8501    177.9037   1.2395747357e+02   2.5832297751e+01    0.2640029     0.198535  62.37 0.0007057046    1.336    0.251
        24 -10.6314    197.8285    175.3134   9.9287521789e+01   6.0949541898e+00    0.3058102    0.2442747 -52.67   0.00094595    1.331    0.249
        25 -10.9714     93.6932    164.3594   1.2141268062e+02   2.8961022591e+01     0.265889    0.2350926 -44.08 0.0002136678    1.247    0.198
        26 -12.7443     82.7232    159.4424   1.2332712847e+02   3.1933961003e+01    0.4219412    0.3059492 -39.27  0.001692182    1.616    0.381
        27 -10.3371     98.0324    158.3429   1.1919103806e+02   2.9687175682e+01    0.2455038    0.1974136 -47.70 0.0005298409    1.281    0.220
        28 -10.0772     65.7067    156.5613   1.2721252059e+02   3.5138969886e+01    0.2334985    0.1571742 -89.08 0.0007869385    1.653    0.395
        29 -12.9977     68.5353    143.9329   1.2427127666e+02   3.7828925815e+01    0.7262259    0.4678483  74.01  0.002996147    2.069    0.517
        30 -11.6176     98.0695    141.4797   1.1579017373e+02   3.3774350436e+01      0.26813    0.2609674 -10.72 0.0004526045    1.144    0.126
        31 -12.8263    233.0744    237.7201   1.0430736777e+02  -1.0769485428e+01    0.9261225    0.4632945  19.01  0.004262913    2.534    0.605
        32 -11.2369     46.2944    131.0254   1.2807764053e+02   4.3752156790e+01    0.3759343    0.1715714  39.30  0.001696415    2.416    0.586
        33 -10.5800    149.3131    100.5463   9.2328820060e+01   3.2527864376e+01    0.2887138    0.1515122  54.89 0.0009810104    2.017    0.504
        34 -16.3359     77.4134     81.7986   1.0706952285e+02   5.0653297739e+01     2.281863     1.576891  48.70  0.009790312    1.715    0.417
        35 -10.1231    176.3570     74.6359   7.9552114494e+01   3.0954518490e+01    0.2226751     0.164549 -78.87 0.0006123881    1.596    0.374
        36 -11.5990    102.2564    237.9812   1.3034176776e+02   1.1006824677e+01    0.3297945    0.2003891 -84.14  0.001671734    2.015    0.504
        37 -11.6588     79.4042    133.9254   1.1932773709e+02   3.8663922793e+01      0.45433     0.211096 -46.78   0.00182249    2.107    0.525
        38 -12.2013    171.6518     43.9066   7.2202884627e+01   3.6834279322e+01    0.3633794     0.284643  75.51 0.0008131257    1.203    0.169
        39 -10.5287    177.4283    237.1885   1.1497647605e+02  -1.6813772955e+00    0.1674306    0.1290545 -61.75 0.0009452838    1.676    0.403
