#   1 NUMBER                 Running object number                                     
#   2 MAG_AUTO               Kron-like elliptical aperture magnitude                    [mag]
#   3 X_IMAGE                Object position along x                                    [pixel]
#   4 Y_IMAGE                Object position along y                                    [pixel]
#   5 X_WORLD                Barycenter position along world x axis                     [deg]
#   6 Y_WORLD                Barycenter position along world y axis                     [deg]
#   7 A_WORLD                Profile RMS along major axis (world units)                 [deg]
#   8 B_WORLD                Profile RMS along minor axis (world units)                 [deg]
#   9 THETA_WORLD            Position angle (CCW/world-x)                               [deg]
#  10 FWHM_WORLD             FWHM assuming a gaussian core                              [deg]
#  11 ELONGATION             A_IMAGE/B_IMAGE                                           
#  12 ELLIPTICITY            1 - B_IMAGE/A_IMAGE                                       
         1 -11.6987    137.6537     16.4548   1.6676715774e+01   4.7981040490e+01    0.7936732    0.2758554 -28.84  0.001267705    2.897    0.655
         2 -12.3492    128.6022     24.0295   2.1065733114e+01   4.9499948183e+01    0.3703626    0.2612616 -35.14 0.0003742122    1.506    0.336
         3 -11.3732    168.9940     17.0113   1.2403326919e+01   3.9811066890e+01    0.5138903    0.2976691  69.49  0.002502073    1.598    0.374
         4 -11.9434    161.7127     18.9007   1.3904738475e+01   4.1468593302e+01    0.4447282    0.3270398 -37.55  0.001594698    1.388    0.280
         5 -10.8942     22.2022     18.6632   6.1096258906e+01   7.2292543718e+01    0.6214691    0.3662952  49.48  0.001802847    2.692    0.629
         6 -12.0748     11.1603     12.1841   6.6049777141e+01   7.4583119889e+01    0.7440145      0.54959 -74.91   0.00295542    1.953    0.488
         7 -10.7538     33.9092     14.8218   5.1416265765e+01   7.1513900030e+01    0.5118194    0.3142435  20.27  0.001982202    1.661    0.398
         8 -12.2312      3.2682     13.4608   7.2859582670e+01   7.4879818386e+01    0.4612744    0.2313249 -37.87  0.001425038    1.682    0.405
         9 -12.1660    238.0060     18.0706   6.4255671372e+00   2.3857844672e+01     0.332055    0.2453123  33.50  0.000965206    1.921    0.479
        10 -11.0277     82.1508      7.0628   2.5248453787e+01   6.3052063848e+01    0.2381101     0.200072  10.83 0.0003240193    1.229    0.187
        11 -10.4900     72.2921     16.1312   3.3180685829e+01   6.4240171360e+01    0.3806157    0.2560751  43.16   0.00128507    1.340    0.254
        12 -11.5451     76.2449     10.3800   2.8837101399e+01   6.4062971396e+01    0.7249981    0.2774875  44.83  0.002864839    2.349    0.574
        13 -11.5245     74.2077      3.4430   2.5913974131e+01   6.5279620800e+01    0.5828845    0.2727115 -25.90  0.001670356    2.287    0.563
        14 -12.5467     54.2087     13.9418   3.9747236091e+01   6.8244141066e+01    0.3376063    0.2999009  39.48 0.0004069483    1.198    0.165
        15 -11.0726    233.3003     14.5882   5.9661043868e+00   2.5171769419e+01    0.2888274    0.1737993 -53.18  0.001437178    1.430    0.301
        16 -10.7367     61.5420     13.6958   3.6267009032e+01   6.6833730047e+01    0.4802415    0.2971521  33.37  0.002414636    1.554    0.357
        17 -11.3993    101.6575     10.2167   2.1430861361e+01   5.7945298746e+01    0.5317317    0.3065067  -5.44  0.001675809    2.264    0.558
        18 -10.0211     27.0296     11.3111   5.3943102977e+01   7.3050631636e+01    0.3661341    0.1542985 -37.62  0.001656789    2.305    0.566
        19 -11.1404    176.0282     10.4718   9.6879962303e+00   3.8699629602e+01    0.4440435    0.2704715 -54.54  0.002259904    1.622    0.383
        20 -12.0732    145.4880      8.8632   1.2852212077e+01   4.6685064854e+01    0.4770956    0.3053244 -20.49  0.001008535    1.770    0.435
        21 -10.7802    119.2778     11.1085   1.7988985912e+01   5.3332829243e+01    0.3545403    0.3016332 -33.93  0.001262238    1.290    0.225
        22 -12.3925    235.5307      9.5981   4.7103529020e+00   2.5211407660e+01    0.3676479    0.2385251 -63.44   0.00215397    1.372    0.271
        23 -11.8723    159.6097      8.9765   1.1067090144e+01   4.3007947580e+01    0.3971844    0.3069075 -80.11  0.001146604    1.249    0.199
        24 -10.8740    154.1196      8.3113   1.1528583476e+01   4.4488879914e+01    0.2740985    0.2626197  -3.34 0.0006383182    1.207    0.171
        25 -10.8306    132.8050      9.6053   1.5017595778e+01   4.9939924492e+01    0.2105768    0.1655079 -37.00 0.0005323808    1.369    0.270
        26 -10.0519     16.4367      8.0006   5.9767680840e+01   7.4869986544e+01    0.3498003   0.09317654 -46.21   0.00136485    3.234    0.691
        27 -11.4482     12.8778      2.5286   5.9433440827e+01   7.6197533192e+01    0.6503201     0.212921  26.97  0.002797525    2.979    0.664
        28 -10.1657     19.9747      7.3290   5.6692422689e+01   7.4599734880e+01    0.4043368    0.1655206 -46.24  0.001001377    2.360    0.576
        29 -10.6352     22.3049      2.0851   5.1722045782e+01   7.5179326681e+01    0.2749637    0.2205103 -31.62  0.001677003    1.272    0.214
        30 -10.7059     26.7064      2.2390   4.8647523059e+01   7.4555729755e+01    0.2586266    0.1803903  26.16 0.0006956568    1.329    0.247
        31 -10.8917    248.5308      7.9585   3.6055727335e+00   2.2791015090e+01    0.2004262    0.1524191  62.17  0.001228082    1.571    0.364
        32 -10.4112    214.8821      7.3508   5.5460779852e+00   2.9823540683e+01    0.2210836    0.1465332 -46.03 0.0009375148    1.319    0.242
        33  -9.0980     23.5976      8.7282   5.4857159546e+01   7.3926361539e+01    0.1335518   0.08450648  -5.19 0.0001968837    1.752    0.429
        34 -11.3490    179.1971      4.4742   7.6630506905e+00   3.8477250572e+01    0.4045579    0.2158263 -41.57 0.0009239929    1.773    0.436
        35  -9.2986     42.6888      7.2221   4.1822099532e+01   7.1293858773e+01    0.1125671    0.0993103  55.43 0.0002665692    1.480    0.324
        36 -11.1751    223.0426      5.3908   4.5383541572e+00   2.8232176183e+01    0.2369319     0.162232 -29.11  0.001451435    1.459    0.315
        37 -11.3518    164.5599      4.9382   9.2559286128e+00   4.2112973047e+01    0.2586062    0.2328939 -55.57  0.000379833    1.126    0.112
        38 -11.1267    168.1683      1.9184   7.9732444764e+00   4.1464519591e+01    0.2433838    0.1951537 -89.52 0.0002881523    1.118    0.105
        39  -9.9640     60.7564      6.0393   3.2372171227e+01   6.7962088210e+01    0.1848532    0.1781079 -18.23 0.0006123367    1.224    0.183
        40 -10.6622    125.8444      3.5017   1.3876610936e+01   5.2321921791e+01    0.3826735    0.2561627  14.84  0.001504178    1.897    0.473
        41  -8.9138    109.6847      5.3014   1.7538106214e+01   5.6370886273e+01    0.1396649    0.1024856 -69.43 0.0003012443    1.615    0.381
        42  -9.8674     68.7092      5.4291   2.8907383702e+01   6.6314372123e+01    0.1829626    0.1114152  43.97 0.0005269724    1.440    0.306
        43 -11.7216    242.3564      3.1356   2.9158571438e+00   2.4459280650e+01    0.3236309    0.1762195  77.06   0.00191717    1.882    0.469
        44 -10.8000     36.7574      7.5630   4.5468592900e+01   7.2236642458e+01    0.3113536    0.2155943  35.72   0.00107034    1.392    0.282
        45  -9.2266    114.2534      2.9822   1.5686360486e+01   5.5394115511e+01    0.1621461    0.1215934 -19.99 0.0004164295    1.503    0.335
        46  -9.7308     97.9858      3.3350   1.9231249008e+01   5.9531950518e+01     0.192189    0.1617078  55.58 0.0004202146    1.042    0.041
        47 -11.4232     91.2738      2.4886   2.0471026037e+01   6.1284365148e+01    0.2402529    0.2237145 -74.46 0.0003199352    1.229    0.187
        48 -10.9706    141.5736      1.7798   1.0957234626e+01   4.8341789727e+01    0.4433943    0.1556639  67.24 0.0008533704    2.366    0.577
        49 -10.1492    230.1063      1.4304   3.2126601737e+00   2.7109958934e+01    0.1629117    0.1051405  84.38  0.000477603    1.516    0.340
        50 -10.3975    102.7534      1.4023   1.7304326115e+01   5.8492361132e+01    0.2318463    0.1246273  70.82 0.0003941824    1.767    0.434
        51  -9.5094     34.7595      1.4751   4.2839842388e+01   7.3431297689e+01    0.2444771    0.1160634  45.73  0.001150496    2.224    0.550
        52  -9.7285     56.8878    197.2036   8.2551868428e+01   2.7029103892e+01    0.1925244    0.1406424  -5.69  0.001074713    1.970    0.492
        53 -11.8905    248.1953    248.1031   4.9945047523e+01  -5.7874936496e+00    0.4807013    0.2520849  -5.97  0.003230334    1.736    0.424
        54 -12.5834    226.6287    245.5685   5.3063959805e+01  -3.1904708413e+00    0.5732394    0.3767492   2.40  0.004236637    1.186    0.157
        55  -9.9107    109.9561    250.0236   7.5605883858e+01   1.0931751880e+01    0.1833324    0.1357637  33.83 0.0006392578    1.004    0.004
        56 -10.5349     91.1037    249.3605   7.9380626315e+01   1.3392177970e+01    0.1916181    0.1540544  67.20 0.0006646527    1.416    0.294
        57 -12.1889     21.0646    248.3514   9.3317800022e+01   2.1214511921e+01    0.5640402    0.1377466  41.79  0.002892862    2.347    0.574
        58 -10.8448      5.3558    244.4718   9.6194445137e+01   2.3274236147e+01    0.3190654    0.1502472  49.83  0.001324821    1.476    0.323
        59 -10.7544      6.7871    249.0587   9.6044649835e+01   2.2380302597e+01    0.2053865    0.1321575  78.29 0.0008967157    1.480    0.324
        60 -11.3888     10.4345    248.5072   9.5345576359e+01   2.2153882772e+01    0.3883162    0.1382378  43.51  0.001799052    1.805    0.446
        61 -12.0025     15.7614    192.0383   9.2111401986e+01   3.2298091929e+01    0.3587472    0.3309621  23.38   0.00173682    1.302    0.232
        62  -9.5076    186.5530    193.4756   5.2265719331e+01   8.6527945205e+00    0.1977836    0.1198323 -35.54 0.0006255967    1.757    0.431
        63 -10.4807    187.4021    189.8149   5.1470558588e+01   9.0707248355e+00    0.3775222      0.20641  44.49  0.001888021    2.019    0.505
        64  -9.8166    145.1235    190.1349   6.0470658798e+01   1.5729671725e+01    0.2040273    0.1618185   8.69 0.0005326951    1.261    0.207
        65 -10.1579    244.6918    188.0614   4.1036176817e+01   1.1172699412e+00    0.1641229    0.1201238  -7.77 0.0004849663    1.078    0.073
        66  -9.9159    226.2884    188.3382   4.4085058597e+01   3.5509674565e+00    0.1247499    0.0770323  -0.16 0.0003035848    1.638    0.389
        67 -10.0315     61.7618    184.4620   8.0137255039e+01   2.9125089969e+01     0.228914    0.1754591 -79.91  0.001361505    1.398    0.285
        68 -11.9971     16.0423    182.2569   9.1548072630e+01   3.4352003845e+01    0.4287638    0.2243969  59.61  0.002180612    1.684    0.406
        69 -10.8325    249.5051    179.6013   3.8805713821e+01   1.5156492319e+00     0.242291   0.09593559 -31.93  0.001233675    2.247    0.555
        70 -10.1257      2.0303    180.3118   9.4883442660e+01   3.5871974197e+01    0.1917627    0.1352793  21.29  0.001243741    1.555    0.357
        71 -10.1412     54.0999    175.9789   8.1281448296e+01   3.1901801945e+01    0.1902599    0.1783186  59.75 0.0006242235    1.088    0.081
        72 -10.4000    172.1785    175.3728   5.2005659060e+01   1.3813948349e+01    0.1927235    0.1148829  43.95 0.0007547769    1.716    0.417
        73 -11.0011     23.2130    180.3298   8.9648223374e+01   3.4143879330e+01    0.4001928    0.1531631  55.78  0.001504389    2.443    0.591
        74 -10.6370     17.8505    172.8590   9.0563787299e+01   3.6259800835e+01    0.2889256    0.1099884  56.28  0.001290696    2.462    0.594
        75 -11.3294      8.2822    172.8729   9.3014373038e+01   3.7023789685e+01    0.2302244    0.1353021 -78.80  0.001337714    1.624    0.384
        76  -9.6591     25.0000    169.0897   8.8443677677e+01   3.6481472355e+01     0.200137   0.06623008 -77.11 0.0008068932    2.973    0.664
        77  -9.6057    177.2892    168.6668   4.9685397282e+01   1.4067017518e+01     0.122231    0.1102992  80.03 0.0002551037    1.628    0.386
        78  -9.0896     93.3171    166.7381   6.9580671250e+01   2.8638322081e+01    0.1421424   0.09802959  56.81 0.0002576623    1.544    0.353
        79  -9.8257     67.6870    165.6947   7.6440267564e+01   3.2524915702e+01    0.2606717    0.1515443  80.73 0.0009363167    2.327    0.570
        80  -9.2673     33.3331    166.2608   8.5981337341e+01   3.6341180484e+01    0.2064815    0.1756473 -32.97 0.0007972743    1.469    0.319
        81  -9.5477     36.3235    165.6561   8.5111963673e+01   3.6182443245e+01    0.1748348    0.1225449  15.97 0.0009693466    1.627    0.385
        82 -10.2211    186.7748    165.6185   4.7168410958e+01   1.2950539202e+01    0.1887826    0.1187661  44.52 0.0009567146    1.684    0.406
        83 -10.9205     51.2193    161.4344   8.0546423969e+01   3.5544242036e+01    0.4454873    0.2583257 -83.85  0.002175579    1.902    0.474
        84 -11.1760      7.7200    163.6509   9.2699581113e+01   3.9124953028e+01    0.2635646    0.1922857 -15.82  0.001450852    1.888    0.470
        85 -10.8790     19.6989    156.7341   8.9014218973e+01   3.9779088038e+01    0.4212109    0.2447761 -82.59  0.001619349    1.633    0.388
        86 -10.8752    247.8924    156.4900   3.4805930810e+01   4.6275020734e+00    0.2346621    0.1720123 -11.21  0.001550333    1.136    0.120
        87  -9.5025     67.0203    157.5531   7.5575594365e+01   3.4483235172e+01    0.1964215    0.1268783  32.50 0.0003236881    1.455    0.313
        88  -9.4238    132.5730    161.2769   5.8468901961e+01   2.3271036209e+01    0.1945813    0.1342205 -34.46 0.0009508792    1.632    0.387
        89  -9.3810      1.6513    157.6770   9.4022336093e+01   4.0902062946e+01    0.1189188   0.08302498 -45.69 -4.25395e-05    1.745    0.427
        90  -9.5699    213.4867    154.4630   3.9957954266e+01   1.0196332968e+01    0.1294503    0.1108191  -2.09 6.443991e-05    1.021    0.020
        91 -10.2960    158.8183    153.7854   5.0778173616e+01   1.9962072628e+01    0.3574735    0.1892337  33.05  0.001252456    1.852    0.460
        92 -10.2489     10.9724    152.8132   9.1200312258e+01   4.1375051311e+01    0.3268136    0.1187101  34.00  0.001500811    2.364    0.577
        93  -9.9674     40.9174    152.8837   8.2591600614e+01   3.8693546637e+01    0.2173231    0.1715974 -76.98 0.0005909523    1.249    0.200
        94 -11.2460     13.8430    147.9225   9.0062148564e+01   4.2310050647e+01     0.220288    0.1731397  72.02 0.0002624816    1.131    0.116
        95  -9.5201    144.0138    148.0862   5.3087402262e+01   2.3805649832e+01    0.1732452    0.1626517 -13.93 0.0008533291    1.095    0.086
        96 -10.8722    217.3955    145.2833   3.7430867095e+01   1.0902690829e+01     0.341596    0.1830328  30.32  0.001664528    2.027    0.507
        97 -10.7302      7.3732    145.6915   9.1788975271e+01   4.3297835884e+01    0.2664322    0.1401073  57.85  0.001387596    1.773    0.436
        98  -9.0956    182.2625    145.3291   4.3980520359e+01   1.7119773507e+01    0.1400181    0.1014184  -1.54  0.000205014    1.569    0.363
        99  -9.8284     14.2367    140.0218   8.9375899913e+01   4.4163340950e+01    0.1745304    0.1492978  77.01 0.0002009617    1.033    0.032
       100  -9.6908    188.5125    139.5213   4.1492877721e+01   1.6936473815e+01    0.1369753    0.1267373   1.34 -2.307576e-05    1.058    0.055
       101  -9.7003     65.3038    139.0139   7.3420365879e+01   3.9108959107e+01    0.1931342    0.1751857 -78.54 0.0004090059    1.114    0.102
       102 -10.1053    236.3114    138.0021   3.2917789877e+01   8.8410114107e+00    0.1731723    0.1418187 -15.72 0.0006249176    1.033    0.032
       103  -9.7450    144.1841    136.8414   5.0662819984e+01   2.5999587554e+01    0.2062466    0.1689914   0.90 0.0004144127    1.354    0.261
       104 -13.2207     37.4387    135.2621   8.1698137606e+01   4.3312439685e+01    0.4163972    0.3287115  88.93 0.0007970381    1.230    0.187
       105 -11.1006     37.6261    126.5567   8.0560439631e+01   4.5444896643e+01    0.4098649    0.2423694   9.61  0.001569528    2.118    0.528
       106 -10.6443      2.9045    136.1271   9.2530172275e+01   4.5850296807e+01    0.3167368    0.1568445 -75.53 0.0009574419    1.796    0.443
       107  -9.1883      9.4320    136.4465   9.0573738032e+01   4.5359858643e+01     0.125054    0.1078895  77.28 6.144468e-05    1.018    0.018
       108  -9.9676     20.7243    134.9919   8.6962256905e+01   4.4884018457e+01    0.1904797    0.1502042 -83.88  0.000783343    1.170    0.146
       109 -10.0912    241.3225    134.0414   3.1374528866e+01   8.5857911357e+00    0.1769066    0.1392954 -21.75 0.0005471709    1.081    0.075
       110 -10.9377     53.6016    132.3372   7.6114783938e+01   4.2238844601e+01    0.3640703    0.2684665  36.33 0.0009000865    1.317    0.241
       111 -10.6200     59.0177    131.3266   7.4209715339e+01   4.1809252396e+01    0.2585885    0.2195765 -27.60 0.0007350571    1.358    0.264
       112 -11.3201      4.4727    130.2682   9.1681701016e+01   4.7161583571e+01    0.2213035    0.2065734 -68.08 0.0004992922    1.152    0.132
       113 -10.9871     56.5959    126.7694   7.4276264903e+01   4.3239553584e+01    0.2786056    0.2115169 -24.15 0.0008355233    1.626    0.385
       114 -10.9520     23.6524    126.6140   8.5206908177e+01   4.6704421078e+01    0.4065854    0.1342283  36.37  0.001640794    2.702    0.630
       115 -10.8499     73.6917    129.0355   6.9098415232e+01   4.0335778261e+01    0.3403034    0.2601245  49.19  0.001065214    1.295    0.228
       116 -10.1991    229.5563    125.0316   3.1257279410e+01   1.1778365188e+01    0.1996348    0.1111607 -32.40  0.001028334    1.598    0.374
       117 -10.7147     15.9701    125.4855   8.7625296369e+01   4.7573381967e+01    0.3308975    0.1261796  18.85  0.001390327    2.838    0.648
       118 -11.9495     10.2069    121.2032   8.9154808511e+01   4.9016746427e+01    0.5224493    0.3069354  69.76  0.001561074    1.713    0.416
       119 -10.2911     24.0112    118.5547   8.4205797284e+01   4.8676389635e+01     0.349042    0.2639457 -36.64  0.001979293    1.486    0.327
       120  -9.9545     47.5196    124.6027   7.6970481871e+01   4.4868833592e+01    0.2333249     0.130883  27.92   0.00107544    1.796    0.443
       121 -10.1058     30.3854    124.2577   8.2700032279e+01   4.6708400789e+01    0.2010919    0.1509905 -61.60  0.001125806    1.288    0.224
       122  -9.4339    243.4949    122.4770   2.8704439025e+01   9.8042627985e+00    0.1239551    0.1034279 -16.69  0.000342749    1.012    0.012
       123  -9.5868     87.2491    121.8226   6.3363716168e+01   3.9923877899e+01    0.1976723    0.1728583  -2.68  0.001030234    1.291    0.225
       124 -10.8909     68.8684    121.4485   6.9268770496e+01   4.2886356754e+01    0.5171801    0.2851645  30.68  0.002259256    1.806    0.446
       125 -10.7630     20.0394    121.9228   8.5926728215e+01   4.8151749731e+01    0.2991096    0.1824003 -62.61 0.0007954245    1.528    0.346
       126 -10.1102     56.4986    121.0390   7.3360287789e+01   4.4669445576e+01    0.2109719    0.1376369 -68.02 0.0005002569    1.541    0.351
       127 -10.4044      1.3952    118.5338   9.1876699266e+01   5.0178530509e+01    0.2244085    0.1062891 -79.97 0.0002285078    1.854    0.461
       128 -12.4696     25.1909    106.7866   8.2326805340e+01   5.1526172920e+01     1.036493    0.4360924  11.95  0.004130288    2.995    0.666
       129 -11.8117     16.2277    115.4892   8.6572906400e+01   5.0027841227e+01     0.380069    0.2848906  58.74 0.0008066903    1.328    0.247
       130 -12.5155     12.9982    110.5235   8.7205021227e+01   5.1479505920e+01      1.41969    0.4683593  12.64  0.005357348    3.702    0.730
       131 -10.0897    249.5318    117.5037   2.6867691437e+01   9.4938001169e+00     0.122133    0.1010258 -20.44 5.418378e-05    1.003    0.003
       132 -10.2662    100.3158    117.3311   5.8298992217e+01   3.8671414341e+01    0.1554382    0.1193122 -10.73 0.0004663999    1.683    0.406
       133 -10.8504     72.3835    115.3637   6.6894841450e+01   4.3850677669e+01    0.5138966    0.3159516 -50.44  0.002346358    1.641    0.391
       134  -9.7685     85.9889    115.7888   6.2472081797e+01   4.1565558284e+01    0.2583902    0.1912222 -74.05  0.001050478    1.588    0.370
       135 -10.0896     52.1333    115.2279   7.3871848094e+01   4.6658786165e+01    0.4438916    0.1734485 -65.44  0.001675691    2.536    0.606
       136  -9.6594     31.9081    117.0000   8.1264438836e+01   4.8380798683e+01    0.2077797   0.07644303  22.14 0.0007918683    2.870    0.652
       137 -10.8318    181.6348    114.7509   3.7230417647e+01   2.2493835297e+01    0.4847508    0.2301927  39.32  0.001295189    2.241    0.554
       138 -10.3090    105.7636    114.5180   5.5986099850e+01   3.8288290983e+01     0.287553    0.2202024 -49.64  0.001128975    1.356    0.263
       139 -10.2623    249.6420    111.8606   2.5691351629e+01   1.0222398812e+01    0.1772503   0.09307729 -38.55  0.000527151    1.687    0.407
       140 -11.1578     55.2673    109.7407   7.1763545205e+01   4.7632635057e+01    0.2878138    0.2714077  40.42 0.0009346164    1.070    0.066
       141  -9.4840     70.4958    108.0398   6.6003999709e+01   4.5919055661e+01    0.2094161    0.1435644 -58.79 0.0003167443    1.466    0.318
       142 -10.3465      3.6308    107.9446   9.0304437816e+01   5.2658902312e+01    0.2245204    0.1688773  36.98 0.0006577753    1.401    0.286
       143 -10.3819     62.0387    106.2595   6.8632808965e+01   4.7587536653e+01    0.2445854    0.2053674 -61.49 0.0006390605    1.181    0.153
       144  -8.8955    109.3175    105.7083   5.2738754753e+01   3.9557958895e+01    0.1531394     0.121608  75.24 0.0003134745    1.600    0.375
       145 -10.7976     53.0021    104.9773   7.1675064244e+01   4.9104383960e+01    0.3480667    0.1924263  39.82  0.001557712    1.809    0.447
       146 -10.8691     25.1197    101.2952   8.1595012884e+01   5.2910601569e+01    0.4194698    0.1783026  51.24  0.001618813    2.827    0.646
       147 -10.3902    118.3813    101.8766   4.9075587727e+01   3.8526800684e+01    0.3112788    0.2220296  34.12 0.0007351044    1.417    0.294
       148 -10.5609     75.6942    101.9731   6.2802085787e+01   4.6567884284e+01    0.3841216    0.2341705 -73.38  0.001547541    2.180    0.541
       149  -9.6019     70.3608    102.2970   6.4773131664e+01   4.7333203726e+01    0.1529893    0.1135338 -16.59 0.0005002968    1.710    0.415
       150 -10.0484     76.5635     97.5168   6.1414247682e+01   4.7487386169e+01     0.254056    0.1717603 -33.67 0.0006045082    1.704    0.413
       151 -11.8324     61.9809     98.0155   6.6867569807e+01   4.9617558558e+01    0.6310821    0.3007705 -53.50  0.002587385    2.008    0.502
       152  -9.9328     66.9724     97.0122   6.4777993833e+01   4.9128372595e+01    0.3114052    0.1733786 -56.45  0.001342952    1.776    0.437
       153 -10.9719     32.3065     96.7292   7.8087881736e+01   5.3432917090e+01    0.4376394    0.2400469  76.41  0.001825428    2.558    0.609
       154  -9.7632     31.5487     92.5552   7.7673263613e+01   5.4547889073e+01    0.1912372    0.1255165 -83.01 4.703225e-05    1.624    0.384
       155  -8.8922    144.7104     99.3345   4.1416893018e+01   3.3302913593e+01    0.1513748     0.122201 -80.51  0.000434811    1.632    0.387
       156 -11.4041     15.5570     96.9948   8.4717346870e+01   5.4688858102e+01    0.4238404    0.1750796 -50.06  0.001552117    2.283    0.562
       157  -9.6174      9.7130     99.0677   8.7216647490e+01   5.4529854320e+01    0.1748325    0.1423331 -79.51 0.0003127629    1.102    0.093
       158  -9.7611    225.7431     98.0083   2.5910936419e+01   1.6325328823e+01    0.1756061    0.1505249 -27.46 0.0002827405    1.038    0.037
       159  -9.6684     87.8740     97.3634   5.7435542648e+01   4.5556240532e+01     0.227595    0.1411802  25.25 0.0009500823    1.848    0.459
       160 -10.0260     57.3135     96.0867   6.8199743067e+01   5.0738713553e+01    0.2000398    0.1783156 -61.56 0.0002824185    1.106    0.096
       161  -9.8874    226.1960     93.1767   2.4756216588e+01   1.6923098727e+01    0.1747564    0.1424844 -53.72 0.0004511158    1.320    0.243
       162  -9.6532     52.7551     93.3861   6.9364265879e+01   5.2004254348e+01    0.2183536    0.1406945  29.32 0.0008528714    1.582    0.368
       163 -10.5906     56.6255     90.4301   6.7170605108e+01   5.2214329965e+01    0.3192967     0.222612 -42.63 0.0006751625    1.453    0.312
       164  -9.3524      1.4770     93.4816   8.9823771943e+01   5.6328924938e+01    0.1262219    0.1097819 -73.72 0.0001601228    1.019    0.019
       165  -9.8803    231.6069     91.7421   2.3707233919e+01   1.6101828914e+01    0.1864266    0.1031385 -40.10 0.0008521987    1.627    0.385
       166  -9.4153    249.7715     91.0232   2.1306634728e+01   1.2935193775e+01    0.1623843   0.08604175 -32.18  0.000496516    1.584    0.369
       167 -10.7964    160.2627     90.0358   3.5340704315e+01   3.1491296538e+01    0.3738055    0.3383816  63.56  0.002015209    1.157    0.136
       168 -11.4592     10.5959     90.7592   8.5910192805e+01   5.6546972934e+01     0.228701    0.1990433 -52.99 0.0003339405    1.108    0.098
       169 -10.3236     49.0927     89.9828   7.0063150957e+01   5.3302453126e+01    0.2034436    0.1962986 -47.54 0.0003107862    1.006    0.005
       170  -9.6523    153.1275     89.1468   3.6667251078e+01   3.3293159217e+01    0.1976472     0.176065 -79.42 -0.0006383859    1.290    0.225
       171 -11.5956     94.8138     88.5370   5.2692158741e+01   4.6238898167e+01    0.4406053    0.2627712  44.26  0.001883218    1.654    0.395
       172 -10.1677     83.4647     88.5006   5.6588852172e+01   4.8391320016e+01    0.2721689    0.2079041  24.60 0.0005451771    1.382    0.277
       173 -11.5545     21.6784     84.0742   8.0325493376e+01   5.7485144736e+01    0.4111722    0.2225013 -79.95  0.001011973    1.926    0.481
       174 -12.0465    107.5804     84.9176   4.7534819280e+01   4.4400833002e+01    0.4133838    0.2987241  67.00 0.0005618067    1.767    0.434
       175 -10.8447     65.0824     85.2691   6.2564692520e+01   5.2227436480e+01    0.4126607    0.2511892 -64.55  0.001816506    1.846    0.458
       176  -9.4152     39.0284     86.4316   7.3420697883e+01   5.5332645099e+01    0.1849874    0.1114832 -17.08 0.0004433415    2.258    0.557
       177 -11.0405     30.3854     82.6819   7.6329378231e+01   5.7110544195e+01    0.5493196    0.2070386 -64.00  0.001867589    2.361    0.576
       178 -10.5688     73.8993     89.3915   6.0301135734e+01   4.9846319254e+01    0.3216535    0.2000341 -47.71            0    1.602    0.376
       179 -10.8891     76.4659     82.1550   5.7350196950e+01   5.1083605844e+01    0.4041222    0.2123147  44.89  0.001280255    1.979    0.495
       180 -10.6098     43.0754     82.8726   7.0943543374e+01   5.5761725114e+01    0.2090583    0.1833122  60.91 0.0004653858    1.255    0.203
       181  -9.8736     68.8041     82.1731   6.0276996223e+01   5.2367256007e+01    0.2098934     0.195135  86.04  0.000313657    1.197    0.164
       182 -10.3294      7.2883     81.3087   8.6094592277e+01   5.9065052147e+01    0.3165709    0.1827608 -49.31  0.001666257    1.589    0.370
       183 -10.6656    116.9111     84.0943   4.4496107541e+01   4.2540526382e+01    0.3961772    0.2216539 -42.63  0.001339286    1.845    0.458
       184 -10.2216     50.5193     78.5072   6.6728819738e+01   5.5907853086e+01     0.269265    0.1393951 -62.84 0.0009693712    2.011    0.503
       185  -9.5379    165.0336     78.4890   3.1169759577e+01   3.2363579748e+01    0.2076258    0.1441698  54.31  0.000979825    1.436    0.304
       186 -10.6250     88.2930     77.3747   5.1621142939e+01   4.9957230063e+01    0.2798872    0.2509796  78.07 0.0001355713    1.298    0.229
       187 -10.2759     18.5091     78.0043   8.0677798018e+01   5.9216371118e+01    0.3588748     0.116569 -49.40  0.001387344    2.697    0.629
       188 -10.1180     21.5978     75.1731   7.8774490165e+01   5.9690610288e+01    0.2057232    0.1845697  71.48  0.001265212    1.216    0.178
       189  -9.2790      3.0000     78.0224   8.7538857646e+01   6.0070797348e+01    0.2011691   0.06407483 -75.90 0.0003639493    2.757    0.637
       190  -9.0644    155.2599     77.2808   3.2848676408e+01   3.4883551946e+01    0.1434626     0.115764  14.70 0.0002318015    1.476    0.323
       191  -9.2430    149.3057     77.7168   3.4282186506e+01   3.6226420743e+01    0.1487841    0.1192376 -80.21 0.0002814291    1.560    0.359
       192 -11.1172     99.7591     76.2133   4.7363481574e+01   4.7871587192e+01    0.3136719    0.2623293 -61.57  0.001056447    1.355    0.262
       193 -10.7045     38.1767     75.8144   7.1430592209e+01   5.8023536653e+01    0.3521453    0.2564866 -26.63  0.001120333    1.483    0.326
       194  -9.9687     55.9789     74.6627   6.3381086182e+01   5.6073040248e+01    0.2677874    0.1523852 -54.97   0.00119497    1.717    0.417
       195 -11.7742    167.7865     73.3213   2.9184512131e+01   3.2558007563e+01    0.3155451    0.2388031 -36.88 0.0003926062    1.315    0.240
       196 -10.0396     44.5516     74.5182   6.8285401270e+01   5.7610186035e+01    0.2241844     0.120815  39.39  0.000993437    1.955    0.488
       197 -10.2522      7.4786     73.3472   8.4914264115e+01   6.1013378051e+01    0.3040384    0.1959373  -7.50  0.001290365    1.772    0.436
       198 -10.1227      1.9028     72.9697   8.7397839248e+01   6.1351909069e+01    0.2049454    0.1866419  -0.16  0.001298836    1.235    0.191
       199  -9.5300     61.5175     73.4866   6.0722460206e+01   5.5525264123e+01     0.143432    0.1383294 -17.32 -2.889082e-05    1.006    0.006
       200 -10.6531     95.5537     71.7312   4.7327042139e+01   4.9677654106e+01    0.3604407    0.1957063  52.70 0.0006533501    2.041    0.510
       201  -9.9101     25.9913     72.0019   7.6117404911e+01   6.0116568135e+01    0.2300338    0.1406706 -33.23  0.001133156    1.730    0.422
       202 -10.2830     38.9650     70.6173   6.9798466081e+01   5.9188028924e+01    0.3098869    0.1792569 -59.62  0.001382216    1.639    0.390
       203 -13.2799     16.4158     67.4185   7.9716022184e+01   6.1948759112e+01    0.3052878     0.278989 -59.50  0.000527829    1.040    0.038
       204 -10.1281     22.0081     66.6761   7.6864817825e+01   6.1728890029e+01    0.1865758    0.1763671  66.13 0.0003990557    1.180    0.152
       205 -12.1257     50.5724     67.3123   6.3623049220e+01   5.8533183664e+01    0.6952969    0.2392756 -47.25  0.001652517    2.751    0.636
       206 -10.9166     58.2801     58.6770   5.7432946465e+01   5.9337811369e+01    0.5246958    0.3251785  -1.70  0.002139226    2.546    0.607
       207 -11.7956    122.6935     67.4496   3.7688362894e+01   4.4413429293e+01    0.2902625    0.2697165 -49.40 0.0002589884    1.133    0.118
       208 -10.3924      6.7009     68.4341   8.4537502851e+01   6.2249917023e+01    0.2470497    0.1780395  88.67   0.00104223    1.438    0.304
       209 -12.6235    147.0759     65.6550   3.1171104925e+01   3.8819920298e+01    0.3355803    0.3014651 -69.23 0.0004477952    1.198    0.165
       210 -10.9931    104.8114     65.5697   4.2273784454e+01   4.8894480611e+01    0.3992378    0.3089964   7.92 0.0008702421    1.609    0.378
       211 -10.3760    110.3899     64.5686   4.0232204227e+01   4.7817887235e+01    0.3894953    0.2858431  88.57  0.001350267    2.050    0.512
       212  -9.6984     93.7412     66.7281   4.6287554006e+01   5.1072598863e+01    0.1956863    0.1777984 -89.10 0.0004087902    1.296    0.228
       213 -12.4981     30.2393     63.0646   7.2001550657e+01   6.1883687169e+01    0.5532228    0.4762421 -44.67  0.001123179    1.059    0.056
       214 -11.3458      2.5993     63.6442   8.5781799057e+01   6.3587670197e+01    0.4621712    0.2620843 -86.26  0.002288535    1.799    0.444
       215 -10.3901     83.3656     60.7453   4.7919327156e+01   5.4402971838e+01    0.3135819    0.2499603  74.74  0.001519484    1.680    0.405
       216 -10.9279     81.5627     64.8428   5.0010777006e+01   5.3922857953e+01    0.3369226    0.2369147  45.18  0.000603658    1.427    0.299
       217  -9.5585    244.6141     69.1550   1.7160568689e+01   1.6662040130e+01    0.1669785    0.1055414 -21.15 0.0003034449    1.615    0.381
       218 -11.5566     46.0517     60.9897   6.3792964863e+01   6.0582052602e+01    0.4497264    0.3070559 -29.61 0.0003716092    1.561    0.359
       219 -10.1272    210.0059     63.1061   1.9788051547e+01   2.4406469920e+01     0.191534    0.1780335 -43.58 0.0003486876    1.016    0.016
       220 -10.5253    155.1992     62.4967   2.8504596723e+01   3.7333421639e+01    0.3209952    0.2795656  -3.26  0.001693219    1.301    0.231
       221 -10.5484    150.4923     60.9144   2.8986406730e+01   3.8745727128e+01    0.3066714    0.2074092  61.18 0.0008788551    1.476    0.322
       222  -9.8080    229.4998     61.9953   1.7182220663e+01   2.0486821473e+01     0.199233    0.1130209 -31.49  0.001030813    1.585    0.369
       223  -9.7650    202.1258     62.1090   2.0585788622e+01   2.6273941579e+01    0.1982945    0.1778377  -5.60 0.0008308833    1.233    0.189
       224  -9.7124    193.2212     62.3930   2.1921415896e+01   2.8247695715e+01    0.1880859     0.171216 -29.05 0.0009983695    1.103    0.093
       225  -9.8944     69.3923     60.8020   5.3405444745e+01   5.7027502106e+01     0.470583    0.1622156 -39.18  0.001490884    3.475    0.712
       226 -10.5872     19.8836     61.6139   7.6798261973e+01   6.3104964142e+01    0.4501311    0.1712383  35.82  0.001857511    2.824    0.646
       227 -13.4413     12.7614     47.5823   7.7279524558e+01   6.6888373694e+01    0.6371424    0.6059213  17.26 0.0007721258    1.190    0.160
       228 -11.8292     11.2060     58.1339   8.0482998115e+01   6.4500630790e+01    0.6537158    0.5788807 -30.53  0.003950045    1.105    0.095
       229 -11.6643      3.1213     48.1860   8.2846385066e+01   6.7241418307e+01    0.4644043    0.3913501 -87.69  0.002640608    1.277    0.217
       230 -10.0858    119.6456     60.9863   3.6381193904e+01   4.6294420803e+01    0.2054666    0.2026198 -35.16 0.0007204131    1.061    0.058
       231 -10.2688     90.1468     61.0531   4.5579168403e+01   5.2952738161e+01    0.2501418    0.2087547  45.21 0.0003285327    1.179    0.152
       232 -10.6788    135.7350     58.6418   3.1527776161e+01   4.2768995567e+01    0.4312405    0.2788475  79.80  0.001767862    2.165    0.538
       233  -9.5915    114.7843     60.3677   3.7525859540e+01   4.7559301367e+01    0.2230393    0.1326033  40.81 0.0004025573    1.695    0.410
       234  -9.3701     97.6673     60.3122   4.2756840432e+01   5.1480848439e+01    0.1513144    0.1220415  89.10 0.0003444524    1.678    0.404
       235 -10.2648    169.1234     59.3033   2.4940328881e+01   3.4407042893e+01    0.2304565    0.1741246  41.91 0.0003000688    1.409    0.290
       236 -10.4295    127.3453     58.5986   3.3556645488e+01   4.4841547143e+01    0.2565079     0.241365  43.48  9.94748e-05    1.026    0.026
       237 -10.3264     87.4940     57.5111   4.5257005663e+01   5.4196437796e+01    0.2557704    0.1886961 -11.88 0.0005812302    1.687    0.407
       238 -10.7703     89.4168     54.2191   4.3368009574e+01   5.4416381906e+01    0.3357556     0.266192 -65.87  0.001646781    1.612    0.380
       239 -10.1740     89.4852     50.4668   4.1934977963e+01   5.5092639966e+01    0.2650441     0.241557 -15.17 0.0006317493    1.122    0.108
       240 -11.4316     80.2651     56.3512   4.7507675332e+01   5.5894254721e+01    0.4866042    0.3195475  -4.99  0.001690129    2.404    0.584
       241 -10.5041    145.7168     54.0505   2.7834309125e+01   4.1006417703e+01     0.415992    0.2208958  70.98  0.001350396    2.360    0.576
       242  -9.5322     51.2850     57.6264   6.0263588575e+01   6.0618528396e+01    0.1387991    0.1121712  79.72 0.0006674626    1.712    0.416
       243  -9.3528     38.6578     57.7346   6.6363793425e+01   6.2234586307e+01    0.1411755   0.09766389 -20.87 0.0002915583    1.600    0.375
       244 -10.5085    177.1433     55.7562   2.2579706366e+01   3.2975995945e+01    0.2419205     0.202963 -20.87 0.0003142498    1.280    0.219
       245  -9.4094    115.9260     55.7498   3.5609915480e+01   4.8094199761e+01    0.2391542    0.1740019  80.76  0.001058112    1.843    0.457
       246 -11.5029     44.9843     38.3041   5.6224022271e+01   6.5586628166e+01    0.3171564    0.2570879 -45.13            0    1.259    0.206
       247 -12.6580     38.8050     50.3406   6.3932498534e+01   6.3876137006e+01    0.7195553    0.6206564   7.45  0.003759749    1.152    0.132
       248 -11.2744     44.8928     44.2304   5.8616638888e+01   6.4392898644e+01    0.5574284    0.3347347 -69.62  0.002372868    2.688    0.628
       249 -10.0649     27.6522     54.0690   7.0893279270e+01   6.4230187990e+01    0.2358535    0.1933333 -37.15  0.001346949    1.111    0.100
       250 -11.5476    105.0129     52.6532   3.7677682234e+01   5.1209746560e+01     0.353539    0.3029176 -87.06 0.0004187161    1.430    0.300
       251  -9.5346     62.0106     52.5775   5.3614146718e+01   6.0018494316e+01    0.2160562    0.1802248 -39.81 0.0003228874    1.192    0.161
       252 -11.2731      1.8381     53.8811   8.4598900212e+01   6.5951185454e+01    0.4331202     0.280565 -65.86  0.001587554    1.324    0.245
       253 -11.8113    129.6716     49.9424   3.0058684876e+01   4.5667890707e+01    0.6418304     0.292123  52.38  0.001565382    2.037    0.509
       254 -10.0482     78.3378     47.7952   4.5006695453e+01   5.7917644044e+01    0.2020587    0.1329439 -29.82 0.0006149423    1.645    0.392
       255  -9.7771     73.6203     50.1110   4.7772816049e+01   5.8409928548e+01    0.2674608    0.1844574 -33.17  0.001289687    1.506    0.336
       256 -10.5480     55.7999     43.2165   5.2845457495e+01   6.2940229347e+01    0.3658273    0.2152424  45.93  0.001686557    1.890    0.471
       257 -11.9993     57.0197     34.9550   4.8780181511e+01   6.4302490743e+01    0.6195858    0.3964323 -22.40  0.002963223    1.804    0.446
       258 -11.1614     52.5137     48.9932   5.6644592905e+01   6.2288355395e+01    0.4544599    0.2937035 -12.99  0.002058142    2.068    0.516
       259 -10.6951     51.0944     44.4613   5.5603232313e+01   6.3437718494e+01    0.4866392    0.3532416 -79.35  0.002298035    2.282    0.562
       260  -9.5902    164.0460     48.4865   2.2632470793e+01   3.7220915855e+01    0.2162149    0.1383297  62.55 0.0004031844    1.522    0.343
       261  -9.7450     69.0350     47.8072   4.8766521946e+01   5.9722594165e+01    0.2029662    0.1772739  26.65 0.0004195251    1.098    0.089
       262 -10.9818    141.1650     45.5044   2.6003881356e+01   4.3430404725e+01    0.4639921     0.257305  51.21  0.001997203    1.709    0.415
       263  -9.9292    104.6240     46.8459   3.5643530689e+01   5.2285420621e+01    0.2069245    0.1936211 -32.83  0.001130317    1.128    0.114
       264  -9.9309     82.1793     46.4790   4.3027917407e+01   5.7368762907e+01    0.2246015    0.2075572 -70.66 0.0004930293    1.290    0.225
       265  -9.8341     62.0912     47.4412   5.1630256508e+01   6.1042844824e+01     0.205256    0.1351841  35.30 0.0003671165    1.491    0.329
       266  -9.4862    121.0847     46.5936   3.1000131898e+01   4.8329756052e+01    0.2182934    0.1407238  58.13 0.0002932746    1.499    0.333
       267  -9.1074    191.6844     45.6939   1.7683335733e+01   3.0865503510e+01    0.1355134    0.1039118  28.99 0.0006827379    1.626    0.385
       268  -9.9451    152.5094     45.3321   2.3717553441e+01   4.0569505952e+01    0.3685932    0.1152282  56.71  0.001232826    2.849    0.649
       269 -10.1254    112.4630     45.1186   3.2744915760e+01   5.0682463231e+01    0.2659013    0.1933896  36.31 0.0007215189    1.411    0.291
       270 -10.7380     23.9449     42.1543   6.9316423244e+01   6.7263404140e+01    0.4266377    0.1579014 -56.07  0.001284485    2.357    0.576
       271 -12.7906     27.5953     37.6988   6.5653120720e+01   6.7875796681e+01    0.2870376    0.2496316 -41.90  0.000374702    1.110    0.099
       272 -11.3815     24.2509     34.9795   6.6648144725e+01   6.8789623937e+01    0.2759404    0.1916273 -45.92 0.0004303753    1.297    0.229
       273 -10.8202     96.5099     42.0108   3.6290167417e+01   5.4974272050e+01    0.3709691    0.2629732   9.15  0.001004268    1.861    0.463
       274 -10.0452     72.9775     42.9770   4.5198114790e+01   5.9873323636e+01    0.2172429     0.181048  85.57 0.0005041352    1.698    0.411
       275  -9.6039     34.4905     43.5107   6.3854327702e+01   6.5874667924e+01    0.1360115    0.1193246 -22.86 1.376793e-05    1.029    0.028
       276 -10.4012    131.0471     41.8332   2.6935938647e+01   4.6535343484e+01    0.2389954    0.2189284 -33.36 0.0005011778    1.155    0.135
       277  -9.7828    121.2673     42.4420   2.9459967507e+01   4.8916285024e+01    0.2061008    0.1417418  68.95 0.0003799017    1.563    0.360
       278 -11.1168     89.1763     41.2962   3.8438699850e+01   5.6756408751e+01     0.318778    0.2856132 -64.06  0.001074596    1.325    0.245
       279 -12.0535     83.5482     36.3072   3.8351092720e+01   5.8818595198e+01    0.8003298    0.5307074  -0.16   0.00170254    2.148    0.534
       280 -11.3962     74.5769     35.2549   4.1286401135e+01   6.0899604605e+01    0.5457493    0.3457173  36.02  0.001844656    1.539    0.350
       281 -10.0041     73.3987     31.7378   4.0195584049e+01   6.1720986741e+01    0.2466077    0.2013562  35.11 0.0005686967    1.141    0.123
       282 -11.2156    226.1292     39.5604   1.2291353507e+01   2.3938003440e+01    0.3723416    0.1663811 -30.60  0.001607361    2.032    0.508
       283 -10.5085    187.6242     40.3746   1.6767567889e+01   3.2507541902e+01    0.3976751    0.2478904  25.62 0.0009994888    2.461    0.594
       284 -10.6211    109.6942     38.2832   3.0922626877e+01   5.2406968985e+01    0.5848503    0.2247922 -39.16  0.002113015    2.718    0.632
       285 -11.6208    111.1743     34.7997   2.9177083757e+01   5.2547504423e+01    0.2959396    0.2476163  51.18 0.0004085073    1.107    0.097
       286 -11.9195     64.6006     37.4534   4.6411235976e+01   6.2481134290e+01    0.5725571    0.4457701  20.79 0.0005875627    1.285    0.222
       287 -10.0194    236.3224     39.9942   1.1464763695e+01   2.1800435721e+01    0.1706523    0.1382365 -38.70 0.0004198228    1.105    0.095
       288  -9.6769    155.7878     37.7667   2.0737407184e+01   4.0756964757e+01    0.2453515    0.1714248  45.62  0.001199274    1.485    0.327
       289 -10.0257    135.4055     36.1596   2.4021338497e+01   4.6208178959e+01    0.4150902    0.2194066 -43.67  0.001745405    2.025    0.506
       290  -9.9015      1.3516     37.3341   8.1571101163e+01   6.9811346076e+01    0.2581042    0.1001352 -68.83 0.0008562986    2.276    0.561
       291 -10.0356      2.1722     32.3667   7.9828202048e+01   7.0895431587e+01    0.2965524    0.1792666  87.10  0.001540186    2.217    0.549
       292 -11.2423    248.0217     36.4466   9.7153592120e+00   1.9917141110e+01    0.2167017    0.1629925 -47.99 0.0003066272    1.108    0.097
       293  -9.6871    201.9477     37.2501   1.4204763338e+01   2.9526184732e+01    0.1662619    0.1101586  73.45 0.0004882772    1.540    0.351
       294 -10.9655     95.5370     35.8439   3.4112822443e+01   5.6173036832e+01    0.6060035    0.2645151  53.33  0.002201455    2.171    0.539
       295 -10.6708      9.2057     34.3492   7.5836721645e+01   7.0099754985e+01    0.3848392    0.2772606 -85.12  0.001755412    1.708    0.415
       296  -9.7061      6.5313     29.4853   7.6123764295e+01   7.1320829008e+01    0.1942346    0.1645904 -39.26 0.0006024305    1.022    0.022
       297 -11.8903    240.2427     34.8325   9.9779348346e+00   2.1607565383e+01    0.2494844    0.2228428  79.43 0.0003558915    1.238    0.193
       298 -10.3982    193.7954     34.6769   1.4459254225e+01   3.1735249327e+01    0.4026284    0.1424255 -43.83  0.001163399    2.643    0.622
       299 -10.0749    165.0913     36.1707   1.8737640192e+01   3.8595869180e+01    0.2041595     0.183571  48.69  0.001158962    1.161    0.139
       300  -9.7892    122.7754     25.9961   2.3012555765e+01   5.0771080484e+01     0.213956    0.1892776 -65.32 0.0004922088    1.228    0.186
       301 -11.0999    117.9898     27.7031   2.4738957411e+01   5.1785137318e+01    0.4649211    0.3633238  66.55  0.002419137    1.233    0.189
       302 -11.3706    112.1408     27.2148   2.5952182348e+01   5.3332340040e+01    0.3738585    0.2835544   9.34 0.0009164016    1.588    0.370
       303 -10.6515    122.7843     33.4074   2.5782840693e+01   4.9814613868e+01    0.6281474    0.2530559  60.46   0.00231759    2.339    0.573
       304 -10.0929    122.6563     30.2916   2.4652319072e+01   5.0259162959e+01    0.2590646    0.1992017  65.71  0.000349297    1.244    0.196
       305  -9.7804     34.0563     33.7046   6.0333873211e+01   6.7974728096e+01    0.1802929    0.1588072   7.21 0.0006054214    1.106    0.096
       306 -10.4758     19.2684     30.9887   6.8272158859e+01   7.0094189806e+01    0.2523792    0.2062669 -34.88 0.0008269893    1.063    0.060
       307 -10.4902     15.7185     31.6860   7.0800613551e+01   7.0237824364e+01    0.3090352    0.1699648 -40.82  0.000963657    1.597    0.374
       308  -9.1941    221.4992     31.5394   1.0818533612e+01   2.5842723934e+01    0.1282591    0.1067964 -57.78 1.851978e-05    1.062    0.059
       309 -10.3934    178.0240     30.6957   1.5292928292e+01   3.6026127191e+01     0.261995    0.1710858 -48.06 0.0004299609    1.504    0.335
       310 -10.3854    176.8102     26.8972   1.4352080063e+01   3.6768212352e+01    0.2418618    0.2165647  62.52 0.0006623067    1.141    0.123
       311 -11.6677    198.9688     28.0507   1.2130723171e+01   3.1289056585e+01    0.4911472    0.2290177  62.63  0.002037026    2.087    0.521
       312 -10.7380    145.5922     27.0701   1.8991860475e+01   4.4719118438e+01    0.3441065    0.2744655  39.19  0.001785265    1.342    0.255
       313 -10.1645    101.5907     28.3490   2.9204471802e+01   5.5804666785e+01    0.3407288    0.2214764  87.71 0.0009130132    2.410    0.585
       314  -9.3105     11.8847     29.3569   7.2504848234e+01   7.1018387118e+01    0.1585818    0.1053666  -9.31 0.0001393871    1.524    0.344
       315 -10.3670    234.4642     27.4619   8.7843695355e+00   2.3581865017e+01    0.2146866   0.08336945 -39.91 0.0005825681    2.061    0.515
       316 -10.7183    156.6299     28.1919   1.7561705763e+01   4.1730851946e+01    0.2988293    0.1826084  59.87 0.0002679153    1.522    0.343
       317 -11.8043    216.3689     25.4540   9.8091246088e+00   2.7633384330e+01    0.3529507    0.2303769  62.39 0.0006262089    1.613    0.380
       318 -10.3737     87.1030     20.1081   2.9951085777e+01   6.0365414559e+01    0.2438349    0.1825029  39.49  0.001280849    1.235    0.190
       319 -10.2004     80.2808     25.6709   3.4825561266e+01   6.1168382313e+01    0.2858002    0.1930106 -30.93 0.0009034534    1.564    0.361
       320 -10.7504     83.1512     21.8876   3.2074312283e+01   6.1047673636e+01    0.3981093     0.274739  44.24  0.001208424    1.317    0.240
       321 -11.3266     61.6839     25.9382   4.2445290145e+01   6.4995592093e+01    0.4717996    0.3027619  -2.47  0.001507558    2.152    0.535
       322 -10.9164     59.3378     21.1826   4.1157667737e+01   6.6192631047e+01    0.3322222    0.2374392  46.22 0.0008468248    1.405    0.288
       323 -10.7104    247.9243     25.9889   7.4711630147e+00   2.1075466515e+01    0.1786121    0.1490848 -50.87 0.0004564399    1.026    0.025
       324 -10.6745    239.9204     26.1609   8.0802095562e+00   2.2623136413e+01    0.2016711    0.1352197 -55.80  0.001245366    1.314    0.239
       325 -10.5129    226.9989     25.9930   9.0406907250e+00   2.5288101075e+01    0.1482936    0.1270229 -57.38 0.0003375993    1.006    0.006
       326  -9.8677    148.4725    248.4599   6.7732876835e+01   6.1645107018e+00    0.1180522   0.08706036  26.88 5.413323e-05    1.025    0.024
       327 -10.3152     83.6756    248.3018   8.0810988290e+01   1.4463941601e+01    0.2255382    0.0957984  40.13 0.0007926308    1.707    0.414
       328 -12.2813    133.0143     18.9086   1.8359238690e+01   4.8932078796e+01    0.3694867    0.2534151  65.40 0.0003392136    1.325    0.245
       329 -10.0787     71.2045     25.8011   3.8333228742e+01   6.3107175898e+01     0.203704    0.1532265  21.49  0.001062936    1.364    0.267
       330 -10.3495     54.7199     24.1013   4.4802951661e+01   6.6590649080e+01    0.3544277    0.2240579 -55.88 0.0009639593    2.338    0.572
       331 -11.1718     72.7791    244.4324   8.2754529888e+01   1.6391138716e+01    0.2732523    0.1980238  39.10  0.001314407    1.045    0.043
       332 -10.5565    160.1791     24.2032   1.5773187651e+01   4.1280043119e+01    0.3277524    0.1914652 -37.74 0.0009484811    1.712    0.416
       333 -12.6469     75.3415    240.0082   8.1890063266e+01   1.6822611407e+01    0.4998176    0.4645796 -82.03  0.003671398    1.350    0.259
       334 -11.3019      9.3289     24.7978   7.2652893599e+01   7.2161305814e+01    0.9419175    0.3847296  25.47  0.004454573    2.510    0.602
       335 -12.0975     34.3150     22.6188   5.5200237297e+01   7.0082580096e+01    0.2756799    0.2247093 -12.78  0.000153504    1.114    0.102
       336 -10.8389     22.1171     24.0313   6.3611781810e+01   7.1255226318e+01    0.2976151    0.2239142  -8.79 0.0008446284    1.267    0.210
       337  -9.9481     45.7427    244.5541   8.8284354902e+01   1.9396624683e+01    0.1684455   0.07080253  40.82 0.0009512423    1.666    0.400
       338  -9.5775    102.4825    243.4893   7.6523629689e+01   1.2886716680e+01    0.1197033   0.09026332  35.83 0.0002351291    1.008    0.008
       339 -12.1319     28.7270     19.7367   5.7276193569e+01   7.1336854272e+01    0.2816945    0.2073884   4.55 0.0003177692    1.324    0.245
       340 -10.8183     88.8798    240.8901   7.9124969378e+01   1.5021303697e+01    0.1707717    0.1430511  19.56  0.001219194    1.265    0.209
       341 -11.1559      3.7548     18.4587   7.4407838424e+01   7.3824817910e+01    0.2763801    0.2271345 -15.83  0.001061229    1.132    0.117
       342 -10.5237     60.1874    241.0139   8.5119803739e+01   1.8417317943e+01    0.2132799     0.130032  34.87 0.0009985988    1.283    0.221
       343  -9.3149    189.5943     24.4588   1.2170205934e+01   3.3913841239e+01    0.1330434    0.1183616 -67.36 9.917791e-05    1.030    0.029
       344  -9.6075     48.1901     22.8893   4.7495003964e+01   6.7928811933e+01    0.1770897    0.1706769  -5.07 0.0002877828    1.200    0.167
       345 -11.5451    248.4915     21.1776   6.4044136146e+00   2.1472148617e+01    0.2691782    0.2321229  68.14 0.0009473132    1.362    0.266
       346 -10.3569    155.8695     21.8526   1.5651659679e+01   4.2652631485e+01    0.2092516    0.1803884  46.65 0.0005286697    1.218    0.179
       347 -10.2261    121.9504     20.4733   2.1088449051e+01   5.1638800306e+01     0.414261    0.2293014  38.89  0.001782893    1.995    0.499
       348 -10.6221     69.5122     21.5169   3.6948457537e+01   6.4095384716e+01    0.2885382    0.2232071  69.96  0.001504311    1.702    0.412
       349  -9.5087    224.7546     21.4278   8.1539695398e+00   2.6253093442e+01    0.1565261    0.1088639  62.61 0.0005920008    1.561    0.359
       350 -10.4776    193.1110     20.9783   1.0859177915e+01   3.3451045620e+01    0.2222468    0.2004059  38.55 0.0003451401    1.307    0.235
       351 -10.5242    194.0035     16.5764   9.5950108778e+00   3.3702357518e+01    0.2981255    0.1877786 -85.31  0.001555562    1.618    0.382
       352 -10.1722     17.2884    241.3549   9.3804130247e+01   2.2752930216e+01   0.08948195   0.08000408 -33.65 0.0002921332    1.675    0.403
       353 -10.6107     64.6494     19.1685   3.7789049202e+01   6.5439060494e+01    0.2438128    0.1887838  75.85   0.00101832    1.907    0.476
       354  -9.7032     45.0644     19.2311   4.7285317529e+01   6.9057437048e+01    0.2614929    0.1544205  50.36  0.001244336    2.132    0.531
       355  -9.7452     41.4551     19.4949   4.9428200738e+01   6.9593058779e+01    0.1795167    0.1175823  21.94 0.0007789235    1.529    0.346
       356  -9.2810    108.4536     16.8147   2.2623631068e+01   5.5518515466e+01    0.1897465    0.1371121   2.34 0.0009373378    1.678    0.404
       357  -9.8385    114.2710    239.8884   7.3719740328e+01   1.1919954965e+01     0.361398   0.06905249  41.31  0.001241544    4.092    0.756
       358 -10.0461     76.6977     15.8794   3.1438927203e+01   6.3295901236e+01    0.2280759    0.1651535  32.40 0.0003029671    1.322    0.243
       359 -10.3573    195.6722    238.4782   5.7466821325e+01   1.3235633307e+00    0.2190021    0.1674763   8.36  0.001018182    1.090    0.082
       360 -10.9660     35.0657    237.9893   9.0113138095e+01   2.1629827214e+01    0.1794077    0.1289238  50.73 0.0009632428    1.055    0.052
       361 -10.1176     18.5812    237.3769   9.3407461349e+01   2.3326536436e+01    0.2501879   0.09567984  22.84  0.001244502    2.835    0.647
       362  -9.6978     50.8351     17.6264   4.3405045393e+01   6.8319839384e+01     0.298403    0.2467628 -81.06 0.0007381585    2.017    0.504
       363 -10.2445     67.5794    236.1090   8.3231449382e+01   1.8406456583e+01    0.2395801    0.1457601  28.38  0.001465081    1.450    0.310
       364  -9.6757    215.8477     16.3182   7.6373906363e+00   2.8717466997e+01    0.3120112   0.06271011  62.22  0.001091998    4.186    0.761
       365  -9.2083    150.2939     16.6194   1.4762545828e+01   4.4661115846e+01    0.1515943    0.0959641 -60.75 0.0007019916    1.752    0.429
       366 -11.0840    183.0093    234.0496   5.9203617690e+01   3.5139389348e+00    0.3299728    0.1687903  35.21  0.001284743    1.641    0.391
       367 -11.5439    185.1332    228.0175   5.7948296888e+01   4.0132537758e+00    0.4354235    0.2358726 -12.74  0.002249983    2.493    0.599
       368  -9.3139     60.3193     10.2987   3.4947250366e+01   6.7529522468e+01    0.1410645    0.0933172  21.07 0.0007021191    1.618    0.382
       369  -9.3627     99.0402     20.0157   2.6379967616e+01   5.7502803517e+01    0.1625367    0.1531398   0.12 0.0009391644    1.127    0.112
       370 -10.0734     91.6493    235.6949   7.8080636979e+01   1.5530486105e+01    0.1146509   0.08520621   3.96 0.0003080365    1.705    0.413
       371 -11.4578     30.8860    234.6654   9.0809674337e+01   2.2632782967e+01    0.3710843    0.2103087  61.89  0.002395128    1.538    0.350
       372 -10.1001     31.8630    230.3821   9.0404394763e+01   2.3304036255e+01    0.1923326    0.1232897  25.98 0.0009224041    1.532    0.347
       373  -9.5521      6.2146    235.1779   9.5777893627e+01   2.4808562721e+01    0.1522095   0.08494371  52.48  0.000462214    1.304    0.233
       374  -9.4619     88.2655    233.6918   7.8622807609e+01   1.6296160632e+01    0.1175917   0.07431591  54.05 0.0002896339    1.534    0.348
       375 -11.1641     39.7693    229.5813   8.8702700461e+01   2.2646420009e+01    0.2638978    0.1761507  70.70  0.001541761    1.440    0.305
       376 -10.0847     58.5372    229.1638   8.4665692604e+01   2.0676542414e+01    0.3185412   0.08281638  42.43  0.001377034    2.647    0.622
       377  -9.5084    169.3234    228.6991   6.1107288941e+01   6.0739801042e+00    0.1121446    0.0845257  46.31 0.0003570788    1.632    0.387
       378 -10.8496    160.4278    235.0850   6.3724853076e+01   6.4053620074e+00    0.2408116    0.1349168  20.14 0.0009205121    1.631    0.387
       379 -11.0607     28.4951    244.4653   9.1721432249e+01   2.1162447747e+01    0.2934623    0.1562561  63.13  0.001900329    1.658    0.397
       380 -10.3412      3.8231    225.8877   9.5990524893e+01   2.6677095468e+01    0.1467697    0.1355238  60.74  0.001050187    1.291    0.226
       381  -9.7602     16.4729    222.0882   9.3260531914e+01   2.6287612322e+01    0.1495356   0.09756479  87.91 0.0006318357    1.531    0.347
       382 -11.3533     47.7816    218.8184   8.6315121188e+01   2.3788240809e+01    0.5094051     0.199827  24.09  0.002315797    2.689    0.628
       383  -9.5109    211.6173    218.8214   5.1690910890e+01   1.6668290090e+00    0.1392241    0.1031324 -32.86 0.0008405122    1.626    0.385
       384  -9.0801    198.6474    219.3187   5.4120664287e+01   3.3239131885e+00    0.1069572   0.08883918  45.33  0.000704714    1.744    0.427
       385  -9.4093    176.3525    218.7265   5.8294065216e+01   6.4857116480e+00    0.1148131   0.08624708  45.68 0.0002823338    1.638    0.389
       386 -12.0710     12.5139    211.7320   9.3701542464e+01   2.8609135228e+01    0.5801281     0.208722  69.78  0.002567096    2.822    0.646
       387 -12.5807      4.9548    208.4195   9.5218675609e+01   2.9886678270e+01    0.8495147    0.2840748  83.74  0.003959843    3.127    0.680
       388  -9.7324    135.9563    216.5167   6.6354300236e+01   1.2649290243e+01    0.1993678    0.1034695  33.11 0.0008460211    1.556    0.358
       389 -10.9840     29.2395    215.4393   9.0216190383e+01   2.6352802812e+01    0.2208506    0.1820949  43.60  0.001049701    1.127    0.113
       390 -11.0314     23.9957    215.3055   9.1358184734e+01   2.6881404052e+01    0.2977868    0.1279496 -85.82  0.001246156    2.494    0.599
       391 -10.1164    110.2898    211.9726   7.1475092940e+01   1.7125532265e+01    0.1702072    0.1550132  28.75 0.0007178607    1.116    0.104
       392  -9.9011     20.3762    212.1149   9.2002280467e+01   2.7835104745e+01    0.1621511   0.08769425  76.24 0.0009478793    1.785    0.440
       393  -9.7879    217.1395    208.8829   4.9137167430e+01   2.1743903229e+00    0.1689156    0.1126337  -2.71  0.001071687    1.345    0.257
       394 -11.6015     19.9114    202.1852   9.1639813650e+01   2.9846696261e+01    0.6702468    0.1621036 -64.04  0.002721965    4.138    0.758
       395 -10.0652    147.6689    205.9037   6.2330954004e+01   1.2650552155e+01    0.1986122    0.1517726 -10.85  0.001181376    1.459    0.315
       396 -10.0544     27.9787    205.4666   8.9967054367e+01   2.8433411181e+01    0.1702532    0.0976598  33.32 0.0004862398    1.503    0.335
       397  -9.1550    188.3013    204.7133   5.3785684183e+01   6.7548447602e+00    0.1093491   0.09365165  45.04 0.0003342277    1.558    0.358
       398 -10.4507    205.6020    203.1695   5.0270047405e+01   4.4903111618e+00    0.1685829   0.09964795 -19.92 0.0009509444    1.728    0.421
       399 -10.3114     67.3254    202.8371   8.0541730479e+01   2.4627434008e+01    0.2401993    0.1896278  50.75 0.0006528473    1.088    0.081
       400  -9.1479    112.7311    202.3142   6.9703389752e+01   1.8527170180e+01    0.1265809   0.09176826  57.99 0.0002362138    1.551    0.355
       401  -9.3863    120.4724    200.4749   6.7658233957e+01   1.7712990413e+01    0.1332634    0.1118247  28.02 0.0005512401    1.037    0.036
       402 -10.7477    175.3127    202.1403   5.5946366748e+01   9.0568109716e+00    0.2349674    0.1708268  23.95 0.0004588002    1.141    0.124
       403  -9.7801    134.9177    196.4825   6.3766123543e+01   1.6219969707e+01    0.1809173    0.1692123   2.66 0.0004596315    1.149    0.130
