#   1 NUMBER                 Running object number                                     
#   2 MAG_AUTO               Kron-like elliptical aperture magnitude                    [mag]
#   3 X_IMAGE                Object position along x                                    [pixel]
#   4 Y_IMAGE                Object position along y                                    [pixel]
#   5 X_WORLD                Barycenter position along world x axis                     [deg]
#   6 Y_WORLD                Barycenter position along world y axis                     [deg]
#   7 A_WORLD                Profile RMS along major axis (world units)                 [deg]
#   8 B_WORLD                Profile RMS along minor axis (world units)                 [deg]
#   9 THETA_WORLD            Position angle (CCW/world-x)                               [deg]
#  10 FWHM_WORLD             FWHM assuming a gaussian core                              [deg]
#  11 ELONGATION             A_IMAGE/B_IMAGE                                           
#  12 ELLIPTICITY            1 - B_IMAGE/A_IMAGE                                       
         1 -14.9031    161.8605     42.0090   8.1543680204e+01   3.9289526324e+01     1.388021     1.051942 -11.13  0.003910283    1.435    0.303
         2 -14.5927    175.1988      8.7889   6.8762022293e+01   3.9714976546e+01     1.167937    0.9484928  46.32  0.004467749    1.197    0.164
         3 -11.3434    189.9214     14.7003   6.8588830034e+01   3.5389507732e+01    0.2009004    0.1739061  73.12 0.0007441563    1.097    0.088
         4 -20.0742     76.2148    175.5468   1.3449684534e+02   2.9508670173e+01     16.15918     6.165974 -65.42   0.07127893    2.637    0.621
         5 -10.8241    126.4280    236.5080   1.3198837038e+02   1.1107642464e+01    0.2465011    0.1590855 -39.41  0.001168723    2.235    0.553
         6 -10.6498     13.7232    238.5913   1.5083790433e+02   2.4916371746e+01   0.08943729   0.06473032  81.86 0.0007545798    1.164    0.141
         7 -10.5674     25.6648    230.0181   1.4856540528e+02   2.5162062895e+01    0.1653762   0.07714131 -82.19  0.001073121    1.945    0.486
         8 -10.5728     25.4375    224.8288   1.4831200677e+02   2.6075895870e+01    0.1497264   0.08048652 -74.50 0.0006415257    1.747    0.428
         9 -10.2358    219.2898    224.6312   1.1382657950e+02  -2.1181015419e+00    0.1038832   0.09444376  67.88 0.0007023995    1.712    0.416
        10 -13.6318    138.8497    171.9134   1.2041588235e+02   2.0217654499e+01    0.6100244    0.4682453  70.65  0.001950978    1.520    0.342
        11 -14.6857    144.0939    169.0504   1.1877559274e+02   1.9806146068e+01    0.9438553    0.6412911  68.31   0.00454596    1.940    0.485
        12 -13.7829    177.5093    171.5739   1.1226129765e+02   1.3003333745e+01    0.5961398    0.4898948 -46.23  0.003378469    1.361    0.265
        13 -11.8913    166.9722    173.5421   1.1479141745e+02   1.4676616099e+01    0.2452586    0.1989371 -65.53 0.0008860755    1.544    0.352
        14 -10.6701     25.9080    173.8284   1.4472934321e+02   3.5661462375e+01    0.1527447    0.1273769 -88.98  0.001153277    1.132    0.117
        15 -10.6479     11.9251    173.8998   1.4747513267e+02   3.6906715165e+01    0.1434549    0.1144184 -76.95 -0.0009232552    1.245    0.197
        16 -11.8562    203.0757    172.3254   1.0737228515e+02   7.9694765658e+00    0.2515804    0.2022744 -39.42 0.0008955104    1.387    0.279
        17 -10.6267     22.5283    221.0890   1.4857267211e+02   2.7020712999e+01    0.1256386   0.08093236 -78.76 0.0004404678    1.443    0.307
        18 -13.5676    123.6061    166.3918   1.2277340492e+02   2.4014712333e+01      1.24251    0.5251815  61.39  0.003186671    6.869    0.854
        19 -12.1449    125.0615    243.6322   1.3300280280e+02   1.0245803838e+01    0.1947117    0.1499733 -61.53  0.000722067    1.600    0.375
        20 -11.7807    201.1102    165.0860   1.0627837451e+02   9.5051059997e+00    0.2911063    0.2264649 -62.44 0.0009791177    1.845    0.458
        21 -11.7059    168.0373    243.9992   1.2558309497e+02   3.6008735667e+00    0.1786633    0.1384021  38.17 0.0003349078    1.012    0.012
        22 -10.8894    222.7992    162.3563   1.0164064504e+02   5.7534747424e+00     0.305222     0.170586 -47.26  0.001058578    2.328    0.570
        23 -13.3674    164.1812    157.8473   1.1229554068e+02   1.8072220500e+01    0.3856096     0.371948 -35.48  0.001066049    1.100    0.091
        24 -13.4981    154.4255    196.0240   1.2124953431e+02   1.3066682208e+01    0.8555088    0.3748711 -60.04  0.003206569    4.021    0.751
        25 -14.6153    143.3291    144.1474   1.1404417039e+02   2.4853984644e+01      1.11011     0.512807 -55.95  0.004145188    2.727    0.633
        26 -12.6357    157.7817    202.6383   1.2163442587e+02   1.1377364417e+01     0.537749    0.3396688  67.35  0.002614122    2.354    0.575
        27 -10.5210     22.9842    156.1197   1.4378185466e+02   3.9608295154e+01    0.1683119    0.1338464 -88.82  0.000448836    1.021    0.021
        28  -9.9810      6.4917    155.5970   1.4721234675e+02   4.1082824355e+01    0.1077151   0.08364323 -86.79 8.933782e-05    1.060    0.057
        29 -12.9404    161.3601    197.7581   1.2015976986e+02   1.1553105037e+01    0.3730322    0.3383435  89.59  0.001652976    1.325    0.245
        30 -11.6993     21.9100    242.6494   1.4979896236e+02   2.3447415632e+01    0.1833753     0.104882 -89.12  0.001397134    1.507    0.336
        31 -13.1675     11.6200    205.9066   1.4953224808e+02   3.0786169998e+01    0.3729388    0.2639331  29.73   0.00281994    1.922    0.480
        32 -14.3455    135.9006    127.8519   1.1218162937e+02   2.9660177879e+01     2.730592    0.3695927 -48.37  0.005253403    9.111    0.890
        33 -12.6632    174.1332    149.1398   1.0834784260e+02   1.7678877200e+01    0.4198765    0.3195831 -44.00  0.001497455    1.388    0.280
        34  -9.8242     22.3717    205.4265   1.4766656544e+02   2.9858206512e+01    0.1002792   0.07888255  85.47 0.0003018628    1.141    0.123
        35 -11.6166    174.6860    140.9982   1.0642647627e+02   1.9068883754e+01    0.2045825    0.1911179 -24.98 0.0004551695    1.086    0.079
        36 -14.8328    134.4545    146.7747   1.1662789104e+02   2.6031143931e+01     1.739536    0.5542365 -55.71  0.005029509    4.611    0.783
        37 -11.1030      8.4428    137.9000   1.4530265259e+02   4.4670406346e+01    0.2187068     0.169164 -10.19  0.001285789    1.987    0.497
        38 -13.0093    160.3899    127.9424   1.0651361271e+02   2.4583229293e+01    0.4478024    0.3737883 -47.98  0.001721724    1.248    0.199
        39 -11.9085    168.7509    202.2842   1.1945320018e+02   9.5179959996e+00    0.2760826    0.2099906  89.33 0.0007315373    2.067    0.516
        40 -11.4556    138.0669    198.6337   1.2490516715e+02   1.5445092555e+01    0.5378742    0.3122339  68.43  0.002386437    2.701    0.630
        41 -11.2922    138.9946    249.9788   1.3129648478e+02   7.2565579943e+00    0.2347547    0.1871487  25.66   0.00170303    1.409    0.290
        42 -12.3049    163.9193    203.0810   1.2051353492e+02   1.0236815377e+01    0.2877118     0.264303 -78.43 0.0004316564    1.327    0.247
        43 -12.4571    155.4921    190.5529   1.2014473060e+02   1.3814459464e+01    0.3271718    0.2212007  60.83  0.001636264    1.720    0.419
        44 -13.1044    154.2942    185.6704   1.1956698721e+02   1.4882650579e+01     0.355891    0.2820882  48.91   0.00127205    1.176    0.149
        45 -10.8809    138.6883    246.3146   1.3094367034e+02   7.8139159686e+00    0.1898343    0.1309973  63.02 0.0009202055    1.523    0.343
        46 -10.8344    205.3458    110.2415   9.2806361886e+01   1.7844114454e+01    0.3094169    0.2044991  42.96 0.0009441755    1.528    0.346
        47 -14.1407    207.7798    179.3825   1.0787510869e+02   5.9961110187e+00    0.8870064    0.6767997 -30.47  0.005043953    1.377    0.274
        48 -10.8183     12.6671    100.8088   1.4003214258e+02   5.2473789429e+01    0.2513587    0.1281393  39.46  0.001434309    2.306    0.566
        49 -13.7146    195.5536    170.8969   1.0853838533e+02   9.6377574984e+00    0.7960654    0.4328311 -47.61  0.002989962    2.237    0.553
        50 -10.2942     25.5129    181.5528   1.4542567843e+02   3.4142977125e+01    0.1386503    0.1185927 -55.87 0.0001319833    1.526    0.345
        51 -10.6987     28.3077    179.3368   1.4470812163e+02   3.4315119603e+01    0.1614447    0.1506324  62.96  0.001070806    1.343    0.256
        52  99.0000    132.3759    235.5837   1.3082905727e+02   1.0340611254e+01    0.3697587    0.2539257  27.85  0.002320714    1.650    0.394
        53 -14.4898    150.6481     56.5394   8.8583160923e+01   3.9921582408e+01     1.248574     1.030447  11.53 0.0009911015    1.303    0.233
        54 -10.0953    159.8773    247.1614   1.2738901664e+02   4.4535121153e+00    0.1442858    0.1190115  16.93 0.0006363116    1.359    0.264
        55 -13.0553    165.5887     33.4196   7.8075570528e+01   3.9470847665e+01    0.4199716    0.3808423   0.58 0.0008163202    1.140    0.123
        56 -11.0181     13.5583     59.9668   1.3250185023e+02   6.1251942304e+01    0.1751384    0.1578901  63.13 0.0004433368    1.439    0.305
        57 -12.0079    133.8220    246.4012   1.3179091115e+02   8.5353004477e+00    0.1559521    0.1471143  64.11 0.0003468778    1.230    0.187
