#   1 NUMBER                 Running object number                                     
#   2 MAG_AUTO               Kron-like elliptical aperture magnitude                    [mag]
#   3 X_IMAGE                Object position along x                                    [pixel]
#   4 Y_IMAGE                Object position along y                                    [pixel]
#   5 X_WORLD                Barycenter position along world x axis                     [deg]
#   6 Y_WORLD                Barycenter position along world y axis                     [deg]
#   7 A_WORLD                Profile RMS along major axis (world units)                 [deg]
#   8 B_WORLD                Profile RMS along minor axis (world units)                 [deg]
#   9 THETA_WORLD            Position angle (CCW/world-x)                               [deg]
#  10 FWHM_WORLD             FWHM assuming a gaussian core                              [deg]
#  11 ELONGATION             A_IMAGE/B_IMAGE                                           
#  12 ELLIPTICITY            1 - B_IMAGE/A_IMAGE                                       
         1 -13.1956    187.1800     32.7403   5.9441481950e+01   3.4172768115e+01     1.697083     1.047576  14.90  0.006872774    2.260    0.558
         2  -9.9329    189.9452     14.7609   5.3229453391e+01   3.5525772605e+01    0.2761323    0.1718384 -41.11 0.0008672877    1.582    0.368
         3 -11.4907    210.0252      2.7607   4.7319440395e+01   3.1432747347e+01    0.8143575    0.3684271  73.22  0.003383217    2.189    0.543
         4  -8.8075    184.9942    222.0000   1.0373818735e+02   5.6808961355e+00    0.1958921   0.05182125  43.55  0.000805315    2.962    0.662
         5 -10.7884    138.9967    245.2301   1.1398046172e+02   9.8167864719e+00    0.2486414    0.1834042 -63.44   0.00188438    1.800    0.444
         6  -9.6051     81.7207    195.3005   1.1892988154e+02   2.5622882907e+01    0.2790196    0.1867087  42.81  0.001825397    1.440    0.306
         7  -9.9523     74.9455    182.4747   1.1894004774e+02   2.8887130856e+01    0.2557026    0.1588773  45.07  0.001021951    1.483    0.326
         8  -9.9150     65.6591    194.8792   1.2187647399e+02   2.7800326296e+01    0.2839148    0.1416317  53.53  0.001545403    1.651    0.394
         9 -12.1763     72.4919    190.5856   1.2021050351e+02   2.7704921825e+01    0.6248483    0.5618066  89.24  0.002878116    1.275    0.216
        10  -8.7924    114.5154    194.5045   1.1267967835e+02   2.0985450100e+01    0.1185463   0.09988885  57.19 0.0008098579    1.055    0.052
        11  -8.3428     99.2768    191.6562   1.1523278461e+02   2.3783743242e+01    0.1211385   0.07728085  72.36 0.0004228567    1.626    0.385
        12  -9.3902     59.1707    188.2244   1.2251530843e+02   2.9823521368e+01    0.3039311    0.1680785 -66.20  0.001887992    1.837    0.456
        13  -9.1102     99.3831    180.6635   1.1391458869e+02   2.5756532302e+01    0.2124119    0.1901719  65.92 0.0006856266    1.127    0.113
        14 -10.3315    165.8809    219.4500   1.0661281424e+02   9.0459709289e+00    0.2837775    0.1542029  61.60  0.001455403    2.571    0.611
        15  -9.2002    114.5938    208.7921   1.1431397807e+02   1.8616903681e+01      0.14571    0.1026729 -83.62 0.0009484403    1.640    0.390
        16  -9.5799    195.7206    169.3465   9.3446749295e+01   1.0841647443e+01    0.2659081    0.2233766   7.69 0.0005811455    1.207    0.171
        17  -9.2738     72.2119    167.2249   1.1784723510e+02   3.2208587475e+01    0.2030877      0.13836  43.87  0.001256902    1.456    0.313
        18 -10.7600     98.3433    154.8632   1.1063173576e+02   3.0917394145e+01    0.5564228    0.3861234 -39.37  0.002359642    1.967    0.492
        19  -8.0102    140.4043    157.1678   1.0199826797e+02   2.3267357924e+01     0.168729     0.125398 -68.29 0.0001049777    1.560    0.359
        20 -10.1317    134.3575    147.9077   1.0160329980e+02   2.6127781900e+01    0.6766596    0.1561558 -52.39  0.001949976    5.178    0.807
        21 -10.7316    108.9284    140.4471   1.0590667648e+02   3.2145855994e+01    0.5182991    0.2745882 -43.18  0.002336023    2.284    0.562
        22 -10.6256     97.5478    140.1268   1.0847597693e+02   3.4088044644e+01    0.2443019    0.2295971 -76.29 0.0003821828    1.138    0.121
        23  -9.4600    106.8276    206.6343   1.1547810297e+02   2.0119716324e+01    0.1712902   0.08282617  51.03  0.000594618    1.709    0.415
        24 -10.4834    115.7230    130.6170   1.0249053781e+02   3.3003520041e+01    0.3210039    0.2437529 -36.86  0.001007147    1.563    0.360
        25  -9.5818    103.6002    126.8258   1.0464051821e+02   3.5919862135e+01    0.2673044    0.2429235 -53.91  0.000870162    1.171    0.146
        26  -9.7230    106.0881    130.8499   1.0481277138e+02   3.4639617530e+01    0.3234637    0.2690734 -89.30  0.001621282    1.203    0.169
        27  -8.2267    163.4814    204.0090   1.0494757086e+02   1.1545950988e+01    0.1511291    0.1204147 -46.51 0.0004501439    1.532    0.347
        28  -9.5411    135.8150    123.1732   9.6254953190e+01   3.0729825171e+01    0.2901191    0.2177573 -57.01  0.001485915    1.378    0.275
        29  -9.0911    110.8823    119.1927   1.0131525832e+02   3.6283277617e+01     0.210226      0.18166  85.09 0.0004658502    1.175    0.149
        30  -9.2134     68.6162    115.6700   1.1141205137e+02   4.3712998057e+01    0.1909944     0.145062 -39.41  0.000690517    1.619    0.382
        31  -8.6906    168.1707    112.9778   8.6707164508e+01   2.5863813703e+01    0.2317338    0.1993324 -71.24 0.0009461406    1.355    0.262
        32  -9.6264     85.7974    201.5758   1.1878610517e+02   2.3965125158e+01    0.4510243    0.1486997  58.13  0.001779886    3.876    0.742
        33  -8.6211    205.8073    110.1882   7.8682932464e+01   1.7907973230e+01    0.2088254    0.1648999  19.61  0.000690358    1.346    0.257
        34 -10.2303    103.2138    199.0280   1.1531584960e+02   2.1922994573e+01    0.3326323    0.1474136  35.25  0.001603281    2.557    0.609
        35 -10.1389    193.4763    192.4339   9.7881005401e+01   8.0244385137e+00    0.5263112    0.3256453 -40.20  0.003031247    1.908    0.476
        36  -9.9913     66.6512    104.8967   1.0996433628e+02   4.6408014603e+01    0.2008284    0.1924026  10.89  0.001087128    1.312    0.238
        37  -8.0777    128.6467     95.3348   9.1176437166e+01   3.7864749236e+01    0.1559241    0.1169577 -85.98 0.0005055745    1.790    0.441
        38 -10.9120    168.4635     68.3295   7.4169668374e+01   3.3754296855e+01    0.7204239    0.4224634 -69.20  0.001245346    3.217    0.689
        39 -11.7596    172.9293     48.0226   6.6811007337e+01   3.5823709824e+01     0.673489    0.5020354 -32.62   0.00171931    1.304    0.233
        40 -19.4480     23.3362    140.5947   1.2572671633e+02   4.3236300521e+01     17.19382     2.497936 -74.59    0.0509177    6.472    0.845
        41  -9.6046    106.3040    210.8191   1.1601078658e+02   1.9517158618e+01    0.2002178    0.1435241  22.49   0.00111369    2.101    0.524
        42  -8.1833    198.5123    222.5282   1.0158583243e+02   3.4805619034e+00    0.1137561   0.08851935  36.01 0.0001635312    1.053    0.050
