#   1 NUMBER                 Running object number                                     
#   2 MAG_AUTO               Kron-like elliptical aperture magnitude                    [mag]
#   3 X_IMAGE                Object position along x                                    [pixel]
#   4 Y_IMAGE                Object position along y                                    [pixel]
#   5 X_WORLD                Barycenter position along world x axis                     [deg]
#   6 Y_WORLD                Barycenter position along world y axis                     [deg]
#   7 A_WORLD                Profile RMS along major axis (world units)                 [deg]
#   8 B_WORLD                Profile RMS along minor axis (world units)                 [deg]
#   9 THETA_WORLD            Position angle (CCW/world-x)                               [deg]
#  10 FWHM_WORLD             FWHM assuming a gaussian core                              [deg]
#  11 ELONGATION             A_IMAGE/B_IMAGE                                           
#  12 ELLIPTICITY            1 - B_IMAGE/A_IMAGE                                       
         1 -14.1925    189.1193     24.1299   6.9156402003e+01   3.4818206333e+01     1.916015     1.462165 -16.43  0.006543409    1.491    0.329
         2 -13.8623    196.6588     18.5573   6.6616278129e+01   3.3520391777e+01     1.289268    0.8603798 -86.93  0.004214697    1.576    0.365
         3 -13.9908    202.1919     10.5801   6.3794228822e+01   3.2970717885e+01     1.602414    0.8345323  52.98  0.001557793    1.957    0.489
         4 -11.5429     13.7111     24.5301   1.2015766070e+02   6.9348198065e+01    0.2092056    0.1968856  -3.62 0.0008473879    1.352    0.261
         5 -10.1958    246.4958    250.4918   1.1093427743e+02  -9.9414165159e+00    0.1115479   0.08038969  18.27 0.0008105831    1.014    0.014
         6 -14.4805    101.9517    245.9932   1.3531454149e+02   1.2595005524e+01     4.825566     2.562266  25.20   0.01500857    3.690    0.729
         7 -14.6560      3.7873     18.0995   1.2264648438e+02   7.1167716018e+01     12.44625    0.7085676 -54.99   0.02705119   12.804    0.922
         8 -13.1956     12.6839    152.5628   1.4435908576e+02   4.1882074249e+01     1.061486    0.3716612  39.14  0.005396669    2.763    0.638
         9 -11.3715    173.7805    220.0685   1.1895128516e+02   5.1574718001e+00    0.2995368    0.1947787  33.26    0.0017098    1.382    0.276
        10 -12.7145     51.0840    233.1295   1.4309865041e+02   2.1613079396e+01    0.3883979    0.3238867  89.69  0.001099186    1.294    0.227
        11 -13.4025     48.0149    227.3350   1.4322275727e+02   2.3021686642e+01    0.4901824    0.4279707 -48.87  0.002368328    1.811    0.448
        12 -10.3743    229.6215    207.2930   1.0667499300e+02  -2.4945388402e+00    0.2294677    0.2011138 -49.92 0.0007448391    1.645    0.392
        13 -14.2531     11.7591    206.9513   1.4829786111e+02   3.0749963118e+01     1.048164    0.7886514  65.00  0.003318231    1.165    0.141
        14 -10.5788    192.9620    194.6983   1.1111121558e+02   5.6781540220e+00    0.8148868    0.4011294 -61.18  0.002301703    7.367    0.864
        15 -11.8361     71.6810    193.5609   1.3573214408e+02   2.6506204738e+01    0.3740072    0.2407078 -46.32   0.00207162    2.141    0.533
        16 -11.8420     76.2938    186.7438   1.3399283749e+02   2.7271270340e+01    0.2823101    0.2242743 -56.47 0.0006123253    1.455    0.312
        17  -8.7736    181.4966    192.4521   1.1292982281e+02   8.1490682846e+00    0.1352478    0.1187264  29.61 6.957798e-05    1.025    0.024
        18 -11.4616     84.6145    174.6564   1.3063728215e+02   2.8624469077e+01     0.274361     0.216967 -66.89 0.0004536087    1.259    0.206
        19 -10.0521    126.3281    174.2585   1.2126892110e+02   2.1792747747e+01    0.2426912    0.2248982  11.58  0.001438783    1.288    0.224
        20 -13.4056     72.4120    172.1431   1.3303148065e+02   3.0929264956e+01     0.462223    0.2740569 -45.98  0.002334241    2.169    0.539
        21 -13.1184     56.9285    127.5595   1.3029195237e+02   4.3098494999e+01     2.312737    0.7048239 -72.42   0.00578718    6.895    0.855
        22 -12.8381     89.5788    166.0625   1.2827249620e+02   2.9736352808e+01     2.440497    0.6366866  50.59    0.0039891    5.047    0.802
        23 -13.4521     67.7649    144.7805   1.3025503914e+02   3.7707867404e+01     1.215937    0.6590563  86.71  0.004287579    2.704    0.630
        24 -10.0464    230.0000    166.9928   9.8867525576e+01   3.1236744135e+00     0.218974   0.07277629 -35.28 0.0008059864    2.967    0.663
        25 -15.0086      7.2882    240.8752   1.5065634189e+02   2.5048520279e+01     2.022899    0.7300329 -70.54    0.0123201    2.677    0.626
        26 -10.1810    102.6622    149.8930   1.2247592394e+02   3.1196342757e+01    0.2754893    0.2622544 -57.71  0.000722289    1.144    0.126
        27  -9.4727    105.3128    145.6754   1.2104160926e+02   3.1684275731e+01    0.3088255    0.2006819 -34.67  0.001166585    2.054    0.513
        28 -12.1869     91.5236    149.2981   1.2509660390e+02   3.3168230549e+01    0.2646944    0.2529686 -40.09 0.0007357755    1.234    0.189
        29 -12.6263     45.8601    146.9087   1.3597985504e+02   3.9929938166e+01    0.6470562    0.3140711 -79.29  0.003072201    2.070    0.517
        30  -8.6266    134.3070    148.6666   1.1465763701e+02   2.5642460560e+01    0.1503593     0.113812  84.26 0.0005444593    1.668    0.400
        31  -9.9866    112.5575    135.6949   1.1724039412e+02   3.2625866992e+01    0.2980473    0.2339429 -14.81 0.0009097139    1.790    0.441
        32 -10.8378    100.0689    132.8283   1.1983230193e+02   3.5497371898e+01    0.2904516    0.2323127 -30.34 0.0004813474    1.527    0.345
        33 -10.1667    138.0008    171.7356   1.1825414030e+02   2.0154684685e+01    0.1908881      0.11521  43.72 0.0008046777    1.551    0.355
        34 -12.0727     35.2373    132.8114   1.3680146421e+02   4.4284003826e+01     0.298882    0.2401506 -24.84  0.001552823    1.721    0.419
        35 -11.6988     45.3302    130.1096   1.3378949114e+02   4.3853873953e+01     0.243137    0.1835486  49.42  0.001479042    1.418    0.295
        36  -9.3831    108.8099    122.9718   1.1542557499e+02   3.6175073725e+01    0.2037838    0.1881708 -27.99 0.0003542477    1.197    0.164
        37 -11.2028     40.5214    114.9908   1.3273869354e+02   4.7872077958e+01    0.3077102    0.1161769 -71.60  0.001224287    2.715    0.632
        38 -11.1835    168.2177    113.2130   9.8557369786e+01   2.5688441262e+01    0.3932707    0.3232226 -75.28 0.0008938131    1.473    0.321
        39  -9.6746    204.8767    110.6132   9.0510759042e+01   1.7693736467e+01    0.3814096    0.2103068  33.66  0.001489949    2.316    0.568
        40  -9.3738     33.6501    108.6835   1.3367389682e+02   5.0003887923e+01     0.129643   0.08279048 -40.84 0.0007047481    1.731    0.422
        41  -9.3794     16.6356     92.1830   1.3608943780e+02   5.5165642628e+01    0.1800634   0.08885085  27.15 0.0008131822    2.444    0.591
        42 -13.4922     73.1693    226.9375   1.3870848832e+02   1.9886826020e+01    0.6706433    0.2757271  64.67  0.002249895    2.960    0.662
        43 -10.5970    126.1106     53.2277   9.0556854343e+01   4.6663063223e+01    0.4107454     0.297371  87.86    0.0014891    2.081    0.520
        44 -12.0889    139.4988    248.5033   1.2896963175e+02   6.5435117357e+00    0.5074483    0.2579016 -57.73  0.002867321    2.588    0.614
        45 -14.2527     34.5623    246.9670   1.4668795271e+02   2.1158597260e+01     2.006978     1.050273  49.19   0.01397385    1.487    0.327
        46 -16.0934     48.9245    204.8899   1.4133158448e+02   2.7156455277e+01     8.835327     3.391713  70.48   0.03529761    3.853    0.740
        47  -9.0745     33.3032     24.6695   1.1105385783e+02   6.7510961208e+01    0.1046347   0.09366414 -64.61 0.0005573324    1.652    0.395
