#   1 NUMBER                 Running object number                                     
#   2 MAG_AUTO               Kron-like elliptical aperture magnitude                    [mag]
#   3 X_IMAGE                Object position along x                                    [pixel]
#   4 Y_IMAGE                Object position along y                                    [pixel]
#   5 X_WORLD                Barycenter position along world x axis                     [deg]
#   6 Y_WORLD                Barycenter position along world y axis                     [deg]
#   7 A_WORLD                Profile RMS along major axis (world units)                 [deg]
#   8 B_WORLD                Profile RMS along minor axis (world units)                 [deg]
#   9 THETA_WORLD            Position angle (CCW/world-x)                               [deg]
#  10 FWHM_WORLD             FWHM assuming a gaussian core                              [deg]
#  11 ELONGATION             A_IMAGE/B_IMAGE                                           
#  12 ELLIPTICITY            1 - B_IMAGE/A_IMAGE                                       
         1 -13.3288     59.2704    144.9926   5.9432807628e+01   3.8289229574e+01      1.54229    0.8364076 -51.74  0.001459205    1.912    0.477
         2 -13.5666     69.7161    145.0315   5.6075604217e+01   3.6818916808e+01     4.100846      1.82273  66.40   0.00400597    6.072    0.835
         3 -13.3326    213.2335     55.2464   1.6516610108e+00   2.5893023031e+01     1.101161    0.9889161 -16.52  0.004888646    1.335    0.251
         4 -13.5096    226.4950     46.3343   3.5835964277e+02   2.4456333875e+01    0.8331417    0.7965279  26.00  0.003502984    1.408    0.290
         5 -10.1044    250.3441     24.7912   3.5209403621e+02   2.2619791829e+01    0.4315933    0.1181014 -32.09  0.001935547    2.805    0.643
         6  -9.0052    157.6557      8.3226   3.5440310071e+02   4.4126384342e+01    0.1479556   0.08138685 -61.50 0.0005273062    1.733    0.423
         7  -9.6429    148.5300      8.5025   3.5534666123e+02   4.6381033803e+01    0.1350384    0.1165498 -77.14 0.0003851626    1.002    0.002
         8  -9.3562    188.5049      2.0036   3.5031118091e+02   3.7429860259e+01    0.1813083    0.1080046 -34.28 0.0006591722    1.551    0.355
         9  -9.6675      2.5014      2.0418   4.7922265671e+01   7.9662555551e+01    0.1884502     0.145692   7.85 0.0007047301    1.196    0.164
        10  -9.9683    103.7602    237.7375   5.9113066405e+01   1.1834065839e+01    0.2327242    0.2011556 -30.33  0.001461588    1.367    0.268
        11 -10.1587     75.1942    247.7749   6.6258398073e+01   1.3460136192e+01    0.4397314     0.157365 -51.73  0.002028361    3.545    0.718
        12 -13.0293     42.3112    246.3828   7.3297150935e+01   1.7257851493e+01      2.01123    0.6587639  21.05   0.00807892    3.519    0.716
        13 -14.7525     57.1397    232.9914   6.9175527999e+01   1.8197249474e+01     5.938876      3.97985 -26.16   0.03320927    2.276    0.561
        14 -10.9795    119.4030    230.9993   5.4946583413e+01   1.1041366769e+01    0.2566278    0.2177259  -8.89  0.001722101    1.254    0.203
        15 -10.8078    148.5045    229.0455   4.8517032729e+01   7.6637304549e+00    0.2499193    0.2073659 -47.41  0.001571466    1.504    0.335
        16 -10.9383     72.0714    225.7781   6.5154617845e+01   1.7884473873e+01    0.3475227    0.2045472  39.87  0.001291736    1.382    0.277
        17 -10.7355    163.1452    226.5004   4.5204367435e+01   6.2172215035e+00    0.3953848    0.1051669  29.48  0.001495937    3.493    0.714
        18  -9.4267    171.5537    225.4661   4.3405055306e+01   5.3282469403e+00    0.1788182   0.09628774  19.12 0.0006219437    1.742    0.426
        19  -9.1478    174.5729    223.5286   4.2540829874e+01   5.2426041791e+00    0.1656075    0.0975453  34.73 -1.518875e-05    1.639    0.390
        20  -8.8823    118.5078    221.8254   5.4040897362e+01   1.2765603981e+01    0.1589759    0.1272366 -51.94 0.0005825945    1.475    0.322
        21 -13.9099      6.6134    187.8539   7.8960181680e+01   3.2900846730e+01     1.601979     1.044504  59.58  0.006753938    1.283    0.220
        22  -9.4492     96.0528    211.8050   5.8041646757e+01   1.7633030712e+01    0.2925268    0.1912595 -80.20  0.001525034    2.074    0.518
        23 -15.5705     26.8081    181.2581   7.3146536817e+01   3.2713899886e+01     11.02218     3.378484  85.84   0.03249475    5.209    0.808
        24  -9.2236    211.0548    198.9138   3.2011456130e+01   4.3014626529e+00    0.1785572    0.1384519  -7.29  0.000470168    1.023    0.022
        25  -9.4107    191.7000    192.6913   3.4401089896e+01   7.7284819512e+00    0.3668632       0.2093 -63.35   0.00118024    7.032    0.858
        26  -9.9056     73.2189    190.1760   6.1289522375e+01   2.5273596152e+01    0.2373598    0.2117426 -57.00  0.001075491    1.248    0.198
        27  -8.9284    207.5161    189.5078   3.1020972283e+01   6.1138475234e+00    0.1229737   0.09679537  -8.33 0.0008001854    1.040    0.038
        28  -9.4662    185.1653    236.4819   4.2390683125e+01   2.1543747300e+00    0.1899457    0.1386319 -24.91 0.0006493682    1.356    0.262
        29  -9.9460    101.0799    183.8225   5.3123878619e+01   2.2795692061e+01    0.2142062    0.1791188  57.82  0.001191992    1.256    0.204
        30  -9.4535     94.4557    183.6548   5.4826894220e+01   2.3805864136e+01    0.2899816    0.1998649  70.30 0.0007374465    1.853    0.460
        31 -11.8485    132.4239    229.6003   5.1963848286e+01   9.6185526741e+00    0.4758049    0.3309355   2.22  0.002831752    1.536    0.349
        32  -9.0109     82.5657    180.5970   5.7582447016e+01   2.6204665051e+01    0.2722805    0.2067227  -5.33 0.0009887508    1.683    0.406
        33  -9.7577    171.7591    174.1308   3.4970025242e+01   1.3716961936e+01    0.2634175    0.2285381 -49.18  0.001598031    1.354    0.261
        34 -10.9426    175.3289    170.1058   3.3496764828e+01   1.3875649823e+01    0.4170442    0.3081838  29.03  0.002375508    1.342    0.255
        35 -12.4312     80.8147    144.8851   5.2565019680e+01   3.5178197632e+01     2.657507     1.644381 -68.34   0.01164999    1.739    0.425
        36 -11.5379     78.3625    136.5458   5.1807315385e+01   3.7698067408e+01    0.6850175    0.3725204  45.71 0.0008644494    1.849    0.459
        37 -11.8638     74.3391    130.8931   5.2037636360e+01   3.9798714456e+01     2.915296     0.998929  54.68  0.005710579    8.746    0.886
        38  -9.2691    150.9876    249.0259   5.0541731108e+01   4.3600267620e+00    0.1850065    0.1188972  -4.33   0.00113637    1.685    0.406
        39  -9.7089    137.9953    247.0409   5.2903096754e+01   6.1783051578e+00    0.1758164    0.1377198  21.04  0.001225416    1.030    0.029
        40  -9.0962    110.7697    167.4294   4.7979177455e+01   2.4944037998e+01    0.2659576    0.1932815 -80.28 0.0007760293    1.810    0.447
        41 -11.5115     62.0107    157.5141   6.0372386461e+01   3.4674104892e+01    0.4957984    0.3693447 -39.07 0.0009717004    1.578    0.366
        42 -11.5200     72.0215    169.1592   5.8988801848e+01   3.0400679196e+01     1.401893    0.7261799 -75.11  0.005289902    2.284    0.562
        43  -9.2801     49.9469    164.1518   6.4880628312e+01   3.4499807068e+01    0.2516549    0.2010871  -5.70 0.0009108218    1.571    0.364
        44 -10.9437    238.3788    161.1197   2.1023828098e+01   6.2087810606e+00    0.2069304    0.2044909  26.58 0.0009738535    1.507    0.336
        45  -9.4110     44.6254    157.1196   6.5711791945e+01   3.6929694573e+01    0.3557525    0.2089271  69.51  0.001580029    1.880    0.468
        46  -8.1896     96.7302    162.7417   5.0983961301e+01   2.8277238782e+01    0.1372789    0.1126449 -13.67            0    1.456    0.313
        47 -11.6252     56.9632    161.3161   6.2415748979e+01   3.4359096855e+01     0.508105    0.3769204 -25.51  0.002506208    1.756    0.430
        48  -9.1363    123.4058    151.2693   4.1662337431e+01   2.6431583625e+01    0.2609381    0.2163709  61.58 6.924142e-05    1.370    0.270
        49 -10.2757    133.8135    144.0576   3.7529764861e+01   2.6140231200e+01    0.9317135    0.2562398 -55.68  0.002103956    6.876    0.855
        50 -10.4563    179.3233    165.2185   3.1771436385e+01   1.4110335930e+01    0.5075494    0.3767051 -71.43  0.002560746    2.315    0.568
        51  -9.6358     46.8774    146.8983   6.3748470238e+01   3.9350500885e+01    0.3804922    0.1954755  32.43  0.001207768    1.848    0.459
        52 -10.3916    109.0155    145.4230   4.4357904532e+01   3.0320840582e+01    0.2934262    0.2649855  39.91 0.0006362607    1.084    0.078
        53  -8.6220    112.3293    143.6785   4.3084784245e+01   3.0141483244e+01    0.2249745    0.2003517  51.21  0.001180452    1.137    0.120
        54  -9.9267    236.2473    145.5843   1.8398101233e+01   8.7141233748e+00    0.1543953    0.1067449  22.37 0.0008230489    1.685    0.407
        55 -10.6940     37.1658    142.7522   6.6456016402e+01   4.1551142177e+01    0.3919723    0.2603042  66.70  0.001399602    1.538    0.350
        56 -10.5499     40.8886    140.7778   6.4955896844e+01   4.1674127528e+01    0.2519396    0.2266497  69.92 0.0003591023    1.037    0.035
        57 -14.1623     39.2021    173.5997   6.9021894184e+01   3.3337801949e+01     4.336042       1.6108  44.02   0.01732541    2.337    0.572
        58  -9.6642     52.8439    138.7769   6.0626828042e+01   4.0778453435e+01    0.2151801    0.2046364 -25.70  0.001051415    1.181    0.153
        59 -14.4044     12.6029    244.7382   7.9568568690e+01   2.0396417853e+01     1.021769    0.8882847 -81.84  0.002779328    1.415    0.293
        60 -10.4920     96.9449    134.0427   4.5514638147e+01   3.5203160571e+01    0.5922145    0.4025263  -2.97  0.002366477    2.370    0.578
        61 -11.6004     83.6201    132.1667   4.9265719074e+01   3.7966265552e+01    0.3576011    0.2857528 -71.43 0.0004715722    1.302    0.232
        62  -8.9658     45.1994    135.4201   6.2752947224e+01   4.2621103282e+01    0.2106868    0.1257561  41.06 0.0006932605    1.615    0.381
        63 -10.2767    105.5218    130.7960   4.2267927219e+01   3.4440425826e+01    0.3933899    0.3815768 -71.84  0.001215625    1.036    0.035
        64  -9.3605    107.9912    126.4892   4.0576332992e+01   3.5009321934e+01     0.271409    0.2342146   3.36 0.0007603746    1.348    0.258
        65 -10.2682     44.1834    131.1233   6.2485922709e+01   4.3903626155e+01    0.3217851    0.2492982 -52.48  0.001301273    1.327    0.247
        66  -9.3397    112.9334    130.5031   4.0079334249e+01   3.3121724591e+01    0.2748203    0.2145511 -73.19 0.0007427748    1.491    0.329
        67  -9.5770     25.4265    128.6860   6.8913498337e+01   4.6521078321e+01     0.291937    0.2552384  23.34 0.0009408816    1.243    0.196
        68 -10.1875    241.0134    127.5140   1.4222763277e+01   1.0647400364e+01    0.1539577    0.1202705  42.64   0.00103533    1.598    0.374
        69 -10.2267     72.9392    233.3266   6.5599044347e+01   1.6335698254e+01    0.3002269    0.2201581  89.04  0.001365241    1.645    0.392
        70  -9.5535     36.9878    124.5435   6.4134149263e+01   4.6508534099e+01    0.3365391    0.1939796 -38.89  0.001420208    2.095    0.523
        71 -10.6318     94.4784    121.6886   4.3548492928e+01   3.8705186427e+01    0.3398831    0.2870091   0.32 0.0007704301    1.429    0.300
        72  -9.0328     48.9569    123.0221   5.9476644485e+01   4.5521014308e+01    0.2310098    0.1715475 -33.74 0.0004083043    1.578    0.366
        73  -9.4635    114.8994    121.8649   3.7513447401e+01   3.4762442646e+01    0.2444533    0.2142103  -3.92 0.0008501646    1.318    0.241
        74  -9.3046     87.0507    121.5045   4.5880633578e+01   4.0089981050e+01    0.2872096    0.2200194 -80.62 0.0008164697    1.501    0.334
        75  -9.5556    135.0000    119.4521   3.1598415737e+01   3.1260394162e+01    0.3415974     0.084952 -45.86 0.0009343263    3.931    0.746
        76  -8.6435     76.5063    120.4923   4.9173758034e+01   4.2155716231e+01    0.1557942    0.1477615  77.48 0.0008102822    1.040    0.039
        77  -9.5577     65.1092    118.2310   5.2690924562e+01   4.4560290850e+01     0.243184    0.2333016 -63.48  0.000358034    1.050    0.048
        78 -10.3492     28.9285    118.5902   6.6339804664e+01   4.8961713872e+01     0.403219     0.251592  30.99  0.001086394    1.623    0.384
        79 -10.8051    244.0925    114.8188   1.1301599159e+01   1.2008333411e+01    0.2988039    0.1451698 -49.58  0.001311964    2.229    0.551
        80  -9.9662    104.1249    116.0241   3.9224911909e+01   3.8257811630e+01    0.5061089    0.2208224  42.21  0.001073415    2.282    0.562
        81 -10.9892     35.6768    114.0789   6.3044671794e+01   4.9517257125e+01    0.3971637    0.2672014  50.56 0.0001975285    1.529    0.346
        82 -10.8564     13.1604    113.9153   7.1924128454e+01   5.1549691206e+01    0.3653111    0.2962595  73.61  0.001203098    1.177    0.150
        83  -9.8482    235.7191    113.3721   1.2030306289e+01   1.3500861614e+01    0.2453908    0.1165898 -42.95  0.001248309    1.791    0.442
        84 -11.0564    246.7444    110.2916   1.0078649033e+01   1.2249819503e+01    0.4091253    0.1002511 -37.61  0.001483191    3.014    0.668
        85  -8.6291     19.2900    113.3347   6.9430326568e+01   5.1251200514e+01    0.1499426   0.09677782 -45.26 0.0007020911    1.633    0.388
        86 -11.3261     53.4718    108.7422   5.5076682826e+01   4.8786831469e+01    0.5938445    0.3463376 -65.76  0.001600006    1.681    0.405
        87 -11.3697     23.5526    104.6619   6.6519698732e+01   5.3279469985e+01    0.7186903    0.3739727  56.52  0.002749773    2.196    0.545
        88 -14.7367      3.7496    236.9321   8.1222977848e+01   2.2639289817e+01     1.357819    0.6741347 -73.74  0.007340671    2.268    0.559
        89  -8.6137    134.8800    106.8400   2.8416135595e+01   3.3984542508e+01     0.212109    0.1775078 -69.37 0.0004367452    1.315    0.239
        90  -8.1404    212.2989    106.2871   1.3628875029e+01   1.8501309835e+01    0.1240307   0.09645797  -4.11 0.0002840888    1.554    0.357
        91 -12.8368     72.7612    150.3850   5.5991496126e+01   3.4996863358e+01    0.6714082    0.5132973 -70.65 0.0003711256    1.339    0.253
        92  -8.4613     33.2832    101.3700   6.1862346371e+01   5.3249490869e+01    0.1585844    0.1005238 -41.07 0.0007016322    1.699    0.412
        93  -9.5132     39.9983     99.0319   5.8558091713e+01   5.3136410082e+01    0.2249275    0.2111327  87.78  0.000403194    1.051    0.048
        94  -9.7712     32.1338    108.2420   6.3521501019e+01   5.1488290701e+01    0.3279983    0.2085545 -68.71 0.0008775381    1.460    0.315
        95  -9.2611     46.3518     95.8291   5.5169670556e+01   5.3205447815e+01    0.2345733    0.1824244  88.71 0.0005676816    1.416    0.294
        96 -10.4347     34.8017     88.2090   5.8568853283e+01   5.6640133364e+01    0.3340653    0.2545338  53.22  0.001684968    1.419    0.295
        97 -10.6242     30.8390     85.6135   5.9846974102e+01   5.7758408553e+01    0.3304836    0.2515961  48.70  0.001038704    1.407    0.289
        98  -8.6870     89.8437     87.2538   3.5934896736e+01   4.7951441810e+01    0.2633487    0.1710614  82.51  0.000941904    2.753    0.637
        99  -9.3875     39.6860     86.9010   5.6036437617e+01   5.6418578986e+01    0.2076575    0.1844936 -71.43 0.0004482578    1.094    0.086
       100  -8.3914    232.4865     86.0033   6.6091140192e+00   1.7996510939e+01    0.1693162    0.1002758 -14.02 0.0008094415    2.463    0.594
       101  -9.2194     21.2527     85.7961   6.4437168581e+01   5.8607834847e+01    0.2419553    0.1834378  38.21 0.0007911195    1.396    0.284
       102  -8.7338     97.5741     84.7683   3.2605396016e+01   4.6899447003e+01    0.2142728    0.1481812 -59.80 0.0006931618    1.578    0.366
       103  -9.0699    137.7053     83.6550   2.1271047083e+01   3.8065542366e+01    0.2824976    0.1819792  78.70  0.001117262    2.242    0.554
       104  -8.5707     67.4813     82.5595   4.2823895561e+01   5.3355263282e+01    0.1524695    0.1472886  82.86 0.0002493824    1.058    0.055
       105  -9.4554     60.8472     79.8444   4.4747848340e+01   5.5162223677e+01    0.2080018     0.177873  77.40            0    1.332    0.249
       106  -8.5906    115.8170     75.6351   2.4278021467e+01   4.4740919727e+01    0.2043728    0.1444904  63.47 0.0001144778    1.530    0.347
       107 -10.5611     64.3659     70.5748   4.0274665294e+01   5.6770682331e+01    0.5910009    0.3851686 -82.93  0.002298927    2.578    0.612
       108 -12.2916    203.1098     61.6299   4.2964524295e+00   2.7070643746e+01    0.6760825    0.4373223  56.77  0.001408383    1.771    0.435
       109 -11.0938     45.0635    230.2790   7.1758596776e+01   2.0032338699e+01    0.5926849    0.3502805   3.49   0.00298958    2.512    0.602
       110 -14.5865     10.2259    206.4055   7.8786012678e+01   2.8387061741e+01     1.155165    0.7027372  16.57  0.003386704    1.824    0.452
       111  -8.7205     90.9651     66.0334   2.8533882421e+01   5.2368955889e+01    0.2399739    0.1873397 -89.56 0.0006128334    1.641    0.390
       112 -10.0391     20.7636     66.0467   6.0469373663e+01   6.3841106612e+01    0.4084622    0.1594982  36.39  0.001311851    2.659    0.624
       113  -8.4111     56.3256     58.6987   3.9595199820e+01   6.0901089311e+01    0.1469457    0.1171387  75.48 0.0007029948    1.638    0.389
       114  -8.7029     62.2950     56.6088   3.6071666998e+01   6.0270985029e+01     0.151833    0.1182938 -89.41 9.908467e-05    1.784    0.439
       115 -10.9676     18.2905     51.6753   5.7977136441e+01   6.7643167603e+01     0.379009    0.2337068  39.03 0.0004780505    1.794    0.443
       116  -8.7747     30.7312     50.9943   5.0176789463e+01   6.6491971359e+01    0.1918726     0.175374 -37.32 0.0004188737    1.029    0.029
       117  -9.2356     47.1384     50.4528   4.0868289937e+01   6.4264528700e+01    0.2729345    0.1407541  31.25   0.00114002    2.038    0.509
       118 -11.5517     10.3535     42.5174   6.0386202160e+01   7.0476687656e+01    0.8473254     0.276789  42.85  0.002840553    4.380    0.772
       119 -11.3285      3.8932     40.8902   6.4488733438e+01   7.1269342591e+01    0.4404928    0.2641155 -58.77   0.00233199    1.446    0.308
       120 -10.1697     22.5938     34.2407   4.8635182161e+01   7.1206984673e+01    0.1952463    0.1115571 -43.57 0.0009492881    1.634    0.388
       121 -10.0535     30.0922     32.1088   4.2552491313e+01   7.0689740974e+01    0.2960466    0.1449131  34.95  0.001330046    2.034    0.508
       122  -9.7616    185.1715    244.6631   4.3505865037e+01   1.0710860051e+00     0.200221    0.1406225 -20.90  0.001121399    1.362    0.266
       123 -10.8478      6.4272     27.8449   5.8183464390e+01   7.4122753117e+01    0.2330991     0.204171 -21.16 0.0003902367    1.053    0.050
       124  -9.2431     25.5927     23.8787   4.1316345053e+01   7.2927537868e+01    0.2413788    0.1431809  49.53  0.001137898    2.254    0.556
       125 -10.2429      1.9717     23.0564   6.0072841482e+01   7.5470563413e+01    0.2879918    0.1539555 -55.46  0.001280375    1.625    0.385
       126  -9.5477     60.8150     21.1990   2.0032273223e+01   6.6925520896e+01    0.2298568    0.2134285  51.07 0.0006596896    1.088    0.081
       127  -9.2000    189.4728     15.0557   3.5367332814e+02   3.5905296823e+01    0.1889783    0.1138036 -32.42 0.0006983584    1.574    0.365
       128  -8.8771    125.0000    243.9339   5.5227100161e+01   8.2164573761e+00    0.1606957   0.06889843 -54.18 0.0006552749    2.893    0.654
       129 -15.6733      5.6668    216.7532   8.0227851016e+01   2.6544772783e+01     2.899332     1.152432  30.84   0.01473443    2.008    0.502
       130  -8.7597     97.0084    240.4917   6.0867143299e+01   1.2177828151e+01    0.1626166    0.1544527 -66.68 0.0007125905    1.311    0.238
