#   1 NUMBER                 Running object number                                     
#   2 MAG_AUTO               Kron-like elliptical aperture magnitude                    [mag]
#   3 X_IMAGE                Object position along x                                    [pixel]
#   4 Y_IMAGE                Object position along y                                    [pixel]
#   5 X_WORLD                Barycenter position along world x axis                     [deg]
#   6 Y_WORLD                Barycenter position along world y axis                     [deg]
#   7 A_WORLD                Profile RMS along major axis (world units)                 [deg]
#   8 B_WORLD                Profile RMS along minor axis (world units)                 [deg]
#   9 THETA_WORLD            Position angle (CCW/world-x)                               [deg]
#  10 FWHM_WORLD             FWHM assuming a gaussian core                              [deg]
#  11 ELONGATION             A_IMAGE/B_IMAGE                                           
#  12 ELLIPTICITY            1 - B_IMAGE/A_IMAGE                                       
         1 -12.6608     28.9389     25.1771   9.3602531474e+01   6.8185583255e+01     1.405907     1.091955 -25.07  0.005958167    1.007    0.007
         2 -11.5288      6.4569     56.4705   1.1344397945e+02   6.3781054018e+01     1.228111    0.6623236 -74.66  0.006842091    1.899    0.473
         3 -11.7554     74.7367     47.6023   8.3985146522e+01   5.8160809033e+01     2.718859     1.134526 -36.01   0.01112614    2.312    0.567
         4 -12.0120     58.3010      4.5259   7.0878854990e+01   6.7171122143e+01     1.126267    0.5235539  24.87  0.005143342    2.594    0.614
         5 -11.1853     41.8573      3.5789   7.7153604184e+01   6.9810355544e+01    0.4697978    0.2848657   7.54  0.002206132    1.706    0.414
         6 -12.7385     32.7478     72.8496   1.0739633770e+02   5.8348380973e+01      3.37405     1.410619 -30.63   0.01266537    3.929    0.745
         7 -12.6817     55.1122     65.7410   9.7315602592e+01   5.7475104874e+01     1.807966    0.8761219 -49.37  0.008470133    1.766    0.434
         8 -11.9033     14.9211     36.7419   1.0443145166e+02   6.7267524936e+01     1.194642    0.5497777 -49.97  0.003722306    1.631    0.387
         9 -12.0014      8.8022     26.2399   1.0371271170e+02   6.9658753302e+01    0.7350273    0.3702775   1.98   0.00327958    2.475    0.596
        10 -12.9880    102.1935      7.1632   5.8569645555e+01   5.8293408402e+01     3.475398    0.5290647  54.71 0.0009122153    4.283    0.767
        11 -12.5837    128.9703     22.0251   5.8358642722e+01   5.0486337865e+01     1.214776    0.8204416  11.73  0.004100068    1.781    0.439
        12 -11.2801     50.8152     24.8904   8.3786700351e+01   6.5604864811e+01    0.5201441    0.3536423   5.28  0.000521527    1.555    0.357
        13 -11.4932     44.2094     15.8098   8.2375186946e+01   6.7865488192e+01     2.603337       0.7247  44.66  0.009089672    5.370    0.814
        14 -12.0669    100.8405     55.3957   7.8321206708e+01   5.1950799376e+01     1.277912    0.8347401   2.08  0.005433269    2.291    0.564
        15 -13.3832      3.8358     12.0434   1.0071492269e+02   7.2481718267e+01     1.277683    0.4165128 -53.59  0.006118056    2.778    0.640
        16 -12.5692     15.8386      9.4066   9.3013136259e+01   7.1992771045e+01    0.9329636    0.6241188 -54.28   0.00591775    2.004    0.501
        17 -12.2300     24.5549      6.1728   8.6828863213e+01   7.1619798832e+01    0.6866612     0.361688 -28.93  0.003286025    1.575    0.365
        18 -12.2827     47.8073     38.8478   9.0876613263e+01   6.3660814889e+01    0.6914807    0.4928124  45.30  0.002124563    1.864    0.463
        19 -13.4409     67.7598     30.8285   7.9741064358e+01   6.2112665483e+01     1.473261    0.7079871  40.88  0.003724534    2.166    0.538
        20 -12.2956     25.6565     56.7841   1.0591131997e+02   6.2417502205e+01     1.412195     1.178686 -25.74  0.009716757    1.197    0.164
        21 -11.3227    117.2538     47.8846   7.0880871041e+01   4.9701253905e+01     1.127143    0.5867316 -26.96  0.004622683    2.075    0.518
        22 -12.4481     89.3715     30.0062   7.1989090724e+01   5.8316221244e+01     2.518155     1.085855 -21.61  0.009578815    2.921    0.658
        23 -10.5108    221.5954     11.9639   4.1895233038e+01   2.7924288489e+01    0.3764722    0.2663148 -60.32  0.000951944    1.307    0.235
        24 -10.2577    226.9954      7.0287   4.0191834290e+01   2.7147449947e+01    0.5399431    0.3227538  16.41  0.002323605    3.257    0.693
        25 -10.2843    213.6239     12.4578   4.2783120013e+01   2.9838120912e+01    0.6678678    0.2910413  72.62   0.00218391    2.168    0.539
        26 -10.8018    215.2894     23.0224   4.5380208236e+01   2.8220326329e+01    0.8118816    0.4218403 -33.57  0.003742959    1.853    0.460
        27 -10.3908    210.8478     17.5321   4.4403358671e+01   2.9969797582e+01     0.412171    0.2702713  67.22 0.0009463059    1.454    0.312
        28 -10.7359    204.1597     26.4247   4.7573945416e+01   3.0622667052e+01     0.962338    0.3478276 -33.41  0.003679462    2.560    0.609
        29 -10.4567    204.9032     16.1658   4.4676089100e+01   3.1624602140e+01    0.6971303    0.3908008  29.73  0.002861667    2.904    0.656
        30 -11.7392    216.9639     36.1174   4.8653079719e+01   2.6166919390e+01    0.8090327    0.6553373  31.04  0.003609017    1.544    0.352
        31 -10.9082    211.1128     31.9001   4.8228357673e+01   2.8177570281e+01    0.6922417    0.4817288   6.88  0.003247938    2.136    0.532
        32 -11.3517    192.6172     32.4132   5.0770963151e+01   3.2853521251e+01    0.5165428    0.4200957  20.02 0.0004532991    1.519    0.342
        33  -9.3834    248.4640      1.7608   3.7332073838e+01   2.2711422046e+01     0.226091    0.1669594  75.36  0.000737685    1.355    0.262
        34 -11.3391    236.7868     30.1627   4.4963083426e+01   2.2120926081e+01    0.8515191    0.5329067 -14.16  0.004077244    2.133    0.531
        35 -11.1470    243.6669     12.8626   4.0213806741e+01   2.2585928524e+01     0.298447    0.2668471 -31.16 0.0002258733    1.281    0.219
        36 -10.4249    243.9324      4.9619   3.8374036949e+01   2.3396568334e+01    0.4020906    0.2263242 -31.11  0.001428442    1.763    0.433
        37 -10.4557    246.1338     18.7988   4.1391935079e+01   2.1335624310e+01    0.5350565    0.2644934  73.84  0.002536716    2.023    0.506
        38 -10.1033    239.7345     17.0036   4.1512628721e+01   2.3020820933e+01    0.6200315     0.223135 -47.76  0.002554382    2.467    0.595
        39  -9.0742    168.3452     24.0665   5.1815131607e+01   4.0213711744e+01     1.563287    0.6491529  30.97  0.004077197    6.054    0.835
        40 -11.3532    180.2582     27.1235   5.0962266528e+01   3.6733420509e+01    0.8035731    0.6280695  60.97   0.00424427    1.218    0.179
        41 -10.6958    173.3327     20.0854   4.9806795180e+01   3.9362290308e+01    0.4498471    0.3165156 -13.24  0.000413301    1.670    0.401
        42  -9.7512    173.4217     10.3285   4.6769773923e+01   4.0365701775e+01    0.3389348     0.244463  33.25  0.001013609    1.599    0.375
        43 -10.4903    167.1847     12.6198   4.8343298811e+01   4.1759811399e+01     1.069294    0.3742537  77.56  0.003347154    3.812    0.738
        44 -10.8541    163.8115      6.0112   4.6706886768e+01   4.3273267575e+01    0.9391922    0.5311775  70.65   0.00339684    1.617    0.381
        45  -9.7856    147.4727     11.4523   5.0999916963e+01   4.6967159152e+01    0.3527208    0.3080412   3.01  0.001223548    1.254    0.202
        46 -11.5985    158.2612     20.2334   5.2189599587e+01   4.3275660722e+01    0.7439718    0.3542809 -29.95  0.000780452    2.148    0.534
        47 -10.0808    153.9194     17.6844   5.2056654490e+01   4.4675943404e+01    0.3621112     0.253856  32.16 0.0003580511    1.576    0.366
        48 -10.9755    150.1905     15.5056   5.1942133089e+01   4.5864460719e+01    0.9821846    0.5405147  27.05  0.002944011    2.430    0.589
        49 -10.3235    161.7131     16.4804   5.0400964910e+01   4.2784627136e+01    0.5242137    0.3937796 -87.35  0.001301358    1.431    0.301
        50 -10.3336    230.5957     18.6045   4.2716886726e+01   2.4994095809e+01    0.4582051    0.3708171 -40.11  0.001883946    1.217    0.179
        51  -9.7610    231.9234     10.9196   4.0721540756e+01   2.5548030495e+01    0.3344733    0.2392638  79.30  0.001405946    1.327    0.246
        52  -8.7135    233.7800      7.3826   3.9718274168e+01   2.5493662329e+01    0.1923171    0.1826559  34.61 0.0006262686    1.344    0.256
        53  -9.1544    183.7057     14.7820   4.6782753391e+01   3.7232181926e+01    0.4164247    0.2342731  35.37  0.001791526    2.323    0.570
        54 -13.1588    112.4063     25.4856   6.3586162961e+01   5.3992852921e+01     2.409686     1.331611   7.60  0.004306552    2.864    0.651
        55  -9.7732    200.6187      7.2305   4.2698204287e+01   3.3660641491e+01    0.6275358    0.3903812 -40.37  0.002120434    1.576    0.366
        56  -9.8049    199.0037      3.6684   4.1891018931e+01   3.4423654330e+01    0.3853983    0.2245482 -70.49  0.001841717    1.826    0.452
        57 -10.4103     77.9674      9.0079   6.6240284765e+01   6.3151019732e+01    0.2875831    0.2197622  21.55  0.001031364    1.159    0.137
        58  -9.4152     77.4731      4.9551   6.4458958525e+01   6.3664437039e+01    0.2775931    0.1684958   2.04 0.0009404911    1.759    0.431
        59  -9.5331    249.6637      7.4373   3.8517827738e+01   2.1829856331e+01     0.296815    0.1725153 -69.52   0.00135164    1.626    0.385
        60  -8.6269    238.1789      7.3794   3.9368314251e+01   2.4462798327e+01    0.2287759    0.0976332 -25.23 0.0009881384    2.585    0.613
        61  -8.8909    139.2060      8.4107   5.1338820210e+01   4.9350764147e+01    0.2046061    0.1701868  70.78   0.00115818    1.164    0.141
        62 -10.9977    139.1132      2.3808   4.9186464453e+01   4.9903989108e+01    0.3653832    0.3137583 -23.63            0    1.281    0.219
        63  -9.9393    208.3928      3.1730   4.0856876334e+01   3.2107486955e+01    0.6266519    0.2054775 -46.23  0.002401667    2.896    0.655
        64 -10.0003    218.1742      4.9147   4.0424445566e+01   2.9510378800e+01    0.4478678    0.2354829  53.74  0.002134145    2.053    0.513
        65  -9.6805    212.8911      4.1979   4.0711912512e+01   3.0885809738e+01    0.4056576    0.1878855 -83.18   0.00166049    2.560    0.609
        66  -8.6935    190.9892      7.5175   4.3806953409e+01   3.6093806291e+01    0.2097619    0.1221406  68.83  0.000882095    1.554    0.357
        67  -8.9298    189.0880      4.2187   4.3077630143e+01   3.6903369117e+01    0.3315267    0.1490251 -60.67  0.001289511    2.768    0.639
        68 -10.2211    182.0701      5.1441   4.4134772483e+01   3.8624056419e+01    0.5196441    0.3859043  81.49  0.002421437    1.242    0.195
        69  -9.0388     70.0057      4.3990   6.6616242520e+01   6.5131474747e+01    0.4602915    0.2662669  43.25  0.002537058    1.599    0.375
        70  -8.4490     82.7124      2.4990   6.1699083381e+01   6.2862339592e+01    0.2530999    0.1361908 -34.33  0.001275816    2.067    0.516
        71 -10.1694      5.4647    147.4884   1.2625376060e+02   4.3405166065e+01    0.2193345    0.2040076  85.18  0.001116076    1.314    0.239
        72  -9.6864    210.3018    249.9692   9.7183684372e+01  -5.7113109338e+00     0.302353    0.1293459  44.53  0.001565674    2.080    0.519
        73  -9.4068    162.0929    250.1380   1.0565570744e+02   1.8360695230e+00    0.1843877    0.1371862  30.07  0.001233827    1.264    0.209
        74 -10.0638    151.9327    250.1205   1.0745871037e+02   3.4565252228e+00    0.3083797    0.1280584  48.57  0.001535473    2.031    0.508
        75  -9.7045    124.9223    249.7951   1.1221732140e+02   7.7481936709e+00    0.2517643      0.13744  34.89  0.001412223    1.831    0.454
        76  -9.7606      3.0523    247.2248   1.3220978957e+02   2.3854688954e+01    0.2470243    0.1189743 -65.10  0.001657092    2.550    0.608
        77 -11.2736      6.0146    142.7171   1.2572803122e+02   4.4430771913e+01    0.4195946     0.332772 -89.13 0.0009810999    1.071    0.066
        78 -10.1763     70.5154    142.6413   1.0977973206e+02   3.7641295829e+01    0.2574035    0.2160656  80.59 0.0006095822    1.123    0.110
        79  -9.8931     80.0285    141.3588   1.0711676952e+02   3.6561375016e+01    0.2451786    0.1873169 -67.58 0.0003577609    1.201    0.168
        80 -13.2811     38.9214    122.6648   1.1502283961e+02   4.6215714162e+01     2.217569     1.534021  71.74  0.003285403    1.555    0.357
        81 -12.0872     39.1844     92.9738   1.0969669318e+02   5.3177603207e+01    0.9683371    0.6668098  32.92  0.005626875    1.714    0.416
        82 -12.8466    115.7317     67.6057   7.8214130088e+01   4.6584893190e+01     2.235256     1.090947  50.61  0.007168623    2.164    0.538
        83 -12.1310     81.6747     75.2829   9.1095421413e+01   5.1578797223e+01    0.4639732    0.3246859  36.90 0.0002170413    1.553    0.356
        84  -9.5982    235.1507    249.1921   9.2863576533e+01  -9.3022211965e+00    0.2694391    0.1295048  37.07  0.001563185    1.669    0.401
        85  -9.8771    106.8483    247.7353   1.1520007076e+02   1.0819422410e+01    0.3623801    0.1817143  66.74  0.001861013    2.431    0.589
        86  -8.8729     30.7244    247.6046   1.2798395850e+02   2.0887090526e+01    0.1697282    0.1060978 -73.93    0.0012503    1.706    0.414
        87  -9.1665    183.3881    249.8409   1.0185053423e+02  -1.5114682826e+00    0.2786774    0.1098377  50.15  0.001253557    2.729    0.634
        88  -9.4840     91.4806    245.4791   1.1768831671e+02   1.3441566262e+01    0.1875686   0.09959192 -84.18  0.001037183    2.396    0.583
        89 -12.8128     13.9846    104.0543   1.1937980166e+02   5.2709624335e+01     2.249611    0.6979775 -52.59  0.006981974    2.667    0.625
        90 -10.3752    142.0635    243.6978   1.0846282485e+02   5.9709011558e+00    0.2970177    0.2257224  27.08  0.001119468    1.455    0.313
        91 -12.2552     67.2336     74.1558   9.5574760914e+01   5.4049517386e+01     2.324191      1.30764 -13.32  0.008280017    3.911    0.744
        92  -9.1110    188.9676    244.0000   1.0005996436e+02  -1.6506664667e+00    0.2011372   0.05467331  41.58 0.0007985345    2.915    0.657
        93 -11.5610     41.1940     50.2513   9.7690386403e+01   6.2275653773e+01      1.29902    0.5526481  16.86  0.005208929    3.783    0.736
        94  -9.1276    121.9835    242.2773   1.1193752331e+02   9.3765342260e+00    0.1682101    0.1245722  47.94   0.00029814    1.091    0.083
        95  -9.3252     55.4749    238.4181   1.2335822886e+02   1.9531037480e+01    0.3078527   0.08818304 -67.28  0.001460837    3.468    0.712
        96 -12.1163     33.0737     43.7372   9.8827681874e+01   6.4389699485e+01    0.8187319    0.5860335 -11.90  0.003525707    1.470    0.320
        97  -9.0070    211.4795    239.5124   9.5429691832e+01  -4.6579608077e+00    0.1949675    0.1050808 -20.63  0.001035504    2.456    0.593
        98 -10.5585     14.8039    237.5691   1.3000622024e+02   2.4341735123e+01    0.3080627    0.1619762  82.09  0.002143826    1.497    0.332
        99 -10.8281    191.3425    235.6949   9.8435627403e+01  -9.4573118904e-01     0.329024    0.1956949  40.06  0.001918401    1.366    0.268
       100 -10.1865    182.4278    235.1730   9.9976171773e+01   5.9139554537e-01    0.3543448    0.1355157  49.02  0.001529467    2.649    0.622
       101  -9.2646    219.0207    230.9726   9.2773663123e+01  -4.7999624389e+00    0.2646207    0.1753705  50.63  0.001499113    1.812    0.448
       102 -12.5744     88.2288     56.5234   8.2697685518e+01   5.4177476620e+01    0.9929081     0.829013  -5.43  0.005517811    1.228    0.185
       103  -8.5436     20.6174    232.2789   1.2881441303e+02   2.4677515814e+01    0.1277002   0.07997264 -79.07  0.000486513    1.516    0.340
       104  -9.4214     12.6357    231.7992   1.3008386704e+02   2.5589328343e+01    0.2325479   0.09467887  60.66  0.001423966    1.840    0.456
       105  -8.6466    226.9524    231.5343   9.1483050571e+01  -6.1066157691e+00    0.1804316   0.09617473  36.02  0.000532557    1.551    0.355
       106  -9.2688    135.7433    230.6285   1.0803575871e+02   9.0491000370e+00    0.1975741    0.1530401 -39.92  0.001203393    1.702    0.412
       107  -9.1959    202.1441    228.9902   9.5462822021e+01  -1.8251632635e+00    0.1821584    0.1484076  28.38 0.0003971414    1.027    0.026
       108  -9.9908      4.3733    136.3126   1.2555412999e+02   4.5989878761e+01    0.3175672    0.2012882   1.31   0.00165553    2.655    0.623
       109  -9.3460    236.7409    135.5533   7.0834070216e+01   5.9934390209e+00    0.3252533    0.1414128  51.37  0.001295134    2.557    0.609
       110 -12.8916     13.1378    125.5216   1.2229637112e+02   4.7813731593e+01     1.047253    0.4672623 -63.51 0.0007553558    1.757    0.431
       111  -9.8633     72.9565    129.5875   1.0686779881e+02   4.0397635472e+01      0.28182    0.1837599 -58.63  0.001430172    1.389    0.280
       112 -10.0740     60.9995    120.3575   1.0846502203e+02   4.4227844965e+01    0.3854766    0.2506277  13.00  0.001571131    2.347    0.574
       113 -11.3673     67.0523    125.2764   1.0768576176e+02   4.2251763079e+01     1.307888    0.2731956 -52.04  0.003934117    4.168    0.760
       114  -9.6821     62.0073    124.2876   1.0890200824e+02   4.3158956849e+01    0.2786788    0.2284308  26.43 0.0009678478    1.485    0.326
       115  -8.4416     79.8392    128.8504   1.0486140118e+02   3.9557965620e+01    0.1873545    0.1516601  86.96 0.0002368395    1.268    0.211
       116 -10.3560     55.9263    126.0254   1.1088504219e+02   4.3510995751e+01    0.3702561    0.1947025 -62.21  0.001787529    1.634    0.388
       117  -8.4748     81.4429    124.7758   1.0361538445e+02   4.0282094865e+01    0.1974843    0.1225347 -48.95 0.0009292017    1.575    0.365
       118  -9.2618     74.9415    124.9499   1.0544357360e+02   4.1216624205e+01    0.2145868    0.1886612 -84.53 0.0005232802    1.074    0.069
       119 -10.5004     91.5803    121.2716   1.0007881165e+02   3.9482411978e+01    0.4882154    0.4105955 -36.65   0.00262847    1.313    0.238
       120  -8.6438     76.2692    120.3781   1.0416088988e+02   4.2110900237e+01    0.2552167    0.1405043  31.50  0.001135467    2.153    0.536
       121  -9.8700    104.5340    117.3524   9.5619849032e+01   3.8122057864e+01    0.6769802    0.4821732  43.36  0.003278309    1.466    0.318
       122  -9.2050     98.6170    113.0614   9.6234864845e+01   4.0190503926e+01    0.3109539    0.2463028   3.41  0.001515741    1.731    0.422
       123  -9.5146    116.0108    116.4819   9.2305904839e+01   3.6131313300e+01    0.2827847    0.2159726 -50.59 0.0004495276    1.266    0.210
       124 -12.2145     49.9976    100.3920   1.0780707368e+02   5.0297527326e+01     1.934961    0.7919542 -52.52  0.008426638    2.050    0.512
       125  -8.5630     81.8674    114.3788   1.0129350828e+02   4.2683147490e+01    0.1985983    0.1398183  20.98  0.000953126    1.862    0.463
       126  -9.9157     65.6238     98.3629   1.0249372197e+02   4.8823384638e+01    0.4831915    0.2429612  30.30   0.00201405    2.369    0.578
       127  -9.0652     54.9507    112.7867   1.0877907291e+02   4.6786288790e+01     0.345226    0.1596071  50.24 0.0008937528    2.660    0.624
       128  -9.8839     62.9798    103.3665   1.0444524044e+02   4.8005345787e+01    0.4821006    0.1663443 -59.79  0.001776766    2.652    0.623
       129  -9.8582     59.7463    112.9828   1.0741495776e+02   4.6146215937e+01    0.2491278    0.2086176 -61.26 0.0007112277    1.060    0.057
       130  -9.8733    131.3001    110.8816   8.6864054355e+01   3.4229662245e+01    0.6578001    0.3724668  50.81  0.002672913    1.852    0.460
       131  -9.6517    130.2072    104.8504   8.5535485899e+01   3.5783360681e+01     0.266644    0.2468959  53.14 0.0003452411    1.104    0.094
       132 -10.0285    133.9258    102.5284   8.3937519118e+01   3.5470945788e+01    0.3791171    0.3039148 -37.87 0.0009474606    1.251    0.201
       133  -9.0968     90.9485    112.8404   9.8348882243e+01   4.1571225711e+01    0.2221067    0.2099224 -74.33   0.00121288    1.032    0.031
       134  -8.3063    210.9254    110.0111   6.9179679604e+01   1.5928236420e+01    0.1792885    0.1685449  46.31  0.000378292    1.112    0.101
       135  -9.3578    136.3804    106.9279   8.4512323069e+01   3.3982433048e+01    0.3010636     0.226063  54.63  0.001393257    1.392    0.281
       136  -8.9499    107.7546    109.6575   9.2846686831e+01   3.9290583279e+01    0.2771512    0.2140963 -29.39  0.001032585    1.488    0.328
       137  -8.5758    104.2228    109.0205   9.3669546569e+01   4.0101806158e+01    0.2071521    0.1900826 -63.61 0.0006414863    1.047    0.045
       138  -9.5498     74.7140    107.1846   1.0176652950e+02   4.5467727752e+01    0.3803172    0.2266808  24.45  0.001654139    2.207    0.547
       139 -11.1042     69.2709    105.5111   1.0301601013e+02   4.6645152531e+01    0.7716389    0.3187213 -39.55  0.002698482    3.322    0.699
       140 -10.6232     76.8718    101.8868   9.9880015449e+01   4.6385997441e+01    0.4989332    0.3216846  33.45  0.001606933    1.756    0.431
       141  -9.5923    149.0289    106.8832   8.1369999123e+01   3.1135156180e+01    0.4448424    0.2553359 -36.28  0.001770633    1.828    0.453
       142  -9.5782    113.9372    107.0780   9.0479006891e+01   3.8672656409e+01    0.2437062    0.1912771 -11.25  0.001133658    1.689    0.408
       143 -11.1640    142.0974    101.8676   8.1688777429e+01   3.3776205768e+01    0.4886729    0.3584139  28.44  0.001333817    1.614    0.380
       144  -9.3710    171.2099    102.6218   7.5114462866e+01   2.6756201024e+01    0.4193778    0.2533156  31.52  0.001614956    2.149    0.535
       145  -8.6476    105.4902    102.9293   9.1740908151e+01   4.1250461252e+01    0.2314041    0.1425575 -48.57 0.0005953373    1.540    0.351
       146  -9.0369     96.1496    103.1265   9.4470634378e+01   4.2923460966e+01    0.2104898      0.19131 -23.53 0.0004279034    1.196    0.164
       147 -11.1412     25.3911     67.2213   1.0872206005e+02   6.0208430905e+01    0.3708926    0.1881375 -55.08  0.001117645    1.524    0.344
       148 -10.6808      5.0578     97.6774   1.2114266819e+02   5.4741380139e+01    0.7165003    0.3253052 -61.86  0.003928981    1.630    0.387
       149 -10.3924      5.9550     86.3160   1.1922877629e+02   5.7263261724e+01    0.6528879    0.3125652 -52.52  0.003648304    1.690    0.408
       150  -9.1563      1.5377     84.5006   1.2037258943e+02   5.7908581844e+01    0.2262271    0.1472703 -59.31 0.0005967438    1.195    0.163
       151  -8.6641    152.3415    101.2952   7.9039494802e+01   3.1522978770e+01     0.320958    0.2333671 -54.49  0.000528662    1.466    0.318
       152 -10.7420    157.7662     95.6894   7.6189600352e+01   3.1366227024e+01    0.7314449    0.4849771  51.57  0.003147562    1.528    0.346
       153  -9.4449    151.4540     96.3139   7.7846189529e+01   3.2746842650e+01    0.4455414    0.3126077 -83.03  0.001734349    2.195    0.544
       154  -8.7832    110.9125    100.6342   8.9598840292e+01   4.0715170595e+01    0.1993698    0.1880992  46.53 0.0003246041    1.107    0.097
       155  -9.6083     82.4973     85.0475   9.3719815915e+01   4.9330512578e+01     0.440965    0.2445241 -30.50  0.001790577    2.351    0.575
       156 -10.0770     87.8867     97.6809   9.5499813546e+01   4.5597836632e+01     0.544211    0.4154734 -38.40  0.002670866    1.315    0.239
       157 -10.1004     74.2090     89.5405   9.7586382117e+01   4.9625254977e+01    0.8888922    0.2406918  42.31  0.002845241    4.137    0.758
       158  -9.3191     82.6072     89.7223   9.4989372530e+01   4.8272111109e+01    0.3104852    0.1812914  44.71 0.0008605958    1.898    0.473
       159 -10.4878     87.2973     89.7382   9.3539670814e+01   4.7490535671e+01    0.6495192    0.3392276 -51.04  0.002167522    1.781    0.439
       160 -10.0608     91.5315     88.0312   9.1759449016e+01   4.7138096911e+01    0.4146025    0.2950141 -75.04  0.001248258    1.891    0.471
       161  -8.8741     94.0369     97.6093   9.3645892743e+01   4.4554767284e+01    0.1950384    0.1834172  36.11 0.0004177853    1.145    0.127
       162 -10.8705    115.3866     95.0679   8.6803379502e+01   4.1040273258e+01    0.4033654    0.3717999  81.77  0.001555706    1.182    0.154
       163 -10.8565    119.0441     86.6684   8.3335343220e+01   4.2068137958e+01    0.4718656    0.2606996  46.82  0.001445737    1.874    0.467
       164  -9.7193    140.0747     95.2097   8.0310360422e+01   3.5627813510e+01     0.428707    0.2720626  46.79 0.0007575334    1.600    0.375
       165  -8.6248    227.4843     95.5093   6.2690499349e+01   1.4622335300e+01      0.14756    0.1368262 -36.32 8.401011e-05    1.001    0.001
       166  -8.6026    188.8383     94.8418   6.9335143468e+01   2.3938545033e+01    0.2136418    0.1794327 -60.96 0.0004047006    1.277    0.217
       167 -11.4192    123.3005     92.3895   8.3863005015e+01   3.9953346144e+01     0.823046    0.6384442  -4.74   0.00325742    1.696    0.410
       168  -9.9766    104.3951     92.2973   8.9140301016e+01   4.3829696103e+01     0.431012    0.2498859  29.40  0.001754886    2.203    0.546
       169 -10.9591    107.1216     86.2437   8.6586304738e+01   4.4607787150e+01    0.6049502    0.3961666 -21.19  0.002543729    2.075    0.518
       170  -8.8313    194.0856     89.3468   6.6822024004e+01   2.3641692455e+01    0.2123632    0.1974343  70.16 0.0004593954    1.115    0.103
       171  -8.6805    187.7147     89.6211   6.8112996011e+01   2.5167271159e+01    0.2033329    0.1508756  67.51 0.0003572568    1.491    0.329
       172  -9.9837    150.6898     59.6042   6.6764131949e+01   3.9765199638e+01    0.4972694    0.3650271  58.19  0.002340736    1.369    0.269
       173 -10.0130    163.4479     74.8968   6.8789376870e+01   3.3909788328e+01    0.5561148    0.3648096  53.81   0.00134259    1.524    0.344
       174 -10.6907    145.2337     86.2323   7.6397676539e+01   3.6238736288e+01    0.6978889    0.5527467  -9.66  0.002000594    1.534    0.348
       175 -12.6649    145.3593     74.3561   7.2723006704e+01   3.8484666099e+01     1.451921    0.9086924  77.17            0    2.522    0.604
       176 -10.5291    165.9618     68.4519   6.6290518082e+01   3.4404757527e+01    0.5448553    0.3939073  75.23  0.001537756    1.616    0.381
       177 -10.0966    140.4445     52.1878   6.6612670138e+01   4.3520462653e+01    0.3636937    0.3357689  88.62  0.001046928    1.187    0.158
       178 -10.6851    153.2822     44.8919   6.1354152794e+01   4.1403440338e+01    0.8213689    0.5919682 -87.74  0.003739863    1.785    0.440
       179 -11.4064    140.3478     42.9326   6.3439979058e+01   4.4954517012e+01    0.9173383    0.6303604  62.67  0.002765071    1.494    0.330
       180 -11.4115    164.9831     60.7455   6.4100893042e+01   3.5946548631e+01     1.060501    0.6225327 -41.04 0.0006857902    1.700    0.412
       181 -10.8533    143.6020     58.1612   6.7894661438e+01   4.1769511754e+01    0.2946181    0.2716919  48.82 0.0003083905    1.073    0.068
       182  -9.9633    154.4726     50.0464   6.2818050176e+01   4.0330429285e+01    0.3191477    0.2471748  46.62 0.0003780563    1.276    0.216
       183 -11.8379    148.0319     53.5467   6.5356178218e+01   4.1416679067e+01    0.7616238    0.3664642  54.14  0.002964948    2.005    0.501
       184 -10.1647    144.7313     48.9072   6.4524530261e+01   4.2968072071e+01    0.4204334    0.3026946  57.41 0.0008449838    1.371    0.270
       185 -10.8803    154.9427     38.6185   5.8928108945e+01   4.1863038214e+01    0.9273837    0.4964826 -69.41  0.002664253    3.748    0.733
       186 -10.5645    148.2641     34.8574   5.8967922204e+01   4.4079957102e+01     1.250817    0.2858393  50.78  0.003650104    3.770    0.735
       187  -9.1211    213.8065     89.7832   6.3444550519e+01   1.8773398677e+01    0.2185114    0.1762228 -65.55  0.001081002    1.376    0.273
       188  -8.0241     68.2940     86.2929   9.8627562325e+01   5.1221849371e+01    0.1381469    0.1006243 -27.19 0.0003634954    1.556    0.357
       189 -10.8039    150.5593     67.6457   6.9384970293e+01   3.8421882402e+01    0.7091185    0.4754671 -33.84  0.002685144    1.502    0.334
       190  -8.7417     75.8070     83.5095   9.5425586819e+01   5.0732762052e+01    0.2406856    0.1597014 -54.50  0.001188734    1.413    0.292
       191 -10.0689    160.3874     81.6641   7.1498416328e+01   3.3435046397e+01    0.4587683    0.3297626  68.91  0.001563621    1.603    0.376
       192 -10.5816    134.3598     80.7883   7.7456765486e+01   3.9860272788e+01    0.5706636    0.4269496  76.98  0.002286588    1.752    0.429
       193 -10.1772     36.7342     75.8961   1.0671268570e+02   5.7301962527e+01    0.3265665    0.1850231 -53.21 0.0007932818    1.421    0.297
       194 -10.3183     44.4012     78.7652   1.0473041308e+02   5.5884731767e+01    0.4766771    0.3088696 -33.14  0.002213685    1.640    0.390
       195 -10.5173     39.5355     79.5189   1.0660225836e+02   5.6217735750e+01    0.5059498    0.3604928 -33.36  0.002951957    1.449    0.310
       196  -8.2965    173.4961     82.4553   6.8921136617e+01   3.0018176728e+01    0.1551846    0.1536432 -60.83 -1.464237e-05    1.004    0.004
       197  -8.7704     95.6758     72.9988   8.5922438011e+01   4.9582136399e+01    0.2279411     0.193275 -13.68 0.0004654161    1.248    0.198
       198  -9.8872     92.0394     75.7101   8.7916122654e+01   4.9692741220e+01    0.6128893    0.4199057   0.24  0.002686343    2.208    0.547
       199 -10.8665    103.1775     80.9932   8.6157615295e+01   4.6493548893e+01    0.7854582    0.5223337 -14.67  0.002660174    2.208    0.547
       200 -10.6379     98.6561     77.1265   8.6317539913e+01   4.8170427706e+01    0.6401748    0.3349155  36.77  0.002190101    2.118    0.528
       201  -8.0402     81.2750     81.2866   9.3025001170e+01   5.0354647061e+01    0.1393792    0.1059173 -20.89 0.0003401246    1.511    0.338
       202  -8.6470    123.4820     80.0515   8.0095037043e+01   4.2462857094e+01    0.2285154    0.1487547 -36.22 0.0005268176    1.533    0.348
       203  -9.9652    214.9877     77.0302   5.9876609741e+01   2.0610936687e+01    0.5079775    0.3158289 -46.75  0.002279341    1.570    0.363
       204  -9.9367      5.2693     77.3234   1.1799362318e+02   5.9313457596e+01    0.3344833     0.209119  52.38  0.002030561    2.070    0.517
       205 -10.1572      3.6026     73.1904   1.1785101818e+02   6.0315448048e+01    0.5197079    0.1883429 -39.68  0.002429201    2.856    0.650
       206  -8.9360    248.4660     76.5028   5.4968501220e+01   1.2946461804e+01    0.1413897     0.124102 -45.26 -1.486762e-05    1.017    0.017
       207  -9.4151    131.8553     75.3269   7.6388575854e+01   4.1500597296e+01    0.2920361     0.238722 -88.26  0.001168608    1.553    0.356
       208  -8.6391    204.5512     75.4397   6.1140500151e+01   2.3436088660e+01    0.2686894    0.1295877  47.37 0.0007673652    2.230    0.552
       209  -9.9989    189.1866     77.3832   6.4386520103e+01   2.6961342399e+01    0.7200383    0.2715034  42.43  0.002191931    3.453    0.710
       210  -9.5447    176.7450     68.7392   6.4219034638e+01   3.1601350137e+01    0.4483134    0.2883747 -56.23  0.001887488    1.795    0.443
       211  -9.1429    180.1604     68.6101   6.3527401379e+01   3.0748220507e+01    0.3573551    0.1944332  50.38 0.0008726713    1.842    0.457
       212  -8.5065    221.1071     68.8497   5.6781154289e+01   2.0431140144e+01    0.1845022    0.1680475  27.27            0    1.255    0.203
       213  -9.5505     84.0232     67.8595   8.7968202312e+01   5.2721198807e+01    0.3650711    0.2496364  30.89  0.001495956    1.608    0.378
       214  -8.0512    203.6853     68.6043   5.9397280566e+01   2.4765713723e+01    0.1592939    0.1173366  16.66 0.0001121368    1.856    0.461
       215  -8.5255    238.5904     65.2715   5.3474398944e+01   1.6850954514e+01    0.1919495    0.1316098 -21.42  0.000510845    1.605    0.377
       216  -9.5739    138.1019     59.1325   6.9518303225e+01   4.2952295663e+01    0.3352868    0.2273901  48.43 0.0005985665    1.455    0.313
       217  -8.7339    134.9515     62.5539   7.1435031203e+01   4.3120669906e+01    0.2118917    0.1923607  40.90 0.0003472505    1.096    0.088
       218  -9.8114    129.5564     61.3196   7.2379994119e+01   4.4612257617e+01    0.6730733    0.3802045  75.97  0.002184614    3.681    0.728
       219  -8.1047     63.7127    229.3702   1.2123932378e+02   2.0093842647e+01    0.1233742   0.06642509  69.38 0.0007020894    1.710    0.415
       220  -9.6210    207.2044     61.0602   5.6755801248e+01   2.5066515491e+01    0.3225515    0.2384996 -39.32 0.0008024866    1.293    0.226
       221  -9.8895    206.8691     46.0112   5.2643460385e+01   2.7365642175e+01    0.3866175    0.2251828  62.11   0.00107084    1.695    0.410
       222 -10.3799    193.9864     54.5795   5.6996604979e+01   2.9418090032e+01    0.5860508     0.406159  24.57  0.002586096    1.974    0.493
       223 -10.7872    194.8602     48.9545   5.5234825303e+01   3.0022469482e+01     1.031378    0.3375411  60.41  0.003469839    2.884    0.653
       224  -9.4078    201.8244     48.4912   5.4055934842e+01   2.8299356558e+01    0.2940073    0.2465949  19.63 0.0006209938    1.458    0.314
       225  -9.9904    172.5444     47.3582   5.8467539169e+01   3.6058904056e+01    0.4487489    0.3824704 -58.96  0.001805026    1.216    0.178
       226 -10.1858    174.0578     57.2751   6.1258709083e+01   3.4162496900e+01    0.5157567    0.2779559 -19.00  0.001293731    2.450    0.592
       227 -11.0959    178.0008     51.5905   5.8802112959e+01   3.4011416103e+01    0.5425826    0.3865042 -40.70 0.0001071734    1.396    0.284
       228 -11.3519    185.4067     55.7482   5.8763644919e+01   3.1457619083e+01    0.4651791    0.3455699  49.43 0.0006284121    1.374    0.272
       229 -11.1612    183.4735     51.7916   5.7914463073e+01   3.2557565889e+01    0.4314615    0.2887197  63.39 0.0006056289    1.481    0.325
       230  -9.0474    211.9491     60.0416   5.5766110104e+01   2.4034750953e+01    0.2288705    0.1787854  20.78 0.0006032885    1.655    0.396
       231  -9.4478    201.2904     59.9609   5.7367246315e+01   2.6730060614e+01    0.2981485    0.2097545  60.34 0.0005743766    1.431    0.301
       232  -9.9086    222.9024     56.1141   5.3181432298e+01   2.1922130828e+01    0.3548199    0.2923522 -86.14  0.001667325    1.255    0.203
       233  -8.7417    250.4616     58.5224   5.0388516782e+01   1.5154292747e+01    0.1379745    0.1207305 -50.22 0.0008089937    1.006    0.006
       234  -9.5210    243.8752     56.0949   5.0558738225e+01   1.6980339123e+01    0.4358121     0.215339 -38.25  0.001956316    1.764    0.433
       235 -11.0922    161.0216     50.5749   6.1662088531e+01   3.8569777766e+01    0.9478707    0.5313435  74.41  0.003655762    2.300    0.565
       236  -9.4024    126.5532     51.1546   6.9625489652e+01   4.7031717466e+01    0.2937796    0.1997716  48.97 0.0002263021    1.446    0.308
       237 -10.7204    121.3534     54.4307   7.2137381575e+01   4.7694073571e+01    0.6404102    0.4299028  49.62  0.003004959    1.491    0.329
       238  -8.4246     45.6626    229.6715   1.2444126055e+02   2.2317027604e+01   0.09280576   0.08562507 -55.30 0.0007051891    1.730    0.422
       239  -9.8493    133.4216     55.3088   6.9357612621e+01   4.4721530650e+01    0.5070717    0.3090509 -13.47  0.002027639    2.239    0.553
       240  -9.1841    135.6257     50.7092   6.7235589756e+01   4.4934527076e+01    0.2877249    0.2007047 -28.01 0.0007172169    1.473    0.321
       241  -8.3246     13.0706     56.6571   1.1087382706e+02   6.3354619400e+01    0.2604464    0.1336088  22.92  0.001473634    2.374    0.579
       242  -9.8443    233.8151     55.2148   5.1547515520e+01   1.9437884559e+01    0.2899661    0.2749261  70.96  0.001016178    1.147    0.128
       243  -8.6913    203.4907     55.9796   5.5909991277e+01   2.6776116609e+01    0.2153594    0.1445194 -31.72   0.00042651    1.486    0.327
       244  -9.0628    211.3720     51.5456   5.3535683640e+01   2.5439334989e+01    0.3856362    0.2101826  -9.11  0.001361695    3.267    0.694
       245  -8.8983     50.4990    227.4931   1.2344286364e+02   2.2126804050e+01    0.1138667   0.08441748  69.62 -5.612078e-05    1.016    0.016
       246  -9.5617    224.4140     49.1655   5.1168002359e+01   2.2554082605e+01    0.3721689    0.1350671 -42.50  0.001375862    2.482    0.597
       247  -9.9369    220.0718     43.8271   5.0313028865e+01   2.4362031166e+01    0.4852702    0.2315479 -39.94   0.00160323    1.908    0.476
       248  -9.6223    186.4468     61.3873   6.0248685051e+01   3.0309681980e+01    0.4635188    0.2691377 -65.52  0.001164597    2.479    0.597
       249  -8.6072    129.7021     45.6949   6.6897673766e+01   4.7143397351e+01    0.2881829    0.2067368 -14.02 0.0005952099    1.566    0.362
       250  -9.5144    130.2490     40.2231   6.4796633215e+01   4.7822817587e+01    0.3567236    0.2782274 -47.51  0.001810627    1.410    0.291
       251  -9.0781    126.6974     39.9753   6.5560128836e+01   4.8710554205e+01    0.3395376    0.2106955  -2.40  0.001262212    2.267    0.559
       252  -9.6373    179.2726     44.6022   5.6450131519e+01   3.4698665643e+01    0.2716693    0.2616835 -41.91 0.0007188697    1.068    0.064
       253  -8.7230    249.1834     44.5957   4.7194209035e+01   1.7375688733e+01    0.1832695    0.1200353  56.24 0.0008509848    1.702    0.413
       254  -8.8836    137.2143    224.7808   1.0700972825e+02   9.7722917203e+00    0.1606444    0.1416175  20.18 0.0005934114    1.356    0.262
       255  -8.8247    111.8850    225.3518   1.1192275526e+02   1.3808072622e+01    0.2616449   0.08448975  47.45  0.001093701    2.557    0.609
       256 -10.4788    226.4525     28.7002   4.5656476101e+01   2.4778277116e+01    0.6388946     0.409823 -52.26  0.003266227    1.454    0.312
       257  -9.0520     41.1645    221.0497   1.2463909370e+02   2.4459992222e+01    0.1641288    0.1124652 -54.68  0.001072988    2.069    0.517
       258  -8.4025     33.6909    219.6403   1.2586656050e+02   2.5588681649e+01   0.09702633   0.08008841 -59.19 0.0004921549    1.738    0.424
       259  -8.1950    234.9850    219.0000   8.7996635047e+01  -5.8385041833e+00    0.1986035   0.05937412  41.15 0.0008044612    2.956    0.662
       260  -8.5569    224.5114    215.5004   8.9223753504e+01  -3.7199938623e+00    0.1239384    0.1029817  19.82 -2.852743e-05    1.056    0.053
       261  -9.2710     26.4932    212.0513   1.2665790729e+02   2.7839621073e+01    0.1655585   0.08873095 -81.70  0.001037429    1.604    0.376
       262  -9.1937     13.5910    211.3770   1.2889426998e+02   2.9298307754e+01    0.2160818   0.08199872 -86.62   0.00115037    2.322    0.569
       263  -8.9418    244.5494    204.3252   8.3736746699e+01  -5.5092976323e+00    0.1642784    0.1048855 -13.68  0.000935905    1.562    0.360
       264  -8.6469    167.4259     42.2646   5.7782199618e+01   3.8121641327e+01    0.2315522    0.1683086  26.05  0.000679263    1.674    0.403
       265  -8.6050    250.2895     40.3396   4.6070956386e+01   1.7696013900e+01    0.1255329    0.1044867  17.37 0.0005790537    1.643    0.391
       266  -8.8875    235.9544     39.3603   4.7320390651e+01   2.1128023954e+01    0.2269668    0.1932283   9.02  0.001002341    1.534    0.348
       267  -8.9764    191.4904     40.0090   5.3146535422e+01   3.2148848056e+01    0.3071229    0.2245667   7.72   0.00085826    1.863    0.463
       268  -8.3062    176.0095    204.3360   9.6384182123e+01   6.3647638838e+00    0.2217681   0.09614241  57.79 0.0007051632    4.373    0.771
       269 -10.5989    180.9558     36.8119   5.3802925296e+01   3.5325555848e+01    0.6087162    0.4113493 -30.60  0.002911963    1.522    0.343
       270  -9.5538    198.1204     37.3375   5.1422879299e+01   3.0789841983e+01    0.6107956    0.2428355  42.70  0.001993173    3.585    0.721
       271  -9.6329    198.5852     32.3527   4.9942135987e+01   3.1316914863e+01    0.3940055    0.1852647 -41.76  0.001347779    2.041    0.510
       272 -10.4573    135.8696     33.8081   6.1194169892e+01   4.7334298125e+01    0.5106503    0.3317873  11.26  0.002231237    2.070    0.517
       273  -9.2474      1.8770     35.7896   1.1009126764e+02   6.8238678570e+01    0.1697677    0.1090115 -41.35 0.0005897376    1.201    0.167
       274 -10.3038    249.1670     25.4470   4.2679307923e+01   1.9847794054e+01    0.3678277    0.2965634  16.53  0.001594607    1.789    0.441
       275  -9.6252    233.8914    200.0934   8.4798369359e+01  -3.2210834042e+00    0.2298506    0.1619825 -17.58  0.001358863    1.395    0.283
       276 -10.4056    245.8298     33.5063   4.4885113586e+01   1.9596519731e+01    0.5633784    0.2930687  61.92  0.001976583    1.998    0.500
       277  -8.1813     93.4744    200.5068   1.1263655051e+02   2.1396570622e+01    0.1281406    0.1089878  68.17 0.0008098336    1.036    0.035
       278  -9.2185    242.1457     24.4826   4.3079355394e+01   2.1571889113e+01    0.3325483    0.1581855 -36.58  0.001112405    1.862    0.463
       279  -9.3830     27.6846    193.6995   1.2518795136e+02   3.1392081756e+01    0.1936711    0.1630386 -86.19  0.001111317    1.265    0.209
       280  -8.9221     33.2023    191.9115   1.2397659096e+02   3.1170835150e+01    0.1779241    0.1112125 -56.65  0.001077587    1.929    0.482
       281  -9.5675     10.8818    192.1442   1.2827845723e+02   3.3375892724e+01    0.2825459    0.1325137  43.46   0.00171661    1.975    0.494
       282  -8.7772    215.8118    189.4002   8.6040714696e+01   1.4519615503e+00    0.1924458    0.1117703  31.61 0.0009427134    1.656    0.396
       283  -7.9797    159.2483     35.6650   5.7132684888e+01   4.1147092733e+01      0.14841    0.1085628 -59.32 0.0002552056    1.557    0.358
       284  -8.9926    124.2597     35.9519   6.4666721790e+01   4.9859303653e+01    0.2049758    0.1906999   8.89  0.001015261    1.048    0.046
       285 -10.0387    173.3149     30.9781   5.3212535642e+01   3.8078306848e+01    0.5404866    0.3161637  33.38    0.0020778    2.212    0.548
       286  -8.7358    245.0377    187.2779   8.0419109131e+01  -3.3374411894e+00    0.1578034    0.1025899  34.85 0.0006460836    1.454    0.312
       287  -7.7957    188.6421     20.0779   4.7709511637e+01   3.5368331844e+01    0.3785281     0.269516  44.67  0.001059901    1.527    0.345
       288  -9.3380      7.8401    185.8698   1.2847096557e+02   3.4940802085e+01    0.1598203   0.09552071  72.14 0.0003888645    1.320    0.242
       289 -10.2737    185.6797     24.2906   4.9343555746e+01   3.5654051641e+01    0.5065429    0.1690517 -41.52  0.001791273    2.912    0.657
       290  -9.9714    177.0010     20.0005   4.9255122159e+01   3.8412727575e+01    0.2588552    0.2405767  84.59 0.0003390066    1.010    0.010
       291  -9.1212     11.8386    184.6226   1.2762405054e+02   3.4838220539e+01    0.1812835    0.1217362 -77.30 0.0005291639    1.310    0.237
       292 -12.3912     56.6278     37.2638   8.6695877771e+01   6.2761945309e+01    0.6991576    0.5482193  42.53  0.001347888    1.567    0.362
       293  -9.2027    146.9448     29.0917   5.7234440876e+01   4.5153603550e+01    0.5993259    0.2924464  52.92  0.002498993    1.871    0.466
       294  -9.9087    148.0920     23.8678   5.5202738710e+01   4.5485988702e+01    0.8650755    0.2712585  63.85  0.002715586    3.079    0.675
       295  -8.5629     18.1543    182.4034   1.2623445734e+02   3.4711626767e+01    0.1563471   0.08132313  52.82  0.000623924    1.707    0.414
       296 -10.1627      1.6852    178.5987   1.2921545509e+02   3.6979654625e+01    0.3667043    0.1186351 -82.53  0.001774102    2.534    0.605
       297  -8.9364     37.1015    179.6617   1.2215163882e+02   3.3345609084e+01    0.1975336    0.1187035  60.77  0.001172073    1.484    0.326
       298  -8.5900     74.4766    179.4947   1.1409310110e+02   2.8652769981e+01    0.1330257    0.1083361  77.34 -0.000126043    1.049    0.047
       299  -9.0266     79.7762    176.5936   1.1254516613e+02   2.8520009479e+01    0.2397371    0.1498694 -56.56  0.001204282    1.672    0.402
       300  -8.4611      7.7673    174.9950   1.2779148433e+02   3.7225309755e+01    0.1514079   0.07339157 -80.55 0.0008762887    1.623    0.384
       301  -7.8847     65.3449    173.2889   1.1535399117e+02   3.1290824606e+01    0.1171874     0.100245 -35.64 0.0002948107    1.654    0.395
       302  -9.0633     53.6524     29.8242   8.4786918593e+01   6.4425190460e+01    0.3657154    0.1833794  26.31  0.001505405    2.304    0.566
       303  -8.9983      1.0000    170.8516   1.2887761971e+02   3.8665365850e+01    0.2841111   0.04915958 -77.50   0.00099391    4.522    0.779
       304  -9.1524    139.9538     26.7358   5.7791104106e+01   4.7210778692e+01    0.2090634    0.1829662  26.50 0.0002515845    1.155    0.135
       305  -8.5183    140.4883     23.4357   5.6502904749e+01   4.7466196602e+01    0.2040511    0.1403213  -5.68 0.0005062002    1.710    0.415
       306  -8.4873    136.1403     26.2605   5.8403817488e+01   4.8221389838e+01    0.2594472    0.1323342  27.94 0.0009519495    2.829    0.647
       307  -8.8380    245.7709    170.9871   7.7022321425e+01  -1.1688879165e+00    0.1728234    0.1002092 -30.10 0.0004769542    1.624    0.384
       308  -9.8568     32.5139    165.9659   1.2185837898e+02   3.6849060470e+01    0.1772846    0.1455426  57.67 0.0006491587    1.261    0.207
       309 -10.0252     18.9433    165.6253   1.2477830813e+02   3.8255173569e+01    0.2350748    0.1404535 -88.70  0.001157737    1.351    0.260
       310  -9.4195    198.6363     16.4330   4.5452335448e+01   3.3194249816e+01    0.2719179    0.2203726  53.09  0.001155801    1.296    0.228
       311 -10.1344      2.2871    160.0398   1.2789733250e+02   4.0885608131e+01    0.4897027      0.16063 -84.85  0.002231847    2.674    0.626
       312  -8.5070     65.1621     16.9471   7.4444377058e+01   6.4525993119e+01    0.1528048    0.1259031  51.16 0.0003932883    1.559    0.358
       313  -8.3761    144.4177     16.4761   5.3288394511e+01   4.7237967348e+01    0.1385772    0.1311108  60.63 7.847037e-05    1.034    0.033
       314  -8.6923     85.4100     15.8332   6.7058957597e+01   6.0931049337e+01    0.2533882    0.2100395  80.71  0.001456489    1.769    0.435
       315  -9.9070     22.7704    159.0020   1.2336315351e+02   3.9368907489e+01    0.1767287    0.1704023  43.69 0.0008680637    1.422    0.297
       316  -9.2366     67.4694     12.9762   7.1705161280e+01   6.4628840332e+01    0.2487952    0.1752417  45.69  0.001273752    1.527    0.345
       317  -7.8547    141.3040     11.3220   5.2014242770e+01   4.8546537549e+01     0.147751   0.09554113  34.42 0.0007030363    1.635    0.389
       318  -8.7164     28.9461    158.2776   1.2190498543e+02   3.8936457036e+01    0.1609132    0.1338238  81.65 0.0004120594    1.098    0.090
       319  -8.3913      9.2964    158.3870   1.2627521957e+02   4.0689177845e+01    0.1155991    0.0709685 -56.40 0.0007015035    1.776    0.437
       320 -10.0488     35.9325    151.8050   1.1960129385e+02   3.9700956386e+01      0.30026    0.1849822  78.48  0.000590764    1.571    0.363
       321 -10.6937     30.6652    151.4400   1.2080430620e+02   4.0320063891e+01    0.2528532     0.232672 -53.49  0.000959256    1.387    0.279
       322 -11.8311     18.6969    145.7787   1.2304123945e+02   4.2721805804e+01    0.7328715    0.3965817  72.28  0.002277856    1.854    0.461
       323  -9.5529     31.7012    134.4350   1.1857263838e+02   4.4157028766e+01    0.2651113    0.1844748  49.76  0.001285402    1.531    0.347
       324 -11.0658     14.0212    151.4679   1.2465284852e+02   4.1834529670e+01    0.3741363    0.2822491  81.45  0.002592754    1.099    0.090
       325  -9.1864      7.9835    151.6714   1.2602860226e+02   4.2280318239e+01    0.2217931    0.1302528 -74.87 0.0005887697    1.342    0.255
       326 -11.2350     30.0955    142.9348   1.1999833179e+02   4.2333450133e+01    0.5086519    0.3369511 -61.93  0.002773399    1.385    0.278
       327 -11.1058     22.3827    136.9138   1.2122017235e+02   4.4434853782e+01     0.566363    0.5276071 -64.11  0.004133696    1.298    0.230
       328  -9.5696     47.7697    139.5444   1.1513919062e+02   4.1265676368e+01    0.3493524    0.2110111 -70.48  0.001878819    1.418    0.295
       329  -9.8340     46.3462    144.4924   1.1617389218e+02   4.0265263208e+01    0.3251573    0.2559757 -18.39  0.001900007    1.944    0.486
       330 -10.7538     40.6465    146.8971   1.1788840403e+02   4.0335374192e+01    0.4263433    0.2508703  45.83  0.002065487    1.751    0.429
       331 -10.6159     38.0406    142.9596   1.1804262813e+02   4.1529157629e+01    0.3800742    0.3128358   0.17  0.001516041    1.804    0.446
       332  -9.7490     66.3002    148.0555   1.1169638066e+02   3.6946117388e+01     0.294956    0.2552369 -40.62  0.001775214    1.429    0.300
