#   1 NUMBER                 Running object number                                     
#   2 MAG_AUTO               Kron-like elliptical aperture magnitude                    [mag]
#   3 X_IMAGE                Object position along x                                    [pixel]
#   4 Y_IMAGE                Object position along y                                    [pixel]
#   5 X_WORLD                Barycenter position along world x axis                     [deg]
#   6 Y_WORLD                Barycenter position along world y axis                     [deg]
#   7 A_WORLD                Profile RMS along major axis (world units)                 [deg]
#   8 B_WORLD                Profile RMS along minor axis (world units)                 [deg]
#   9 THETA_WORLD            Position angle (CCW/world-x)                               [deg]
#  10 FWHM_WORLD             FWHM assuming a gaussian core                              [deg]
#  11 ELONGATION             A_IMAGE/B_IMAGE                                           
#  12 ELLIPTICITY            1 - B_IMAGE/A_IMAGE                                       
         1  -9.6654    239.6755     18.3187   5.9026289398e+01   2.4108119125e+01    0.3001882    0.1438249 -49.77   0.00155317    1.848    0.459
         2  -9.2127    112.2385     11.7820   7.5237336316e+01   5.4470925568e+01    0.2196535    0.1167997  32.04  0.001074888    2.025    0.506
         3  -8.3959    233.5285     10.8916   5.8051699479e+01   2.6335154402e+01    0.1681208    0.1123099 -42.13  0.000668908    1.535    0.349
         4  -9.6570    213.2040      8.5197   5.9402096339e+01   3.1199023997e+01     0.625524   0.09337495 -42.93  0.002089055    4.724    0.788
         5  -8.5533     84.5081     11.0542   8.1859976950e+01   6.0156144481e+01    0.1735419     0.113922 -18.32  0.001037473    1.604    0.376
         6 -10.0848    239.0115      9.5095   5.7313091914e+01   2.5288138871e+01    0.2315652    0.1337684 -57.44  0.000678418    1.517    0.341
         7 -10.1447    249.2500      5.2072   5.5681553246e+01   2.3580276192e+01    0.4669208    0.1708917 -38.01  0.002278295    2.573    0.611
         8  -8.5040    198.4974      7.4936   6.0660122418e+01   3.4738917521e+01     0.127823    0.1055172  84.12 -7.616368e-05    1.037    0.035
         9  -9.3666    116.6121      6.8116   7.2621446610e+01   5.3955522942e+01    0.1608536    0.1121582 -36.34 0.0007826122    1.693    0.409
        10  -9.2077    231.6353      3.0743   5.6625442896e+01   2.7619431230e+01     0.257892    0.1370233 -83.74  0.001380457    1.759    0.431
        11  -9.4923    240.3181      2.7217   5.5873480755e+01   2.5762403317e+01    0.2629035    0.1390171  84.78  0.001132802    1.651    0.394
        12  -9.0313     98.7928      2.9797   7.5172467551e+01   5.8038138477e+01    0.1806133    0.1313657 -53.93 0.0009055145    1.966    0.491
        13  -9.5651     63.3964      2.5741   8.4755922017e+01   6.4672434635e+01    0.2068426    0.1468371  21.65  0.000814982    1.159    0.137
        14  -8.2521    190.4639      2.5208   6.0350113251e+01   3.7124967871e+01    0.1267861    0.1039703  81.96 9.579982e-05    1.027    0.027
        15  -8.1047    159.6532      2.3138   6.4034416805e+01   4.4450241256e+01    0.1311852   0.08678539 -74.34 0.0006879618    1.717    0.417
        16  -8.6426     79.6615      2.3236   7.9789044144e+01   6.1825848200e+01    0.1051863   0.09302925 -75.18 0.0007051025    1.720    0.419
        17  -8.6679    203.3121      1.6669   5.8838629153e+01   3.4196660832e+01    0.1325026   0.07815645 -69.44 0.0007044443    1.679    0.404
        18 -10.5407    206.5958    236.0108   1.1078470824e+02  -6.0061844465e+00    0.4775212    0.3764098  39.86  0.001969567    1.230    0.187
        19  -8.4241    209.6767    250.4160   1.1256812281e+02  -8.6185325118e+00    0.1737469   0.09966417  29.40 0.0009393516    1.562    0.360
        20  -8.1995    193.0294    250.5063   1.1572333703e+02  -5.9511490702e+00    0.1985181    0.1058819  37.88 0.0007606471    1.586    0.369
        21  -8.5632    148.3764    238.2291   1.2261533638e+02   3.6930199423e+00    0.1680336    0.1254592 -69.92 0.0009441026    1.645    0.392
        22  -8.5330    248.4697    234.3391   1.0276627332e+02  -1.2286587984e+01    0.1437136    0.1092672 -34.72 0.0009217524    1.472    0.321
        23  -8.9591    244.9068    231.8131   1.0295265473e+02  -1.1421244685e+01    0.2059835    0.2019991  13.01 0.0006670055    1.457    0.314
        24  -9.0612    238.2658    231.3215   1.0405940737e+02  -1.0358746581e+01     0.467194    0.2254416  48.61  0.002157961    2.744    0.636
        25 -10.8052    228.3170    226.9986   1.0511552486e+02  -8.1831724869e+00    0.7571443    0.5339275 -35.23  0.003892825    1.486    0.327
        26  -9.6374    227.0564    219.2928   1.0395798410e+02  -6.8086230120e+00    0.3528958    0.2386871 -19.52   0.00188544    1.545    0.353
        27  -8.9055    178.4266    232.6685   1.1574275327e+02  -6.3636588170e-01    0.3677641    0.1635743  40.85  0.001629174    1.974    0.493
        28  -8.8348    174.5450    228.8094   1.1589282651e+02   7.1508861351e-01    0.3252342    0.1657485 -54.76  0.001449093    2.532    0.605
        29  -8.3454    215.7583    231.1997   1.0821366127e+02  -6.7839863035e+00    0.1990092   0.09723135 -27.54 0.0008883264    2.530    0.605
        30  -8.1310    182.0414    239.9266   1.1619031140e+02  -2.4663942084e+00    0.1583077    0.1351592  33.59 0.0008287223    1.010    0.010
        31  -9.6770    219.9182    235.2573   1.0813105403e+02  -8.0644892709e+00    0.3757547    0.2355194  23.42  0.001782075    1.544    0.352
        32  -8.8516    199.4535    228.2981   1.1085325155e+02  -3.5838570601e+00    0.3086498     0.191274 -63.32  0.001393484    2.899    0.655
        33  -9.1891    248.3481    226.8286   1.0145048173e+02  -1.1234890261e+01       0.2844    0.1783823 -21.38   0.00102617    1.550    0.355
        34  -8.8139    190.6322    227.6209   1.1247524187e+02  -1.9364619385e+00    0.2500036    0.2031273 -13.82  0.001163465    1.360    0.265
        35  -8.9763    155.0384    225.7739   1.1938278207e+02   4.7776247814e+00    0.3544568    0.2080795 -27.04  0.001502952    2.891    0.654
        36  -9.7982    209.8165    224.4458   1.0816552773e+02  -4.7389906017e+00    0.4962595    0.3330715  30.19    0.0027348    1.373    0.272
        37  -8.9635    218.4634    223.9258   1.0641664267e+02  -6.1107410206e+00    0.3019763    0.2512726 -34.95  0.001877066    1.315    0.240
        38  -8.6810    157.7498    231.2020   1.1967457307e+02   3.2961364463e+00    0.2190586    0.1705218 -56.67   0.00118127    1.484    0.326
        39 -10.2424    238.3898    220.0204   1.0200096162e+02  -8.7358606526e+00    0.4164266    0.3077416 -47.14  0.002108106    1.703    0.413
        40  -7.8886    148.3150    222.3362   1.2023509965e+02   6.6471015178e+00    0.1343072    0.1077455   2.63 0.0003068316    1.693    0.409
        41  -8.9623    204.9849    219.9869   1.0831050261e+02  -3.1817807166e+00    0.3678229    0.2501486 -17.21  0.001917898    1.747    0.428
        42 -10.1986    193.7225    219.5417   1.1045882579e+02  -1.1162741691e+00    0.3791434    0.2998602  44.21  0.002056314    1.233    0.189
        43  -9.5329    247.2252    217.7973   1.0000288980e+02  -9.7724120469e+00    0.2640875    0.1869025   3.16 0.0009588064    1.405    0.288
        44 -10.4403    248.0427    213.4455   9.9049307686e+01  -9.2549417376e+00    0.5647849    0.3932177 -38.45  0.003339394    1.502    0.334
        45  -8.7165      7.9945    217.4439   1.4765743800e+02   2.8256718368e+01    0.1881096    0.1171483 -86.63  0.001258215    1.239    0.193
        46 -10.8512    216.2519    215.1610   1.0524701232e+02  -4.3395078248e+00    0.6215051    0.4618704  36.54  0.003563764    1.278    0.218
        47 -10.9360    214.9747    210.0023   1.0453415247e+02  -3.2662593100e+00    0.4680434    0.3215133 -34.82  0.002532905    1.482    0.325
        48 -10.4368    186.5897    213.4220   1.1080805101e+02   1.2536267237e+00    0.5258854     0.296883 -34.12  0.002162904    2.054    0.513
        49  -8.9086    180.1948    216.0647   1.1258393273e+02   1.9547300140e+00    0.3209145    0.1895733  32.30  0.001515886    1.698    0.411
        50  -8.3658    109.4656    216.5058   1.2754486184e+02   1.4715772859e+01    0.1388805    0.1178349  68.27 0.0001064873    1.039    0.037
        51  -9.8143    231.7224    212.4428   1.0182089939e+02  -6.5054572230e+00    0.4054468     0.314812 -49.31  0.001893499    1.606    0.377
        52  -8.4426    125.1352    211.8051   1.2351387775e+02   1.2960181488e+01    0.1777424     0.168593 -11.91 0.0005476298    1.319    0.242
        53  -9.5210    206.5434    208.7424   1.0594433884e+02  -1.5572915724e+00    0.3936815    0.3080109  83.47  0.001606885    2.104    0.525
        54  -9.0144    201.1576    209.2520   1.0710734791e+02  -6.7308612020e-01    0.3227417    0.2030704  47.19  0.001079127    1.620    0.383
        55  -8.8651    171.4984    208.0246   1.1296512680e+02   5.0785424727e+00    0.2023203    0.1413304 -50.09 0.0009247626    1.569    0.363
        56  -9.5221    236.4830    203.9861   9.9339533322e+01  -5.9491709549e+00     0.295878     0.277083  22.03  0.001918874    1.203    0.169
        57  -9.6188    241.4669    199.7549   9.7617601754e+01  -6.0940749796e+00    0.4200002    0.3060103 -28.61  0.001758022    1.282    0.220
        58  -9.1747    198.2249    203.0616   1.0653274382e+02   9.6704259846e-01    0.3252321    0.2336139 -49.18  0.001443791    1.554    0.357
        59 -10.2004    193.2212    202.4678   1.0743534911e+02   2.0112959981e+00    0.3708914    0.2792122  78.58   0.00171605    2.059    0.514
        60  -9.7382    188.1913    203.2797   1.0861919338e+02   2.8098861828e+00    0.3218555    0.2310864 -27.06  0.001634461    1.576    0.366
        61 -10.3048    219.1764    201.7276   1.0214962336e+02  -2.6088296964e+00    0.4678014    0.2306263  40.66  0.001890706    1.981    0.495
        62  -8.9486    206.3505    202.8382   1.0486546258e+02  -4.9207205428e-01    0.2248451    0.1814575  44.33  0.000667997    1.266    0.210
        63  -8.4242    179.4409    203.0408   1.1039108005e+02   4.5191538350e+00    0.2725566    0.1901735  25.41 0.0009729344    1.573    0.364
        64  -8.9029    249.4108    201.2675   9.6496115420e+01  -7.6149939394e+00    0.3364831    0.2107012 -32.09  0.001148922    1.481    0.325
        65 -10.1599    248.4259    194.0898   9.5274051734e+01  -6.3249620757e+00    0.4548474    0.4123172  71.21  0.002852108    1.581    0.367
        66 -10.1345    164.4698    200.7044   1.1313749061e+02   7.8582352400e+00    0.3673452    0.2579309 -48.55    0.0013308    1.523    0.344
        67  -9.2056    231.6405    198.3164   9.9133871765e+01  -4.2086103110e+00    0.2655814    0.2201475  83.95  0.001457591    1.953    0.488
        68  -9.2644    231.1543    194.6228   9.8499218421e+01  -3.5073502757e+00    0.2905038    0.1944629 -46.59 0.0009587138    1.645    0.392
        69 -10.5326    210.4490    197.3466   1.0299485727e+02  -2.7099449481e-01    0.4554254    0.3379589 -74.62  0.002191902    2.236    0.553
        70  -9.2533    204.1530    197.7095   1.0431381319e+02   8.3031488517e-01     0.345118    0.2539517  22.58  0.001424212    1.426    0.299
        71 -11.1098    195.6839    193.2181   1.0514781485e+02   3.2641296119e+00    0.7091398    0.4471539  34.30  0.003366937    1.592    0.372
        72 -10.4360    184.8841    196.1552   1.0795221020e+02   4.7909161823e+00    0.3686305    0.3004021 -26.67  0.001502171    1.323    0.244
        73  -9.3448    176.3824    197.2258   1.0994623417e+02   6.2345212184e+00    0.2733486    0.2290667 -58.43 0.0009884958    1.331    0.249
        74  -8.6206    149.8271    198.1446   1.1586017180e+02   1.1213961522e+01    0.2004521    0.1773193   1.20 0.0007338725    1.362    0.266
        75 -10.3438    237.2830    189.5995   9.6376862598e+01  -3.7234373147e+00    0.6984635    0.2926362 -38.56  0.002960656    2.272    0.560
        76  -8.9563    236.1882    180.9488   9.4831605781e+01  -2.0580812383e+00    0.3322241    0.1740652 -47.97  0.001399377    2.113    0.527
        77  -9.3761    162.8078    191.6671   1.1181775351e+02   1.0021586092e+01    0.3581728    0.1979611 -32.76  0.001424099    2.434    0.589
        78  -9.8771    230.9606    185.6219   9.6737866447e+01  -1.9357118433e+00    0.5629475    0.4274235 -89.53  0.002508286    2.412    0.585
        79 -10.1981    219.4895    178.8663   9.7517567625e+01   1.3762091091e+00    0.8583883    0.3508081  54.68  0.002859076    3.810    0.738
        80  -8.9164    230.5232    180.5080   9.5778671173e+01  -9.6403046518e-01    0.2524029    0.2330213  69.69 0.0007296681    1.360    0.265
        81  -9.6794    224.7609    184.4236   9.7653957740e+01  -6.0474627103e-01     0.352853    0.2754488 -20.01  0.001097609    1.279    0.218
        82  -9.9649    226.1571    179.7306   9.6431950140e+01  -2.6594428284e-02    0.4873439    0.3132709  -7.60  0.002169124    2.223    0.550
        83  -8.4553    214.5258    191.9393   1.0113044894e+02  -5.8924622599e-02    0.2038993    0.1331421 -38.52 0.0005883211    1.526    0.345
        84  -8.2893    129.4552    192.5508   1.1942576804e+02   1.6304719528e+01    0.1445089    0.1354041  64.72 0.0001796059    1.034    0.033
        85  -8.9223    168.4058    191.2004   1.1050899711e+02   9.0083967249e+00    0.2056845    0.1408817 -59.55 0.0009544617    1.696    0.410
        86  -8.2913    172.9922    189.0097   1.0909284566e+02   8.5424681299e+00    0.1777773    0.1736789  33.39  0.001007385    1.021    0.021
        87  -8.7828    157.5146    186.9682   1.1208937907e+02   1.2056889560e+01    0.2185693     0.147274 -48.24 0.0007183105    1.550    0.355
        88  -9.0773    249.4666    184.8566   9.3263901773e+01  -4.9994022300e+00    0.3556681     0.213302 -47.83  0.001779061    1.865    0.464
        89  -9.2736    203.3454    184.3081   1.0180901625e+02   3.4637501248e+00    0.3623719    0.1661285 -34.87  0.001324926    2.424    0.587
        90  -9.5148    224.2700    191.7260   9.9215828085e+01  -1.7964349961e+00    0.6505294    0.3310493 -25.87  0.002696966    2.456    0.593
        91  -8.7316    218.5059    184.5252   9.8867088796e+01   5.3349278682e-01    0.3419802    0.2442692 -88.64   0.00146452    2.836    0.647
        92  -9.0431    209.6801    183.9937   1.0048096110e+02   2.3003029048e+00    0.3669569    0.1624986 -40.85  0.001468419    2.249    0.555
        93  -9.3223    198.0364    182.0694   1.0242922533e+02   4.9316384629e+00     0.366877    0.2560197 -34.00  0.001248769    1.479    0.324
        94  -9.3808    197.6443    176.1020   1.0127512048e+02   6.1703889655e+00    0.3176887    0.2184175 -34.87  0.001516935    1.493    0.330
        95  -9.0871    242.0298    180.6959   9.3731860823e+01  -3.0406150946e+00    0.3162629    0.2078933 -46.48  0.001634578    1.607    0.378
        96  -8.8743    245.5065    178.1988   9.2611646593e+01  -3.2189220446e+00    0.2475081    0.1877542  53.59  0.001139537    1.631    0.387
        97  -9.6580    192.4824    177.8631   1.0270770487e+02   6.8633592991e+00    0.5522094    0.2662388 -25.59  0.001732033    3.903    0.744
        98  -9.3998    193.7337    172.3879   1.0130118265e+02   7.6978811551e+00    0.3629659    0.2298575 -29.31  0.001594549    1.816    0.449
        99  -8.5410    250.5513    179.0079   9.1900966370e+01  -4.2143485090e+00    0.2004238    0.1182653 -37.67 0.0006936567    1.547    0.354
       100  -9.6416    233.4641    174.1603   9.3931044007e+01  -3.7912560848e-01    0.4420747    0.2558747 -34.27  0.002097585    1.653    0.395
       101  -8.9014    237.3815    169.8061   9.2319097766e+01  -3.2442411884e-01    0.2816334    0.1758401 -30.41  0.001189894    1.562    0.360
       102  -8.4430    182.9478    175.2248   1.0416914700e+02   9.3367896258e+00    0.2498529    0.1754433  12.72  0.001082322    2.000    0.500
       103  -9.7824    225.3656    172.4954   9.5078570152e+01   1.4268576835e+00    0.5451983    0.2942167 -44.40  0.002440094    1.835    0.455
       104 -10.3038    212.3159    168.4913   9.6727191645e+01   4.7060239634e+00    0.5707443    0.2892752 -39.10  0.002392761    1.933    0.483
       105  -9.3637    213.2380    163.7678   9.5534176919e+01   5.4252752612e+00    0.3415371     0.253233  29.57  0.001425515    1.470    0.320
       106  -8.6208    200.6673    171.1362   9.9611985380e+01   6.5339319652e+00    0.2190837    0.1310755 -31.99 0.0009395878    1.827    0.453
       107  -8.5375    183.8607    171.1590   1.0312015284e+02   9.9814097314e+00     0.205727    0.1773241  -8.55  0.000601716    1.307    0.235
       108  -9.2565    169.8832    169.0477   1.0571759211e+02   1.3342721689e+01     0.314202    0.2176151 -41.84 0.0007820076    1.486    0.327
       109  -9.1533    247.8439    167.3401   8.9978550931e+01  -1.7713577646e+00    0.4227496    0.2069767  52.11  0.001833765    2.568    0.611
       110  -8.7877    147.1619    168.1356   1.1070616660e+02   1.8272253866e+01     0.225013    0.2125574  -4.99 0.0005235896    1.194    0.163
       111  -8.9934    218.6560    166.7814   9.5138211451e+01   3.7771915486e+00    0.1980556    0.1759931   1.23 0.0007421355    1.156    0.135
       112  -9.1656    192.8339    165.9376   1.0010991124e+02   9.1799430173e+00    0.3640611    0.1965019 -40.10  0.001469237    1.869    0.465
       113  -8.6106    233.9359    164.0301   9.1722386691e+01   1.3461967568e+00    0.2158536    0.1710898 -72.50 0.0009451303    1.737    0.424
       114  -8.4220    240.7988    162.9307   9.0274898411e+01   2.6743341165e-01    0.2157307    0.1716195 -11.63 0.0008078429    1.329    0.248
       115  -8.9265     46.9336    162.0708   1.3414841969e+02   3.6493298642e+01    0.1994002    0.1702552 -77.10 0.0005047662    1.055    0.052
       116  -9.0937    245.6506    158.3643   8.8477738188e+01   1.8642427502e-01    0.4047019     0.232483  34.54  0.001654241    2.044    0.511
       117  -8.8310    136.5329    159.4992   1.1143248883e+02   2.2413565899e+01    0.1523217    0.1490225  88.17 0.0001879503    1.036    0.035
       118  -8.0438    236.6977    158.7038   9.0099016392e+01   1.7879939238e+00    0.1390392    0.1059722  -1.92 0.0006996099    1.578    0.366
       119 -10.2044    227.4238    156.3288   9.1251813983e+01   4.0103173011e+00    0.6022789    0.3872936  -5.47  0.002485339    2.558    0.609
       120  -9.6209    233.2672    152.2677   8.9322069872e+01   3.6189612931e+00      0.40769    0.2624553  28.94   0.00190298    1.928    0.481
       121  -9.9299    229.8384    147.6143   8.8916476304e+01   5.1557420866e+00    0.3102845    0.1993714 -48.43 0.0009402691    1.541    0.351
       122  -8.3154    156.6656    156.6495   1.0604363121e+02   1.8850832475e+01    0.1609411    0.1258033  -3.46 0.0001233012    1.781    0.439
       123  -8.4658    198.4066    155.2461   9.6614802172e+01   1.0169486992e+01    0.2168137    0.1393203 -52.23 0.0008793765    1.656    0.396
       124 -10.1378    243.0039    152.7288   8.7732787687e+01   1.6760488462e+00    0.3751069     0.302563  50.34  0.001236553    1.397    0.284
       125 -10.7126    244.1554    148.4390   8.6621651225e+01   2.2272769743e+00    0.5317432     0.474975  29.81  0.002066251    1.224    0.183
       126  -8.1328    250.5171    153.5037   8.6639873495e+01   1.5510532177e-01     0.137071    0.1216347 -33.38 4.373715e-05    1.027    0.026
       127  -9.1092    206.5035    153.0405   9.4499629314e+01   8.9002754292e+00    0.2185952    0.2081618  26.79  0.001034013    1.079    0.073
       128  -8.3068     35.7616    150.7543   1.3533844241e+02   4.0421469191e+01    0.1771499    0.1303867  82.02 0.0005819697    1.344    0.256
       129  -8.9904    197.0007    149.0216   9.5502190965e+01   1.1731156978e+01    0.2355067    0.2262866 -55.10 0.0009096038    1.044    0.042
       130  -9.0098    221.5576    152.9190   9.1588346558e+01   5.8199020899e+00    0.3341784    0.1335556 -43.19 0.0008540599    2.376    0.579
       131  -9.4395    224.0089    146.5413   8.9729965415e+01   6.5322967137e+00    0.3029103    0.2740589  48.70 0.0009749372    1.185    0.156
       132  -8.9235    206.7137    147.1625   9.3139051485e+01   1.0020159890e+01    0.2909352    0.1991306  18.45  0.001241982    2.091    0.522
       133  -9.0382    217.0504    147.7343   9.1283265331e+01   7.7347518439e+00    0.3307807    0.1941623  40.81     0.001454    1.842    0.457
       134  -8.4763     17.1488    147.1885   1.3947523771e+02   4.3006291011e+01    0.1722767    0.1237483  79.95 0.0005853447    1.358    0.263
       135  -9.5642    230.3563    140.5010   8.7256636762e+01   6.3786043279e+00    0.3175621     0.248521 -37.20 0.0009107229    1.189    0.159
       136  -8.2717      9.3407    142.2689   1.4080146038e+02   4.4762375127e+01    0.1163844   0.07681123 -47.14 0.0006986356    1.604    0.376
       137  -8.9416    250.1426    140.3389   8.3907349784e+01   2.5431770778e+00    0.2332469    0.2123529 -10.51  0.001125631    1.157    0.136
       138  -9.8903    225.1458    138.5306   8.7739096006e+01   7.8160526087e+00    0.3860571    0.2847196 -15.03  0.001857869    1.681    0.405
       139  -8.9827    218.7529    138.6228   8.8918202663e+01   9.1346830607e+00    0.1987955    0.1418945  61.41 0.0007302059    1.617    0.382
       140 -10.7652    242.1211    132.8692   8.3586840361e+01   5.4271778762e+00    0.8729758    0.5813449  13.02  0.003801022    2.570    0.611
       141  -9.6958    249.1371    133.9453   8.2695335980e+01   3.8688533855e+00    0.3807257    0.2269715 -45.73  0.001277311    1.528    0.345
       142  -9.1250    248.2999    130.6385   8.2113519077e+01   4.6189056871e+00     0.298736    0.1854218 -62.61    0.0011781    2.096    0.523
       143  -8.4003     53.1336    135.8496   1.2846932873e+02   4.2025201616e+01     0.193041    0.1658022 -84.17 0.0004167201    1.121    0.108
       144  -9.2692    234.2905    133.1981   8.4958825979e+01   6.9366427419e+00    0.4536194    0.1890547 -36.04  0.001406262    2.375    0.579
       145  -8.2849    230.7890    134.5531   8.5858574176e+01   7.4001807200e+00    0.2031803    0.1459911  52.10 0.0006533203    1.516    0.341
       146  -8.3912    169.9940    134.3792   9.7853753242e+01   2.0803928521e+01    0.2218597    0.1974954  45.81 0.0005854765    1.141    0.124
       147  -8.4296    221.0102    129.2888   8.6384129794e+01   1.0443071165e+01    0.2043355    0.1964389  70.81  0.001154359    1.103    0.093
       148  -8.6087    206.4832    126.9111   8.8506434044e+01   1.4080856175e+01    0.2312714    0.1441224 -41.93 0.0005490344    1.535    0.348
       149  -7.8003    193.2994    127.6513   9.1265943814e+01   1.6904817562e+01    0.1603534    0.1200724 -75.58 0.0006178748    1.686    0.407
       150 -10.0191    241.7964    124.3952   8.1778491707e+01   7.0251831192e+00    0.3899538    0.3450427  85.33  0.002251566    1.268    0.211
       151  -9.8907    229.5471    124.2481   8.3754150841e+01   9.5785128229e+00    0.5313972    0.3347118 -10.72  0.002058544    2.912    0.657
       152  -8.6513    199.7614    125.4078   8.9444990709e+01   1.5889297555e+01    0.2215439    0.1434241  40.20 0.0009596738    1.716    0.417
       153  -8.8648    222.2825    120.7550   8.4199590665e+01   1.1786369343e+01    0.2984201    0.2703448 -63.59  0.001653138    1.085    0.078
       154  -9.3248    209.9196    118.3440   8.5839673395e+01   1.4980385139e+01    0.3336043    0.2507412 -16.23  0.001556303    1.710    0.415
       155 -10.3485    248.5897    106.1757   7.6749981691e+01   8.8839883299e+00    0.5959946    0.3784984 -31.64  0.002935585    1.643    0.391
       156 -10.0472    245.0957     98.1738   7.5496567391e+01   1.0992430196e+01    0.4514963    0.2370827 -44.29  0.002009932    1.681    0.405
       157  -9.1852    248.6732     98.3287   7.5027988233e+01   1.0223389785e+01     0.305773    0.1562482 -54.29  0.001334096    1.996    0.499
       158 -10.3998    244.6231    113.9541   7.9039751749e+01   8.3233906716e+00    0.6670328    0.4153065 -78.49  0.002817352    2.623    0.619
       159  -9.6553    247.6058    111.2868   7.8009024738e+01   8.1891617172e+00    0.3084817    0.2616645 -39.93  0.001525727    1.110    0.099
       160  -9.9980    230.3531    115.7578   8.1692944538e+01   1.0977531713e+01    0.3790778    0.2859818 -72.72  0.001831028    1.544    0.352
       161  -9.2447    235.7276    115.3680   8.0735960335e+01   9.9100195962e+00    0.2732209    0.1552519 -48.27 0.0008847755    1.647    0.393
       162  -8.1891    104.4359    111.8244   1.0874463445e+02   3.9787007929e+01    0.1972825    0.1373606 -37.93 0.0003652698    1.475    0.322
       163  -8.9849     14.9398    112.1849   1.3520994962e+02   5.1203759706e+01    0.1744168    0.1434695 -82.37 0.0005030491    1.200    0.167
       164  -8.7059    231.2144    109.2189   8.0064379916e+01   1.1986714694e+01    0.2099021     0.190574 -32.08 0.0008026991    1.158    0.137
       165  -9.8629    242.0821    104.7225   7.7380499789e+01   1.0481120199e+01    0.2901931    0.2171084 -57.01  0.001549416    1.266    0.210
       166  -9.6916    235.7801     99.9279   7.7248098365e+01   1.2664149315e+01    0.4200386    0.1673572 -36.15  0.001575196    2.517    0.603
       167  -7.8031    221.3202    100.3043   7.9599737786e+01   1.5785932779e+01    0.1407109    0.1172929  11.53  0.000431937    1.632    0.387
       168  -8.7349    225.1503     96.3441   7.8061343196e+01   1.5636103995e+01    0.2867506    0.1226576  49.14  0.001098166    2.575    0.612
       169  -8.6671    231.1173     95.1418   7.6863794950e+01   1.4522511908e+01    0.2066381    0.1967749 -16.96 0.0008661853    1.237    0.192
       170 -10.1175    242.7932     92.1873   7.4500385658e+01   1.2505670821e+01    0.3390926    0.2443941 -13.37  0.001645948    2.078    0.519
       171  -8.9854    237.1340     89.9000   7.4790423554e+01   1.4113714220e+01     0.225636    0.1768396 -66.11 0.0008276856    1.230    0.187
       172  -8.5982    226.4368     86.7793   7.5643139184e+01   1.7020979576e+01    0.1973872    0.1353858 -29.48 0.0006582476    1.657    0.397
       173 -10.0013    248.6672     82.6164   7.1616984211e+01   1.2868069548e+01     0.319439    0.2169579 -33.31  0.001670356    1.558    0.358
       174  -8.2276    206.1250     60.8076   7.2491277401e+01   2.6043303131e+01    0.1805467    0.1711625  16.14 0.0004870133    1.330    0.248
       175  -8.1785    250.6119     54.7913   6.5465289254e+01   1.6812857574e+01    0.1879878    0.1008896 -50.02 0.0006714055    1.620    0.383
       176  -8.5305    244.9774     41.2841   6.3243380398e+01   1.9964580573e+01    0.2393976    0.1739398  -2.65  0.001204618    2.697    0.629
       177  -8.0854    209.3703     38.7798   6.6739218310e+01   2.8451326701e+01    0.1687239    0.1303644 -26.96 0.0009324105    1.582    0.368
       178  -8.7078    185.5139     37.0121   6.9563512656e+01   3.4456385082e+01    0.2077821   0.09456738 -54.77 0.0008103878    2.679    0.627
       179  -7.6227    162.6381     37.6802   7.3420050961e+01   3.9969998830e+01    0.1469397   0.09869015  35.26 0.0007042096    1.772    0.436
       180  -7.9925     68.3112     34.6894   9.6016507389e+01   6.0273870084e+01    0.1084083    0.1017779 -75.59 0.0007027487    1.626    0.385
       181  -8.2399    150.0233     27.7616   7.2797501620e+01   4.4216430385e+01    0.1821411    0.1028716  62.40  0.000514861    1.577    0.366
       182  -9.0613    126.0227    248.4853   1.2840432735e+02   5.6877782099e+00    0.2175367    0.1821691 -40.68  0.001341008    1.566    0.361
       183  -8.4165    218.2302     16.3771   6.0631043374e+01   2.9164662666e+01    0.2617323    0.1106854  77.03   0.00116487    2.253    0.556
       184  -9.7451    221.2160     18.0413   6.0696468951e+01   2.8284371424e+01     0.239848    0.1706226 -28.40  0.001398487    1.752    0.429
       185  -8.7621     74.6897     18.3329   8.7610115321e+01   6.1208928362e+01    0.1070582   0.09777648 -67.00 0.0007043045    1.674    0.403
       186  -9.2721    199.6533     15.5298   6.2414494043e+01   3.3611525762e+01     0.212806    0.1897129 -88.26 0.0006415641    1.100    0.091
       187  -8.0953    162.4819     15.4980   6.7244809949e+01   4.2544461053e+01     0.132608    0.1131321  82.02 0.0001236335    1.083    0.077
       188  -8.0286    140.4850     13.4978   7.0231160456e+01   4.7957657513e+01    0.1303994    0.1122303  60.46    6.178e-05    1.011    0.010
       189  -8.8576    176.4185    248.1041   1.1854676851e+02  -2.8139765999e+00    0.2577386    0.1629871  45.60  0.001146621    1.406    0.289
       190  -8.8689     58.4996     12.4883   9.0588546153e+01   6.4506899924e+01    0.1178657   0.09340787  12.10 0.0008105796    1.003    0.003
       191  -8.4163    249.2448    246.9604   1.0481023523e+02  -1.4048083671e+01    0.1596754    0.1238256   0.84 0.0004766272    1.074    0.069
       192  -8.6309    187.1507    247.0945   1.1632012274e+02  -4.4628051301e+00    0.1882812    0.1538585  16.05 0.0005732912    1.205    0.170
       193  -9.1495    113.4641    245.3482   1.3045318151e+02   8.3402223746e+00    0.3141577    0.2181994 -43.10  0.001777266    1.979    0.495
       194  -8.6824    152.2289    245.8864   1.2294356861e+02   1.6875632240e+00    0.2440164    0.1606103  19.80  0.001215049    2.050    0.512
       195  -9.2479     68.7688     10.4002   8.6295981383e+01   6.3044719568e+01     0.167209   0.09063184  36.47  0.000545692    1.587    0.370
       196  -8.8325    191.7633    245.4147   1.1516990452e+02  -4.9756632430e+00    0.1897975    0.1047208  31.16 0.0009569523    1.695    0.410
       197  -9.5404    224.8562    242.5170   1.0844884063e+02  -9.8809259386e+00    0.3212559    0.2414326 -36.17  0.002038959    1.506    0.336
       198  -9.2187    203.1235    242.1474   1.1246797062e+02  -6.3620449741e+00    0.3273191     0.166123  36.47  0.001642636    1.721    0.419
       199  -9.2556    246.5832    240.8682   1.0423786900e+02  -1.2886862068e+01    0.1950278    0.1643435  15.21 0.0005794569    1.153    0.133
       200  -9.6068    240.3685    240.5484   1.0529021563e+02  -1.1945178031e+01    0.2606195    0.1992164  41.70 0.0009571161    1.515    0.340
       201  -8.2571    235.8258    237.1915   1.0553019336e+02  -1.0812153367e+01    0.1772887    0.1434033  10.72  0.001170845    1.025    0.024
       202  -9.1579    215.3485    240.6914   1.0991180891e+02  -8.1284114922e+00    0.2518334    0.2045249  48.97  0.001586636    1.460    0.315
       203  -8.4868    233.3309    247.7539   1.0777919180e+02  -1.1871463297e+01    0.2568581     0.128856  49.49  0.001218548    2.780    0.640
       204  -8.6778    104.5775    240.8375   1.3164583320e+02   1.0639209781e+01    0.2848918    0.1483737  29.08  0.001241224    2.803    0.643
       205  -9.4777    230.9839    236.7313   1.0633367449e+02  -1.0011669457e+01    0.2809663    0.1995549 -31.71  0.001161739    1.469    0.319
