#   1 NUMBER                 Running object number                                     
#   2 MAG_AUTO               Kron-like elliptical aperture magnitude                    [mag]
#   3 X_IMAGE                Object position along x                                    [pixel]
#   4 Y_IMAGE                Object position along y                                    [pixel]
#   5 X_WORLD                Barycenter position along world x axis                     [deg]
#   6 Y_WORLD                Barycenter position along world y axis                     [deg]
#   7 A_WORLD                Profile RMS along major axis (world units)                 [deg]
#   8 B_WORLD                Profile RMS along minor axis (world units)                 [deg]
#   9 THETA_WORLD            Position angle (CCW/world-x)                               [deg]
#  10 FWHM_WORLD             FWHM assuming a gaussian core                              [deg]
#  11 ELONGATION             A_IMAGE/B_IMAGE                                           
#  12 ELLIPTICITY            1 - B_IMAGE/A_IMAGE                                       
         1  -9.9088    149.8073     39.3559   5.2049319467e+01   4.3079629998e+01    0.5247436    0.2445683 -50.56  0.001668783    2.846    0.649
         2 -11.4560     79.5460     32.3869   6.7841211518e+01   5.9585064574e+01    0.6111926    0.4676807 -71.54  0.003055332    2.493    0.599
         3  -9.8311     21.9535     27.0782   9.0261829683e+01   6.8565869421e+01    0.5736047   0.09957764 -43.44  0.002005888    4.124    0.758
         4 -10.2569     15.4761     27.8821   9.3915454821e+01   6.8977302593e+01    0.4358094      0.21968 -36.17  0.002431094    1.567    0.362
         5 -10.7460     30.4393     23.5035   8.4460143888e+01   6.8297160010e+01    0.6462703    0.2610524 -32.26  0.003041658    2.290    0.563
         6 -10.0978     29.1726     18.1296   8.2635423978e+01   6.9268937714e+01    0.3597673    0.1859575 -21.35  0.001605754    1.905    0.475
         7 -10.7839    101.7965     16.3396   5.4559169234e+01   5.6957546773e+01    0.4837153    0.3399194  24.56  0.001449124    1.397    0.284
         8 -11.3987     57.3887     14.0708   6.7881210894e+01   6.5856680661e+01    0.7436579    0.4348374   7.87  0.003480094    1.917    0.478
         9 -11.6391    111.7411     19.1638   5.3201339721e+01   5.4449446265e+01    0.4656896    0.3786615  43.55  0.002434024    1.086    0.080
        10 -11.1404    149.9846     18.5049   4.5383567657e+01   4.5445683494e+01    0.3482538    0.3065831 -16.13 0.0004940996    1.262    0.208
        11 -10.9884    155.4928     13.4737   4.2952601943e+01   4.4598302322e+01    0.8780276    0.4458502   1.26  0.003483222    3.434    0.709
        12 -10.5319     86.6056     16.7613   5.8959997060e+01   6.0130104291e+01    0.4865246    0.2651791 -37.98  0.001387606    2.158    0.537
        13  -9.7651     38.4920     16.3902   7.7242193084e+01   6.8379072774e+01    0.3167929    0.1973407  19.63  0.001354084    1.498    0.332
        14  -9.8905     25.3206      7.3271   7.9279317826e+01   7.1244796582e+01    0.2521396    0.1577072 -30.92 0.0002354585    1.462    0.316
        15  -9.4981     23.7637      2.7946   7.7692662806e+01   7.2016645524e+01    0.3170224    0.1576196  28.14  0.001770376    1.905    0.475
        16  -9.9288     22.8035     15.9861   8.4917922567e+01   7.0279268481e+01    0.2827727    0.2663296   4.48  0.001660297    1.561    0.359
        17 -10.1527     17.4681      3.2356   8.1410463630e+01   7.2658038767e+01    0.3300875     0.270593  -0.30   0.00175272    1.269    0.212
        18 -11.0276      4.7041      3.3954   8.9061117484e+01   7.3802901945e+01     0.580527    0.3203311  -4.42  0.002671801    1.716    0.417
        19 -10.0606     19.2210     11.0121   8.4445165171e+01   7.1385854655e+01    0.2548668    0.1761906  -8.25 0.0007294851    1.165    0.142
        20  -9.5440     16.0230      8.4827   8.4963234049e+01   7.2069311945e+01    0.2686395    0.1644103   8.75 0.0009777616    1.511    0.338
        21 -10.6561     12.0195      6.7739   8.6396023926e+01   7.2691044143e+01    0.3144103    0.2500944 -19.47  0.001276462    1.217    0.179
        22 -10.1695     10.4503     15.0032   9.1230799590e+01   7.1554526972e+01    0.3457601    0.2626163 -44.64  0.002417018    1.491    0.329
        23 -10.3281    185.8471     13.5978   3.9007386065e+01   3.7236220523e+01    0.2976948    0.2174319  82.97  0.001143431    1.275    0.216
        24 -11.3018    181.5011     13.1498   3.9394991568e+01   3.8321643044e+01    0.9585328    0.3561414  46.31  0.003671842    3.238    0.691
        25 -11.9392    122.5875     11.0717   4.7835302469e+01   5.2727406074e+01    0.6317277    0.3389556  53.64  0.000702795    1.581    0.368
        26 -11.0793    127.5704      5.0883   4.4769102266e+01   5.2065280478e+01    0.3283664    0.3199961  33.40 0.0006059029    1.125    0.111
        27  -9.7043     43.8200     14.9211   7.4062208248e+01   6.7846006333e+01    0.2969867    0.1818013  -7.64  0.001402785    1.617    0.382
        28  -9.7288    216.4786      8.3358   3.4661557549e+01   3.0672311466e+01    0.2951428    0.2083149 -41.54  0.001606059    1.373    0.272
        29 -10.8559    210.9306     10.6495   3.5692419145e+01   3.1684817710e+01    0.4056562    0.2931982 -69.12  0.001299386    1.277    0.217
        30 -10.2061    212.5893      5.8001   3.4406754370e+01   3.1797796388e+01    0.3024193    0.2074286 -33.23  0.001823947    1.525    0.344
        31  -9.3221     92.4258     10.5614   5.4666639893e+01   5.9542813890e+01    0.3373586    0.2340439  31.77  0.001519473    1.285    0.222
        32  -9.3702     47.1284      9.3000   6.9800032549e+01   6.8056506477e+01    0.3187799      0.20793  15.22  0.001921617    1.375    0.273
        33  -9.1296    102.3339      7.9461   5.1069186078e+01   5.7629676531e+01    0.3030165    0.1754847  21.95   0.00108488    1.929    0.481
        34 -10.2281     78.7754      6.7134   5.6919034990e+01   6.2708167059e+01    0.3211984    0.2805566  12.26   0.00213485    1.114    0.102
        35  -9.6139    107.9927      5.9976   4.9000265349e+01   5.6528947579e+01    0.3513291    0.2669492  -9.29  0.002098423    1.425    0.298
        36  -9.1760    105.6837      2.3222   4.8072296161e+01   5.7344393567e+01    0.2961755    0.1728458  61.87 0.0007388557    1.570    0.363
        37  -9.2838    102.4718      1.5339   4.8471571637e+01   5.8123520760e+01    0.2496672     0.186669  69.38 0.0009148333    1.414    0.293
        38  -8.7055     64.9993      5.6665   6.0961514571e+01   6.5437869868e+01    0.1740818    0.1323567  31.83 0.0004487155    1.135    0.119
        39 -10.5502     90.1153      3.1225   5.2126468309e+01   6.0685936665e+01      0.34272    0.2693173  65.58  0.001380173    1.422    0.297
        40 -10.8279     84.5870      1.3814   5.2849904167e+01   6.1985844147e+01    0.2618603    0.1319593  58.89 0.0003303331    1.928    0.481
        41  -9.9445     38.5674      4.9765   7.1424693668e+01   6.9826448514e+01    0.2744841    0.1607098  35.70 0.0009906954    1.653    0.395
        42  -8.7590     40.4583      1.3128   6.8592279537e+01   6.9960401729e+01    0.2852456    0.1471608  46.91  0.001345594    2.320    0.569
        43  -8.9278     30.8106      3.0554   7.4163244372e+01   7.1111242309e+01    0.2785146    0.1335327 -39.20  0.001466963    2.457    0.593
        44  -8.6930    185.5261      1.8853   3.5961313714e+01   3.8420480849e+01    0.1682716    0.1239834 -28.23 0.0005198793    1.514    0.340
        45  -9.2233     55.3090      1.9581   6.2699766180e+01   6.7512127738e+01    0.3375358    0.1332999  45.17  0.001619705    2.252    0.556
        46  -8.7286    241.9508      1.5157   3.1268502112e+01   2.5893741679e+01    0.1664511    0.1009112  80.66 0.0007374546    1.539    0.350
        47  -8.7756    195.9630      1.7396   3.4912287429e+01   3.5987610051e+01     0.163468   0.09548976  74.31 0.0005211211    1.524    0.344
        48  -8.7236    136.9955      1.3879   4.1933575598e+01   5.0114221960e+01    0.2014613    0.1098033  66.13 0.0003846099    1.593    0.372
        49  -9.8789     63.4991      1.3925   5.9402811132e+01   6.6112153012e+01    0.4451724   0.09715002  50.82  0.001225845    3.936    0.746
        50  -8.1429     34.6162      1.7149   7.1552614461e+01   7.0755920818e+01    0.1262345   0.07216873   9.79  0.000701055    1.738    0.425
        51 -10.0815      2.3351    112.5076   1.1833931464e+02   5.1295346506e+01     0.277721    0.1752078 -86.64 0.0009436636    1.460    0.315
        52  -9.3558     45.5856    113.0016   1.0485510219e+02   4.7860494345e+01    0.1984283    0.1850059   7.13  0.001006491    1.225    0.183
        53  -8.2804     32.2978    113.3038   1.0916223881e+02   4.9051798341e+01     0.136923   0.08557092 -41.30 0.0002020447    1.584    0.369
        54  -8.6485    109.0547    111.6648   8.4679855594e+01   3.8824178401e+01    0.3115448    0.1965013  23.12  0.001285916    1.977    0.494
        55  -9.3509     62.8928    111.8410   9.9034525111e+01   4.6136287279e+01     0.231463    0.1753691 -33.60 0.0009768263    1.353    0.261
        56  -9.6872     49.7887    111.5573   1.0321367417e+02   4.7764395009e+01    0.2813803    0.2154744  86.14 0.0007962348    1.562    0.360
        57 -10.7926     20.8959    109.8560   1.1222810338e+02   5.0792899441e+01    0.3956082     0.285389  54.56   0.00231775    1.652    0.395
        58  -9.2019    128.6442    109.3157   7.8524142489e+01   3.5466286590e+01    0.3312191    0.2433586  20.53  0.001480913    1.610    0.379
        59  -9.0484     28.0218    109.8374   1.0994326732e+02   5.0254126217e+01    0.2103502    0.1510099 -42.28 0.0009731399    1.339    0.253
        60 -10.6742      7.4198    108.2285   1.1624169525e+02   5.2042901378e+01    0.4108642    0.3076052 -87.45  0.002046783    1.283    0.221
        61  -9.7757      8.6360    103.3698   1.1518213034e+02   5.3133556582e+01    0.2539687    0.1887762  78.65  0.001386864    1.490    0.329
        62  -8.9827     11.7310    101.6742   1.1392626149e+02   5.3358982673e+01     0.201987    0.1415349 -55.20 0.0003908633    1.167    0.143
        63  -8.7949    100.2378    109.1452   8.6639263965e+01   4.1024141990e+01    0.2320135    0.1936095 -28.85 0.0005994083    1.205    0.170
        64  -8.3835     91.6517    108.7361   8.9160190856e+01   4.2611002113e+01    0.1513505    0.1148196 -11.03 0.0003295556    1.610    0.379
        65  -9.1561    119.0651    107.5094   8.0688718802e+01   3.7819529541e+01    0.2323353    0.1543538  41.43  0.001018701    1.550    0.355
        66  -8.0746     72.3009    107.2962   9.4945786871e+01   4.5961738960e+01     0.147754    0.1055801 -26.03 0.0002833946    1.576    0.365
        67  -8.4705     35.0259    106.7893   1.0711951740e+02   5.0398282438e+01    0.1933199    0.1347684 -84.40  0.001022524    1.589    0.371
        68  -8.9079     61.2554    106.5897   9.8394690135e+01   4.7616494232e+01    0.1750712    0.1363765   3.49 0.0002602663    1.509    0.337
        69  -8.6450     42.0000    105.9058   1.0463828617e+02   4.9954313887e+01    0.2311171   0.06810567 -61.95 0.0007990695    2.919    0.657
        70 -10.5750     79.8445    103.7713   9.1627750174e+01   4.5680552024e+01    0.3994206    0.2959191   9.35 0.0008453559    1.620    0.383
        71  -9.8122     17.1390    103.6548   1.1246358658e+02   5.2546212249e+01    0.3160216    0.1795099 -36.87 0.0008819496    1.827    0.453
        72  -9.7033    108.2444    103.3214   8.2676384358e+01   4.0871147390e+01    0.3591808    0.2444111  26.45 0.0007247763    1.659    0.397
        73  -9.4877     64.9504    104.0336   9.6577432349e+01   4.7751490744e+01    0.2170989    0.1868896 -41.22            0    1.058    0.055
        74  -9.2892     61.5104    101.5323   9.7131287686e+01   4.8795660754e+01    0.1955674    0.1317824  41.45 0.0001596792    1.691    0.409
        75  -8.6920    134.4839    102.9934   7.5215428977e+01   3.5594585789e+01    0.2424484    0.1517667 -41.93 0.0008141182    1.561    0.359
        76  -8.9079     56.6799    102.9911   9.9097067130e+01   4.9046840718e+01    0.2037982    0.1875899   7.00 0.0005793446    1.194    0.162
        77 -10.3082     53.4505     99.3317   9.9350562901e+01   5.0303498640e+01    0.4816565    0.2429738 -48.64  0.002174753    1.709    0.415
        78  -8.5502     94.8021    101.5721   8.6288788643e+01   4.3727876819e+01     0.201925    0.1440022  47.79 0.0005119157    1.573    0.364
        79  -9.8552     69.1951     96.6544   9.3321772945e+01   4.8914074108e+01    0.3362058     0.228131 -59.39 0.0008697794    1.484    0.326
        80  -8.7196    107.4944     97.5422   8.1279755275e+01   4.2296600369e+01    0.1558307    0.1424385 -14.39 0.0001036467    1.076    0.071
        81 -10.2798     16.7630     95.6190   1.1125592129e+02   5.4486940726e+01    0.3314345    0.2286545  59.32  0.001554975    1.859    0.462
        82  -9.0701    148.0480     96.3007   6.9865839763e+01   3.3978166926e+01    0.2208366    0.1971029  42.89 0.0003752128    1.139    0.122
        83  -9.6374     79.1819     94.8909   8.9499107380e+01   4.7841030574e+01    0.3667628    0.2851045 -20.15  0.001503659    1.376    0.273
        84 -10.0889     35.4627     95.0044   1.0463593257e+02   5.3189609704e+01     0.513415     0.246477 -30.50  0.001675446    2.634    0.620
        85 -10.5119    139.5265     87.3258   6.9379985738e+01   3.7672832431e+01     0.751653    0.2186621 -41.49  0.002228511    3.368    0.703
        86 -11.4127    131.6913     86.6730   7.1217102451e+01   3.9548670823e+01    0.3011154    0.2797485 -18.96 0.0002992133    1.050    0.048
        87  -9.5792    135.7038     84.3471   6.9465721823e+01   3.9110316776e+01    0.3854529    0.2480918 -60.15  0.001566997    2.112    0.526
        88  -9.8738    132.2825     93.4096   7.3058131379e+01   3.8065665864e+01    0.2695732    0.2331473   9.50 0.0006259943    1.241    0.194
        89  -9.5339    116.6026     93.5157   7.7435794978e+01   4.1357932496e+01    0.2901818    0.2439785 -74.66 0.0006944739    1.503    0.335
        90 -10.3556     87.6463     90.3453   8.5425758350e+01   4.7484076237e+01    0.6514626    0.3931372 -65.81  0.001852802    2.442    0.590
        91  -8.4498      1.4542     94.4827   1.1626063289e+02   5.5597507292e+01    0.1237354   0.09660593 -65.82 0.0001072581    1.031    0.030
        92  -9.9215    109.7611     88.4263   7.7929017493e+01   4.3808169602e+01    0.3404198    0.2102625 -38.87 0.0009572814    1.576    0.365
        93  -8.3960     73.5381     92.5723   9.0763077620e+01   4.9228273182e+01    0.1460582    0.1300713 -30.06 0.0001273939    1.034    0.033
        94  -7.9613      9.2980     92.3238   1.1326845519e+02   5.5709647172e+01    0.1335821   0.07133836 -45.01 0.0003652189    1.626    0.385
        95  -8.4453    148.5584     91.5213   6.8370628559e+01   3.4805585998e+01     0.154226    0.1493925 -16.89 0.0001133791    1.008    0.007
        96 -10.0650     44.9406    101.6483   1.0277069116e+02   5.0684098420e+01     0.352302    0.2646021  87.63  0.001285586    1.664    0.399
        97 -11.3590    120.4301     87.9106   7.4674583094e+01   4.1728936392e+01    0.6396984    0.4501704  44.98  0.002590932    1.458    0.314
        98 -10.5133    124.4930     85.5036   7.2810485893e+01   4.1349489117e+01    0.3486852     0.316627 -56.67  0.001756742    1.209    0.173
        99  -9.3783     39.1143     85.2630   1.0112711099e+02   5.5130239138e+01    0.2135131    0.1653015 -19.67 0.0004737243    1.341    0.254
       100 -10.2106     35.3203     89.6865   1.0353534055e+02   5.4456437825e+01    0.4612544    0.2547494   0.17  0.002132449    2.520    0.603
       101  -9.5398     28.2209     85.4596   1.0519326418e+02   5.6047263180e+01    0.3246343    0.1786712  24.38  0.001524662    2.093    0.522
       102  -9.1185     33.2680     83.9640   1.0298705757e+02   5.5969218717e+01    0.3494253    0.2253604  50.00  0.001810195    2.107    0.525
       103  -9.2614     57.2487     89.4087   9.5587120910e+01   5.2172924236e+01    0.1763868    0.1315707  39.00  0.000439065    1.540    0.351
       104  -9.7595     47.9013     89.0202   9.8836396790e+01   5.3354779590e+01      0.20584    0.1757286 -42.34 0.0003235495    1.007    0.007
       105  -9.2098    162.4866     88.4934   6.4273431368e+01   3.2165329294e+01    0.1528135    0.1486864 -12.51  0.000567848    1.013    0.013
       106  -8.8475    102.5896     86.6979   7.9584148316e+01   4.5570841422e+01    0.2113014    0.1414951 -51.37 0.0009480951    1.580    0.367
       107  -8.7166     15.9818     86.6380   1.0990557501e+02   5.6647022293e+01    0.2164964    0.1431335 -71.23 0.0006054087    1.392    0.281
       108 -10.1022    175.5065     82.9187   5.9959620067e+01   3.0119641710e+01    0.7124274    0.4189173  12.71  0.002243615    4.044    0.753
       109  -8.9757     81.8696     84.7995   8.5718948774e+01   4.9662255134e+01    0.2272021    0.1962644 -42.71 0.0002488741    1.118    0.105
       110  -9.8730     71.2159     83.1726   8.8912673888e+01   5.1678556960e+01    0.3057435    0.2932473  41.74  0.001565265    1.220    0.180
       111 -10.1643     76.0724     83.2967   8.7255039083e+01   5.0914434710e+01    0.2928062     0.270594 -66.67 0.0004940092    1.266    0.210
       112  -9.4305     80.1090     80.8925   8.5141624813e+01   5.0791534328e+01     0.214916    0.1939855 -24.41            0    1.007    0.007
       113  -9.9490    157.5969     84.0638   6.4092564498e+01   3.4127847099e+01    0.3238892    0.2257045  41.76  0.001479827    1.475    0.322
       114  -8.8347     46.1037     83.3561   9.8066304957e+01   5.4852596985e+01    0.2477726    0.1559998 -44.93 0.0007226776    1.355    0.262
       115 -10.2404      6.5074     80.7851   1.1228184580e+02   5.8533032980e+01    0.4504792    0.2188916 -31.15  0.001408727    2.166    0.538
       116  -9.0793      4.6129     75.8323   1.1208168144e+02   5.9753039019e+01     0.185062    0.1482137 -77.81 0.0003463948    1.286    0.222
       117  -9.1068      1.8617     73.1721   1.1263593684e+02   6.0477367269e+01    0.1877815    0.1397975 -47.81   0.00040098    1.095    0.087
       118 -10.5911    113.5589     81.2025   7.4588787463e+01   4.4513754431e+01    0.3778208    0.3225834  10.89 0.0006325883    1.221    0.181
       119  -8.9440     48.8255     77.3369   9.5434408096e+01   5.5903600427e+01    0.3720292     0.133039 -43.13  0.001432564    2.501    0.600
       120  -9.7741     55.2787     80.4814   9.3895041620e+01   5.4438900963e+01    0.3979671    0.2524044 -35.45  0.001399702    1.481    0.325
       121 -10.1261     55.7478     74.1449   9.1893143381e+01   5.5770016680e+01    0.7409008    0.4056889 -22.16  0.003134988    2.434    0.589
       122  -8.2799     17.3625     82.2483   1.0853984311e+02   5.7575857660e+01    0.1702169    0.1049576 -70.72 0.0003473735    1.535    0.348
       123  -9.6683    143.9981     80.7493   6.6298017798e+01   3.7903931155e+01      0.31035     0.192475  72.86  0.001160762    2.606    0.616
       124  -9.7632     97.0174     80.9343   7.9558490627e+01   4.7825450172e+01    0.3076476    0.2015864 -41.73 0.0003152217    1.464    0.317
       125  -9.5570    108.4496     80.7941   7.5975352774e+01   4.5636439719e+01    0.2526507    0.2116757  17.26 0.0009311128    1.236    0.191
       126 -11.5107    104.7957     78.4600   7.6346906825e+01   4.6832318764e+01    0.8085793    0.5314599  -7.92   0.00289272    2.183    0.542
       127 -10.0451    101.4398     68.2634   7.4050368903e+01   4.9471525086e+01    0.2449041    0.2255965 -73.83  0.001278035    1.364    0.267
       128 -10.2982     98.8200     76.1767   7.7476998164e+01   4.8450251892e+01      0.31974    0.2963971  56.61 0.0006479981    1.263    0.208
       129 -11.3934     97.3778     69.5219   7.5752134102e+01   5.0026862846e+01    0.4679404    0.3256556 -43.09  0.001026103    1.446    0.309
       130  -8.6415     36.3539     77.6316   1.0027879343e+02   5.7132311361e+01    0.2717598     0.162923 -64.52  0.001045948    1.703    0.413
       131 -10.2465    154.6612     79.5332   6.3428177398e+01   3.5641436135e+01    0.2968108    0.2450643  34.35 0.0008611855    1.257    0.204
       132  -8.2865     22.4785     80.5337   1.0626139589e+02   5.7620333434e+01    0.1309872    0.1042768 -48.09 -3.518774e-05    1.018    0.018
       133  -7.9848     28.3582     78.2414   1.0350078544e+02   5.7693177193e+01    0.1317564   0.08267426 -29.55 0.0002341417    1.591    0.372
       134  -8.7209     76.7567     70.4284   8.3003981807e+01   5.3513282375e+01    0.2503045    0.1886078   0.17  0.001093746    1.457    0.314
       135 -10.8665     78.3104     74.9804   8.3924699914e+01   5.2328825259e+01    0.5673909     0.333319  13.24   0.00234198    2.430    0.588
       136 -10.6137     74.4124     75.2022   8.5366799375e+01   5.2903874144e+01    0.3432544    0.2897499 -11.91   0.00106771    1.146    0.128
       137 -11.6584    151.9031     73.3575   6.2206846581e+01   3.7386151313e+01    0.5029126    0.4520771  73.04  0.002657586    1.211    0.174
       138 -10.1667    130.3442     74.8269   6.7922226537e+01   4.2109537118e+01    0.3239399     0.202285  45.59 0.0009763121    1.592    0.372
       139  -9.6908     45.7778     73.0611   9.5400282688e+01   5.7185620871e+01    0.3458562    0.1649722 -50.45  0.001422825    1.785    0.440
       140  -8.0464     11.3690     75.2872   1.0939161900e+02   5.9527570515e+01    0.1342903   0.07125599 -37.55 0.0007021187    1.706    0.414
       141  -9.2225    173.8544     73.8542   5.7735452759e+01   3.2070506468e+01    0.2315667     0.205935  20.30   0.00122403    1.234    0.190
       142 -11.4532    137.0188     69.5932   6.4566579411e+01   4.1526705436e+01    0.5281082    0.3727155  45.46 0.0004019184    1.396    0.283
       143 -10.4106    142.9450     68.7505   6.2865974308e+01   4.0292825125e+01    0.3169247    0.2917872 -52.11  0.001564655    1.156    0.135
       144  -9.3393     39.3088     80.8303   9.9964004397e+01   5.6126163189e+01     0.196266    0.1844097 -75.86  0.001248959    1.252    0.201
       145  -8.6943     30.9415     72.7664   1.0114282724e+02   5.8706656305e+01    0.1691588    0.1503989 -36.15 0.0003985183    1.096    0.088
       146 -10.0391     64.1098     70.5644   8.7649799454e+01   5.5408244834e+01    0.3688764    0.2479492  34.78  0.001204975    1.616    0.381
       147 -10.2477     59.8945     66.1748   8.7834963623e+01   5.6901228023e+01    0.4262592    0.2642085 -16.96  0.002002673    1.940    0.485
       148  -8.8693     39.0799     71.2900   9.7526948499e+01   5.8275883831e+01    0.1748271    0.1516555 -21.64 0.0003277876    1.105    0.095
       149  -9.5830     17.6650     70.1918   1.0579970667e+02   6.0286587731e+01    0.3325246    0.1516375 -50.51  0.001400392    1.657    0.397
       150  -9.2275     51.8624     69.6959   9.2044500175e+01   5.7204698764e+01    0.2170719    0.1596265 -35.11 0.0003820175    1.184    0.155
       151  -9.4796    120.4536     68.4675   6.8536872864e+01   4.5459016962e+01    0.3607848    0.2510559   3.98  0.001224686    1.929    0.482
       152  -8.4218    194.4394     67.7541   5.2362369842e+01   2.8173795962e+01    0.1909384    0.1386945 -20.00 0.0009253531    1.570    0.363
       153  -9.6800    147.1537     62.8528   6.0048743103e+01   4.0282622391e+01    0.2224531    0.2001358 -66.51 0.0005607922    1.238    0.192
       154 -10.7331    153.1773     67.1401   6.0035409710e+01   3.8141310861e+01    0.3452037    0.2155217  48.28   0.00154166    1.575    0.365
       155  -9.6129    152.6913     63.6689   5.9078779302e+01   3.8827170457e+01    0.2427178     0.153293 -29.05 0.0008385619    1.662    0.398
       156 -10.5391     95.3694     57.1350   7.2109224367e+01   5.2676924704e+01    0.6216729    0.4519165  18.73  0.003128876    1.469    0.319
       157  -9.1347     88.7272     66.5163   7.7565638697e+01   5.2221217721e+01    0.2949109    0.2274098 -67.54  0.001209965    1.888    0.470
       158  -9.5282     93.0233     64.4659   7.5442389962e+01   5.1810532716e+01    0.3682512    0.3013162 -10.71  0.001471738    1.211    0.174
       159  -9.0610     88.8894     60.6972   7.5496571216e+01   5.3277544310e+01    0.2820413    0.2546304  34.80 0.0007666763    1.194    0.163
       160  -9.1147     70.7649     66.4791   8.3858334393e+01   5.5255912517e+01    0.2387918    0.1787238 -38.39 0.0005368847    1.233    0.189
       161  -8.9559    111.2053     65.9487   7.0325342477e+01   4.7898433431e+01    0.2637239    0.1819629 -49.95  0.001225124    1.660    0.397
       162  -8.6222    111.9580     62.7553   6.9025552430e+01   4.8304859368e+01    0.2082266    0.1783748  29.99 0.0002157813    1.132    0.117
       163  -9.2136    108.4810     62.5323   6.9965430436e+01   4.9077618622e+01    0.2611824    0.2577465  -7.11 0.0007689055    1.135    0.119
       164 -11.0076     43.7597     62.6884   9.3105857215e+01   5.9617431764e+01    0.4510311    0.3544874 -28.69  0.001724639    1.089    0.081
       165  -9.8482     32.6331     64.1795   9.8125166427e+01   6.0426896887e+01    0.2934752    0.2206672 -20.99  0.001012561    1.259    0.206
       166 -11.0449      3.8214     59.9600   1.0913892214e+02   6.3303933686e+01    0.6435007    0.3323741 -69.69  0.002316629    1.864    0.463
       167 -11.8970      7.8866     56.7314   1.0663477386e+02   6.3794514298e+01    0.2343307    0.1799041 -41.74 0.0002229795    1.036    0.034
       168  -8.1828    186.5388     63.5687   5.2545881529e+01   3.0694762868e+01    0.1439105    0.1351187 -70.48 0.0002624589    1.051    0.048
       169 -10.3239    172.5208     62.0670   5.4613348453e+01   3.4296624594e+01    0.3294985    0.2023818 -37.36    0.0009124    1.609    0.379
       170  -9.0188     68.8056     56.1518   8.1007863363e+01   5.7553325472e+01    0.6972137    0.2200242 -39.73  0.002361624    3.012    0.668
       171  -9.4896     67.3510     62.8363   8.3895520312e+01   5.6498746262e+01    0.2785743    0.1875004 -33.29 0.0006895654    1.363    0.266
       172  -9.7402     70.6455     62.2405   8.2465564395e+01   5.6108882177e+01    0.3416486    0.2206808  50.64  0.001188239    2.089    0.521
       173  -9.2507    141.9362     61.3317   6.0761112583e+01   4.1767162765e+01    0.2129349    0.1843832  49.64 0.0004171006    1.134    0.118
       174  -9.1861    120.9256     60.6253   6.5797361500e+01   4.6717075960e+01    0.2644626    0.2015851  -8.13 0.0004565786    1.474    0.322
       175  -9.6311     51.2652     59.8852   8.9156471823e+01   5.9304598842e+01    0.3150586    0.2272694  47.64  0.001118701    1.888    0.470
       176 -10.4115     59.4751     58.1090   8.5286584865e+01   5.8566622303e+01    0.4348102    0.3312549   8.82  0.002006695    1.329    0.248
       177 -10.3468    153.7029     46.3806   5.3503680869e+01   4.1186429613e+01     0.647352    0.2672444  47.08  0.001836125    2.398    0.583
       178 -11.5195    150.2891     57.2416   5.7604074276e+01   4.0420477610e+01    0.6749457    0.4188099  74.27  0.002838957    2.146    0.534
       179 -10.2299    149.8255     50.8299   5.5686712503e+01   4.1493928549e+01    0.3924257    0.3010423  66.53  0.001999639    1.354    0.261
       180  -8.3414    115.6804     58.7968   6.6614444807e+01   4.8179068540e+01    0.1989674    0.1299109 -41.76 0.0004331162    1.605    0.377
       181  -9.3958    112.2244     55.9583   6.6603563660e+01   4.9399587321e+01    0.2552239    0.2126999  50.75 0.0005989366    1.258    0.205
       182  -9.9740    199.8811     56.4226   4.8512705132e+01   2.8605172085e+01    0.4660026     0.321661  14.54  0.001768632    2.263    0.558
       183  -9.8185    212.3759     49.3245   4.4975450115e+01   2.6714638712e+01     0.332805     0.239518  77.76  0.001501276    1.442    0.307
       184 -10.5591    206.0172     52.1576   4.6534759811e+01   2.7783715098e+01    0.5899027    0.4742928  78.07  0.003007681    1.261    0.207
       185  -9.3560    159.5261     56.9635   5.5607569258e+01   3.8230384336e+01    0.3437437    0.2400369  -5.01 0.0009034664    1.900    0.474
       186 -10.8458    162.4146     51.9632   5.3533034764e+01   3.8270443738e+01    0.6415873    0.3228989 -35.94  0.002709724    1.985    0.496
       187  -9.5156     34.6608     57.7158   9.5339009493e+01   6.1589710901e+01    0.2168754    0.1833284 -44.39 0.0003076964    1.172    0.147
       188  -9.0657    184.8167     57.0650   5.1038879402e+01   3.2088998024e+01    0.2874292    0.1717252  36.55  0.001239876    2.125    0.529
       189  -9.0481    105.3873     56.3198   6.8720829587e+01   5.0790522031e+01    0.2853885     0.198974  13.21  0.001054324    1.716    0.417
       190  -9.0222    223.4167     56.1804   4.5257695970e+01   2.3279425974e+01    0.2792799    0.1825352  62.80  0.001332068    1.600    0.375
       191  -9.0312    126.1101     55.2647   6.2623482888e+01   4.6421689669e+01    0.3397046    0.2354634 -11.04  0.001143884    1.725    0.420
       192  -9.8381    126.5387     50.3860   6.0856040534e+01   4.7076320135e+01    0.3099982    0.2344486  26.38  0.000176544    1.395    0.283
       193  -9.8354    121.7026     48.7184   6.1506776042e+01   4.8432752280e+01    0.3314272    0.2494416 -59.46  0.001099784    1.733    0.423
       194  -9.7914     84.6882     48.1415   7.2325725171e+01   5.6233036445e+01     0.440533    0.2762837 -16.73  0.001793187    1.799    0.444
       195  -9.5030     80.5068     54.4945   7.6144218308e+01   5.5905501845e+01    0.4270892    0.2656637   8.20   0.00188409    2.183    0.542
       196  -9.1184     81.7039     51.0691   7.4457202854e+01   5.6287910948e+01    0.3080617    0.1862961 -49.82  0.001273148    2.059    0.514
       197  -8.8933     26.3667     56.4318   9.8510170448e+01   6.2602895194e+01    0.1866014    0.1187636   9.13  0.000648197    1.731    0.422
       198  -9.5444     22.3459     55.3110   9.9931784937e+01   6.3157363915e+01    0.3517568    0.1414261 -45.00 0.0005476504    1.920    0.479
       199 -11.1988    174.0034     51.6345   5.1333064873e+01   3.5494312011e+01    0.5798626     0.292703 -31.29  0.001930618    2.035    0.509
       200 -10.9945    166.9069     43.3439   5.0136173333e+01   3.8374614440e+01    0.4745598    0.4161888  80.71  0.002341519    1.146    0.128
       201 -10.9289    142.6893     43.9301   5.4970641762e+01   4.4192386089e+01    0.5824181    0.4044967  19.03  0.001871182    1.804    0.446
       202 -10.5714    135.6820     53.1396   5.9565641696e+01   4.4529573538e+01    0.5400487    0.2780234 -21.79  0.002117485    2.416    0.586
       203  -8.7380     86.0099     54.3838   7.4200973504e+01   5.4933400408e+01    0.2021246    0.1720072  25.62   0.00113629    1.146    0.128
       204  -9.7770     44.2418     52.3389   8.9487557565e+01   6.1641005502e+01    0.2427506    0.2307957  37.16 0.0008057813    1.403    0.287
       205  -9.0151     42.6622     46.0963   8.7930944519e+01   6.3011197044e+01    0.3630492    0.1826255 -52.23  0.001708327    2.184    0.542
       206  -9.8546     49.2177     49.5500   8.6396456646e+01   6.1566324565e+01    0.2468203    0.1764949 -15.64 0.0007001475    1.325    0.245
       207  -9.9014     46.0011     47.2395   8.6911470082e+01   6.2398277752e+01    0.2048244    0.1867938 -24.40 0.0002079315    1.219    0.179
       208  -9.3513     29.1780     52.5566   9.6083705993e+01   6.3152019611e+01    0.2080964    0.1437615 -40.06 0.0003424749    1.173    0.147
       209 -10.8858    106.3326     50.5040   6.6362205379e+01   5.1538569778e+01    0.3436701    0.3091039  89.86 0.0009003687    1.462    0.316
       210  -9.7721    115.3662     50.4723   6.3801365814e+01   4.9586828744e+01    0.5265429    0.2823873  64.68  0.001797993    2.732    0.634
       211  -8.3404    110.5127     51.4387   6.5494153373e+01   5.0496745831e+01    0.2024506    0.1278788  38.66 0.0001156531    1.544    0.352
       212  -9.4685     95.2611     47.9155   6.8772154119e+01   5.4229635856e+01    0.5642847    0.2605156 -32.56  0.002343577    2.190    0.543
       213  -9.8688     17.6891     50.5888   1.0061067807e+02   6.4472670384e+01    0.2846514    0.1896415  -9.02  0.001059413    1.545    0.353
       214  -8.9814    233.3941     49.2346   4.2447940179e+01   2.2074758077e+01    0.2501074    0.1418299 -44.75  0.001280628    1.554    0.357
       215 -10.3326    187.2411     48.6177   4.8321724154e+01   3.2715211977e+01    0.3099182    0.2426735 -31.08  0.001262263    1.318    0.241
       216  -8.7960     55.5091     50.2463   8.4055219935e+01   6.0604506130e+01    0.2089498    0.1595744 -15.29 0.0007195319    1.190    0.160
       217 -10.3604     59.4536     47.0868   8.1279358673e+01   6.0615749992e+01    0.3914144    0.2474604 -20.80  0.002007459    1.604    0.376
       218 -10.5071      5.7805     48.3073   1.0539301153e+02   6.5667264271e+01    0.2559499    0.1455428 -39.35 0.0002484353    1.370    0.270
       219  -9.5581     25.5177     48.0804   9.6274517375e+01   6.4366782122e+01    0.2580906    0.1723193  12.25  0.001194676    1.599    0.374
       220  -8.7477     10.8880     47.8591   1.0291723030e+02   6.5473926161e+01    0.1427705    0.1376673 -43.75 0.0003994091    1.325    0.246
       221  -9.3162     34.1876     46.1537   9.1699271462e+01   6.3929640862e+01     0.238361    0.1612488 -48.01 0.0008238934    1.411    0.291
       222 -10.1330     36.1891     39.7627   8.8439581572e+01   6.4905397351e+01     0.436218    0.2203315 -40.84   0.00131225    1.688    0.407
       223 -10.8681     33.3972     35.2615   8.7978477398e+01   6.6009301314e+01    0.4165648    0.2204904 -34.38  0.001070283    1.611    0.379
       224  -9.0619    170.1144     48.1172   5.0986387610e+01   3.6938767584e+01    0.2189381    0.2035592  77.38 0.0004785778    1.053    0.051
       225 -10.5179    108.9622     43.6058   6.3097120011e+01   5.2020742965e+01    0.3299176    0.2774216  56.41 0.0004688583    1.294    0.227
       226  -9.4189     69.6338     43.5975   7.5965979355e+01   5.9625475880e+01    0.3516012    0.2046007 -15.44  0.001354948    2.081    0.519
       227  -9.0079      1.3782     44.9980   1.0654240538e+02   6.6558113899e+01    0.1696407   0.09001317 -57.52 0.0009731361    1.507    0.336
       228  -8.7642     76.0501     43.8051   7.3682066671e+01   5.8498562846e+01    0.1873023    0.1601675  13.01 0.0003726541    1.074    0.069
       229  -9.5099     55.5321     42.1301   8.0949736192e+01   6.2046511942e+01    0.3384926    0.2223653  -2.27  0.001776392    1.673    0.402
       230  -9.1129     19.8011     43.6065   9.7443062086e+01   6.5711281562e+01    0.2099352    0.1844114  54.63  0.001407436    1.713    0.416
       231  -8.6852     10.8338     43.1633   1.0154611726e+02   6.6422132173e+01    0.1726617     0.105817 -34.58 0.0003362007    1.303    0.232
       232  -8.0567     73.2964     50.3078   7.7184160806e+01   5.7878126994e+01    0.1413979   0.09840995  -3.64 0.0003164029    1.590    0.371
       233  -8.9265    106.8567    247.0431   1.0856736235e+02   9.5950438486e+00    0.2036062    0.1665603 -32.07  0.001337992    1.634    0.388
       234  -9.4144     27.9316     41.2943   9.2827726084e+01   6.5460698434e+01    0.2225273    0.1400124 -34.25 0.0004185428    1.294    0.227
       235  -8.7690    200.4616     48.4512   4.6344384483e+01   2.9594683032e+01    0.2293869    0.1968902 -34.01 0.0004978377    1.194    0.163
       236 -10.0141     63.4648     40.8763   7.7257766227e+01   6.1067968363e+01    0.3076539    0.2209416  34.83  0.001588092    1.443    0.307
       237  -9.8778     62.2850     36.5262   7.5951668109e+01   6.1953673683e+01    0.2959678    0.2267724  -9.18 0.0008516521    1.173    0.147
       238  -8.8981    197.9552     40.5575   4.4623000175e+01   3.1239655857e+01     0.207075    0.1272877  65.43  0.001024122    1.589    0.371
       239 -10.1509    112.2254     38.7762   6.0430654167e+01   5.1984273171e+01     0.373192    0.2676352 -49.25  0.001514533    1.713    0.416
       240  -8.4782     40.8872     38.9008   8.5978359395e+01   6.4523039328e+01    0.1500504    0.1350902 -18.66 -0.0006383859    1.230    0.187
       241  -9.0362      2.9828     39.4623   1.0421448667e+02   6.7593954938e+01     0.259966     0.107707  14.37 0.0008600766    2.708    0.631
       242  -8.8204    226.2049     38.5115   4.0740412038e+01   2.5046369757e+01    0.2333939    0.1237869  76.62  0.000968559    2.040    0.510
       243  -9.1228    181.8568     37.9206   4.6173968732e+01   3.5435598482e+01    0.1897417    0.1505205 -62.49 0.0005126501    1.298    0.230
       244  -9.4946    161.7769     37.7945   4.9362306760e+01   4.0354613588e+01    0.2435868    0.2260498  47.51 0.0006697542    1.073    0.068
       245 -10.5036    128.3607     36.7989   5.5727917595e+01   4.8552585217e+01    0.6499014    0.3152983  67.58   0.00249964    2.673    0.626
       246  -8.7696     86.4017     34.2045   6.6288510746e+01   5.8021859945e+01    0.1908842    0.1605249 -17.30 0.0005900799    1.170    0.146
       247  -9.8870     75.1963     22.7210   6.5230243311e+01   6.1670027805e+01    0.3825273    0.2472831 -15.03   0.00150132    1.553    0.356
       248 -12.3441     76.0780    218.9746   1.1186554422e+02   1.9194612670e+01      1.06773     0.633913  48.73  0.005077311    1.491    0.329
       249  -9.9247     80.8662     26.0355   6.4732388480e+01   6.0181072694e+01     0.392164    0.3341183 -46.09  0.001633317    1.536    0.349
       250  -9.5846     48.2611     36.7937   8.1879931526e+01   6.3955254096e+01    0.2774285    0.2066409 -59.52   0.00152175    2.116    0.528
       251  -9.2134    248.0817     35.0316   3.7826247444e+01   2.0851699220e+01    0.4614911     0.150112 -53.71  0.001767486    3.371    0.703
       252  -8.3509    194.7060     37.3358   4.4208729259e+01   3.2422632194e+01    0.1785584    0.1299327 -23.46 0.0004062124    1.536    0.349
       253  -9.6277    192.7213     33.7857   4.3530415813e+01   3.3337513763e+01    0.4228703    0.2279468  49.74  0.001970814    1.963    0.491
       254  -9.7955     69.8084     36.0269   7.2847436815e+01   6.0795957274e+01    0.3963259    0.3453262  66.72  0.002334926    1.744    0.427
       255  -8.1445     27.6517     36.7026   9.1260637680e+01   6.6335204552e+01    0.1320325   0.07689938 -19.79 0.0007034942    1.680    0.405
       256  -9.2230    215.5639     35.0387   4.1076591065e+01   2.7860248844e+01    0.2334994    0.1667555 -82.91 0.0004348215    1.429    0.300
       257  -9.7702    106.8304     35.0624   6.0503981206e+01   5.3670734163e+01    0.2285352    0.1817501  37.33  0.001266334    1.151    0.132
       258 -10.1089    239.1788     22.1948   3.5832724632e+01   2.4237033114e+01    0.3083769    0.2318144  87.16 0.0009283273    1.267    0.211
       259 -10.7273    237.4933     32.0009   3.8130730861e+01   2.3425566102e+01    0.4935144    0.3410029 -83.37   0.00291868    1.445    0.308
       260 -10.3816    237.4004     26.2443   3.6868872893e+01   2.4138698908e+01    0.4430518    0.2448827 -46.70  0.001022356    1.570    0.363
       261  -8.5829    137.3384     32.9723   5.2460606762e+01   4.6899763468e+01    0.1796264    0.1723791  21.64 0.0004661622    1.060    0.057
       262  -9.8745    114.6561     32.1451   5.7354473997e+01   5.2304963080e+01    0.2516347    0.2183151  56.89 0.0003217197    1.192    0.161
       263 -10.0367    110.3756     29.1302   5.7318178419e+01   5.3637255862e+01    0.3299676    0.2510847  52.49  0.001154987    1.263    0.208
       264 -10.0247     43.0096     29.3345   8.1071166235e+01   6.5862302289e+01     0.262137    0.1622625 -36.13  0.000161208    1.491    0.329
       265 -10.5203     47.7872     28.4500   7.8555434902e+01   6.5359575708e+01    0.2911219    0.2603895  11.83   0.00106523    1.282    0.220
       266  -8.7773    100.9306     41.3260   6.4558147383e+01   5.4067276153e+01    0.5529969    0.2252877  44.06  0.001949831    2.309    0.567
       267  -9.3512    197.8070     30.1740   4.1936743804e+01   3.2567257346e+01    0.1977101    0.1877086  73.68 0.0005846203    1.112    0.101
       268  -8.8497    124.9580     30.1049   5.4151597275e+01   5.0181720637e+01    0.2259853    0.1510881  26.88 0.0009063756    1.648    0.393
       269  -8.7583     65.1762     29.8223   7.1989279757e+01   6.2493120181e+01    0.1846918    0.1722556 -21.14  0.001192495    1.325    0.245
       270 -10.0571     69.4721    217.5122   1.1310664727e+02   2.0363193682e+01     0.239655    0.1942556  76.46 0.0007304171    1.122    0.109
       271  -9.8687    216.2863     28.1807   3.9345399015e+01   2.8531202715e+01    0.3913608    0.2197223  56.54  0.001867518    1.852    0.460
       272 -10.4461    182.0582     27.3321   4.3205800229e+01   3.6667532442e+01    0.5556592    0.2750061  48.05  0.001818482    2.147    0.534
       273  -8.0991    158.3684     29.2731   4.7345344027e+01   4.2225497591e+01    0.1460168   0.09544352  38.25 0.0007002233    1.673    0.402
       274  -9.5774     90.9152    214.9053   1.0823658877e+02   1.7979417796e+01    0.3271711    0.1824392  27.32  0.001309777    2.047    0.512
       275  -9.9214    206.6712     25.9458   3.9833608800e+01   3.0992052022e+01    0.2642513     0.229663 -19.00  0.001163244    1.355    0.262
       276  -8.5096    154.2916     27.3217   4.7431900332e+01   4.3447244785e+01    0.1406697   0.09893826  31.91 0.0004114552    1.608    0.378
       277  -8.5008    132.4779    210.9106   9.8567879468e+01   1.2397244456e+01    0.1846682    0.1352278 -55.60 0.0007530254    1.521    0.343
       278  -9.5907      1.3894    185.1821   1.2479997821e+02   3.4446924356e+01    0.3263526   0.08634354 -76.28  0.001327776    2.997    0.666
       279  -9.7699    227.2393     23.5796   3.7192589720e+01   2.6635797252e+01      0.38666    0.2176264 -66.39  0.001999709    1.839    0.456
       280  -8.7417    201.2854     29.3071   4.1294775780e+01   3.1852077908e+01    0.1966437    0.1558123  82.47 0.0002712354    1.199    0.166
       281  -8.8954    151.3895     30.7484   4.9018756423e+01   4.3760311170e+01    0.1862626     0.134052  -6.73 0.0007448432    1.681    0.405
       282  -9.9870    178.8171     22.9745   4.2433713994e+01   3.7942066293e+01    0.2814105    0.2503985  51.88 0.0008937657    1.166    0.142
       283 -10.1896    163.7556     22.3893   4.4405274627e+01   4.1675527739e+01    0.4983096    0.2153928  52.10  0.001727674    2.138    0.532
       284  -9.0352     98.9289     23.5110   5.8191824409e+01   5.6805011067e+01    0.2332635     0.182057 -14.77 0.0007330075    1.311    0.237
       285  -9.0024      6.5098    177.4586   1.2320343029e+02   3.5771700500e+01    0.1197921   0.09198411  83.25 0.0001111409    1.046    0.044
       286  -8.4645     95.0504     24.5013   5.9688886231e+01   5.7512746823e+01    0.1893968    0.1222904  48.58 -0.0006715839    1.444    0.307
       287  -8.6388     58.4509     24.4489   7.2275624724e+01   6.4349013792e+01    0.1305429     0.104997   2.82 0.0001509843    1.026    0.025
       288  -9.3998     50.9486     21.8075   7.4192779924e+01   6.5875066783e+01    0.2621768    0.1982003 -15.97  0.001238697    1.161    0.138
       289  -9.6286     13.1893    174.1179   1.2147274104e+02   3.5999099774e+01    0.1791032     0.144573 -65.10 0.0006958324    1.276    0.216
       290 -10.0038      1.7326     21.5686   9.8858778631e+01   7.1027634997e+01     0.286641    0.1287777 -50.76 0.0007616855    1.809    0.447
       291  -9.6210    218.0541     21.9454   3.7686836035e+01   2.8856822519e+01    0.3034886     0.160793  58.95 0.0006351072    1.910    0.477
       292  -9.2416    222.2571     20.3304   3.6910776827e+01   2.8102500627e+01    0.2198923    0.1778135  51.76  0.000712809    1.449    0.310
       293  -9.9824    142.1123     21.1692   4.7603069204e+01   4.7084318873e+01    0.3113905    0.2713638 -46.39 0.0007038639    1.262    0.208
       294  -9.5556      6.9472    168.6045   1.2246180181e+02   3.7751293616e+01    0.2143395       0.1668  69.71 0.0009132529    1.181    0.153
       295  -9.0009    205.9762     21.0961   3.8708201280e+01   3.1703584485e+01    0.1878931    0.1629874 -82.70 0.0002758145    1.030    0.029
       296  -9.8432    120.8523     26.3765   5.3750259769e+01   5.1573126294e+01    0.6140009    0.2178309  51.10  0.002386298    2.402    0.584
       297 -10.5148      7.2098    163.7916   1.2202911702e+02   3.8841111577e+01    0.2354143    0.1768706   9.33  0.000968163    1.845    0.458
       298  -9.4369     23.5017    162.4755   1.1802379149e+02   3.7842340079e+01    0.2183327    0.1040381 -86.93 0.0006638659    2.090    0.522
       299  -9.1076     26.4325    157.9651   1.1683781621e+02   3.8658656314e+01    0.1738591    0.1584378  77.18 0.0002279747    1.138    0.122
       300  -8.6309     69.5788     19.7830   6.5913085469e+01   6.3060367057e+01    0.2284262    0.1170097 -21.53  0.001103799    2.011    0.503
       301  -9.0845    118.9961     18.7129   5.1371180752e+01   5.2831766924e+01    0.2307864    0.1763127  72.39  0.001055489    1.433    0.302
       302  -8.6463    235.7857     16.7953   3.4942946088e+01   2.5564776139e+01    0.1695571    0.1167571 -62.86 0.0005277264    1.277    0.217
       303 -10.7099      7.5053    156.0254   1.2132290168e+02   4.0629476987e+01    0.2992755    0.2195527 -35.56  0.001149808    1.749    0.428
       304  -9.8178     17.5707    157.2387   1.1897205929e+02   3.9581227283e+01    0.1807135   0.09325658 -64.45 0.0009131543    1.627    0.385
       305  -9.4932     25.7963    152.9310   1.1645762222e+02   3.9923555357e+01    0.3524976    0.1475073  77.90  0.001118039    3.986    0.749
       306 -10.9130      2.9098    152.8088   1.2216776010e+02   4.1697986826e+01    0.3849376    0.2377545 -48.06  0.002289666    1.778    0.438
       307  -9.9678     21.0130    153.0535   1.1769288029e+02   4.0299064331e+01    0.2500305    0.1434458 -74.87  0.001356984    1.452    0.311
       308  -9.8915     11.8230    145.1539   1.1924617527e+02   4.2896637893e+01    0.1969219    0.1699917 -74.95 0.0002413911    1.104    0.094
       309  -9.3381    248.6485    143.6962   6.1748550548e+01   4.2860787910e+00    0.1380437   0.09589838  -0.87 0.0006924862    1.703    0.413
       310  -9.8225     36.3973    141.8192   1.1227191587e+02   4.1664272289e+01    0.2876602    0.1966497 -48.06 0.0008386505    1.471    0.320
       311  -9.9423     21.7211    141.9059   1.1628888626e+02   4.2930316621e+01    0.2614053    0.1820823  43.92 0.0004168529    1.576    0.366
       312 -10.5460     17.6754    142.3022   1.1741523431e+02   4.3150283970e+01    0.3928828    0.1856642  50.21  0.001736126    2.363    0.577
       313 -10.2593      4.0470    141.4654   1.2089906441e+02   4.4297081877e+01    0.3393386     0.238839  17.97  0.002151609    1.827    0.453
       314  -9.0666      9.2053    138.3990   1.1925317368e+02   4.4693513653e+01     0.216869    0.1568536  29.82  0.001365249    1.654    0.396
       315  -8.8671    144.0952     14.2176   4.4986560666e+01   4.7298302806e+01    0.2074934    0.1584989  42.64 0.0006489922    1.269    0.212
       316 -10.0778     14.1152    136.2424   1.1770486319e+02   4.4874538899e+01    0.3108419    0.1964201  30.33  0.001108626    1.846    0.458
       317  -9.9268     16.0197    132.3309   1.1673366471e+02   4.5684898886e+01    0.2654554    0.1508789 -89.10  0.001373922    1.738    0.425
       318 -10.3857     29.0961    138.7709   1.1389145962e+02   4.3078782433e+01    0.4141645    0.2524475 -51.76  0.001164917    1.545    0.353
       319  -8.4852     33.1497     10.2988   7.6805063963e+01   6.9896985641e+01    0.2269772    0.1001483  29.38  0.001157824    2.196    0.545
       320 -10.5570    226.6418    134.1496   6.3303128309e+01   9.8555037043e+00    0.3725773    0.2885202  60.55  0.001976301    1.654    0.396
       321  -9.2277     35.9649    132.0671   1.1101738618e+02   4.4107647746e+01    0.2001963    0.1740792 -60.18 0.0005893769    1.083    0.077
       322 -10.7059      6.6522    124.5778   1.1847656577e+02   4.8169676175e+01    0.6991485    0.1839903 -47.16  0.002585028    3.833    0.739
       323  -8.5226     32.4769    128.5086   1.1151191087e+02   4.5302670691e+01    0.1342733     0.111441 -62.57 9.375052e-05    1.057    0.054
       324  -9.8282     27.9825    125.9098   1.1245838380e+02   4.6327936094e+01    0.3561231    0.1698043 -60.61  0.001601997    1.687    0.407
       325  -9.0962     30.8117    123.3973   1.1124345915e+02   4.6705480187e+01    0.2423767    0.1568995 -77.23  0.001025484    1.434    0.303
       326 -10.8206    230.6959    124.7144   6.0460337044e+01   1.0720760779e+01      0.47636    0.4092262 -52.27   0.00200451    1.260    0.206
       327  -9.5993    229.5036    118.9951   5.9340151470e+01   1.1936567607e+01    0.3568245    0.2280065  -8.12  0.001562947    2.250    0.555
       328 -10.0962     48.6714    125.5046   1.0618572401e+02   4.4450996682e+01    0.3457124    0.2625179 -10.59  0.001210435    1.666    0.400
       329 -10.0789     37.5774    124.8900   1.0943883437e+02   4.5727413362e+01    0.3991242    0.1960295 -76.85   0.00173528    2.162    0.537
       330  -9.1576      8.3774     22.6842   9.5635237659e+01   7.0414353843e+01    0.1956331    0.1560079  28.04  0.001377851    1.678    0.404
       331  -9.1005     23.2317    125.1099   1.1374700164e+02   4.6905536423e+01    0.1992587    0.1452983 -56.76  0.000566015    1.200    0.167
       332  -9.6299     13.8378    122.7163   1.1618616378e+02   4.8164629003e+01    0.3262809    0.1632517 -43.65  0.001633309    2.051    0.512
       333  -9.2424     93.9182    122.6306   9.1870500100e+01   3.8927515009e+01    0.2758172    0.2065985 -61.06 0.0003777367    1.356    0.263
       334  -8.5942     78.2238    123.0565   9.6686655539e+01   4.1286394875e+01    0.1939841    0.1809007 -50.61 0.0002842316    1.011    0.011
       335  -8.5949     73.5241    121.9382   9.7880684679e+01   4.2236934391e+01     0.215193    0.1337493 -56.97 0.0003368729    1.478    0.323
       336  -9.4528     61.2815    120.7175   1.0140898415e+02   4.4165287838e+01    0.3511119    0.2509777  11.54  0.001141394    1.730    0.422
       337  -9.0793    131.0868     19.9849   4.9293822097e+01   4.9857316158e+01    0.2526327    0.1818649  60.71  0.001369271    1.281    0.219
       338  -9.8904     57.5007    117.7687   1.0199895588e+02   4.5354503422e+01      0.33217    0.2383271 -50.75 0.0006703286    1.244    0.196
       339  -9.2338     69.7045    118.2832   9.8276797680e+01   4.3662502165e+01    0.2493868    0.2201658  85.49 0.0008558315    1.267    0.211
       340  -9.4572     98.5181    117.2345   8.9208193858e+01   3.9432429305e+01     0.258889    0.2261986  -1.45 0.0004248856    1.257    0.204
       341 -10.3675     25.9116    116.3371   1.1165873357e+02   4.8839202931e+01    0.3035266    0.2220367  29.80  0.001741505    1.606    0.377
       342  -9.4497     39.4461    115.2163   1.0722630059e+02   4.7931235204e+01    0.2938045    0.1858441  63.65  0.001313782    2.096    0.523
       343 -10.6223     11.3811    114.7486   1.1589065513e+02   5.0246149140e+01    0.2685195    0.2063961 -47.96 0.0006968408    1.253    0.202
