#   1 NUMBER                 Running object number                                     
#   2 MAG_AUTO               Kron-like elliptical aperture magnitude                    [mag]
#   3 X_IMAGE                Object position along x                                    [pixel]
#   4 Y_IMAGE                Object position along y                                    [pixel]
#   5 X_WORLD                Barycenter position along world x axis                     [deg]
#   6 Y_WORLD                Barycenter position along world y axis                     [deg]
#   7 A_WORLD                Profile RMS along major axis (world units)                 [deg]
#   8 B_WORLD                Profile RMS along minor axis (world units)                 [deg]
#   9 THETA_WORLD            Position angle (CCW/world-x)                               [deg]
#  10 FWHM_WORLD             FWHM assuming a gaussian core                              [deg]
#  11 ELONGATION             A_IMAGE/B_IMAGE                                           
#  12 ELLIPTICITY            1 - B_IMAGE/A_IMAGE                                       
         1 -13.1341    242.9068    110.1166   8.0783747044e+01   9.0242625448e+00     5.911395    0.6524206 -37.68   0.01414665    6.419    0.844
         2 -10.9138    186.0133      4.5384   6.1598815063e+01   3.7194460631e+01     1.730742    0.7164429 -82.15  0.004582764    3.803    0.737
         3 -10.6503    172.9161      2.3799   6.2480420837e+01   4.0754572599e+01     0.772437    0.3837084  79.15  0.003376153    1.905    0.475
         4 -10.2240    215.7815     22.7473   6.3173883559e+01   2.7780311603e+01    0.5397854    0.2896046 -60.34  0.001199393    1.957    0.489
         5 -13.0927    219.9487     39.4167   6.6865862207e+01   2.4711648552e+01     2.876783     1.057752 -52.47   0.01021895    3.171    0.685
         6 -12.0703    174.3265     55.0425   7.7797107621e+01   3.4123601289e+01     1.828771    0.9432133  71.42  0.007048148    2.251    0.556
         7 -12.5089    140.0907     39.1031   7.9507932090e+01   4.5190473237e+01     2.178716     1.060091  77.08  0.001033535    3.554    0.719
         8 -11.4090    229.4268     30.2432   6.3596079228e+01   2.3593181706e+01    0.5902141    0.4264422  32.43  0.001974583    1.959    0.489
         9 -12.0973    119.7374     10.5034   7.3657061084e+01   5.3498657972e+01    0.8977914    0.6715455  61.06  0.003137948    1.220    0.180
        10 -12.2994    129.8569     20.4934   7.5209064392e+01   5.0013113645e+01     1.085755    0.5369781  42.41  0.004677165    2.001    0.500
        11 -10.5529    244.7282      7.9536   5.7192551939e+01   2.2625963378e+01    0.4845078    0.2532945  71.59  0.001841546    1.813    0.449
        12 -10.0977    249.2122      3.3211   5.5886898844e+01   2.2124010169e+01    0.3369598    0.3184524 -29.25  0.001819478    1.369    0.270
        13 -11.4258    241.8718     16.1115   5.9205355198e+01   2.2370018157e+01    0.4961849    0.2571035 -63.46  0.001136028    1.904    0.475
        14 -10.0991    238.3002     11.6630   5.8499558357e+01   2.3678675035e+01    0.2746152    0.1616707 -57.69 0.0006390323    1.530    0.346
        15  -9.6585    221.9787     14.1711   6.0473568147e+01   2.7239484609e+01    0.5716431    0.2249752 -58.23  0.002238111    2.901    0.655
        16 -10.9583    143.6907      8.4814   6.8478206643e+01   4.7727913822e+01    0.6780726     0.326285  -9.32  0.002795603    2.885    0.653
        17  -8.4335    189.4244     13.7084   6.3724498796e+01   3.5412648422e+01    0.3599238   0.09532831 -33.90  0.001275882    3.364    0.703
        18  -8.3951    232.1817     13.5595   5.9431567983e+01   2.4885973699e+01    0.2228145     0.171073  -7.42 0.0008265142    1.810    0.447
        19  -7.9626    177.7942     12.0606   6.4675122457e+01   3.8579970875e+01    0.2018242    0.1360935 -78.92 0.0008048996    1.560    0.359
        20 -10.2370    211.7211      3.4157   5.8791023197e+01   3.0852409219e+01    0.5911116    0.1967167 -52.46  0.001954753    3.182    0.686
        21  -9.2019      6.1927      3.8148   1.1357693717e+02   7.3677452234e+01    0.2740921    0.0777745 -31.73  0.001068486    4.222    0.763
        22  -8.3420    236.2956      3.0557   5.6735482973e+01   2.5052881355e+01    0.2448794    0.1462643  82.02 0.0009752677    1.522    0.343
        23  -8.9484    195.5128      1.5269   5.9813988250e+01   3.5064151396e+01     0.312663    0.1121267  71.35 0.0008126952    2.384    0.581
        24  -8.5998    203.6708    110.6854   8.7441223689e+01   1.7554655061e+01    0.2427092       0.2151  10.29  0.001279794    1.237    0.191
        25  -8.2722    206.4903    109.5152   8.6637188645e+01   1.7107464796e+01    0.2125186    0.1475044  66.30  0.000970855    1.666    0.400
        26 -11.7206    186.9798     95.2739   8.6659565487e+01   2.4265828843e+01     2.269856    0.4792064 -36.89    0.0058309    4.684    0.786
        27 -11.6419    177.7513     74.4761   8.2758083073e+01   3.0168350644e+01     1.342762    0.9538365 -69.23  0.004159163    1.748    0.428
        28  -8.7380    185.4584     73.8114   8.1129549787e+01   2.8323982692e+01    0.2374317    0.2011059  44.30 0.0005369798    1.222    0.182
        29 -12.6578     47.0307    180.3916   1.3762272046e+02   3.2732957315e+01    0.9448684    0.8330192  78.44  0.003702242    1.129    0.114
        30  -8.6392    215.9808    103.4850   8.3492923810e+01   1.5957377929e+01    0.2215377    0.1445281  54.94 0.0008817399    1.585    0.369
        31  -8.7475    149.7730     95.3677   9.4717831925e+01   3.3326770542e+01    0.2950052    0.2528973  -9.84  0.000673142    1.350    0.259
        32  -9.9109     64.2559    165.9519   1.3194066211e+02   3.3733400778e+01    0.2347371    0.2119068 -80.81  0.001499281    1.135    0.119
        33  -8.2137    135.2127     93.1953   9.7704501186e+01   3.7174826230e+01    0.2080036    0.1797746  89.47 0.0004073345    1.336    0.251
        34 -10.2222    161.3428     85.7135   8.9336048881e+01   3.2330450267e+01    0.6657441    0.4651211  13.42  0.002738242    2.148    0.534
        35 -11.0818    158.7921     75.1056   8.6818403667e+01   3.4859012028e+01    0.4874606    0.3229869 -38.55  0.001459392    1.546    0.353
        36  -9.4696    250.0669     85.7911   7.4220572762e+01   1.1255051668e+01    0.3234611    0.1885966 -26.37 0.0009144745    1.789    0.441
        37  -9.4434    143.5706     84.3110   9.3043526575e+01   3.6935173434e+01    0.3099792    0.2825707 -57.74 0.0008210228    1.149    0.130
        38  -7.3935    148.0056     76.0122   8.9518269396e+01   3.7382073796e+01    0.1768386    0.1705932  53.77            0    1.005    0.005
        39 -10.0510    208.1717     66.8289   7.5462352905e+01   2.3737452179e+01     1.387228    0.7579451 -80.55  0.004791544    3.402    0.706
        40 -11.0512    201.6232     54.4478   7.3173464181e+01   2.7206560271e+01     1.204065    0.5999845 -67.00  0.004098354    3.385    0.705
        41 -10.2973    195.0051     57.8577   7.5107110549e+01   2.8385919568e+01    0.4404298     0.344492  56.47 0.0008712842    1.263    0.208
        42  -9.7472    184.5239     66.5879   7.9284502643e+01   2.9724727596e+01    0.2801203    0.2704844 -32.22  0.000843417    1.098    0.089
        43  -9.0970    117.6510    150.7162   1.1612900054e+02   2.8445184637e+01    0.2413977    0.2250542  69.81 0.0004087696    1.015    0.015
        44  -8.6432    126.9725     59.9618   8.9603985042e+01   4.5248565281e+01    0.2167527     0.206744  39.57            0    1.010    0.010
        45 -10.1794    229.2144    136.6057   8.8988803390e+01   7.5903649132e+00    0.2543206    0.2391395  20.75 0.0003575253    1.075    0.070
        46  -8.9579    188.9406    137.5077   9.6769256663e+01   1.6032192444e+01    0.2338953    0.1441316  46.04   0.00072021    1.581    0.367
        47  -8.3219    115.3255    135.6747   1.1361956137e+02   3.2250923131e+01    0.1836636    0.1695909  -0.94 0.0003276059    1.269    0.212
        48 -10.2138    239.5581     37.0030   6.4163134166e+01   2.0390056109e+01    0.6744192    0.3039822  80.90  0.002822338    2.647    0.622
        49  -8.0106    100.5252     41.5306   9.0399482878e+01   5.4127666871e+01    0.1405522    0.1292318  19.20 -3.161525e-05    1.002    0.002
        50  -8.3397    155.2874     39.3158   7.6512909622e+01   4.1281946288e+01    0.1489233    0.1085565  30.15 0.0002510032    1.588    0.370
        51  -8.7975    202.1271     34.1965   6.7697694598e+01   2.9809257935e+01    0.4373589    0.1589831 -47.99  0.001575294    2.928    0.658
        52  -9.6122    107.0878     31.6958   8.4803065317e+01   5.4074296925e+01    0.2489319    0.1973031 -11.65  0.000415304    1.330    0.248
        53  -8.7125    112.7614     29.4247   8.2446474985e+01   5.3072937006e+01    0.2035393    0.1174316  45.17 0.0005512184    1.587    0.370
        54 -10.2937     67.6907    144.4244   1.2794003978e+02   3.8205862168e+01     0.621657    0.3330585  56.18  0.001881614    2.084    0.520
        55 -11.2803    117.9614     24.9029   7.9465002858e+01   5.2403296116e+01    0.5887859    0.3071112  57.33  0.002649405    1.762    0.432
        56  -8.5349    183.0238    143.0885   9.9277064765e+01   1.6289967935e+01    0.2160241    0.2087268  25.13 0.0003115268    1.012    0.011
        57 -10.4539    241.9202     61.2782   6.9560881428e+01   1.6591293515e+01    0.8693572    0.3916269  40.99 0.0008430897    3.590    0.721
        58  -8.2005     25.2523    230.8951   1.4579904693e+02   2.5081934047e+01    0.1451976    0.1083761  76.37 0.0004415137    1.101    0.092
        59 -12.1400      4.5209    216.4142   1.4869188557e+02   2.9887905665e+01    0.7995409    0.4055165 -80.20  0.005250618    1.705    0.413
        60  -9.9475    170.8659    206.2181   1.1420086476e+02   7.3580030963e+00    0.2153802    0.1921222  35.12 0.0002689308    1.046    0.044
        61 -13.2239     33.5388    191.9238   1.4157802768e+02   3.1826264670e+01     1.069623    0.9555374  -4.64  0.007568133    1.770    0.435
        62  -7.8667    190.7347    190.4909   1.0744195216e+02   6.2628993616e+00     0.296573    0.1826006 -75.27 0.0009032954    6.067    0.835
        63  -7.7913     60.2947    132.6311   1.2801140434e+02   4.1964370533e+01    0.1423345   0.09585524  77.44 0.0007028296    1.724    0.420
        64  -9.1081    158.7214    126.8579   1.0082429110e+02   2.4919122035e+01    0.3421561    0.1721826  46.65  0.001009862    1.926    0.481
        65  -8.8884    175.9678    120.5307   9.5420086328e+01   2.2202782249e+01    0.2293578    0.1500552  51.39 -3.21994e-05    1.513    0.339
        66 -10.0148    232.8609    117.2403   8.3978291898e+01   9.9821640615e+00    0.2899716    0.2374215 -61.61   0.00102574    1.410    0.291
        67  -9.2297    249.8979     20.0962   5.9434751058e+01   2.0118535796e+01    0.3659062    0.2515753  43.68  0.001161114    1.993    0.498
        68  -8.9120    215.8316    116.8440   8.6749325164e+01   1.3730519916e+01    0.2021962    0.1747009 -73.63 0.0006673236    1.358    0.263
        69  -9.5338    167.5951    113.2189   9.5400432830e+01   2.5586540569e+01    0.3921559    0.3008264 -81.95   0.00108467    1.731    0.422
        70  -7.4451     18.7294    112.7062   1.3688756638e+02   5.0927547085e+01     0.119352   0.07771248 -48.47 -0.0001541599    1.516    0.340
