#   1 NUMBER                 Running object number                                     
#   2 MAG_AUTO               Kron-like elliptical aperture magnitude                    [mag]
#   3 X_IMAGE                Object position along x                                    [pixel]
#   4 Y_IMAGE                Object position along y                                    [pixel]
#   5 X_WORLD                Barycenter position along world x axis                     [deg]
#   6 Y_WORLD                Barycenter position along world y axis                     [deg]
#   7 A_WORLD                Profile RMS along major axis (world units)                 [deg]
#   8 B_WORLD                Profile RMS along minor axis (world units)                 [deg]
#   9 THETA_WORLD            Position angle (CCW/world-x)                               [deg]
#  10 FWHM_WORLD             FWHM assuming a gaussian core                              [deg]
#  11 ELONGATION             A_IMAGE/B_IMAGE                                           
#  12 ELLIPTICITY            1 - B_IMAGE/A_IMAGE                                       
         1 -13.4583    169.1801     56.4408   6.2462036164e+01   3.5177491691e+01     2.050858     1.230942  23.06  0.006098105    2.362    0.577
         2 -13.3898    184.0375     41.6366   5.5060480042e+01   3.3412635289e+01     1.061638    0.9428584 -16.12  0.003200328    1.090    0.083
         3 -13.9244    206.3692     10.7103   4.2132933568e+01   3.0957769475e+01     1.368075     1.073505   8.51  0.005189401    1.371    0.271
         4 -11.4801    190.6133     15.1062   4.5252410012e+01   3.4726444827e+01    0.5756755    0.3126911  81.42  0.001974451    2.125    0.529
         5 -12.5584    234.8307      3.4073   3.7582816852e+01   2.4415895847e+01     1.673613    0.4710798  78.69  0.005451292    4.241    0.764
         6 -11.0529     59.7943      3.1180   6.9022669098e+01   6.8864900535e+01    0.2526724    0.1982945  19.16  0.001453059    1.351    0.260
         7  -9.2535    186.9861    186.9363   8.8967373742e+01   1.2195294228e+01     0.166446    0.1341026  64.44 0.0007856007    1.664    0.399
         8 -11.4191    249.1393    244.4233   8.7517476572e+01  -1.8759049659e+00    0.3088625    0.1522099  -4.59   0.00215552    2.409    0.585
         9 -10.5362    150.3685    249.8494   1.0243564106e+02   1.0565074684e+01    0.1924427    0.1354818  50.22  0.001042175    1.252    0.201
        10 -13.5473     11.4091    206.2681   1.2243512721e+02   3.2745043828e+01    0.6644391    0.3044863  32.36  0.004499051    2.246    0.555
        11 -18.6838     40.4874    239.3246   1.1887408672e+02   2.5028062838e+01     4.789823     3.654122  46.42   0.03789117    1.354    0.261
        12 -11.2046     81.2576    195.1769   1.0920660991e+02   2.6956016399e+01    0.4569751    0.2353438  56.16  0.002826829    1.630    0.386
        13 -11.2250    151.0813    180.1079   9.4322926311e+01   1.8968789997e+01    0.3267977    0.2407382 -78.46  0.002002138    2.039    0.510
        14 -11.3523    145.3715    180.9282   9.5499487800e+01   1.9778891729e+01    0.2837908    0.2296215  33.26 0.0009539878    1.173    0.147
        15 -12.0544    142.2008    175.9159   9.5389718223e+01   2.1036649824e+01    0.3821061    0.2923777  64.98  0.001344471    1.416    0.294
        16  -9.9890     52.8440    181.6588   1.1359004865e+02   3.2702218452e+01    0.1779811    0.1680411   0.61  0.001428295    1.670    0.401
        17 -10.8383    188.6340    176.5606   8.7057107959e+01   1.3178700257e+01    0.4621634    0.3387624 -55.72  0.002390684    2.055    0.513
        18  -9.5200     64.0975    170.6149   1.1042936267e+02   3.3350064974e+01    0.2618128    0.1133728  38.92  0.001412159    2.047    0.512
        19  -9.3397    223.3461    198.1947   8.4831293096e+01   5.2994602126e+00    0.1292478   0.09675308 -29.06 0.0005760785    1.678    0.404
        20 -10.9515     94.6441    156.6958   1.0242116463e+02   3.1782466649e+01    0.2132985    0.1960808  66.36 0.0003531016    1.137    0.121
        21 -12.1599     99.8581    150.4426   1.0043280960e+02   3.2161479958e+01    0.4878678    0.4185448 -25.41  0.003120379    1.650    0.394
        22 -19.2039     27.9678    100.7870   1.1217322758e+02   5.1811889559e+01     16.09235    0.8144426 -72.45   0.02762114   16.696    0.940
        23 -11.6917     99.2585    180.9147   1.0435961012e+02   2.6850830436e+01    0.3226284    0.2794747 -62.96 0.0007843926    1.403    0.287
        24  -8.6027     15.4597    213.4057   1.2197426590e+02   3.1256232350e+01   0.09515062    0.0632823  60.30 0.0008015378    1.021    0.020
        25 -11.0536    133.7626    145.1906   9.2248796613e+01   2.7473240970e+01    0.9668267     0.250991 -54.24  0.002893216    5.840    0.829
        26 -11.7369     96.9255    192.0452   1.0597037098e+02   2.5368382867e+01    0.4274122    0.3937581 -15.92 0.0008095527    1.617    0.381
        27 -10.1490    113.4020    151.5379   9.7636963760e+01   2.9810661466e+01     0.265425    0.1758943  77.97  0.000900367    1.931    0.482
        28  -9.4020    174.8528    149.0751   8.4742499465e+01   1.9318257008e+01    0.1903368    0.1707939  65.17 0.0006514227    1.299    0.230
        29 -11.1875     99.6956    187.3584   1.0496565853e+02   2.5733216012e+01    0.2740964     0.167318  65.28  0.001629519    1.659    0.397
        30  -9.7297     57.5093    189.5195   1.1325104615e+02   3.0806295158e+01    0.2865166    0.1225932 -80.30  0.001561418    2.592    0.614
        31  -9.1552    115.2081    144.0026   9.6062000983e+01   3.0893832162e+01    0.2116503    0.1398568  84.54  0.001064933    2.093    0.522
        32 -11.3865    109.9198    137.5071   9.6178731026e+01   3.3003830144e+01    0.4550863    0.2726966 -43.09  0.002313487    2.043    0.510
        33  -9.3357    128.0346    139.3312   9.2449645929e+01   2.9533598059e+01    0.1936562    0.1519678  49.02  0.001134231    1.156    0.135
        34 -11.7475     98.7308    136.3887   9.8580013078e+01   3.5046429445e+01    0.2455691    0.2192993  49.28 0.0002486838    1.148    0.129
        35 -11.1189    105.8781    130.7577   9.5965409049e+01   3.4993540298e+01    0.3405414    0.2868721  88.06  0.001149339    1.191    0.160
        36 -10.1163    135.8367    129.3992   8.8875113035e+01   2.9907704390e+01    0.2506668   0.09880543 -49.37 0.0009898754    2.777    0.640
        37 -10.0583    160.6744    127.8072   8.3284823249e+01   2.5360913635e+01    0.2983255    0.2130338 -55.08  0.001561809    1.679    0.404
        38 -10.5115    116.4098    128.4816   9.3091436626e+01   3.3628719377e+01    0.2521206    0.2302336  -4.40 0.0007181662    1.377    0.274
        39 -10.5972    104.3895    124.0668   9.5127343487e+01   3.6579742857e+01    0.2496043    0.2228555 -42.52 0.0008886605    1.305    0.234
        40  -9.9512    120.7793    123.0032   9.1021578086e+01   3.3904521090e+01    0.2102845    0.1583034 -17.45 0.0009908094    1.986    0.496
        41  -9.4175    152.8411    119.8712   8.3202064031e+01   2.8277800580e+01    0.2081875    0.1836459  11.16 0.0004986476    1.242    0.195
        42  -9.5240    111.0789    117.9945   9.2339975755e+01   3.6643043979e+01    0.1998483    0.1842257  66.92 0.0004280239    1.021    0.021
        43 -10.4124    160.5528    205.3961   9.6028186853e+01   1.4119978851e+01    0.2074088    0.1420781  43.83 0.0008395063    1.149    0.130
        44  -9.8889    231.2398    113.7682   6.7578876256e+01   1.3071103761e+01    0.2367016    0.1937048  26.40 0.0007876238    1.131    0.116
        45  -9.8327    167.6482    112.5587   7.8465287126e+01   2.6447213951e+01    0.3345862    0.2309596 -68.73  0.001484881    2.254    0.556
        46 -11.2737    119.1147    110.4473   8.8800671409e+01   3.6681094179e+01    0.5348064    0.3182775  69.38  0.002241139    2.486    0.598
        47  -9.7770    205.3943    110.2355   7.0897315646e+01   1.8783124374e+01    0.2900451     0.181353  43.84 0.0009325148    1.530    0.346
        48 -10.1072    134.5188    105.0170   8.3875510771e+01   3.4713022416e+01    0.3179472    0.1351401 -50.31  0.001204088    2.580    0.612
        49  -9.9080     73.9816    103.6844   9.9276068100e+01   4.5727942497e+01     0.182448    0.1617603  76.70 0.0004980644    1.059    0.056
        50  -9.4352     60.0335    187.0000   1.1258305101e+02   3.0940134931e+01    0.2362261    0.1104823  42.50  0.000820217    1.725    0.420
        51 -10.1267    188.8608     88.3138   6.8246329460e+01   2.5569946685e+01    0.3352116    0.3135333  63.31  0.001894461    1.182    0.154
        52  -9.7305     75.5355     74.1825   9.2241843172e+01   5.2106325124e+01    0.2276956    0.1903853  47.25 0.0002296084    1.289    0.224
        53  -9.3074    156.4981    189.4961   9.4652537026e+01   1.6792468193e+01    0.1169342   0.09352695  41.88 -8.600585e-05    1.018    0.018
        54  -8.9380    163.0000    235.9503   9.9127821748e+01   1.0302729368e+01    0.1230633   0.05952998 -44.61 0.0007984185    2.915    0.657
        55 -12.7068    188.8168     35.3479   5.2272581493e+01   3.2947988888e+01    0.6540356    0.5378939   0.65  0.001508889    1.264    0.209
        56  -9.7888    167.3853    228.4134   9.7623269795e+01   1.0485438828e+01    0.1430342    0.1303333 -40.42 0.0006373815    1.532    0.347
        57 -11.3678    149.7502    188.2613   9.5699517114e+01   1.8034949140e+01    0.2960618    0.1685911  42.40  0.001762528    1.411    0.292
        58 -11.2743    204.7749    200.3735   8.8049201255e+01   7.9041122399e+00     0.425215    0.1275683  38.03  0.001938342    2.733    0.634
        59 -11.2967    193.7364    196.4249   8.9254229369e+01   1.0032931734e+01    0.9208645    0.5540306 -61.43  0.004399372    4.515    0.779
