#   1 NUMBER                 Running object number                                     
#   2 MAG_AUTO               Kron-like elliptical aperture magnitude                    [mag]
#   3 X_IMAGE                Object position along x                                    [pixel]
#   4 Y_IMAGE                Object position along y                                    [pixel]
#   5 X_WORLD                Barycenter position along world x axis                     [deg]
#   6 Y_WORLD                Barycenter position along world y axis                     [deg]
#   7 A_WORLD                Profile RMS along major axis (world units)                 [deg]
#   8 B_WORLD                Profile RMS along minor axis (world units)                 [deg]
#   9 THETA_WORLD            Position angle (CCW/world-x)                               [deg]
#  10 FWHM_WORLD             FWHM assuming a gaussian core                              [deg]
#  11 ELONGATION             A_IMAGE/B_IMAGE                                           
#  12 ELLIPTICITY            1 - B_IMAGE/A_IMAGE                                       
         1 -13.7623    169.4298     72.0106   5.1438394027e+01   3.3199321921e+01     3.570834     2.883147   1.21    0.0125296    1.661    0.398
         2 -13.4378    137.2400     40.1149   4.8440571149e+01   4.5626843396e+01     3.596793     1.551577  72.37  0.007907417    3.445    0.710
         3 -14.0819    138.8340     72.7239   5.8064421462e+01   4.0280669250e+01      3.12472     1.489552  35.11  0.005949883    2.997    0.666
         4 -13.8684     87.7674     72.4460   7.2482098207e+01   5.1325002477e+01     5.317281     2.873157 -12.95   0.01611896    4.540    0.780
         5 -14.1059     91.0436     49.6111   6.3499935304e+01   5.4666334923e+01     2.795987     2.388728  40.18   0.01613776    1.134    0.118
         6 -13.4443    122.4809     55.6975   5.6735596994e+01   4.6878737262e+01     2.657844     1.499695 -13.33   0.01022922    2.917    0.657
         7 -13.2495     35.9460     51.8939   8.5840434070e+01   6.3186343924e+01     5.927144     3.880801 -11.98   0.03249567    1.564    0.361
         8 -14.7184    109.2413     95.3010   7.2729397565e+01   4.2419506965e+01     5.023855     2.887651  35.00    0.0159812    1.855    0.461
         9 -14.9659     52.4053     83.8336   8.8949131764e+01   5.4585703279e+01     6.830574     3.555698 -27.36   0.01509412    2.454    0.592
        10 -10.3038     39.3679     23.0859   7.2589144500e+01   6.7501867451e+01    0.4467416    0.3589598 -49.54  0.002811369    1.876    0.467
        11 -13.6280     12.5395     71.4423   1.0211968951e+02   6.1177039433e+01     4.210478     1.032253 -57.08   0.01633298    2.834    0.647
        12  -9.7663     89.5648     23.9741   5.4248845551e+01   5.8392273172e+01    0.4344125    0.2426082  -9.97  0.002049173    2.332    0.571
        13  -8.4531    109.4299     21.1760   4.8103502323e+01   5.4326866404e+01     0.171952    0.1300027 -19.14 0.0003800398    1.494    0.330
        14  -8.2606    203.3043    250.6738   8.3018020572e+01  -6.5368808435e+00    0.1063204   0.09512966  45.12 0.0002809696    1.645    0.392
        15  -8.4245    151.3277    250.3268   9.3494698378e+01   8.1801307766e-01    0.1304107   0.09124021   0.03 0.0007050384    1.701    0.412
        16  -9.4883    139.2385    249.9077   9.5983681132e+01   2.6664679992e+00    0.2326964    0.1716092 -23.17  0.001351553    1.642    0.391
        17  -8.1682    202.4387    208.4876   7.6004000195e+01   3.4734429997e-01    0.1356771    0.1149106  -5.41 0.0001109481    1.011    0.011
        18  -8.8508    229.5191    203.4536   6.9880501634e+01  -2.7863385969e+00    0.1305611    0.1061783 -11.37 1.497705e-05    1.004    0.004
        19  -9.6229     20.8941    174.6489   1.1484112750e+02   3.5143203115e+01     0.366805     0.157482  84.65  0.001440563    2.876    0.652
        20  -7.9834     31.0378    171.7888   1.1193467131e+02   3.4896515244e+01    0.1577918     0.106795  31.14 0.0003465861    1.616    0.381
        21 -10.4618      7.4048    166.2112   1.1750752585e+02   3.8343172193e+01    0.3886675    0.2508387  24.67  0.001425872    1.830    0.453
        22  -8.7467     18.2196    164.7728   1.1457327756e+02   3.7837082104e+01    0.1730051    0.1350359 -55.59  0.000361487    1.301    0.231
        23  -8.9390     38.8576    159.7009   1.0837372892e+02   3.7168712731e+01    0.2589754    0.1626001 -60.58  0.001049571    1.431    0.301
        24 -10.1627      5.9932    158.4637   1.1719601564e+02   4.0362742313e+01    0.2628208    0.1540913  83.89  0.001384847    1.612    0.380
        25 -10.1472     31.1867    155.7745   1.1003105706e+02   3.8947116614e+01    0.3750713    0.2106115  26.34  0.001122273    2.002    0.500
        26  -9.4751     14.9209    154.9327   1.1445894205e+02   4.0579282141e+01    0.2628213    0.1636448 -79.33 0.0003592937    1.380    0.276
        27  -8.5901     23.0338    153.5192   1.1205411586e+02   4.0267615944e+01    0.1846024    0.1357325  21.60  0.001036708    1.612    0.380
        28  -9.8099     32.4039    150.1499   1.0896152458e+02   4.0273243898e+01    0.3548687    0.1474868 -51.18  0.001463316    2.271    0.560
        29 -10.6873      3.2679    145.4512   1.1672488927e+02   4.3785668883e+01     0.571616    0.3293548 -80.79   0.00306482    1.465    0.317
        30 -10.3402     36.3243    146.2917   1.0728176946e+02   4.0881957252e+01    0.3332944    0.1877607 -75.05  0.001549162    1.679    0.405
        31 -10.1825     45.3746    137.1705   1.0311617684e+02   4.2287417806e+01    0.4751158    0.1581498 -63.46  0.001694785    2.614    0.618
        32 -10.9274     42.5620    135.2179   1.0367247207e+02   4.3097914990e+01    0.6137381    0.2392435 -41.27   0.00215339    3.150    0.683
        33  -9.7144     29.1336    144.4632   1.0916265321e+02   4.2042110895e+01     0.284867    0.1655165  86.40  0.001308217    1.963    0.490
        34  -9.6608     49.8906    141.1578   1.0238379746e+02   4.0741722181e+01    0.4092978    0.1970407 -65.80  0.001704459    1.918    0.479
        35  -9.5747     58.2636    140.6398   9.9714846387e+01   3.9855167618e+01    0.3760552    0.1826487 -76.77  0.001362058    2.713    0.631
        36 -11.2017     29.3104    138.7735   1.0832503027e+02   4.3488074652e+01    0.4624819    0.2726701  36.42  0.002310372    1.846    0.458
        37  -9.4914     15.6310    136.1003   1.1211616425e+02   4.5294005575e+01     0.296069    0.2719245  70.85  0.001370578    1.178    0.151
        38  -9.2998    188.5394    249.1534   8.5686037265e+01  -4.3162796816e+00    0.2368301    0.1552303  25.88  0.001394414    1.303    0.232
        39 -11.0998     22.4726    129.4706   1.0912108875e+02   4.6453187494e+01    0.4007375    0.3133783 -18.03  0.002311765    1.515    0.340
        40 -10.9914     21.4300    123.9300   1.0864480029e+02   4.7943207947e+01    0.4784202    0.3441623 -44.81  0.001279827    1.330    0.248
        41 -11.4587     66.1762    127.8788   9.4744678040e+01   4.2088358798e+01    0.6384079    0.2411499  38.07  0.002301359    2.729    0.634
        42 -11.7520     64.2282    122.0894   9.4150756377e+01   4.3828094469e+01    0.6117437    0.3671786 -46.62  0.002756596    1.564    0.360
        43 -11.1465     77.0056    121.1995   8.9765932789e+01   4.2182297804e+01    0.4283256    0.3185957  50.12  0.001385245    1.512    0.338
        44 -11.2659     71.4520    120.5706   9.1434057174e+01   4.3180893893e+01    0.4776742    0.3245392  54.76  0.001549646    1.798    0.444
        45 -11.0144    180.2613    243.2822   8.6449555860e+01  -2.2272731322e+00     0.488817    0.2813632  44.31  0.001882501    1.961    0.490
        46  -9.7733    108.0023    120.0002   7.9819724835e+01   3.7058719685e+01    0.2332095    0.2249327 -32.62 0.0003247235    1.006    0.006
        47 -10.3664     94.7578    119.9882   8.3834207356e+01   3.9517726526e+01    0.2622222      0.22397  29.06 0.0006016297    1.217    0.179
        48 -13.6164     32.4894     98.5901   1.0022844883e+02   5.3318844965e+01     2.099454     1.414045  75.02 0.0004878879    2.195    0.544
        49 -10.1943    176.1375    238.7410   8.6588025779e+01  -8.8310413900e-01    0.2972368    0.1702082  45.73  0.001475625    2.021    0.505
        50  -8.5550    131.6855    243.6940   9.6767783976e+01   4.8993868833e+00    0.1282622   0.09635905  -0.64 0.0007025651    1.623    0.384
        51  -9.3069    245.4693    242.0014   7.3822020028e+01  -1.0542606497e+01    0.1686719     0.096563 -31.16 0.0005776882    1.573    0.364
        52 -13.0331    137.4616     54.5860   5.2877067810e+01   4.3550499973e+01     1.827114    0.9332704  59.98   0.00723259    1.946    0.486
        53  -9.9247    135.6835    105.5167   6.8244772922e+01   3.4601209133e+01    0.3527942    0.2551006   5.77  0.001475151    2.013    0.503
        54  -9.0911    221.2367    239.5314   7.7794062558e+01  -7.2509030094e+00    0.2354383    0.1843276  -6.62 0.0008677972    1.057    0.054
        55  -9.0345    192.1899    233.7938   8.2497896720e+01  -2.4059362089e+00    0.1933969    0.1469505  73.36  0.000956418    2.871    0.652
        56 -12.7524     59.7784     58.4949   7.7978812929e+01   5.8767819729e+01     1.389761    0.9748809  39.70  0.007448073    1.549    0.355
        57 -11.8127     73.1715     89.0856   8.2727497476e+01   5.0411630731e+01    0.6507995    0.4835998  66.59  0.003055718    1.986    0.497
        58  -8.1870    188.6690    234.0153   8.3249138448e+01  -1.9328787553e+00    0.1862674     0.110923 -65.48 0.0007049775    4.448    0.775
        59 -10.3574     55.3636    131.5452   9.8953324099e+01   4.2569397681e+01    0.3660933    0.2302153  89.70  0.001559422    2.161    0.537
        60  -9.9428     83.6991    129.8770   8.9612423482e+01   3.8944787374e+01    0.2484481     0.238243  79.57  0.000326583    1.105    0.095
        61  -8.6617    201.3166     76.6837   4.7262589635e+01   2.5132435165e+01     0.146179   0.09967096 -69.29 0.0003453784    1.650    0.394
        62 -10.1988    201.5110     72.0204   4.6109822368e+01   2.5843923159e+01     0.206889    0.1799971  77.38 0.0005044232    1.159    0.137
        63  -9.7021     61.7315    133.0232   9.7205842516e+01   4.1372824550e+01    0.2079099    0.1826005 -59.59 0.0001833423    1.050    0.048
        64 -11.0173     74.3592    129.9218   9.2559716134e+01   4.0386636307e+01    0.4213146    0.2981144   1.23  0.001561261    1.883    0.469
        65 -10.9823    111.3894     36.4810   5.3037998466e+01   5.2120100958e+01    0.6944646    0.6253975 -65.77  0.003382888    1.311    0.237
        66  -7.8581    225.6826     37.2775   3.5277504293e+01   2.5623632363e+01    0.1285744    0.0780507 -68.11 0.0002948683    1.573    0.364
        67  -9.3703    162.6961     36.4195   4.2822359001e+01   3.9999575538e+01    0.3132314    0.1710045 -57.66  0.001410422    2.171    0.539
        68 -10.0972    219.5548    218.8846   7.4551816383e+01  -3.8816335713e+00    0.2396884    0.1570015   9.89 0.0009173052    1.516    0.340
        69  -9.2687    179.1852    218.3906   8.2583697803e+01   2.1912935331e+00    0.1895411    0.1177619  41.14 0.0009439934    1.659    0.397
        70  -9.9486    212.7265    216.4491   7.5423883782e+01  -2.5243046031e+00    0.2377584    0.1992543  -6.13 0.0003172304    1.037    0.036
        71  -9.3957    101.8171     24.6078   5.1184281221e+01   5.5670528920e+01    0.3167215    0.2226712 -42.65  0.001745444    1.684    0.406
        72  -8.9396    110.9109     25.3617   4.9246722275e+01   5.3544490118e+01    0.1856918    0.1518671  50.87 0.0005366449    1.075    0.069
        73  -8.8303    219.4706    210.2093   7.2999294405e+01  -2.4655478044e+00    0.1668591    0.1171608 -44.23  0.000872472    1.607    0.378
