#   1 NUMBER                 Running object number                                     
#   2 MAG_AUTO               Kron-like elliptical aperture magnitude                    [mag]
#   3 X_IMAGE                Object position along x                                    [pixel]
#   4 Y_IMAGE                Object position along y                                    [pixel]
#   5 X_WORLD                Barycenter position along world x axis                     [deg]
#   6 Y_WORLD                Barycenter position along world y axis                     [deg]
#   7 A_WORLD                Profile RMS along major axis (world units)                 [deg]
#   8 B_WORLD                Profile RMS along minor axis (world units)                 [deg]
#   9 THETA_WORLD            Position angle (CCW/world-x)                               [deg]
#  10 FWHM_WORLD             FWHM assuming a gaussian core                              [deg]
#  11 ELONGATION             A_IMAGE/B_IMAGE                                           
#  12 ELLIPTICITY            1 - B_IMAGE/A_IMAGE                                       
         1 -13.5459     11.0860     26.9917   1.0509917283e+02   6.6352314242e+01    0.7944252    0.4569209  23.00  0.005528877    1.899    0.473
         2 -13.5714     21.6147     23.0523   9.9586280964e+01   6.6095125283e+01    0.5604787    0.3478939  -9.86  0.003586564    1.430    0.300
         3 -12.5534    209.6883     20.5516   5.2775957425e+01   3.1436281268e+01      0.49503    0.3154035  32.25  0.001154916    2.677    0.627
         4 -13.1817    218.1648     10.6791   4.9725980494e+01   3.0671832631e+01    0.6179779    0.5016891 -84.64  0.003149939    1.044    0.042
         5 -11.6959      2.4189      4.8124   1.0103596407e+02   6.9990299353e+01    0.4698527    0.1652855 -35.52  0.002804501    2.200    0.545
         6 -11.2428     90.4910    232.9322   1.2234090247e+02   1.4122065070e+01     1.150553    0.3627643  49.50  0.004483425    2.887    0.654
         7 -13.3478    248.0851    243.7253   9.3208529278e+01  -1.4004714490e+01     1.187847     0.450795 -33.60  0.005453051    2.751    0.637
         8 -12.4868    179.1344    249.4079   1.0717186791e+02  -3.8864226614e+00     1.671537     0.276322  42.37  0.004770153    5.139    0.805
         9 -12.3701    213.4536    246.9641   1.0017894468e+02  -9.1946614478e+00    0.5589501    0.4059038  -4.51  0.002860716    1.565    0.361
        10 -13.1771    199.6382    246.6510   1.0277166985e+02  -6.8919893517e+00     1.191847    0.8015789 -34.41  0.006837437    1.670    0.401
        11 -12.2858    208.2487    242.4876   1.0043623163e+02  -7.6618192473e+00     0.542844    0.4330706   3.87  0.002259883    1.297    0.229
        12 -14.1099    122.9696    200.3682   1.1111932475e+02   1.5672509945e+01     3.418864     1.214915 -54.71   0.01252502    2.852    0.649
        13 -13.9071    152.9328    231.1896   1.0961209876e+02   3.9183103851e+00     1.621332      1.25747  71.99  0.009094595    1.442    0.307
        14 -13.9189    167.2554    226.6621   1.0597685332e+02   2.1935121483e+00     1.428162     1.049549  40.19   0.00691005    1.241    0.194
        15 -13.1715    127.3324    233.0305   1.1506381363e+02   8.0624411641e+00    0.9639665    0.5199262 -52.36  0.004351457    2.060    0.515
        16 -13.8643    116.0212    227.1073   1.1654048049e+02   1.1181427970e+01     1.809831     1.039098  86.71  0.007769912    2.693    0.629
        17 -12.4518     31.3634    239.0495   1.3365849601e+02   2.0902999258e+01    0.6716487    0.2823497  76.38  0.002011326    2.713    0.631
        18 -14.1125     35.0194    160.5046   1.2520064159e+02   3.7615687560e+01      2.69945     2.014036  47.82   0.01706264    1.486    0.327
        19 -12.4215     28.0319    199.8577   1.3098161799e+02   2.9473057812e+01     1.085624    0.5467569  64.66  0.005797585    2.021    0.505
        20 -13.6687     31.6515    188.7069   1.2917329009e+02   3.1552430841e+01     1.143295    0.7618831 -59.30  0.005718112    1.489    0.328
        21 -13.6310     46.2277    247.2477   1.3178518855e+02   1.7477729421e+01    0.8010886    0.3825268  60.03  0.004500278    1.808    0.447
        22 -15.2701     65.9283    245.2083   1.2818488045e+02   1.5258492105e+01     1.932538     1.032252  49.43  0.009475255    1.619    0.382
        23 -14.2193     50.7434    228.0783   1.2933879434e+02   2.0761022829e+01     1.254179    0.7858862  88.29  0.006095736    1.410    0.291
        24 -11.8173     96.2715    226.7409   1.2046690148e+02   1.4495121640e+01    0.4694359    0.3382714 -85.10  0.001573178    1.372    0.271
        25 -11.2047     79.0628    193.3692   1.1971769050e+02   2.4474276955e+01    0.4122836    0.3403789  88.72  0.002203164    1.067    0.063
        26 -12.6705     73.3978    209.5440   1.2298801307e+02   2.1659275064e+01     1.614985    0.4209154 -55.21  0.005725625    3.808    0.737
        27 -11.8009     78.9071    221.8041   1.2332325584e+02   1.8197327074e+01     0.662961    0.4340968  69.20  0.002932567    1.442    0.306
        28 -11.8804     80.0656    213.5632   1.2211455665e+02   1.9802681778e+01    0.5478716    0.4404036 -75.85  0.002839598    1.182    0.154
        29 -11.8101    237.5860    221.3416   9.1175318114e+01  -9.0897149818e+00    0.2772162     0.221335 -52.08  0.001401867    1.592    0.372
        30 -13.2229    129.8756    248.9244   1.1667382888e+02   4.6091001603e+00     2.256456    0.5899389  41.07  0.008022869    3.389    0.705
        31 -13.2589    232.6544    216.4339   9.1199849415e+01  -7.5007655319e+00    0.7239228    0.3814509 -23.22   0.00321141    2.468    0.595
        32 -12.7276    211.6910    210.4273   9.4135011595e+01  -2.8813029508e+00    0.9486555    0.6958103  14.09  0.005032141    1.536    0.349
        33 -12.9467    223.6024    199.6461   8.9763495185e+01  -3.0748824240e+00     1.085585    0.6987959   2.54  0.004870113    2.340    0.573
        34 -14.5683    219.9244    186.9134   8.7981805500e+01  -7.3049132455e-02     1.879408     1.291957 -19.69  0.009156333    1.731    0.422
        35 -11.3870     94.7682    214.7346   1.1924606573e+02   1.7285715289e+01    0.6538396    0.2336494  42.84  0.002634399    2.582    0.613
        36 -10.7160     96.8776    209.9776   1.1817090555e+02   1.7986349494e+01     0.314941    0.2874612  58.31  0.001089777    1.174    0.148
        37 -10.4683     92.1807    209.8526   1.1913988119e+02   1.8761388256e+01    0.2615957    0.2394962 -67.70  0.001118515    1.240    0.194
        38 -10.1407     40.8924    214.0528   1.2986009513e+02   2.4945172759e+01    0.1631525    0.1280837 -57.97 0.0005968952    1.537    0.349
        39 -11.5506    226.9668    211.3208   9.1331054839e+01  -5.6963245005e+00    0.4463692    0.2514744 -16.34  0.001876696    2.738    0.635
        40 -10.2596     92.1907    219.7570   1.2041790935e+02   1.6611762761e+01    0.2577063    0.1741632  75.43  0.001149905    1.492    0.330
        41 -12.3759     45.3822    201.5069   1.2774322559e+02   2.7143425589e+01    0.6361157    0.5357803  82.33  0.002751101    1.096    0.088
        42 -11.9293     88.9991    204.3332   1.1907099152e+02   2.0483663354e+01    0.5864788      0.45784  40.25  0.003337502    1.400    0.286
        43 -11.3349     83.8926    202.4283   1.1990067828e+02   2.1694928433e+01    0.4878142    0.2736401 -65.98  0.002415434    1.699    0.411
        44 -11.7221    107.0866    202.6523   1.1494464562e+02   1.7925857700e+01    0.6281862    0.4834842 -42.97  0.003385588    1.588    0.370
        45 -10.9036    145.8789    203.2600   1.0658818521e+02   1.0835614197e+01    0.4316068    0.1964457  32.73   0.00158589    2.758    0.637
        46 -12.7643    200.7591    197.5143   9.3890133618e+01   1.5107936136e+00     0.899693     0.523963  50.57  0.004081746    1.849    0.459
        47 -13.6434     93.0458    187.2986   1.1573703185e+02   2.3727321565e+01     1.498765    0.9713457  84.82  0.006667757    1.841    0.457
        48 -12.7291    166.7746    186.7383   9.9007570558e+01   1.0318429240e+01     1.373877     0.946176   5.28  0.005677268    2.480    0.597
        49 -12.3401    163.5694    179.3075   9.8266991381e+01   1.2561038599e+01    0.8542221    0.5902944  17.70  0.003692985    2.073    0.518
        50 -10.3191    137.1291    185.5625   1.0541546001e+02   1.6365007800e+01    0.2942288     0.228116  82.36   0.00132635    1.476    0.323
        51 -11.3172     75.3103    181.7731   1.1892188608e+02   2.7704323903e+01    0.9415082    0.4358278 -46.31  0.003892485    2.656    0.623
        52 -11.7323     71.5266    178.3401   1.1928492491e+02   2.9043389708e+01    0.6728795    0.3792009 -41.85   0.00260603    2.371    0.578
        53  -9.6131     66.2530    184.3915   1.2131063090e+02   2.8360343095e+01    0.1316272   0.09258782 -46.31 0.0006668514    1.682    0.406
        54 -10.4605     15.7066    182.7134   1.3179110191e+02   3.4462517938e+01    0.2574334    0.1530606 -78.52  0.001093558    1.322    0.244
        55 -13.5171    112.8658    187.7268   1.1131341517e+02   2.0311455038e+01      1.24711    0.9977784  40.09  0.005561655    1.317    0.241
        56 -13.0691    198.7334    175.5248   8.9930989363e+01   6.2514517503e+00    0.9138916     0.475141  46.53   0.00381026    1.952    0.488
        57 -13.0516     88.4538    158.6344   1.1210085489e+02   3.1208391453e+01     1.193267     0.753466 -68.87   0.00475965    1.582    0.368
        58 -13.3249     99.7734    147.0677   1.0708460576e+02   3.2126132856e+01     1.184803    0.7405332 -39.03  0.005338911    1.839    0.456
        59  -9.8742     80.4405    167.7033   1.1558223059e+02   3.0268924575e+01    0.1783953    0.1214695 -54.75 0.0004423722    1.407    0.289
        60 -12.0807     68.2030    163.9495   1.1790703678e+02   3.2888840995e+01    0.4896938    0.2564906 -41.09  0.002106208    2.520    0.603
        61 -11.4848     77.9495    162.0095   1.1524984149e+02   3.1984071935e+01    0.4612201    0.4002238 -87.41  0.002455787    1.073    0.068
        62 -11.4903    180.0293    214.8098   1.0134527051e+02   2.0895287594e+00    0.5732426    0.3295769  55.13  0.002566258    1.997    0.499
        63 -13.2938    155.0514    164.5421   9.7208179227e+01   1.7565114954e+01      1.06978    0.7769187 -45.00  0.005060981    1.406    0.289
        64 -12.4743     88.7609    144.3858   1.0937959856e+02   3.4542833975e+01    0.4836112    0.2958297 -50.15 0.0004811636    1.545    0.353
        65 -15.8581     13.6417    240.1205   1.3663914681e+02   2.2661922252e+01     2.187126    0.9199809  72.27   0.01177928    2.275    0.560
        66 -12.6146    247.6586    145.1829   7.4306998656e+01   2.5667494340e+00     0.461758    0.4175616  43.20  0.002754126    1.223    0.183
        67 -11.4655     69.3732    144.1423   1.1432380744e+02   3.7413576889e+01    0.5723506    0.3564569  71.22  0.002610276    2.226    0.551
        68 -10.3903     64.6645    141.6968   1.1510175267e+02   3.8607287951e+01    0.2781771    0.1523221 -57.81 0.0007102505    1.588    0.370
        69 -12.6738      8.6680    136.9998   1.2839673126e+02   4.5197181272e+01    0.7653117    0.4354489 -64.28  0.004656384    1.336    0.252
        70 -12.8765     29.9019    220.1483   1.3241935633e+02   2.4926228258e+01     2.248798    0.9332777  72.08    0.0101309    2.930    0.659
        71 -10.5301     98.3042    129.4184   1.0378912130e+02   3.6502374640e+01    0.2941353    0.2283925 -29.89 0.0008369439    1.468    0.319
        72 -11.8775     70.9267    119.7747   1.0918892201e+02   4.2849472883e+01    0.6238328    0.4561318 -77.07  0.003301875    1.574    0.365
        73 -10.8433    242.0053    101.0000   6.5851967034e+01   1.1855754750e+01    0.2200316   0.07930741  55.46 0.0008073234    2.976    0.664
        74 -12.4607      2.7251     74.7507   1.2030000679e+02   5.8606162726e+01      0.39413    0.1551774 -59.94  0.002126994    1.961    0.490
        75 -12.2087    193.9802     34.6696   5.8072289215e+01   3.3301756994e+01    0.3334317    0.2197188  53.62  0.001200734    1.483    0.326
        76 -13.4283    135.8562    229.1089   1.1278229675e+02   7.3523236828e+00     1.227475    0.6838871 -58.23   0.00524188    1.979    0.495
        77 -11.6199    227.9337    241.6334   9.6556096702e+01  -1.0686626370e+01    0.2314846    0.1864986 -38.58  0.001479628    1.411    0.291
        78 -10.6469    188.2765    237.6657   1.0353824736e+02  -3.4996513296e+00    0.4427117    0.3222392   6.33  0.002393322    1.744    0.427
        79 -12.8504    202.7085     28.6813   5.5466870376e+01   3.2041388403e+01    0.5336586     0.364547 -42.80   0.00304144    1.552    0.356
        80 -11.9693    105.3530    232.0429   1.1932268710e+02   1.1945578097e+01    0.8988611    0.4887417  76.18  0.003898427    2.650    0.623
