#   1 NUMBER                 Running object number                                     
#   2 MAG_AUTO               Kron-like elliptical aperture magnitude                    [mag]
#   3 X_IMAGE                Object position along x                                    [pixel]
#   4 Y_IMAGE                Object position along y                                    [pixel]
#   5 X_WORLD                Barycenter position along world x axis                     [deg]
#   6 Y_WORLD                Barycenter position along world y axis                     [deg]
#   7 A_WORLD                Profile RMS along major axis (world units)                 [deg]
#   8 B_WORLD                Profile RMS along minor axis (world units)                 [deg]
#   9 THETA_WORLD            Position angle (CCW/world-x)                               [deg]
#  10 FWHM_WORLD             FWHM assuming a gaussian core                              [deg]
#  11 ELONGATION             A_IMAGE/B_IMAGE                                           
#  12 ELLIPTICITY            1 - B_IMAGE/A_IMAGE                                       
         1 -11.2263    209.8002     24.1215   6.5032982591e+01   2.9682480161e+01    0.6682193    0.1815053 -40.56  0.002336796    3.159    0.683
         2 -10.9807    215.2227     18.2336   6.2920831494e+01   2.9009152373e+01    0.3159008    0.1671171 -20.81  0.001418043    2.294    0.564
         3  -8.9801    167.2042      9.2165   6.5999317054e+01   4.2275043389e+01    0.2166258   0.08754771 -36.02 0.0008721525    2.478    0.596
         4  -8.7735    117.7543      8.9844   7.4394747968e+01   5.4784734337e+01    0.1633772    0.1150965 -16.97 0.0004176473    1.536    0.349
         5 -10.1474    110.8996      5.1534   7.4354814872e+01   5.6749913522e+01    0.2272042    0.1838061  25.43  0.001340465    1.189    0.159
         6  -9.8730     50.8888      3.7303   9.2269848914e+01   6.8832628432e+01    0.2063148    0.1526855   1.58 0.0002857236    1.164    0.141
         7  -9.1179    158.5268      2.9339   6.5191763074e+01   4.5098185663e+01    0.1906969    0.1377922 -20.88  0.001024431    1.569    0.363
         8  -8.2155    153.2764      3.3468   6.6064252559e+01   4.6415235072e+01    0.1413325   0.09345047  36.99 0.0004667036    1.631    0.387
         9 -10.0173     97.6422      2.1300   7.6195965864e+01   6.0025885744e+01    0.2957263    0.1726043  20.15   0.00146979    1.899    0.473
        10  -8.6552    168.4596      1.9606   6.3592398286e+01   4.2614968901e+01    0.1947724   0.09000004 -49.49 0.0008078043    2.428    0.588
        11  -8.3032     14.9774      1.9435   1.0912141577e+02   7.3600535628e+01    0.1299879   0.09566551 -18.78            0    1.019    0.019
        12  -8.3697     67.4622      1.3963   8.4736559674e+01   6.6239886257e+01    0.1230875    0.1017856  19.33 7.403005e-05    1.025    0.024
        13  -9.0378     59.0165      1.4776   8.7839735340e+01   6.7737222544e+01    0.1693775     0.108367  42.63 0.0004372591    1.497    0.332
        14  -8.4848     42.6495    244.2740   1.4453222507e+02   2.0573823756e+01    0.1164263   0.05567408  61.62 0.0005327958    1.635    0.388
        15 -11.1761    230.6484    189.8672   1.0146462524e+02  -6.8798124874e-01     2.180964     0.236404 -36.95  0.005019091    9.288    0.892
        16 -10.8907    239.9572    124.3146   8.5981783300e+01   7.6606582661e+00     1.858051    0.3941165 -35.57  0.005396661    4.259    0.765
        17 -10.7715    240.9760    208.6523   1.0312662220e+02  -4.9182406359e+00    0.4634013    0.3513843 -45.64  0.002528264    1.863    0.463
        18 -11.9112    236.4893    191.5295   1.0075187372e+02  -1.9161232668e+00     2.575845    0.3846295 -37.98   0.00708922    6.744    0.852
        19 -11.9235    237.4425    217.3062   1.0525133716e+02  -5.4501377165e+00     1.236928    0.9357395 -71.33  0.006390871    3.441    0.709
        20 -13.0606    238.3460     68.4065   7.2866304645e+01   1.6784817052e+01     4.796287    0.5421773 -43.75  0.009933218    8.406    0.881
        21 -11.8395    238.8403    160.2909   9.4092277587e+01   2.2247419358e+00     1.754763    0.6397772 -48.05  0.005540947    4.752    0.790
        22 -12.7731    247.8883    212.2701   1.0259558545e+02  -6.4345757190e+00     3.537961    0.3083195 -35.62  0.008376662   10.995    0.909
        23 -13.0523    245.3396    186.3649   9.8239165210e+01  -2.6824814145e+00     2.773599    0.9192957 -42.72   0.01033188    3.907    0.744
        24 -12.4002    245.4469    160.0652   9.2929035427e+01   1.0592365886e+00     2.211872     0.576019 -42.47  0.006895053    4.620    0.784
        25 -13.0374    246.8100    143.1044   8.9081315128e+01   3.3729173709e+00     4.569813    0.6599708 -36.08   0.01170556    5.994    0.833
        26 -13.9190    245.9174     56.0948   6.8983721519e+01   1.6849109503e+01     3.650891     1.253075 -48.76   0.01329296    2.968    0.663
        27 -14.2174    245.9078     16.0725   5.9637432369e+01   2.1960112525e+01     4.317124     2.104275 -35.72   0.02148903    1.858    0.462
        28  -9.0605    229.8280    236.3539   1.0970944419e+02  -6.5691732950e+00    0.1793014    0.1600956 -57.52    0.0011308    1.893    0.472
        29  -9.2763    205.9655    236.4785   1.1391400782e+02  -2.8977745796e+00    0.1918459    0.1752913 -56.64  0.001364481    1.608    0.378
        30  -9.7875    240.9645    232.8436   1.0725151392e+02  -7.8163816665e+00    0.3773146    0.2562191 -57.83  0.001947295    3.723    0.731
        31 -10.0679    215.7894    234.3422   1.1183858443e+02  -4.1787569411e+00    0.3047387    0.2555512 -55.47  0.001853424    1.871    0.465
        32  -9.4187    216.8396    228.8060   1.1077631123e+02  -3.6527775733e+00    0.2346295    0.1579638  -4.71 0.0006474722    1.675    0.403
        33  -9.8011    216.8701    223.5137   1.0991203165e+02  -2.9801178943e+00    0.3699908     0.232432 -50.80  0.001990309    2.478    0.596
        34  -8.6767    201.6713    231.8107   1.1397401379e+02  -1.6051067141e+00     0.147133    0.1129098 -43.67   0.00094135    1.686    0.407
        35  -8.9747    225.0000    230.9853   1.0968919718e+02  -5.1993979007e+00    0.2055443     0.132373 -41.84 0.0009976949    2.040    0.510
        36  -8.9751    223.1799    227.1449   1.0938640164e+02  -4.4448434996e+00    0.2441162    0.1654598 -34.46  0.001417541    1.713    0.416
        37  -9.5899    235.4577    228.0307   1.0739956628e+02  -6.4423919018e+00    0.2787315    0.1098909 -33.82  0.001367919    2.769    0.639
        38  -8.8317    229.1833    228.1983   1.0850919672e+02  -5.5064699886e+00    0.1439813     0.134679  19.43 0.0007593781    1.375    0.273
        39  -9.2408    211.6591    227.4059   1.1147794902e+02  -2.6448824144e+00    0.2581037    0.1419112 -37.55  0.001427696    2.120    0.528
        40  -9.3054    198.7271    226.4885   1.1368489662e+02  -4.0701194755e-01    0.2216338    0.1493308 -51.84   0.00127071    2.110    0.526
        41  -9.0919    190.5287    226.2987   1.1517340426e+02   9.8724668784e-01    0.2055314    0.1239792 -46.88  0.001132474    2.115    0.527
        42  -9.7509    206.6042    224.9549   1.1199960403e+02  -1.4992139840e+00     0.291206     0.230819 -23.22  0.001912948    1.401    0.286
        43  -9.9054    227.6498    216.7809   1.0686691576e+02  -3.8423425324e+00    0.2980382    0.1358771 -41.29  0.001449408    2.676    0.626
        44  -9.5985    224.7117    208.3768   1.0592656507e+02  -2.2568971233e+00    0.2699752    0.1687013 -51.13  0.001390188    2.497    0.600
        45 -10.0097    192.8642    217.0635   1.1327327117e+02   1.9182310707e+00    0.4882575    0.1772313 -44.90  0.002037802    3.387    0.705
        46  -8.8055    219.3482    216.8917   1.0836261172e+02  -2.5140844098e+00    0.3437454    0.1451043 -39.10  0.001624753    2.700    0.630
        47 -10.1527    216.7895    211.8887   1.0796819900e+02  -1.4166590756e+00    0.3169167    0.1850432 -40.21  0.001717256    1.995    0.499
        48  -9.6602    227.6610    221.6703   1.0769358259e+02  -4.4652079342e+00    0.2802161    0.2316854  53.51  0.001709525    1.668    0.400
        49 -10.8290    173.0588    203.6759   1.1492040345e+02   7.5269328436e+00    0.4471658    0.2265743 -39.98  0.002090384    2.306    0.566
        50 -11.7350    176.5440    210.5154   1.1535262411e+02   5.7831473057e+00    0.4852936    0.3842225 -52.99   0.00291436    1.557    0.358
        51  -8.3164    212.2790    211.6473   1.0874969943e+02  -6.2494403948e-01    0.1120706    0.1014749  78.90 0.0004192462    1.650    0.394
        52 -10.5815    178.6309    204.1989   1.1389938014e+02   6.4269967803e+00    0.3041764    0.2310852 -41.45  0.001761436    1.509    0.337
        53  -9.7721    229.2142    207.1045   1.0489963207e+02  -2.8278661788e+00    0.3256737    0.1901795 -38.83  0.001344172    1.950    0.487
        54 -10.1026    227.6698    201.5008   1.0416423109e+02  -1.8121620897e+00    0.3288835    0.1424225 -39.34  0.001514567    2.549    0.608
        55  -9.0986    206.2049    206.8489   1.0904351320e+02   1.1013810237e+00    0.2809274     0.165219 -17.88  0.001373591    2.239    0.553
        56  -9.3432    217.2616    204.7775   1.0663425958e+02  -5.0726609618e-01    0.2118249     0.150924 -34.41  0.001228658    1.543    0.352
        57  -8.5605    213.0000    203.9649   1.0727235118e+02   3.4085681312e-01    0.1906068   0.07213939 -37.62 0.0005971869    2.885    0.653
        58  -9.9556    222.8557    201.0590   1.0494810852e+02  -9.3746701705e-01    0.3587998    0.2463434  63.26  0.001809406    2.481    0.597
        59  -9.9957    176.2329    197.8755   1.1329989827e+02   7.9156769192e+00     0.345472    0.1820953 -43.43  0.001626968    2.147    0.534
        60  -9.1081    215.4124    197.6496   1.0568527936e+02   8.3800039427e-01    0.2371191    0.1220534 -41.81  0.001136455    2.214    0.548
        61 -10.1330    224.1208    192.4184   1.0311941612e+02   7.6774026051e-02    0.4311235    0.2196339 -44.65  0.002018735    2.419    0.587
        62  -8.6988    202.0000    196.9893   1.0808484983e+02   3.3276822185e+00    0.1985359   0.07528646 -39.45  0.000795292    2.893    0.654
        63 -10.0798    184.8364    192.3916   1.1060491107e+02   7.2326744443e+00    0.4264992    0.1275546 -37.83  0.001411463    4.174    0.760
        64  -8.9601    219.4121    194.3045   1.0433066896e+02   6.2589403705e-01    0.2161937    0.1608531 -39.45  0.001249978    1.532    0.347
        65  -9.1348      1.3643    194.2947   1.4909377922e+02   3.4307523848e+01    0.1937939   0.07879166 -78.14 0.0007514178    2.003    0.501
        66 -10.2369    170.0992    197.4310   1.1446428665e+02   9.1298109126e+00    0.2467182    0.2066755 -58.89  0.001442595    1.434    0.302
        67 -10.4951    172.4785    191.0040   1.1285778880e+02   9.8015147581e+00    0.4169124    0.1382073 -44.69  0.001517567    3.372    0.703
        68  -9.9093    178.8960    189.6054   1.1129652947e+02   8.8275969030e+00    0.3726923    0.1744889 -34.05  0.001525853    2.705    0.630
        69  -8.2831    198.6675    191.3246   1.0768727237e+02   4.8278385097e+00    0.1289329    0.1077424  76.84 0.0007050816    1.708    0.414
        70  -8.2954    203.3099    183.6709   1.0534163493e+02   5.1923133017e+00    0.1282018    0.1104452  84.92 0.0007040989    1.664    0.399
        71  -9.9968    183.5142    182.0998   1.0896420734e+02   9.2443130774e+00    0.3560911    0.1390912 -41.96  0.001376999    2.789    0.641
        72 -10.1865    176.6314    181.0753   1.1018185420e+02   1.0764298754e+01    0.3072763    0.1357138 -43.66  0.001250327    2.475    0.596
        73  -8.9984    190.8845    179.3366   1.0694562763e+02   8.2919243316e+00    0.2336092    0.1954275 -50.82  0.001309278    1.393    0.282
        74  -9.8521    218.6812    168.5807   9.9415026244e+01   4.7089998668e+00    0.3693117    0.2611202 -48.32  0.001588979    1.688    0.408
        75  -9.6164    228.6441    165.9702   9.7062675020e+01   3.2403081169e+00    0.3555348    0.3038398 -74.68  0.002004894    1.741    0.426
        76  -9.8874    226.6563    157.7991   9.5697803642e+01   4.9073714992e+00    0.5332976    0.1903378 -39.42  0.002009278    2.774    0.640
        77  -9.8352    228.1577    150.8054   9.3921444927e+01   5.7406145332e+00    0.4736915    0.1980168 -30.72  0.001844362    2.517    0.603
        78  -8.5570    225.7915    179.0114   1.0022373887e+02   1.7639716312e+00    0.2381006     0.168923 -33.25 0.0008030606    1.436    0.304
        79  -8.8197    227.4891    175.5443   9.9225483476e+01   1.9810809237e+00    0.2419976    0.1605196 -21.15 0.0008252083    1.548    0.354
        80  -9.3753    227.4974    171.4757   9.8400682282e+01   2.6013235548e+00    0.3061463    0.2068051 -53.02   0.00119036    2.046    0.511
        81  -9.6826    223.2247    173.0967   9.9503546159e+01   3.1410643021e+00    0.3501177    0.2018579 -42.81  0.001235665    1.912    0.477
        82  -9.4232    182.2232    175.7637   1.0800712221e+02   1.0616790788e+01    0.2826702     0.196558 -29.70  0.001411531    1.619    0.382
        83  -8.6996    210.5015    175.0370   1.0226405444e+02   5.2280964356e+00    0.2057679    0.1329153 -34.87  0.001035071    1.596    0.373
        84  -8.7815    215.6176    172.8407   1.0085639935e+02   4.6091579937e+00    0.1894848    0.1250971 -45.47 0.0009464983    1.735    0.424
        85 -10.4553    199.7518    164.7736   1.0224402484e+02   9.0551428575e+00    0.4441268    0.2487965 -45.24  0.001518736    1.955    0.488
        86  -8.5868    187.4931    172.0308   1.0618926536e+02   1.0235499848e+01    0.2076784    0.1408525 -39.73 0.0006583743    1.567    0.362
        87  -9.4251    205.0032    168.9906   1.0209054785e+02   7.2910028724e+00    0.3074768    0.2260702 -52.32  0.001506804    1.662    0.398
        88  -9.9806    178.7807    168.7838   1.0733563882e+02   1.2574649245e+01    0.3096949    0.1910993 -42.48  0.001445773    1.728    0.421
        89  -9.8305    212.8271    163.1083   9.9369589894e+01   6.7364966405e+00    0.4100283    0.2162444 -35.29  0.001672665    1.922    0.480
        90 -10.1866    204.9617    161.7111   1.0058061761e+02   8.5369240960e+00    0.4258898     0.246722 -41.01  0.001963949    1.791    0.442
        91  -9.2600    221.2651    161.6161   9.7485238244e+01   5.3342839180e+00    0.2556562     0.183369 -34.60  0.001151987    1.391    0.281
        92  -9.6621    191.5049    165.0689   1.0395419496e+02   1.0668618422e+01    0.3718727    0.1418157 -40.32  0.001367887    2.749    0.636
        93  -9.7874    197.0620    157.0168   1.0113311201e+02   1.0968303578e+01    0.3894222    0.2191418 -33.97  0.001710976    1.876    0.467
        94  -9.3150    225.3890    133.6452   9.0568396288e+01   9.1241999390e+00    0.2864822    0.1697647 -32.13  0.001316342    1.633    0.388
        95  -9.5969    221.6448    153.5281   9.5683306463e+01   6.5798058729e+00    0.6760562    0.1985937 -40.04  0.002268681    3.368    0.703
        96  -9.9214    223.3564    146.5332   9.3838582448e+01   7.3931105181e+00    0.4048605    0.3373946 -30.62  0.001819158    1.165    0.142
        97  -9.5837    224.1028    140.5321   9.2362885917e+01   8.2391521545e+00    0.3460442    0.1941381 -34.56  0.001052093    1.719    0.418
        98 -10.4378    218.0060    138.0983   9.2907747309e+01   9.9109104287e+00    0.5602373    0.3975725 -59.92  0.002657343    1.873    0.466
        99  -9.1052    217.7366    132.3894   9.1640383942e+01   1.0945729512e+01    0.3993317    0.1998374 -43.39  0.001461188    2.029    0.507
       100  -9.9953    220.1249    128.7018   9.0351194188e+01   1.1068138669e+01    0.6247801    0.3785979 -61.66  0.002503554    2.634    0.620
       101  -9.7236    215.2321    148.9436   9.5859177910e+01   8.6364204429e+00    0.4245479     0.237549 -44.53  0.001787066    1.903    0.475
       102  -9.0603    218.3806    144.3683   9.4258686512e+01   8.7672546303e+00    0.2526353     0.236888  10.93 0.0007354942    1.034    0.033
       103  -9.7835    214.3183    142.2988   9.4542021448e+01   9.9615176724e+00    0.4228483    0.2338171 -45.25  0.001285286    1.926    0.481
       104  -9.0660    216.0841    156.6154   9.7375543077e+01   7.1729432922e+00    0.2449452    0.1872639 -42.96  0.001019094    1.398    0.285
       105  -8.5295    187.5826    156.2004   1.0288004006e+02   1.3087897504e+01    0.2075892    0.1391194 -27.28 0.0007838654    1.686    0.407
       106  -9.2092    211.6153    151.8140   9.7170588536e+01   8.8857074244e+00    0.2909295    0.1332652 -40.49  0.001125626    2.199    0.545
       107 -10.0044    205.6172    154.6039   9.8928383747e+01   9.6320618060e+00    0.2829248     0.265056   7.61   0.00105781    1.008    0.008
       108  -9.1164    202.4526    151.4746   9.8859507878e+01   1.0835099519e+01    0.2849501    0.1813367 -34.15  0.001331731    1.600    0.375
       109  -8.5785    179.3619    154.2232   1.0417120260e+02   1.5188143920e+01    0.2028237     0.138453 -51.23 0.0009381928    1.629    0.386
       110  -8.9398    196.6097    149.7768   9.9640552848e+01   1.2364535901e+01    0.2788319    0.1402023 -34.79  0.001126702    2.098    0.523
       111  -9.6814    207.5799    145.2165   9.6472382527e+01   1.0865646797e+01    0.4139848     0.230926 -35.86  0.001818423    1.792    0.442
       112  -8.7235    191.0000    148.0268   1.0038467636e+02   1.3876941011e+01    0.2409132   0.08397374 -40.20 0.0008007345    2.931    0.659
       113  -8.8202    200.4634    145.0460   9.7816243275e+01   1.2401501175e+01    0.2261194    0.1425429 -37.83  0.001031414    1.594    0.373
       114  -9.7416    155.4848    143.4610   1.0708440695e+02   2.2435694524e+01    0.3160964    0.1509339 -46.15  0.001209849    2.167    0.539
       115  -8.5621    194.4572    143.5153   9.8665866536e+01   1.3967583548e+01    0.1452896    0.1428934  15.27 0.0001989294    1.050    0.048
       116  -8.6547    181.6134    141.8451   1.0093676315e+02   1.7075586162e+01    0.2181236    0.1395322 -52.04 0.0009473396    1.760    0.432
       117  -9.2900    208.3308    137.9986   9.4684514043e+01   1.1977563227e+01    0.3134115    0.1702399 -43.62  0.001257339    1.888    0.470
       118  -9.1133    198.6936    136.5138   9.6206728658e+01   1.4331541975e+01    0.2633867    0.1336858 -38.29  0.001060574    1.968    0.492
       119  -8.7652    192.5021    137.0509   9.7571112706e+01   1.5591652416e+01    0.2302227    0.1468892 -38.18 0.0007398446    1.578    0.366
       120  -9.2366    234.2325    135.7530   8.9527977755e+01   6.9725765222e+00    0.2900007    0.2038639 -56.46  0.001331141    1.821    0.451
       121  -9.8346    230.0002    140.7547   9.1376934026e+01   7.0084186610e+00    0.4294676    0.1868674 -40.92  0.001686996    2.262    0.558
       122  -9.2248    205.6812    131.0410   9.3564017110e+01   1.3789774219e+01    0.2396804    0.1782989 -52.52 0.0009913638    1.497    0.332
       123  -8.9732    233.6303    128.8170   8.8050046385e+01   8.2219865697e+00    0.2100942    0.1200697 -43.18 0.0009491978    1.746    0.427
       124  -8.7776    212.3603    129.2151   9.1879116090e+01   1.2653400459e+01     0.215122    0.1290628 -45.56 0.0009422555    1.730    0.422
       125  -9.4642    199.6692    126.7787   9.3705640490e+01   1.5895617078e+01    0.3013793     0.237814 -39.12  0.001050977    1.256    0.204
       126  -8.9965    227.5782    125.2625   8.8247754761e+01   1.0066379322e+01    0.2757864    0.1281059 -39.32  0.001120869    2.035    0.509
       127  -9.9335    179.7691    124.0439   9.7090886960e+01   2.0940890741e+01    0.4879191    0.2879882 -40.35  0.001878866    1.703    0.413
       128  -9.2230    234.9874    123.6313   8.6629355001e+01   8.7881356311e+00    0.2774088    0.1909738 -40.87 0.0009641567    1.396    0.284
       129  -8.7966    187.8540    123.0257   9.5151977036e+01   1.9278704611e+01    0.2534234    0.1689118 -60.53  0.001067852    1.921    0.479
       130  -8.3945    194.0000    120.9409   9.3396512055e+01   1.8259026060e+01    0.2490582   0.08565807 -38.30 0.0007939439    2.884    0.653
       131  -9.3858    230.6856    118.6196   8.6165745845e+01   1.0511664462e+01    0.4491982    0.1468371 -39.36  0.001558316    2.814    0.645
       132 -10.1447     35.3419    116.8202   1.3397506514e+02   4.8478066530e+01    0.2529354    0.2196056  30.27 0.0008758713    1.384    0.278
       133  -9.4656    181.3001    115.3287   9.4579506949e+01   2.2271916580e+01    0.3432575    0.2093543 -34.25  0.001202862    1.704    0.413
       134  -9.2069    182.7062    109.2699   9.2725516465e+01   2.3097658443e+01    0.4113361    0.1892334 -35.71  0.001495067    2.248    0.555
       135  -8.6748    219.6726    114.8410   8.7125379797e+01   1.3537142120e+01    0.2218387     0.123002 -43.70 0.0009430173    1.783    0.439
       136  -8.8264    185.5121    114.9895   9.3619045130e+01   2.1348170310e+01    0.2414966    0.1511246 -38.55 0.0009694843    1.593    0.372
       137  -9.3457    234.7403    112.0056   8.3944172693e+01   1.0734552901e+01    0.2895167    0.1891254  88.93  0.001193979    2.765    0.638
       138  -8.3762    223.2704    111.6629   8.5739595429e+01   1.3280547896e+01    0.1467458    0.1096406 -61.44  0.000257989    1.599    0.375
       139  -9.7710    216.5811     99.4523   8.3849299516e+01   1.6860127025e+01    0.3755424    0.2970045 -75.69   0.00186655    1.536    0.349
       140 -11.2284    229.6131    104.7934   8.3031918124e+01   1.3025474920e+01    0.9154319     0.363254 -34.29   0.00344023    2.376    0.579
       141 -10.5106    230.1293     83.0427   7.7604161950e+01   1.6422232878e+01    0.4428898    0.3385313 -27.58  0.002307936    1.311    0.237
       142  -9.7884    229.3443     95.7943   8.0876649575e+01   1.4557130709e+01    0.2585416    0.1902506 -46.85 0.0006386144    1.315    0.240
       143 -10.5805    222.1959    104.6431   8.4202904191e+01   1.4702463244e+01     0.445188    0.2342733 -41.73  0.001162902    1.809    0.447
       144  -9.5075    224.9982     99.2532   8.2414675754e+01   1.4968937646e+01    0.3649055    0.2491235 -30.97  0.001021285    1.420    0.296
       145 -10.5517    224.6104     93.2078   8.0974880372e+01   1.6052372071e+01    0.8454928     0.348031 -51.31  0.002846119    3.165    0.684
       146 -10.2847    220.9272     96.3962   8.2361809907e+01   1.6371081095e+01    0.7357281    0.2030124 -39.18  0.002313234    3.241    0.691
       147  -9.5048    218.0925     89.9635   8.1195906189e+01   1.8096948916e+01    0.5312364    0.3200459 -15.63  0.002160791    2.292    0.564
       148  -8.7280    218.6163    109.2301   8.5936940388e+01   1.4731657789e+01    0.2113581    0.1368511 -24.79 0.0009476321    1.654    0.395
       149  -8.7300    205.6290    105.2341   8.7232573735e+01   1.8409606486e+01    0.2143497    0.1416876 -27.18 0.0009491085    1.605    0.377
       150  -9.1086    215.7451     94.3204   8.2690144471e+01   1.7920713790e+01    0.3318569    0.2065943 -38.82 0.0008712055    1.520    0.342
       151  -9.8130    225.9634     87.9970   7.9462542034e+01   1.6588754513e+01    0.5899582    0.3408491 -66.40  0.002301629    2.662    0.624
       152  -8.7488    140.3324    103.6658   1.0091787031e+02   3.4194454166e+01    0.1631118    0.1247777 -85.51 0.0007052227    1.732    0.423
       153  -9.2489    224.6827    248.9986   1.1252858706e+02  -7.2374610484e+00    0.2110204    0.1816193 -58.22  0.001500516    2.048    0.512
       154  -8.8627    235.4237     95.7245   7.9935087406e+01   1.3217199482e+01    0.2719479     0.123193 -38.69 0.0008813476    1.992    0.498
       155  -8.4945    188.3685     93.1643   8.7308707866e+01   2.4711090047e+01    0.2255235    0.1367586 -46.57  0.000604071    1.679    0.405
       156  -8.9647    230.8584     90.9198   7.9445988023e+01   1.5003426369e+01    0.2691725    0.2286395 -22.20   0.00112699    1.201    0.167
       157  -8.7856    218.2017     85.2199   7.9966383575e+01   1.8850443825e+01     0.285778    0.1860362 -52.99 0.0007786335    1.617    0.382
       158  -8.2312    236.6609     90.2996   7.8437298885e+01   1.3805833559e+01    0.1464581    0.1047659 -65.99 0.0007035247    1.664    0.399
       159  -8.6333    175.4675     87.9843   8.8458549432e+01   2.8841463224e+01    0.2225376    0.1258224 -58.41 0.0008068596    2.370    0.578
       160  -9.2004      9.4354     83.8197   1.3688540356e+02   5.8091148850e+01    0.1685281   0.08344959 -58.82 0.0003913329    1.536    0.349
       161  -8.1834    193.0000     83.0181   8.3670600657e+01   2.5351869154e+01    0.2521238   0.08606729 -35.01 0.0007958725    2.897    0.655
       162  -9.2314    225.3009     82.0213   7.8061104371e+01   1.7699404971e+01     0.349933     0.340847 -21.54  0.002043826    1.085    0.079
       163 -10.3000    193.6536    248.6930   1.1788591501e+02  -2.4933946461e+00    0.3621141    0.2963662 -46.02  0.002575577    1.667    0.400
       164  -8.6747    214.7780     79.9929   7.9157799519e+01   2.0516326160e+01    0.1988631    0.1171033 -34.58 0.0008646281    1.636    0.389
       165  -8.8030    205.6825     84.8075   8.1914672111e+01   2.1924087063e+01     0.224107    0.1263955 -42.98 0.0009365013    1.717    0.417
       166  -9.5023    234.3869     75.7712   7.5200204010e+01   1.6577898059e+01    0.2198436    0.1313164 -35.60  0.000561098    1.545    0.353
       167  -9.2805    201.1578     78.0899   8.0887185253e+01   2.4156183874e+01    0.3459773    0.1826571 -42.52  0.001133593    1.835    0.455
       168  -8.7829    174.5703     77.8078   8.5736674753e+01   3.0887522928e+01    0.2285274    0.1400387 -47.39 0.0009503995    1.691    0.409
       169  -8.7697    223.3762     75.7525   7.6756403154e+01   1.9140426921e+01    0.3091871    0.1409611 -32.27  0.001043451    2.141    0.533
       170  -9.9894    222.1037     71.1138   7.5755122618e+01   2.0163847134e+01    0.3120783    0.1913757 -38.02 0.0008647193    1.523    0.344
       171 -10.4478    223.3604     66.7895   7.4467896804e+01   2.0524507002e+01    0.5374814    0.2555582 -20.68  0.001934765    2.993    0.666
       172  -9.6457    227.6892     74.3201   7.5771589460e+01   1.8348956398e+01     0.251005    0.1164504 -42.10 0.0007874077    1.982    0.496
       173  -9.1772    163.3447     71.4168   8.6163080535e+01   3.4842409208e+01    0.3150393    0.1881261 -39.08  0.001199634    1.677    0.404
       174  -8.7889      2.5050     71.0063   1.3717058272e+02   6.1294882755e+01    0.1722944   0.09049449 -67.43 0.0003682041    1.475    0.322
       175  -8.9053    170.3890     70.2686   8.4365276866e+01   3.3248817974e+01    0.2199854    0.1394776 -45.60 0.0006685122    1.613    0.380
       176  -8.3813    214.2622     69.6933   7.6542031836e+01   2.2277343532e+01    0.1488305    0.1057453 -61.99 0.0002908987    1.525    0.344
       177  -8.6030    193.7685     67.9962   7.9368524866e+01   2.7656454063e+01    0.2038678    0.1243529 -34.16 0.0005491117    1.635    0.389
       178  -8.5912    183.5920     77.7591   8.3958430657e+01   2.8615260927e+01    0.2225221     0.138048 -46.53 0.0009415703    1.640    0.390
       179  -9.1283    227.0000     65.9516   7.3753042347e+01   1.9784814036e+01    0.2356489   0.07731363 -32.69 0.0007959041    2.897    0.655
       180  -8.3525    212.4716     66.4329   7.5950101051e+01   2.3220951580e+01     0.146927    0.1362764 -67.20 0.0001405232    1.028    0.027
       181  -9.0205    157.8675     62.5230   8.4591310310e+01   3.7737161821e+01    0.3220094    0.1880358 -50.31  0.001311986    1.919    0.479
       182  -8.7293    211.3353     76.2249   7.8715331490e+01   2.1957580263e+01    0.2153767    0.1255194 -42.67 0.0006505914    1.637    0.389
       183  -8.9992    217.3815     58.3014   7.3101276850e+01   2.3238782269e+01     0.257344    0.1381718 -28.44 0.0006303568    1.956    0.489
       184  -9.3901     33.0773     57.9582   1.2233322195e+02   6.1972225614e+01    0.1846563    0.1490088 -40.10  0.001198084    1.043    0.041
       185  -8.8249    192.3601     55.1965   7.5985389850e+01   2.9997842903e+01    0.2222583    0.1261931 -43.52 0.0009445763    1.738    0.424
       186  -8.3671    187.4693     68.5113   8.0613740641e+01   2.9176226016e+01    0.1532649    0.1443544 -74.29 0.0001031471    1.046    0.044
       187  -9.6341    167.8608    250.0350   1.2268652672e+02   1.4082497646e+00    0.2203219    0.1363003  35.97 0.0004259275    1.301    0.231
       188  -8.0684    139.2699     35.6456   7.9673470530e+01   4.6478050683e+01    0.1476832    0.1099055 -62.49 0.0006995227    1.635    0.388
       189  -8.4488     26.5295     34.0015   1.1737383510e+02   6.7271971345e+01    0.1663832   0.07432582 -33.24 -5.724662e-05    2.187    0.543
       190  -8.5730    201.5953    242.7744   1.1563105253e+02  -2.9995095254e+00      0.13859    0.1143341 -49.29 0.0009474907    1.720    0.419
       191  -9.7281    214.0999    240.7338   1.1311839491e+02  -4.6950195530e+00    0.2282587    0.1753568  25.74  0.001037569    1.013    0.013
       192  -8.5250    181.3351     32.6907   7.1138867670e+01   3.5968169662e+01    0.1543919    0.1043922 -68.33 0.0003664692    1.677    0.404
       193  -8.9694    219.5265    240.0032   1.1205907211e+02  -5.4392433838e+00    0.1543823    0.1113789 -28.02 0.0009485959    1.593    0.372
       194  -9.7584     62.2757     31.8196   1.0099837463e+02   6.3212984345e+01    0.2123513     0.170728  39.49  0.000965224    1.399    0.285
       195 -10.1608    190.1743    235.8396   1.1667554777e+02  -2.7117780863e-01    0.4512295    0.3057083  79.56  0.002066633    3.842    0.740
       196  -8.8679    236.6433    235.8156   1.0846095938e+02  -7.5188379351e+00    0.1640697    0.1416648 -37.20 0.0009304114    1.672    0.402
       197  -9.2186    136.7094     25.0320   7.6450182439e+01   4.8449054983e+01    0.1914941    0.1790803  -0.62 0.0002785948    1.131    0.116
       198  -9.2217     68.2418     23.2599   9.4962146467e+01   6.3509879698e+01    0.1549159     0.147953 -21.01  0.000418663    1.283    0.220
       199  -9.7492     83.9158     21.3526   8.8655654256e+01   6.0873197418e+01     0.241313    0.2072559  76.32   0.00142287    1.611    0.379
       200 -10.0747     74.1668     20.6123   9.1617228598e+01   6.2817530987e+01    0.1876644    0.1388174   6.88 0.0001014459    1.334    0.250
       201  -9.8463    242.2428    247.5948   1.0936743964e+02  -9.5991342798e+00    0.3178224    0.1448484 -26.36   0.00180076    2.441    0.590
       202  -8.5927     23.4305     15.8010   1.1138855304e+02   7.0693659429e+01    0.1569971   0.08636751 -32.96 0.0003695877    1.503    0.335
       203  -9.3321     29.8491     13.0421   1.0681479814e+02   7.0447967891e+01    0.1747925      0.13269 -14.49 0.0003737589    1.055    0.052
       204  -8.4475     80.3123     12.6483   8.5895249239e+01   6.2619848150e+01    0.1218083    0.1014766 -59.44 0.0007045475    1.725    0.420
       205  -8.4925    167.5260     17.5036   6.8545752256e+01   4.1351221730e+01    0.1424838    0.1284413  88.36 0.0008093608    1.061    0.057
       206 -10.2944    240.1883    240.4029   1.0859152524e+02  -8.5425878366e+00    0.3342499    0.3015965  61.47  0.001941835    1.925    0.481
       207 -10.0421    218.2856    246.9425   1.1331988191e+02  -6.0590149296e+00    0.3423465    0.2074827 -38.00  0.002150819    2.076    0.518
       208  -9.4270    151.2260    249.4350   1.2562752490e+02   4.1419252383e+00    0.1708381   0.08870137  48.15 0.0006218746    1.584    0.369
       209  -9.4350    237.6129    244.9300   1.0972835640e+02  -8.6640248816e+00    0.1999301    0.1318462 -39.81  0.001215756    2.099    0.524
       210  -9.3150    232.3713    246.9511   1.1091824833e+02  -8.1304263435e+00    0.2011104    0.1300839 -40.80 0.0009611629    2.157    0.536
       211  -9.2854    209.4412    247.3353   1.1491265735e+02  -4.7678148745e+00    0.2343528    0.1590688  61.29  0.001327168    2.513    0.602
       212 -10.4407    176.4491    245.0930   1.2048295625e+02   7.0330590795e-01    0.5318756    0.2412317 -42.18  0.002773347    2.795    0.642
       213  -9.5159    156.6658    246.8032   1.2431370263e+02   3.6490065029e+00    0.2054094    0.1073637 -38.99  0.001099566    2.660    0.624
       214  -9.7768    224.9935    242.2236   1.1145362093e+02  -6.5217048091e+00    0.3304763    0.1575923 -34.24  0.001845325    2.429    0.588
       215  -9.1818     94.3423    244.2956   1.3545797534e+02   1.3715817897e+01    0.1029813   0.08768801  22.68 0.0003462779    1.662    0.398
