#   1 NUMBER                 Running object number                                     
#   2 MAG_AUTO               Kron-like elliptical aperture magnitude                    [mag]
#   3 X_IMAGE                Object position along x                                    [pixel]
#   4 Y_IMAGE                Object position along y                                    [pixel]
#   5 X_WORLD                Barycenter position along world x axis                     [deg]
#   6 Y_WORLD                Barycenter position along world y axis                     [deg]
#   7 A_WORLD                Profile RMS along major axis (world units)                 [deg]
#   8 B_WORLD                Profile RMS along minor axis (world units)                 [deg]
#   9 THETA_WORLD            Position angle (CCW/world-x)                               [deg]
#  10 FWHM_WORLD             FWHM assuming a gaussian core                              [deg]
#  11 ELONGATION             A_IMAGE/B_IMAGE                                           
#  12 ELLIPTICITY            1 - B_IMAGE/A_IMAGE                                       
         1 -14.7707      9.1612     20.4663   1.1555401075e+02   6.9180041060e+01     1.215547    0.6689618 -22.19  0.007980914    1.558    0.358
         2 -12.5477     75.6348     13.4004   8.6764232528e+01   6.1619209699e+01    0.3854488    0.1900178  46.38  0.001264872    1.846    0.458
         3 -12.0652     82.2056     13.7784   8.4953017506e+01   6.0399857847e+01    0.2867563    0.1872355  36.38 0.0007505094    1.320    0.242
         4 -12.8925     87.1289     11.4952   8.2668720434e+01   5.9702817862e+01    0.4940628    0.3158304  68.09  0.001917626    2.219    0.549
         5 -11.2228    123.9927     10.0304   7.3462833510e+01   5.2161867731e+01    0.1943839    0.1682531  46.75 0.0004329807    1.018    0.017
         6 -11.1271    137.5094      5.5267   6.9518788653e+01   4.9476817063e+01    0.2345747    0.1156371  76.81  0.001038299    2.356    0.576
         7 -13.4036     86.3923      2.7054   7.9447014668e+01   6.0621132425e+01    0.4369643    0.3066561  36.73  0.002804031    1.173    0.148
         8 -12.8275     95.9998      3.4120   7.7287156668e+01   5.8679398637e+01    0.3198048    0.2021635  45.67  0.001262278    1.307    0.235
         9 -11.9390     32.7786      4.2176   9.8207145573e+01   6.8974512905e+01    0.2203161     0.124436  22.40  0.001418307    1.598    0.374
        10 -12.1024     73.2630      1.5345   8.2637811706e+01   6.3137970154e+01    0.2168192    0.1290077  49.14 0.0005116455    1.555    0.357
        11 -12.9848    244.0588    223.7497   1.0326500969e+02  -1.0132231593e+01    0.2635718    0.2307972  12.50  0.001521086    1.132    0.117
        12 -13.8418    240.0000    248.7863   1.0834301097e+02  -1.2874446458e+01    0.3829118    0.3295316 -28.63  0.002737995    1.426    0.299
        13 -12.9262    244.3124    215.5687   1.0171789572e+02  -8.9941054190e+00    0.4069678     0.378232  29.06  0.002757363    1.307    0.235
        14 -11.2082    200.8268    218.5900   1.1043772602e+02  -2.1206359616e+00    0.1866236    0.1177226  48.85  0.000678251    1.637    0.389
        15 -11.4347    191.4900    217.4812   1.1208438024e+02  -2.5074688566e-01    0.1354862    0.1217425  29.62 0.0001009858    1.014    0.013
        16 -12.3515    180.1262    208.0999   1.1270911227e+02   3.5299995023e+00    0.2182132    0.1864332  11.90  0.001031292    1.259    0.206
        17 -10.8415    199.0558    202.9892   1.0792456819e+02   8.8605303098e-01    0.2230773     0.163812   5.90  0.001125434    1.663    0.399
        18 -11.5503    250.3630    201.2145   9.7923391192e+01  -7.8072511095e+00    0.2656862    0.1049917 -42.72   0.00111684    2.682    0.627
        19 -11.5247     53.4951    201.5010   1.3856147871e+02   2.6563837877e+01    0.1283991    0.1027601  83.25 1.347943e-05    1.002    0.002
        20 -12.8410     71.5068    198.2418   1.3442628552e+02   2.4814543945e+01    0.2449334    0.1894855 -48.26  0.001414357    1.626    0.385
        21 -12.7712    193.1109    197.5781   1.0809283251e+02   2.9945552109e+00    0.5004299    0.2204196  52.07  0.001878236    2.705    0.630
        22 -11.2069    219.9735    198.0000   1.0286968917e+02  -2.1005850621e+00     0.222661    0.0741468  42.70 0.0008016183    2.937    0.659
        23 -12.7699    238.8099    193.3407   9.8443630256e+01  -4.6480766729e+00    0.5113155    0.3022614 -32.28  0.002592028    1.629    0.386
        24 -12.4056    244.8142    192.0015   9.7100666717e+01  -5.4530087183e+00    0.3783877    0.2010266  41.04  0.001844759    1.937    0.484
        25 -12.2240    229.7756    191.7566   9.9788187863e+01  -2.8042919233e+00     0.375309    0.1802956 -41.14  0.001665997    2.076    0.518
        26 -11.6912    200.9935    193.2989   1.0566744070e+02   2.2676954720e+00    0.2069101    0.1819701  33.51  0.001033266    1.088    0.081
        27 -12.7590     34.0124    177.1830   1.4003647575e+02   3.4379856436e+01    0.2820473    0.2364344 -39.42  0.001838852    1.637    0.389
        28 -12.0249    216.3378    175.0346   9.8919995706e+01   2.6543995416e+00    0.5398317    0.2919103  49.56  0.002352996    2.000    0.500
        29 -11.9022    197.9729    168.4926   1.0118440318e+02   7.5948732609e+00    0.3153489    0.2135406  49.82  0.001195659    1.525    0.344
        30 -11.8723    212.2401    164.8589   9.7550237164e+01   5.3761414389e+00    0.4571521    0.3034671  24.62  0.001831713    1.854    0.461
        31 -13.0104    200.2353    156.7600   9.8162206477e+01   9.4472193002e+00    0.6736672    0.3255455 -40.59  0.002647443    2.049    0.512
        32 -13.2798    191.1781    156.1373   9.9886604119e+01   1.1509523124e+01     0.691749    0.5161629 -20.57  0.003227798    1.604    0.377
        33 -13.1027    194.1603    148.4515   9.7532052087e+01   1.2431004855e+01    0.4655882    0.4065534 -18.80  0.002057409    1.236    0.191
        34 -11.2378    179.6747    158.5090   1.0286000450e+02   1.3498608761e+01    0.2738306    0.1409795 -44.82  0.001072627    1.949    0.487
        35 -11.2921    170.1154    157.8758   1.0481748037e+02   1.5696343568e+01    0.3005487    0.2168541  39.40  0.001386559    1.417    0.294
        36 -11.6678    138.2206    151.5597   1.1083374463e+02   2.3890550175e+01    0.3146133    0.2485249  88.86  0.001479198    1.502    0.334
        37 -12.9623     58.6306    145.2067   1.2983042525e+02   3.9008253590e+01    0.7040831    0.4644047  73.36  0.003554977    1.808    0.447
        38 -13.8461     51.1937    143.1556   1.3141596639e+02   4.0414195819e+01    0.8848135      0.51069  61.68  0.004247634    2.143    0.533
        39 -15.3877    148.5349    126.7778   1.0255047126e+02   2.7278277478e+01     1.763408     1.636459 -76.68  0.009121418    1.095    0.087
        40 -11.2230    121.3898    127.2720   1.0949134488e+02   3.2933816376e+01    0.2882289    0.1962213  31.32  0.001268169    1.711    0.416
        41 -11.0062     79.8822    109.8685   1.1677921489e+02   4.4351002995e+01    0.2099733    0.1757487 -34.12 0.0003949244    1.208    0.172
        42 -12.2775    132.6821    103.2312   1.0038459010e+02   3.5881618647e+01    0.3045153    0.2537031  14.37 0.0004436772    1.434    0.303
        43 -13.2988     16.9214    100.9992   1.3383034517e+02   5.3400196668e+01    0.3939506    0.3179902 -70.13  0.002697608    1.133    0.118
        44 -12.3062    196.7947    137.7186   9.4507466708e+01   1.4030780819e+01    0.3343499    0.2127706 -51.18  0.001448038    1.622    0.384
        45 -11.4993     54.8177     94.9572   1.2080102563e+02   5.1112568913e+01    0.3228142    0.1953122 -41.33  0.001224814    1.522    0.343
        46 -10.7058    189.2969     94.6774   8.5355228818e+01   2.4285904993e+01    0.1586617    0.1167768 -73.64  0.000329254    1.622    0.383
        47 -10.6506     49.8901     84.4671   1.1977368637e+02   5.3930833312e+01    0.1669255    0.1275155  25.02 0.0004581348    1.477    0.323
        48 -10.4216    129.0201     82.9797   9.5598498859e+01   4.0754877938e+01    0.1781739    0.1711647 -31.83 0.0004429296    1.042    0.040
        49 -10.7845     33.2136     75.9686   1.2322483498e+02   5.7403188526e+01      0.16583   0.08465403 -54.42 0.0003681886    1.655    0.396
        50 -10.9268    250.1645     74.2222   7.0896629280e+01   1.3747161262e+01    0.1869596    0.1696161 -54.57  0.000476444    1.129    0.114
        51 -12.8996     96.5397     72.1811   1.0133304945e+02   4.9379988346e+01    0.4727585    0.3290029  24.34 0.0007895153    1.604    0.377
        52 -12.0673     90.0460     73.0162   1.0355391030e+02   5.0393331127e+01     0.275623    0.2296412  38.39 0.0003575096    1.254    0.203
        53 -10.7370     18.8392     72.1851   1.2728754965e+02   5.9352372250e+01    0.1610426    0.1125372 -31.40 0.0007440608    1.315    0.240
        54 -11.1589     76.5909     71.1685   1.0721236439e+02   5.2975145001e+01    0.1951472    0.1154387 -33.15 0.0009384179    1.671    0.402
        55 -11.3809     60.4578     71.5026   1.1264585258e+02   5.5242906575e+01     0.130535    0.1140864 -29.39 0.0004128854    1.027    0.026
        56 -10.6602     83.4180     68.4770   1.0419414336e+02   5.2370635092e+01    0.1354806    0.1230002 -18.27 0.0001236422    1.022    0.022
        57 -12.7846    125.5571     57.5012   8.8680817172e+01   4.5964700800e+01    0.3234775    0.2535777  45.15 0.0006440945    1.217    0.178
        58 -10.3529     25.5003     59.0172   1.2145929750e+02   6.1397367506e+01    0.1750345   0.09637458 -49.74 0.0004944488    1.500    0.333
        59 -12.1928     67.3029     53.7045   1.0464477385e+02   5.7508275210e+01    0.3325693    0.2730159 -64.46  0.001961894    1.757    0.431
        60 -10.8176    210.8277     54.2421   7.1496146953e+01   2.5872943932e+01    0.1695813    0.1615177  40.63 0.0004353257    1.274    0.215
        61 -10.7210    132.9862     53.7403   8.5688977229e+01   4.4871209762e+01    0.2000256    0.1705314  46.11 0.0005143476    1.107    0.097
        62 -10.1626     93.3045     52.7141   9.5954693901e+01   5.3318311166e+01    0.1228941    0.1094086 -83.68 0.0002527474    1.563    0.360
        63 -11.3475    145.4171     50.9274   8.2023015159e+01   4.2387137194e+01    0.2602765    0.1943801  49.46 0.0004149956    1.258    0.205
        64 -10.4264     95.4615     49.4340   9.4191087442e+01   5.3422466548e+01     0.133874      0.12122  10.25 0.0001192898    1.010    0.010
        65 -12.6352     42.3662     47.6984   1.1157808396e+02   6.1772670365e+01    0.2927738    0.2583391   4.10 0.0006520948    1.205    0.170
        66 -11.9882     41.4523     42.6920   1.1020511874e+02   6.2706824209e+01      0.29569    0.2175992   8.79  0.001936123    1.330    0.248
        67 -11.6120      2.5061     46.6815   1.2689376682e+02   6.5263657767e+01    0.1836573    0.1533104 -28.94 0.0007067709    1.161    0.138
        68 -10.5358    156.7875     43.9539   7.7628389870e+01   4.0634409792e+01    0.1835533    0.1787653  50.92  0.000514685    1.073    0.068
        69  -9.8711    102.3375     43.6835   9.0232528307e+01   5.2929715657e+01    0.1285716    0.1085725 -79.98 0.0007048261    1.700    0.412
        70 -10.3895    197.6457     40.7873   7.0016571895e+01   3.1001614142e+01    0.1354505   0.09553033  48.53 0.0002119739    1.547    0.354
        71 -11.0590     82.0072     34.7569   9.3037175775e+01   5.7982170616e+01    0.1839634    0.1529339  21.08  0.001156394    1.078    0.072
        72 -10.8654    176.4048     33.3213   7.1215147047e+01   3.7205784460e+01    0.1631624    0.1271786 -50.23 0.0001738011    1.341    0.254
        73 -13.4047    225.9713    247.9509   1.1072025389e+02  -1.0667853948e+01    0.3314323    0.2516257  11.16  0.002173179    1.182    0.154
        74 -12.0112     83.6594     22.8214   8.8031497361e+01   5.9164767191e+01    0.2713453    0.2286908   5.25 0.0007255494    1.080    0.074
        75 -11.9950     64.2870     17.5482   9.2112234829e+01   6.3076277455e+01    0.4239774    0.1968239  41.08  0.002221201    1.993    0.498
        76 -12.2525    193.8882    249.1372   1.1684666407e+02  -5.6990992660e+00    0.1941317    0.1619172  48.46  0.001261134    1.264    0.209
        77 -13.5573    232.1548    238.0490   1.0793505339e+02  -1.0285334771e+01    0.3039936    0.2298267  10.78  0.001568446    1.187    0.157
        78 -13.1750    244.8110    235.6296   1.0524555106e+02  -1.1875967133e+01    0.2775311    0.2158334  47.10  0.001773738    1.654    0.395
        79 -12.9414    188.4048    232.8548   1.1530723968e+02  -2.2611033070e+00     0.388638    0.1664243  45.05  0.001704775    2.130    0.531
        80 -12.9055    194.3347    229.5801   1.1360886046e+02  -2.7707691042e+00     0.304363     0.267063 -66.89   0.00188274    1.493    0.330
        81 -13.2132    238.3695    228.0880   1.0506671750e+02  -9.8644751147e+00    0.4626637    0.3111207  61.65  0.002315261    2.823    0.646
        82 -11.6369    216.0293    229.5135   1.0944121995e+02  -6.4710191519e+00    0.2026493    0.1130406  38.81 0.0008888755    1.617    0.382
        83 -11.9371    205.5986    229.2051   1.1136979500e+02  -4.6618085278e+00     0.177089    0.1183396 -24.71 0.0009553626    1.699    0.412
        84 -10.4061    140.7839     31.6092   7.7032993376e+01   4.6050523743e+01    0.1327874   0.09876431  17.30 0.0006847402    1.619    0.382
