#   1 NUMBER                 Running object number                                     
#   2 MAG_AUTO               Kron-like elliptical aperture magnitude                    [mag]
#   3 X_IMAGE                Object position along x                                    [pixel]
#   4 Y_IMAGE                Object position along y                                    [pixel]
#   5 X_WORLD                Barycenter position along world x axis                     [deg]
#   6 Y_WORLD                Barycenter position along world y axis                     [deg]
#   7 A_WORLD                Profile RMS along major axis (world units)                 [deg]
#   8 B_WORLD                Profile RMS along minor axis (world units)                 [deg]
#   9 THETA_WORLD            Position angle (CCW/world-x)                               [deg]
#  10 FWHM_WORLD             FWHM assuming a gaussian core                              [deg]
#  11 ELONGATION             A_IMAGE/B_IMAGE                                           
#  12 ELLIPTICITY            1 - B_IMAGE/A_IMAGE                                       
         1 -13.3919    214.7032     25.2523   1.6311421949e+01   2.9491653065e+01     0.769653    0.5392842 -80.59  0.004421644    1.354    0.262
         2 -11.0735     60.7216     21.1562   4.1165870260e+01   6.6337758973e+01    0.2323625    0.1787772  61.15 0.0007808439    1.367    0.268
         3 -13.1949    248.9146    244.8421   5.4871161105e+01  -5.6330555488e+00    0.9142023    0.5534144   5.01  0.006932368    1.311    0.237
         4 -13.3178    249.0003    232.5863   5.3059947581e+01  -4.2689125603e+00    0.6085598    0.3459291 -24.52  0.003695053    1.392    0.282
         5 -10.9798    152.5010    208.9941   6.6680014622e+01   1.0448105607e+01     0.240882    0.2199602  81.86  0.001073132    1.568    0.362
         6 -19.0764     22.9096    130.5657   9.1284090803e+01   4.6572521604e+01     19.19123     3.760861 -75.97   0.04748211    5.774    0.827
         7  -9.8161    211.0011    198.6742   5.3710334257e+01   4.2735967606e+00    0.1630843    0.1292001   3.98 0.0004786213    1.114    0.102
         8 -12.9497     82.4885    195.0560   8.1268356248e+01   2.3175503967e+01    0.3675597    0.3152435  55.56  0.000651932    1.139    0.122
         9  -8.8675     56.3029    193.0246   8.7927304546e+01   2.7003022609e+01    0.1624988    0.1513144 -79.60 0.0005624953    1.147    0.128
        10 -15.6222    121.3515    235.6007   7.7069485911e+01   9.9808078530e+00     5.995372       3.9522 -63.18   0.03490057    2.020    0.505
        11 -15.6401     68.6436    143.6514   7.7647314185e+01   3.7658410775e+01     2.487117     1.868504  67.34     0.011568    1.470    0.320
        12  -9.0124     91.2694    185.2942   7.7657665818e+01   2.4143071938e+01    0.1346234    0.1070356 -19.50 0.0001911611    1.515    0.340
        13  -9.4399     50.5064    185.4693   8.8722506232e+01   2.9479254912e+01    0.1379582    0.1226645  56.94 0.0001655195    1.009    0.009
        14 -11.2758     51.0108    180.4387   8.8055024970e+01   3.0638870340e+01    0.4410878    0.2374846  84.66  0.001881492    2.323    0.570
        15  -9.3450     82.2250    184.1783   7.9909605454e+01   2.5688786269e+01     0.240118    0.1368318 -28.05 0.0009417022    2.840    0.648
        16  -9.1448     78.3114    184.2646   8.0976328214e+01   2.6212859390e+01    0.1345027    0.1078698 -14.00 0.0003804532    1.538    0.350
        17  -9.5564     74.1544    180.9754   8.1673834725e+01   2.7557399649e+01    0.4215293     0.190164 -72.55  0.001028151    2.734    0.634
        18 -10.4518    174.3135    172.6932   5.5850153515e+01   1.3697344645e+01    0.2760989    0.1649665 -47.52 0.0009159211    1.765    0.434
        19 -10.7074    174.6847    180.3161   5.7199837495e+01   1.2277795333e+01    0.2598023    0.2103991 -12.63 0.0008208398    1.150    0.130
        20 -11.1250    172.5993    176.7723   5.6964785661e+01   1.3230080223e+01    0.3139346    0.2986297  -9.11  0.001272979    1.160    0.138
        21 -11.8606     60.3800    180.1511   8.5395149274e+01   2.9564283359e+01    0.4290596    0.2938446 -21.39  0.001254315    2.071    0.517
        22  -9.7170     55.5285    181.4333   8.6899019087e+01   2.9854641595e+01    0.1630393    0.1272397  78.70 0.0008785482    1.305    0.234
        23 -12.2377    140.4409    173.1643   6.3304203514e+01   1.9079105513e+01    0.3851542    0.3143648  71.61   0.00081996    1.668    0.401
        24 -10.6667     46.5310    173.3244   8.8564749826e+01   3.2920051998e+01    0.3494442     0.274044 -24.31  0.001859993    1.618    0.382
        25 -11.4762    180.9753    170.3043   5.4073475032e+01   1.3079693080e+01    0.5066978    0.3575697  30.45  0.002829948    1.441    0.306
        26 -10.6527    179.3109    166.6583   5.3693943671e+01   1.3990946829e+01    0.2849013    0.2324276  15.21 0.0008236297    1.217    0.179
        27  -9.9785     53.5844    171.0866   8.6257986838e+01   3.2643078021e+01    0.2901851    0.1451421  52.53  0.001210058    2.082    0.520
        28 -10.5270     53.4478    165.9180   8.5666246427e+01   3.3962799387e+01    0.6227809    0.1927155 -55.43  0.001668272    3.107    0.678
        29 -10.5336     54.6048    239.7354   9.2324215620e+01   1.7271129944e+01    0.1152808   0.08807919  -3.98 0.0006976306    1.716    0.417
        30 -12.0772     89.0957    218.7484   8.2437280452e+01   1.7278423869e+01    0.4423715    0.3721415 -68.60  0.001818651    1.371    0.271
        31 -11.1315    112.7958    151.1134   6.6000269459e+01   2.8612760579e+01    0.5824328    0.3525836  85.15  0.001864678    4.065    0.754
        32 -11.7007    108.8518    145.3821   6.5915240650e+01   3.0648993554e+01    0.3280091    0.3132543 -39.38 0.0006701616    1.057    0.054
        33 -11.8876    133.6568    145.6498   5.9453519375e+01   2.6083033085e+01     1.031039    0.2868806 -52.92  0.002838625    4.464    0.776
        34 -11.6006     91.3488    149.0095   7.1648163314e+01   3.2768266022e+01    0.3472347    0.3031275  18.18 0.0003615477    1.216    0.178
        35 -12.7751     96.6708    143.7702   6.9062538737e+01   3.3161582190e+01    0.7724329    0.4870339 -30.56  0.002828188    2.087    0.521
        36  -9.9598    148.3805    145.6515   5.5943455149e+01   2.3370036752e+01    0.2153341    0.1776877  85.75 0.0003682769    1.649    0.394
        37 -12.4412    106.4961    131.4357   6.3565807230e+01   3.4386585644e+01    0.6166267    0.4735241 -66.31  0.001964803    1.425    0.298
        38 -10.1829    116.1001    136.8644   6.2093756284e+01   3.1321090710e+01    0.3685161     0.230258  62.22  0.001472121    2.234    0.552
        39 -11.8056     96.5310    131.0243   6.6412098845e+01   3.6307215625e+01     0.292266    0.2721407 -22.76 0.0003613676    1.143    0.125
        40 -12.2550    133.9635    128.1824   5.5434026200e+01   2.9830433629e+01    0.8321124    0.4565518 -48.42  0.003465469    1.801    0.445
        41 -10.6314    115.1554    125.4990   5.9735804073e+01   3.4130821837e+01    0.2899211    0.2374336 -13.94 0.0007112034    1.464    0.317
        42  -9.0544    218.4611    124.5397   3.8297580922e+01   1.4750958270e+01    0.1287835    0.1070493 -35.57   0.00080768    1.043    0.041
        43 -12.0833     53.6343    230.7405   9.1890589307e+01   1.9137315664e+01    0.3143528    0.1768597  83.81   0.00164663    2.182    0.542
        44 -10.5259    161.6630    118.9655   4.6907468257e+01   2.6183188571e+01    0.4709174     0.271929 -65.71  0.001747277    2.976    0.664
        45 -10.0769    158.7892    120.5938   4.7901261772e+01   2.6440963369e+01    0.2168029    0.1475287  45.52 0.0002611586    1.557    0.358
        46 -10.6000    102.8319    120.5879   6.2095171230e+01   3.7665106200e+01     0.293272    0.2466982  11.12  0.001033241    1.383    0.277
        47 -10.0109    110.3364    115.9083   5.8736637875e+01   3.7298503027e+01    0.2162668    0.1921692 -45.57 0.0003929727    1.116    0.104
        48  -9.9172     70.1992    234.2870   8.8374753037e+01   1.6548193051e+01    0.1025244   0.08936041 -25.82  0.000350496    1.421    0.296
        49 -11.4581    116.6169    108.9128   5.5150806440e+01   3.7610140665e+01     0.427975    0.2453696  44.67  0.001767652    1.771    0.435
        50 -11.8055    119.7803    104.7288   5.3162326417e+01   3.7869718490e+01    0.3695947    0.2776691 -49.59  0.001413333    1.314    0.239
        51 -10.3207    134.6307    105.8037   4.9638487005e+01   3.4468724224e+01    0.2239952    0.1377023 -52.80 0.0007804597    1.692    0.409
        52 -10.5380     81.7068    104.7802   6.4866111163e+01   4.5459829110e+01    0.2599849    0.2203996  45.01 0.0006811434    1.195    0.163
        53 -11.6400    112.8083     99.8787   5.3751279487e+01   4.0412952150e+01    0.5081601    0.3382556  79.07  0.001966832    2.449    0.592
        54  -9.7623     77.0671    101.5231   6.5628394943e+01   4.7096211546e+01    0.2340861    0.1526588  36.62  0.001021934    1.560    0.359
        55 -12.0337     47.8720    228.9749   9.3093942081e+01   2.0124880731e+01    0.2394954    0.2142828 -48.21   0.00163779    1.391    0.281
        56  -9.3591    106.6157     95.2811   5.4231140726e+01   4.2740845473e+01     0.160905    0.1221511  81.01 0.0007006255    1.729    0.422
        57 -10.8084    130.7422     92.2150   4.6838651170e+01   3.8103463264e+01    0.4672002    0.3071679 -89.59  0.001774237    2.613    0.617
        58 -10.1199    152.3410     90.9547   4.1635609665e+01   3.3515572468e+01    0.2102755    0.1812811 -42.94 0.0004151027    1.107    0.097
        59 -10.5452     96.7387     86.9924   5.4782833705e+01   4.6654120493e+01    0.5397505    0.3076257  74.60  0.001547274    4.565    0.781
        60  -9.4930     61.5722     86.7512   6.7398737340e+01   5.3381384766e+01    0.1924962    0.1451348 -68.20 0.0002510664    1.446    0.308
        61 -10.6957     76.6622     80.9299   5.9768269392e+01   5.2060590397e+01    0.3012395    0.2135144  50.57 0.0003896217    1.491    0.329
        62  -9.1913    113.2893     73.2931   4.5555178344e+01   4.5809127781e+01    0.1471529    0.1210574  10.52 0.0002088915    1.548    0.354
        63 -10.3216     67.9486    214.6657   8.7113121420e+01   2.0779019595e+01    0.1131826    0.1085381  46.34 0.0003473144    1.115    0.103
        64 -13.0116    173.0135     66.4962   3.1242826143e+01   3.3033214811e+01    0.6066528    0.4668289  50.76 0.0009182684    1.451    0.311
        65 -13.5530    189.5085     53.3761   2.5541366307e+01   3.1292854454e+01     1.043551    0.8757451  30.00  0.003916632    1.590    0.371
        66 -11.9622    195.5167     47.5232   2.3373121819e+01   3.0783620266e+01      0.35539    0.3028385  46.36 0.0008498498    1.468    0.319
        67 -10.1168     92.6053     49.3586   4.2951459934e+01   5.4936491105e+01    0.3644888    0.2235585  70.65 0.0009116175    2.114    0.527
        68 -12.3970    213.2207     30.8957   1.7726667321e+01   2.9144872929e+01    0.6008513     0.330393 -87.95  0.002793208    1.970    0.492
        69 -11.6257     91.9302    241.6644   8.4176060347e+01   1.2580064001e+01    0.1959486     0.169273 -49.13 0.0005476872    1.393    0.282
        70 -12.1995     59.8678    227.8747   9.0220724096e+01   1.9008945979e+01    0.1905939    0.1631113 -12.54 0.0007615091    1.463    0.316
