#   1 NUMBER                 Running object number                                     
#   2 MAG_AUTO               Kron-like elliptical aperture magnitude                    [mag]
#   3 X_IMAGE                Object position along x                                    [pixel]
#   4 Y_IMAGE                Object position along y                                    [pixel]
#   5 X_WORLD                Barycenter position along world x axis                     [deg]
#   6 Y_WORLD                Barycenter position along world y axis                     [deg]
#   7 A_WORLD                Profile RMS along major axis (world units)                 [deg]
#   8 B_WORLD                Profile RMS along minor axis (world units)                 [deg]
#   9 THETA_WORLD            Position angle (CCW/world-x)                               [deg]
#  10 FWHM_WORLD             FWHM assuming a gaussian core                              [deg]
#  11 ELONGATION             A_IMAGE/B_IMAGE                                           
#  12 ELLIPTICITY            1 - B_IMAGE/A_IMAGE                                       
         1 -12.3226    217.8821     56.6167   3.5948015170e+02   2.4785123012e+01     1.233169    0.8704413  38.36  0.007251994    2.046    0.511
         2 -10.2580      2.1784     22.5740   5.6271701424e+01   7.5330743967e+01    0.3885629    0.1316365 -63.67  0.001554197    3.051    0.672
         3 -10.1372      2.0000     11.0095   5.0660704898e+01   7.7690372261e+01    0.3685544    0.1393724 -62.81  0.001475188    3.517    0.716
         4  -9.6124      2.0257      3.1765   4.5565920018e+01   7.9135155718e+01    0.4820701    0.1510247 -45.85  0.002068972    2.870    0.652
         5  -8.6321     72.8412      6.8378   5.7251248639e+00   6.5147223556e+01    0.1814627    0.1519374 -84.78 0.0004523771    1.319    0.242
         6 -14.3698      4.6130    214.3916   7.8664110272e+01   2.7016689861e+01      5.27667     1.640886  15.07   0.01956914    4.135    0.758
         7 -10.3112     42.4601    249.0092   7.1518970932e+01   1.6609622371e+01    0.2627427    0.1997955  21.25 0.0004998372    1.282    0.220
         8 -13.4084     19.1724    181.5860   7.3309659013e+01   3.3324877193e+01     2.323991     1.303274 -10.43  0.007716994    2.801    0.643
         9 -14.9259     31.0000    173.3594   6.9271535039e+01   3.4256490657e+01     10.05859     3.973212  79.86    0.0341429    3.686    0.729
        10 -12.3826     13.3221    247.0790   7.7789190712e+01   1.9711425683e+01    0.7355106     0.528947  30.84  0.005112107    1.219    0.180
        11 -13.7161      7.1758    238.4451   7.8849142946e+01   2.1885371252e+01     2.135251     1.201153  23.66  0.003733881    1.638    0.390
        12  -8.9808     72.9677    208.5248   6.1085716152e+01   2.1254727359e+01    0.1923175     0.182023  72.33  0.001232844    1.150    0.130
        13  -8.4320    104.0223    203.7691   5.2697228881e+01   1.8173242793e+01    0.1846354    0.1586003  24.18 0.0004988994    1.028    0.028
        14  -8.4188    210.8518    198.8087   2.9381649813e+01   4.5669546892e+00    0.1443245    0.1290814 -12.37 0.0005376309    1.327    0.246
        15  -9.2536     71.2966    199.4051   6.0541353104e+01   2.3445950147e+01      0.26156    0.1254567  22.90  0.001118468    2.077    0.519
        16 -11.3078     83.2400    196.7043   5.7083207790e+01   2.2491466159e+01    0.7347782    0.3622576  24.80  0.003212765    1.959    0.490
        17  -9.3558     47.4643    229.5730   6.9177664604e+01   1.9817608089e+01    0.2322312     0.155808  38.59 0.0006513972    1.193    0.162
        18  -9.1659     39.2083    232.8478   7.1328261215e+01   2.0019336259e+01     0.147725    0.1364477   1.34  0.000336895    1.313    0.238
        19  -8.8962    107.4997    190.5018   4.9958169966e+01   2.0435647766e+01    0.1398271    0.1260086  20.41 2.946529e-05    1.020    0.020
        20  -9.1503     83.4057    188.2536   5.5961575619e+01   2.4351263325e+01    0.1843856    0.1370658 -82.52 0.0009505013    1.609    0.378
        21  -9.2832     72.7430    231.3684   6.3334953778e+01   1.6651338038e+01    0.1870724    0.1832044 -69.43 0.0006978585    1.233    0.189
        22 -10.1891     60.2178    223.8855   6.5689306561e+01   1.9567905339e+01     0.444536    0.1584869 -70.38  0.001869139    3.317    0.699
        23  -9.3782     73.9022    172.9626   5.6550429952e+01   2.9238824971e+01    0.2844536    0.2189224  89.84 0.0004176693    1.479    0.324
        24  -8.5951    110.3741    167.4666   4.5485146509e+01   2.5027559765e+01    0.2309275    0.1397783 -53.11 0.0008230745    1.736    0.424
        25 -13.5875      9.9253    207.0211   7.7085754397e+01   2.8190652903e+01     1.776326     1.196551   5.15   0.00875827    1.828    0.453
        26 -11.9814     54.7277    144.6644   5.8422867627e+01   3.8997181481e+01    0.9044424    0.5162833 -39.08  0.001358685    2.154    0.536
        27 -10.0455     68.4136    162.3618   5.6675263287e+01   3.2605127495e+01    0.4452183    0.3518778  78.19  0.001129082    1.387    0.279
        28 -12.6347     68.9593    148.5364   5.4370156594e+01   3.6039499698e+01     1.294827    0.7145287 -82.96  0.001883387    2.519    0.603
        29  -9.5516     85.3447    163.9936   5.1883646800e+01   2.9758099534e+01    0.2957388    0.1929131  52.42  0.001349575    1.637    0.389
        30 -10.4592     51.0394    161.3327   6.1899426220e+01   3.5116609927e+01    0.4466204    0.3079596 -16.55  0.001387152    1.970    0.492
        31 -10.1782     57.1304    157.2711   5.9454142407e+01   3.5401358248e+01     0.375999    0.3257573  -1.52  0.000856331    1.314    0.239
        32 -10.1651     33.3329    156.8227   6.7004955925e+01   3.8259698328e+01    0.4271391    0.2616127 -71.44  0.001442642    1.601    0.375
        33  -9.1493    109.0110    145.5117   4.1702199964e+01   3.0294977078e+01    0.2820384    0.2296735 -54.16 0.0007491938    1.269    0.212
        34  -9.4074     42.4172    143.1002   6.2372708650e+01   4.0912740573e+01     0.333952    0.2517007 -57.81 0.0005807486    1.338    0.253
        35  -8.5178    164.3101    226.3441   4.2380161445e+01   6.1660466478e+00    0.1271345   0.07983088  -6.41 0.0004121554    1.701    0.412
        36  -9.4920     72.7007    226.6887   6.2924627092e+01   1.7566243638e+01    0.2711463    0.1990255  56.67 0.0007489779    1.387    0.279
        37  -7.9044    115.4840    137.5298   3.8218626992e+01   3.0975168943e+01    0.1498136    0.1472581  29.13 0.0001445873    1.020    0.020
        38 -10.7569     80.2310    132.3999   4.7753600539e+01   3.8441408391e+01    0.5457966    0.3645944 -27.57  0.001667716    1.974    0.494
        39 -10.6562     74.3445    130.8614   4.9395959113e+01   3.9786145865e+01    0.6078734    0.2974943 -52.46    0.0015818    2.024    0.506
        40  -9.2003     94.6681    133.7127   4.3449993887e+01   3.5652404849e+01    0.4206691    0.2847881 -24.80  0.001769161    1.982    0.495
        41  -9.5362     29.0290    133.8013   6.5896952322e+01   4.4830608093e+01    0.4525669     0.174524 -66.73  0.001264719    2.348    0.574
        42  -8.6085     36.7008    142.9755   6.4319266007e+01   4.1576982829e+01    0.2106566    0.1768616 -83.22 0.0007527401    1.158    0.137
        43  -9.6972     46.2143    131.6872   5.9383935494e+01   4.3529716438e+01    0.3427048     0.208891  53.31 0.0007941742    1.747    0.428
        44  -9.0198    105.1475    130.4827   3.9596788387e+01   3.4535636866e+01    0.2920652    0.2193344 -51.64 0.0009386743    1.347    0.258
        45 -11.3711      1.8375    249.6189   8.0297311636e+01   2.0212320536e+01    0.3915763    0.3315057  39.50  0.001067079    1.190    0.159
        46 -11.3306     75.5277    145.7946   5.1807143631e+01   3.5769067690e+01    0.8585496    0.5359941 -26.08  0.003459012    2.312    0.568
        47  -9.4070     35.6377    126.2774   6.2455309089e+01   4.6205213157e+01     0.297281    0.2145236  52.94 0.0006834838    1.409    0.290
        48 -10.6584     68.2867    124.2915   5.0152578748e+01   4.2442276077e+01    0.5194412    0.4028301  87.12  0.001403697    1.493    0.330
        49  -8.9489     32.1175    120.8130   6.2996586620e+01   4.8062504494e+01    0.2627673    0.2047185 -73.59 0.0007156904    1.232    0.188
        50  -9.1742     93.1557    121.5289   4.1205183392e+01   3.8911758717e+01    0.3346759     0.267529  -3.17  0.001397104    1.565    0.361
        51  -9.1381     42.0940    125.5422   5.9923568032e+01   4.5682523203e+01    0.2740241    0.2298033  74.32 0.0006475956    1.217    0.179
        52  -8.5280    104.1802    116.1195   3.6492423271e+01   3.8116488314e+01    0.2248585    0.2094733 -16.07 0.0002708586    1.144    0.126
        53  -9.7898     23.8242    105.0885   6.3984713540e+01   5.3148817821e+01    0.3981267    0.2780122  59.37  0.001416828    1.550    0.355
        54  -8.5689     56.4495     95.4554   4.8107198633e+01   5.1774441258e+01    0.1507216    0.1468133 -36.24 -3.366255e-07    1.029    0.028
        55  -7.8615     86.4300     83.5375   3.3185777839e+01   4.9241046687e+01    0.1528328    0.1497649  79.65 0.0008050803    1.031    0.030
        56  -8.6392     72.6516     79.3840   3.6955845368e+01   5.2920250724e+01    0.3431077    0.2198391  76.11  0.001246432    2.857    0.650
        57 -10.2612     21.1383     79.3144   6.0539157456e+01   6.0291901284e+01    0.4222497    0.2411897  43.26  0.001403404    1.919    0.479
        58  -8.9371    134.2430    230.0240   4.9161341410e+01   9.3216279729e+00    0.1459235    0.1040596 -44.22 0.0008854313    1.608    0.378
        59 -10.6801    230.4297     49.3574   3.5677405244e+02   2.3376593050e+01      0.31505    0.2371597  46.51  0.001143557    1.820    0.451
        60 -12.1471    237.5591     44.8674   3.5527208400e+02   2.2647060343e+01    0.6650201    0.5124936 -50.08  0.002945485    1.010    0.010
        61  -9.7309     13.3592     60.4282   6.0473303920e+01   6.5759052195e+01    0.2583721     0.164431 -69.63 0.0007073162    1.556    0.357
        62 -10.4257      7.5481     60.3332   6.3934140879e+01   6.6180026885e+01    0.2948671    0.2569471 -46.01  0.001768393    1.032    0.031
        63 -10.5789      1.9459     54.8564   6.6215000950e+01   6.7853009928e+01    0.6254792    0.2038755 -77.21   0.00220217    3.396    0.706
        64  -8.8445    105.3179    228.3460   5.5422202490e+01   1.3262905275e+01    0.1288388   0.09027429  -9.72 0.0007048755    1.725    0.420
        65  -8.5535     60.4686     21.4686   1.7775685203e+01   6.6363802265e+01     0.138391    0.1250422  37.54 4.870594e-05    1.005    0.005
        66 -11.5074     54.7659    235.7918   6.7897227937e+01   1.7814580207e+01    0.5195508    0.4507879  42.60  0.001438842    1.082    0.076
        67  -9.9045     61.1001    234.3326   6.6312766245e+01   1.7402830992e+01    0.4273774    0.2011465  51.95  0.001981897    2.104    0.525
