#   1 NUMBER                 Running object number                                     
#   2 MAG_AUTO               Kron-like elliptical aperture magnitude                    [mag]
#   3 X_IMAGE                Object position along x                                    [pixel]
#   4 Y_IMAGE                Object position along y                                    [pixel]
#   5 X_WORLD                Barycenter position along world x axis                     [deg]
#   6 Y_WORLD                Barycenter position along world y axis                     [deg]
#   7 A_WORLD                Profile RMS along major axis (world units)                 [deg]
#   8 B_WORLD                Profile RMS along minor axis (world units)                 [deg]
#   9 THETA_WORLD            Position angle (CCW/world-x)                               [deg]
#  10 FWHM_WORLD             FWHM assuming a gaussian core                              [deg]
#  11 ELONGATION             A_IMAGE/B_IMAGE                                           
#  12 ELLIPTICITY            1 - B_IMAGE/A_IMAGE                                       
         1 -10.1686    170.0625     17.0298   7.3503457021e+01   4.0431655913e+01    0.4070997    0.2292848  83.18  0.001623474    2.196    0.545
         2 -10.4431    173.4416     11.0018   7.0971361888e+01   4.0147270813e+01    0.4329761    0.2513474 -47.40  0.001946653    1.831    0.454
         3  -7.6476    119.9992      9.0000   7.8888836299e+01   5.4223814592e+01    0.2448307   0.08134651  63.51 0.0008107432    3.000    0.667
         4 -11.7066    247.0137    247.4758   1.1415489594e+02  -2.9190507778e+00    0.8516799    0.4546248  26.16  0.006275545    1.346    0.257
         5 -13.5342    103.0648    244.2097   1.3784782359e+02   1.4955261476e+01     0.695583    0.3409975 -66.63  0.004235019    2.855    0.650
         6 -17.7607     75.4344    237.4112   1.4224681541e+02   1.9042767574e+01     3.076116     2.297149  44.84  0.008226282    1.026    0.025
         7 -11.5475    133.1140    206.1077   1.2834952216e+02   1.6620479266e+01    0.4479485      0.41071 -52.40    0.0033578    1.345    0.257
         8  -7.9071    191.3054    233.5876   1.2120341330e+02   5.1604522366e+00     0.152704   0.09372441 -30.59 0.0006939499    1.921    0.479
         9  -9.8475     11.2568    206.7059   1.5238163620e+02   3.0175101810e+01    0.4196109    0.2395713  29.19  0.002612592    1.768    0.434
        10  -8.0343    174.8985    203.2251   1.1989704276e+02   1.1072617078e+01    0.1634305    0.1412174  32.73   0.00116079    1.259    0.206
        11 -10.5622    138.6423    200.3546   1.2651101956e+02   1.6721806976e+01    0.4065605     0.283367  56.93  0.001483118    1.742    0.426
        12 -10.0723    132.9276    194.9575   1.2694225062e+02   1.8384174191e+01    0.2674937    0.1672605  50.78  0.001113983    1.693    0.409
        13 -13.0526     59.3320    209.2827   1.4332509772e+02   2.5251764160e+01    0.3088449    0.2775731  15.30  0.000686472    1.408    0.290
        14  -8.8291    158.0190    194.5285   1.2184284198e+02   1.4774729851e+01    0.1734038    0.1569985  -1.39 0.0005347087    1.168    0.144
        15  -8.8630    148.0623    195.3071   1.2393243998e+02   1.6130160567e+01    0.1791486    0.1292522  32.75 0.0005771575    1.162    0.139
        16 -10.1404    140.1407    228.8053   1.2968819894e+02   1.2443707694e+01    0.3908957    0.1845926  30.14  0.001559889    1.801    0.445
        17 -10.0411    191.0450    188.4588   1.1454550811e+02   1.0646212614e+01    0.2303296    0.1899572 -10.13 -2.841417e-05    1.207    0.171
        18  -7.3024      4.6066    191.7136   1.5314105802e+02   3.3364323139e+01   0.08972477    0.0744317 -41.33 0.0002759481    1.766    0.434
        19  -9.3885    185.4667    225.8193   1.2117998656e+02   6.7966542085e+00    0.4335004    0.1079553 -43.50  0.001742957    5.658    0.823
        20  -9.1482    167.3289    226.8774   1.2452864132e+02   9.0941996894e+00    0.1898118    0.1690946  22.99 0.0005601597    1.244    0.196
        21 -10.3325    137.4903    177.3085   1.2343667146e+02   2.0617384362e+01    0.4442359    0.2852236  75.89  0.001923481    3.500    0.714
        22  -9.5564     13.4231    244.2974   1.5315164952e+02   2.3967250731e+01    0.4820119    0.1917406 -88.72   0.00325158    2.591    0.614
        23  -7.7099     11.2855    220.3210   1.5281741762e+02   2.7876573684e+01   0.07928803   0.07167234 -57.61 0.0005913333    1.595    0.373
        24  -8.5165    152.5253    175.6843   1.1999882828e+02   1.8540151375e+01    0.2396473    0.1977608  79.53  0.001127693    1.831    0.454
        25  -9.6333     77.6832    174.4758   1.3635819866e+02   2.9536283812e+01    0.2706861    0.1803722  37.49 0.0007373462    1.369    0.269
        26 -11.3656    124.4697    170.1961   1.2517936745e+02   2.3860857679e+01    0.5112064    0.4149712  67.55  0.003095417    1.476    0.322
        27  -9.3732    143.7734    215.0478   1.2739614511e+02   1.3844192995e+01    0.2088898    0.1479674  24.17 0.0008417001    1.242    0.195
        28 -10.2730    112.9960    169.0137   1.2758672322e+02   2.5799006991e+01    0.2514487    0.2419237 -63.31 0.0009796952    1.143    0.125
        29 -10.0130    116.1633    165.8595   1.2638979246e+02   2.5920700564e+01    0.3640747    0.2332428  44.32  0.001979301    1.463    0.317
        30  -9.1927     23.5401    173.5158   1.4843335854e+02   3.5347135368e+01    0.2157781    0.1947857 -25.74   0.00166035    1.537    0.349
        31  -9.5187     13.2347    173.0232   1.5063970434e+02   3.6275286722e+01    0.3253213    0.1501699  43.18  0.001839048    1.800    0.445
        32  -9.6100    195.4248    170.4825   1.1054580908e+02   1.2412690681e+01    0.4005274    0.3228527 -40.80  0.001955536    1.587    0.370
        33  -9.2029     55.5258    170.1903   1.4099856455e+02   3.2951908925e+01    0.2230114    0.1647865  27.46  0.001035964    1.454    0.312
        34  -8.8503    145.1502    168.4377   1.2035032656e+02   2.0926822482e+01    0.2699566    0.2111184  58.87 0.0008544281    1.572    0.364
        35  -8.7272     19.2637    167.6635   1.4904715734e+02   3.6875240693e+01    0.2348637     0.174423  46.27  0.001008424    1.245    0.197
        36  -8.9092    175.7839    213.6505   1.2123857450e+02   9.5905950482e+00    0.1584852    0.1243435  12.38 0.0009833683    1.117    0.105
        37  -9.3830     36.1669    160.1635   1.4466169032e+02   3.6964105301e+01     0.264513    0.1686919 -83.58 0.0009183495    1.459    0.315
        38 -10.5892     40.7586    155.0660   1.4313366369e+02   3.7610832077e+01     0.590594    0.3588189  27.09  0.002375051    1.774    0.436
        39  -9.6688    183.6944    211.6103   1.1951088259e+02   8.7392574700e+00    0.2364103    0.1824786 -46.16  0.001621873    1.849    0.459
        40 -10.2451    110.8310    157.4276   1.2631587053e+02   2.8348172674e+01    0.4505926    0.3111662  34.01  0.002007968    1.370    0.270
        41 -10.4746     58.5917    156.8967   1.3894926069e+02   3.5368973313e+01    0.3275351    0.2428866  38.47   0.00159985    1.308    0.235
        42  -7.9911    120.8427    156.8284   1.2385518188e+02   2.6918960652e+01    0.1803993    0.1493803  60.69 0.0005483682    1.336    0.251
        43  -7.4003    116.3142    154.6124   1.2455223360e+02   2.8058127770e+01      0.13704    0.1005858  73.00 0.0007015016    1.830    0.454
        44  -8.6621    112.7903    151.5994   1.2489078287e+02   2.9201620313e+01    0.2495767    0.2073043  73.57 0.0009936545    1.405    0.288
        45  -8.6431    115.2634    148.3538   1.2373330424e+02   2.9461687065e+01    0.2879131    0.2084151  33.40 0.0008247516    1.329    0.247
        46 -10.9639     54.7421    149.2189   1.3907327458e+02   3.7442302909e+01    0.4303036     0.316076  30.53  0.002641688    1.433    0.302
        47 -10.3420     39.7717    148.9360   1.4282643158e+02   3.9029594617e+01    0.4135329    0.2947366 -65.62  0.002123994    1.379    0.275
        48 -10.3857     45.4072    146.9821   1.4121121123e+02   3.8906797174e+01    0.3229762    0.2606902  24.03  0.001656575    1.417    0.294
        49  -7.4595     18.6957    150.6976   1.4816574212e+02   4.0462390022e+01    0.1070845   0.08042294 -50.38 0.0002705482    1.595    0.373
        50 -10.9437     68.3304    143.4513   1.3486967150e+02   3.7139745228e+01    0.7179291    0.3428299  62.04  0.002951948    2.975    0.664
        51 -11.4338     73.2239    139.5541   1.3303853026e+02   3.7389681532e+01    0.7685128    0.3994803 -67.18  0.003254962    1.960    0.490
        52  -9.0689     98.8990    143.1155   1.2690927585e+02   3.3059176115e+01    0.2972456    0.1808336  40.54 0.0004563178    1.573    0.364
        53  -8.6159     44.3376    137.0619   1.4044531727e+02   4.1224974256e+01    0.1877618    0.1724907  19.93 0.0005901231    1.287    0.223
        54  -9.1209    135.1615    135.8939   1.1652498658e+02   2.8582979504e+01    0.2189755    0.2029847  20.93 0.0002866764    1.022    0.021
        55  -8.8118    109.6341    136.2092   1.2293324688e+02   3.2847491281e+01    0.2759624    0.1745605  37.57  0.000466389    1.536    0.349
        56 -10.6833     57.9690    133.8191   1.3635538276e+02   4.0514477909e+01     1.000326    0.2202338  27.96  0.003124118    5.086    0.803
        57 -10.2997     61.7496    124.5997   1.3398675682e+02   4.2194604207e+01    0.7188364    0.1572128  29.33  0.002226204    4.859    0.794
        58  -9.9477     61.0196    129.5165   1.3491750960e+02   4.1146463710e+01    0.3155675     0.262842 -86.08  0.001932997    1.145    0.127
        59  -9.8125     65.5191    129.4848   1.3365494327e+02   4.0616860323e+01    0.2476234    0.2156497  13.83  0.001095568    1.339    0.253
        60  -8.0838    199.8511    124.3117   9.9997238349e+01   1.8414815708e+01    0.1887069    0.1573298  13.40 0.0003531259    1.091    0.083
        61  -8.0338    132.1284    121.0423   1.1403035369e+02   3.2071459804e+01    0.2055446    0.1800125  -3.72  0.001121593    1.184    0.155
        62  -8.3863    143.3440    144.0822   1.1626766879e+02   2.5584316226e+01    0.3072951    0.2161648 -82.36  0.001355438    2.724    0.633
        63 -10.2281    245.5376    115.1152   9.0262640756e+01   1.1294958375e+01    0.2529612    0.2105261  16.26 0.0003329107    1.186    0.157
        64  -8.1305     55.6042    109.8667   1.3347691859e+02   4.6377771005e+01    0.1886843    0.1186447 -81.07  0.000409997    1.694    0.410
        65  -9.3565     66.4476    101.1572   1.2843929504e+02   4.7142000372e+01    0.3782307    0.2018218 -47.85  0.001721975    1.817    0.450
        66  -7.8564     27.6266    105.6873   1.4166068199e+02   5.0073760154e+01    0.1323242   0.08350024 -41.98 0.0007032475    1.784    0.440
        67  -7.5746    191.1874    101.8548   9.6070466989e+01   2.3625825457e+01     0.198854    0.1547383   1.95 0.0002898276    1.287    0.223
        68  -9.8253    248.5787     96.5460   8.5488462460e+01   1.3051675729e+01    0.3647232    0.1854637 -33.85  0.001790642    1.753    0.430
        69  -7.8544     23.6680     87.6884   1.4059197013e+02   5.4749916711e+01    0.1339748   0.08208826 -44.25 0.0005144295    1.675    0.403
        70  -7.2848    215.2345     74.9731   8.4746892010e+01   2.2441173449e+01    0.1773501    0.1072615 -26.44            0    1.468    0.319
        71  -7.9481    160.1162     58.8519   8.9629504367e+01   3.7523903840e+01    0.2077149    0.1700149  15.15 0.0002965483    1.278    0.218
        72  -8.7323    147.9874     58.9761   9.2300147394e+01   4.0420677499e+01    0.2429963    0.2295836  -9.86 0.0009421109    1.028    0.027
        73  -8.5271    197.3154     53.9847   8.1475133986e+01   2.9283496825e+01    0.2190356    0.1880475  21.14 0.0003662044    1.193    0.162
        74 -10.4457    159.2567     48.2627   8.6235113744e+01   3.9326473904e+01    0.6756452    0.3844348  30.44  0.002671161    2.177    0.541
        75  -8.3111    137.1522     44.8068   8.9756545049e+01   4.5292557710e+01    0.2119216    0.2032076 -28.64  0.000270331    1.095    0.086
        76  -7.6971    250.6882     39.1782   7.1029312778e+01   1.9279183422e+01    0.1804061     0.104271 -15.61 0.0003048922    1.620    0.383
        77  -9.7706    162.5645     35.7128   8.1248113126e+01   4.0210477076e+01    0.3414027    0.2660244 -10.81 0.0009175747    1.286    0.222
        78  -7.4477    192.5007     27.4493   7.3983068168e+01   3.3655730609e+01    0.1412499    0.1339913 -17.39 0.0001170781    1.007    0.007
        79  -9.1688    164.3714     20.9604   7.5717499177e+01   4.1489883092e+01    0.2778743    0.1907825   1.05  0.001296181    1.613    0.380
        80 -10.1940    145.9568     20.7311   7.8698086009e+01   4.6286274193e+01    0.2496092    0.2264879 -14.45 0.0002418138    1.079    0.073
        81  -9.1247     21.8878    238.5427   1.5158738212e+02   2.4113422240e+01    0.1519262    0.1093777  75.19 0.0002777103    1.266    0.210
        82 -10.8257    135.3652    243.7996   1.3211867769e+02   1.1112774701e+01     0.468783    0.3548405   3.48   0.00198365    1.568    0.362
