#   1 NUMBER                 Running object number                                     
#   2 MAG_AUTO               Kron-like elliptical aperture magnitude                    [mag]
#   3 X_IMAGE                Object position along x                                    [pixel]
#   4 Y_IMAGE                Object position along y                                    [pixel]
#   5 X_WORLD                Barycenter position along world x axis                     [deg]
#   6 Y_WORLD                Barycenter position along world y axis                     [deg]
#   7 A_WORLD                Profile RMS along major axis (world units)                 [deg]
#   8 B_WORLD                Profile RMS along minor axis (world units)                 [deg]
#   9 THETA_WORLD            Position angle (CCW/world-x)                               [deg]
#  10 FWHM_WORLD             FWHM assuming a gaussian core                              [deg]
#  11 ELONGATION             A_IMAGE/B_IMAGE                                           
#  12 ELLIPTICITY            1 - B_IMAGE/A_IMAGE                                       
         1 -11.2043    145.1711     48.0025   1.8387284253e+01   4.2136767399e+01    0.2396819    0.1735748   8.26  0.001086381    1.959    0.490
         2  -9.8257    197.4514    250.5062   5.2140765478e+01   2.7761369212e-01    0.2176568    0.0810952  28.43  0.001205808    2.147    0.534
         3 -10.1301    179.9816    248.5196   5.4956140711e+01   2.3982462679e+00    0.2558281   0.08479239  25.18  0.001214286    2.675    0.626
         4  -9.7647    114.5106    248.4778   6.7604135766e+01   9.9795913265e+00    0.2180571   0.07203934  37.87  0.001025814    2.350    0.575
         5  -9.9428    228.2548    244.4208   4.6254665041e+01  -2.2008669100e+00    0.1881067   0.07643194  23.88  0.001128954    2.067    0.516
         6  -9.8886    186.5591    242.1407   5.2945937205e+01   2.4378112815e+00    0.1904403    0.1019221  21.86    0.0010585    1.489    0.329
         7 -10.0129    161.1684    240.3902   5.7419144058e+01   5.5898818547e+00    0.1662469   0.08383155  35.30 0.0009534534    1.743    0.426
         8 -10.8188    194.9424    237.9958   5.0900201925e+01   2.0020647145e+00    0.3183084    0.1470913  32.49  0.001875213    1.915    0.478
         9 -10.3701    209.1937    237.5847   4.8396591393e+01   4.9359361468e-01    0.2445251    0.1078189  29.15  0.001455238    1.928    0.481
        10  -9.5696    235.2339    237.7573   4.4230841097e+01  -2.1930909444e+00    0.1593578   0.06297223  19.13 0.0008780321    2.453    0.592
        11  -9.5312    178.6470    237.6891   5.3786178075e+01   3.8933058520e+00    0.1189924   0.07001757   2.17  0.000582806    1.725    0.420
        12 -10.8179    220.8450    234.7663   4.6074498203e+01  -4.2010670997e-01      0.38737    0.1078449  27.29    0.0017862    3.375    0.704
        13  -9.6229    171.9715    236.0000   5.4801087411e+01   4.8942708701e+00    0.1874762   0.05233887  31.22  0.000536575    2.931    0.659
        14  -9.7288     11.0170    235.0000   8.8654791455e+01   2.3209680935e+01     0.179938   0.05128019  25.22 0.0008012889    2.934    0.659
        15  -9.7658    239.1723    230.6687   4.2600974663e+01  -1.8392839603e+00    0.1865498   0.07796331  34.92  0.001094769    2.602    0.616
        16 -10.2067    212.0307    228.0195   4.6546940284e+01   1.2935946939e+00    0.2206686    0.1122389  32.71  0.001262768    1.892    0.472
        17 -10.0737    165.4823    228.0225   5.4962832148e+01   6.7619341702e+00    0.1974843    0.1267686  23.83  0.001249388    1.259    0.206
        18  -9.7846    219.2266    224.9972   4.4907526654e+01   8.5858516281e-01    0.1655133   0.09213289   9.14  0.001041859    1.621    0.383
        19 -10.0225    231.6697    222.3063   4.2510598540e+01  -1.6641997182e-01    0.2294777    0.1071839  22.29  0.001395594    1.922    0.480
        20  -9.4555    187.6711    222.7087   5.0030439551e+01   4.7688584998e+00    0.1192219   0.07247512   1.74 0.0007018814    1.623    0.384
        21 -10.4279    196.5021    220.6997   4.8141653361e+01   3.9720050063e+00    0.2822765    0.1359295  28.95  0.001613739    1.802    0.445
        22 -10.0477    204.2773    220.4398   4.6739091746e+01   3.0901261751e+00    0.2090316   0.09085328  26.67    0.0011346    2.038    0.509
        23  -9.7723     10.5013    219.9968   8.8314487073e+01   2.6104242102e+01    0.1631366    0.1020834  86.13  0.001036109    1.601    0.375
        24 -10.2039    213.0440    219.2219   4.5060332517e+01   2.2313953300e+00    0.1793479    0.1163383   3.00  0.001214071    1.276    0.216
        25  -9.9382    172.0201    218.2273   5.2313603939e+01   7.3252042213e+00    0.1633027   0.08254327  29.12 0.0008852976    1.683    0.406
        26 -10.6815    221.0933    215.1402   4.3099556562e+01   1.8128222438e+00    0.3000334    0.1320648  26.55  0.001701299    2.073    0.518
        27 -10.4364    180.0877    211.7977   4.9807658546e+01   7.2074777492e+00    0.2855563    0.1364837  24.64  0.001482653    1.923    0.480
        28 -10.8228    193.8593    211.1766   4.7160606854e+01   5.5482264178e+00    0.3438806    0.1290565  27.81  0.001619945    2.525    0.604
        29  -9.7666    243.2258    209.6331   3.8776731386e+01   3.6486084967e-02    0.1471426   0.07921234  17.09 0.0009470379    1.704    0.413
        30 -10.7286    200.2542    205.0165   4.5038220190e+01   5.5785721225e+00    0.3838229    0.1382429  27.95  0.001744813    2.771    0.639
        31 -10.2019    213.1098    202.6683   4.2433608644e+01   4.2978529947e+00    0.1910583    0.1431365 -25.70  0.001331416    1.336    0.252
        32  -9.5357    218.3477    190.3148   3.9488345683e+01   5.2621089032e+00    0.1241916   0.07417122  -1.13            0    1.722    0.419
        33 -10.1679    185.8847    184.1504   4.4155153781e+01   1.0511467222e+01     0.225334     0.138972  38.29  0.001249955    1.691    0.409
        34  -9.3553    245.3190    182.3165   3.3934154521e+01   2.9993965592e+00    0.1163473   0.06821804  -4.00   0.00070402    1.657    0.396
        35  -9.4784    201.6758    146.3203   3.4018697533e+01   1.4003483301e+01    0.1197904    0.1025835 -62.98  0.000704604    1.677    0.404
        36 -11.1218    174.4124    129.3962   3.5374608333e+01   2.1573052927e+01    0.2753812    0.1164889  32.00 0.0009561232    3.359    0.702
        37 -10.7655     90.4991    123.5108   5.5353906621e+01   3.8848182219e+01    0.1519348     0.148332  65.34 -3.39143e-06    1.013    0.013
        38 -11.3785     96.7692    120.7868   5.2781255489e+01   3.8386412165e+01    0.2578098    0.1780343  73.88  0.001064461    2.065    0.516
        39 -11.7678     75.1473    119.0281   5.9420561094e+01   4.2562617199e+01    0.3875162    0.1905245  55.61  0.001343885    2.760    0.638
        40 -12.9245     97.7354    108.8141   4.9567315838e+01   4.1075511075e+01    0.4420029    0.3726395   4.36  0.002157245    1.406    0.289
        41 -10.7714    161.0000    108.9778   3.3175100593e+01   2.7948127743e+01    0.2483734   0.07989819 -39.51 0.0008035078    2.950    0.661
        42 -11.8544    112.2869    106.8795   4.4660167912e+01   3.8620775658e+01    0.4116221    0.2478236 -70.59  0.001482425    2.700    0.630
        43 -12.5427    143.4187    102.7066   3.5407590237e+01   3.2887619329e+01    0.4026735    0.3060593  77.03  0.001868757    1.752    0.429
        44 -10.2775    131.3387    102.6637   3.8339847193e+01   3.5510124916e+01    0.1591135    0.1233317 -85.00 0.0007051324    1.754    0.430
        45 -11.8679    161.5320    100.8844   3.0969255775e+01   2.9330973184e+01    0.2980645    0.2084207  73.24  0.001348929    1.985    0.496
        46 -11.8295    195.6672     98.4592   2.4227060740e+01   2.2711241612e+01    0.3071289    0.1939438  -0.75  0.001330003    2.539    0.606
        47 -10.4620     82.3284    108.3284   5.4516258537e+01   4.4051847142e+01    0.1606098    0.1218526 -18.32 0.0007051011    1.707    0.414
        48 -12.2389     95.2804     96.5854   4.7066434360e+01   4.4453714121e+01    0.3610867    0.2475276 -79.67  0.001451019    2.143    0.533
        49 -12.8466    163.4873     95.0079   2.9013893347e+01   2.9973428320e+01    0.4606222    0.2197665  51.96  0.001854068    2.232    0.552
        50 -10.9220     75.8069     95.5857   5.3559568090e+01   4.8390284633e+01    0.2248588    0.1417228  47.50 0.0007758602    1.660    0.398
        51 -12.3639    126.0582     89.3045   3.5893803834e+01   3.9434234024e+01    0.3229879    0.2328176 -50.22  0.001482141    1.406    0.289
        52 -13.9083    183.6636     86.1653   2.3039589403e+01   2.7132035176e+01    0.5427399    0.4443672 -63.45  0.002997522    1.340    0.254
        53 -10.6355    101.3102     96.3393   4.5065880431e+01   4.3284245910e+01    0.1609095    0.1254165  -9.20  0.000704475    1.689    0.408
        54 -11.4535    151.4897     87.9602   2.9516937623e+01   3.3915937169e+01    0.2394785     0.142884 -38.39  0.001036891    1.602    0.376
        55 -12.6216    195.6215     85.4273   2.0994619006e+01   2.4757485340e+01    0.3011107    0.2295794 -86.42   0.00161288    1.715    0.417
        56 -10.3127     35.0000     85.9733   6.8096762368e+01   5.6845590005e+01    0.2529819   0.07906059 -66.15 0.0008107303    3.000    0.667
        57 -12.0380     98.4318     89.1275   4.3866041846e+01   4.5529964782e+01    0.3340682    0.2102727  59.70  0.001346576    1.945    0.486
        58 -12.1299    142.9145     81.3410   2.9445656570e+01   3.7106833217e+01    0.3475436    0.1983478  65.62  0.001373487    2.209    0.547
        59 -12.3146    152.1005     79.7742   2.7022975589e+01   3.5253300756e+01    0.3131617    0.2274897 -75.64  0.001426318    1.804    0.446
        60 -11.7825    120.6996     79.5642   3.4316881511e+01   4.2631382055e+01    0.2863378    0.1926021 -61.32   0.00120913    1.798    0.444
        61 -11.0482     94.1927     78.3809   4.1874411787e+01   4.8835579826e+01    0.2297781    0.1462413  54.48 0.0008804291    1.710    0.415
        62 -11.0405     76.6122     77.7716   4.7977776872e+01   5.2562859553e+01    0.2226365    0.1470625 -60.48 0.0009508014    1.659    0.397
        63 -12.2722    159.6616     81.9699   2.6154320643e+01   3.3128252627e+01    0.3379166    0.1709102 -43.16  0.001382031    1.879    0.468
        64 -12.4090    130.8327     76.8400   3.0870467019e+01   4.0787340867e+01    0.3462857    0.2439723 -37.79  0.001592516    1.403    0.287
        65 -12.4731    151.4774     72.6823   2.5036299865e+01   3.6636228919e+01    0.3473767    0.2248199 -63.57  0.001490554    1.946    0.486
        66 -13.7557    162.5812     70.7081   2.2355783876e+01   3.4352043811e+01    0.7512867    0.3742829  72.91   0.00273304    3.001    0.667
        67 -11.5207     86.8564     68.2916   4.0943898873e+01   5.2606463639e+01    0.3168259    0.1833749 -58.10  0.001233579    2.095    0.523
        68 -10.5799    205.6538     65.3265   1.4560193803e+01   2.5632851839e+01    0.1427939   0.08883364 -58.71 0.0007050134    1.748    0.428
        69 -12.6530    134.0361     71.2615   2.8336454656e+01   4.1058679518e+01    0.4044189     0.255097  71.68  0.001672589    2.012    0.503
        70 -11.2643    113.6102     65.4127   3.1521845214e+01   4.7063086082e+01    0.3128522     0.147181  66.43  0.000964233    3.415    0.707
        71 -12.7974    159.3141     61.1788   2.0086251143e+01   3.6647930604e+01    0.3877742    0.2311411 -34.76  0.001754191    1.593    0.372
        72 -11.4953    193.7018     60.0170   1.4654061056e+01   2.8906253926e+01    0.2012137    0.1686363 -39.46  0.001177444    1.064    0.060
        73 -11.1315    170.4006     56.2144   1.6807491226e+01   3.4752393229e+01    0.2186279    0.1160435 -42.86 0.0009543946    1.727    0.421
        74 -10.6465    103.2486     77.9929   3.8833669549e+01   4.6936774273e+01    0.2139539    0.1326818 -44.04 0.0008916668    1.604    0.376
        75 -10.9444    181.0232     50.5167   1.3669735329e+01   3.3071633353e+01    0.2004155    0.1112866 -78.05 0.0008104077    2.598    0.615
