#   1 NUMBER                 Running object number                                     
#   2 MAG_AUTO               Kron-like elliptical aperture magnitude                    [mag]
#   3 X_IMAGE                Object position along x                                    [pixel]
#   4 Y_IMAGE                Object position along y                                    [pixel]
#   5 X_WORLD                Barycenter position along world x axis                     [deg]
#   6 Y_WORLD                Barycenter position along world y axis                     [deg]
#   7 A_WORLD                Profile RMS along major axis (world units)                 [deg]
#   8 B_WORLD                Profile RMS along minor axis (world units)                 [deg]
#   9 THETA_WORLD            Position angle (CCW/world-x)                               [deg]
#  10 FWHM_WORLD             FWHM assuming a gaussian core                              [deg]
#  11 ELONGATION             A_IMAGE/B_IMAGE                                           
#  12 ELLIPTICITY            1 - B_IMAGE/A_IMAGE                                       
         1  -8.1565     17.0221     13.9622   5.2087234191e+01   7.0672671179e+01    0.1430108    0.1340139   7.51 0.0005040381    1.566    0.361
         2  -8.5485     55.7933      9.7188   3.2757762934e+01   6.5818072498e+01    0.2042834    0.1513273 -31.80 0.0005703815    1.589    0.371
         3  -8.0053     28.2882      9.6460   4.4403710085e+01   6.9936345955e+01   0.09483914   0.09083512 -25.36 0.0003530582    1.673    0.402
         4  -8.1542     90.6564      8.3607   2.1477927595e+01   5.9283750021e+01      0.17707    0.1438036 -73.85  0.001091536    1.713    0.416
         5  -8.3817     70.4272      6.1948   2.6269735338e+01   6.3517801661e+01     0.149087    0.1087916 -33.07 0.0006366858    1.646    0.393
         6  -8.5502     33.5707      5.1459   3.9757821715e+01   6.9750991352e+01    0.2365234    0.1749767 -51.75   0.00145106    2.555    0.609
         7  -8.5541     79.0977      3.6222   2.2670575979e+01   6.2050564704e+01    0.2113542    0.1554382 -38.01 0.0009787743    1.704    0.413
         8  -7.6893    115.6272      2.3167   1.3912817909e+01   5.4337225947e+01    0.1257161   0.08880638 -76.29 0.0007032842    1.794    0.443
         9  -7.9110     44.3848      2.6867   3.3919170901e+01   6.8391716213e+01   0.09985083   0.09288469  78.89 0.0007019173    1.819    0.450
        10  -8.7917     96.5680      6.2085   1.9236772702e+01   5.8217911214e+01    0.1946866    0.1509541  62.49 0.0007108116    1.230    0.187
        11  -8.1358     62.4977      1.4439   2.6740641602e+01   6.5409452602e+01    0.1823069    0.1063576  60.25 0.0006193768    2.011    0.503
        12  -9.0925    103.7059    246.4950   7.5234698401e+01   8.8812764803e+00    0.4060824    0.2238525 -84.17  0.001833097    2.939    0.660
        13  -9.1167    241.2608    238.4421   4.6566079011e+01  -1.0010843954e+01    0.4352939    0.1842148 -19.83  0.001801886    3.518    0.716
        14 -10.3074    248.8542    241.7805   4.5801455442e+01  -1.1386635677e+01     0.821086    0.2071017 -37.93  0.003373654    3.736    0.732
        15  -8.8840    248.0292    233.8702   4.4620574048e+01  -1.0220734854e+01    0.2638638    0.1727034 -26.04  0.001240992    1.338    0.253
        16  -9.6135    246.9248    228.0215   4.3814136410e+01  -9.2696927606e+00    0.5831977    0.1980805 -31.18  0.002511295    2.987    0.665
        17  -9.3160    210.9247    246.2494   5.3385942692e+01  -7.1378231245e+00    0.2571035    0.1740545 -53.76 0.0009467858    2.289    0.563
        18  -7.4258     86.3125    250.6154   7.9263568356e+01   1.0619595653e+01    0.1350692   0.07996064  64.90 0.0007019644    1.816    0.449
        19  -7.7198    169.3146    247.3428   6.1727909379e+01  -1.2850492490e+00    0.1301562   0.09059772   0.30 0.0007047669    1.709    0.415
        20  -9.2067     16.5202    247.1547   9.2563839258e+01   1.9970955571e+01    0.2586534    0.1243048  41.83 0.0009676303    1.775    0.437
        21  -9.1938    224.3377    245.3428   5.0742636733e+01  -8.8040265690e+00    0.2416836    0.1779499  -6.11  0.001351883    1.180    0.153
        22  -9.8661    223.6553    242.3373   5.0378078773e+01  -8.2908127184e+00    0.2890663    0.2166266 -46.36   0.00131924    1.801    0.445
        23  -9.4811    146.8011    245.5329   6.6096005412e+01   2.4689072592e+00    0.3002153    0.2256745  72.09  0.001436398    1.865    0.464
        24  -8.6614    146.3344    239.3992   6.5327633550e+01   3.6278711712e+00    0.2918553    0.1984915  81.59   0.00106194    2.673    0.626
        25  -8.9269    120.1807    245.1694   7.1623395547e+01   6.6438409048e+00    0.3107859    0.1866331  72.90  0.001418941    2.707    0.631
        26  -8.7449    201.8879    243.0543   5.4602183446e+01  -5.4041660256e+00    0.2545262    0.1685282 -48.76 0.0007182706    1.950    0.487
        27  -8.5807    139.4581    243.9866   6.7416808925e+01   3.8813794461e+00    0.1674006    0.1136866  88.92 0.0008082815    2.544    0.607
        28  -7.6196     67.6478    244.7064   8.2492456401e+01   1.4343908960e+01    0.1109913    0.0972398  -8.69 0.0004803136    1.681    0.405
        29  -8.6336    169.1222    243.0612   6.1129255367e+01  -5.5120439137e-01    0.2242068    0.1698603  43.41 0.0008175014    1.334    0.250
        30  -7.9907     77.4546    242.4890   8.0269540137e+01   1.3447647096e+01    0.2062945    0.1138395 -85.38 0.0008301903    2.267    0.559
        31  -7.8359     34.6684    243.3413   8.8920669649e+01   1.8732998858e+01    0.1309229   0.06718774  63.62 0.0007051352    1.748    0.428
        32  -9.0974    194.1083    239.8779   5.5611842089e+01  -3.7906022124e+00    0.2837845    0.1775656 -51.12  0.001529513    2.098    0.523
        33  -9.1437    183.2779    240.2633   5.7828532626e+01  -2.2414599732e+00    0.4286609    0.2762721  62.80  0.001965384    3.074    0.675
        34  -8.0547    153.4985    242.0097   6.4200784527e+01   2.0430328299e+00    0.1649988    0.1166302 -87.16 0.0008103186    2.537    0.606
        35  -7.9463     88.3086    242.1506   7.7973660164e+01   1.1978218004e+01     0.169864     0.110722 -82.83 0.0005461614    1.786    0.440
        36  -9.1410    159.7541    239.7826   6.2570417527e+01   1.4539457131e+00     0.308961    0.2437956 -87.47  0.001170499    1.959    0.489
        37  -9.3441    231.0279    237.0140   4.8151629292e+01  -8.5041658022e+00     0.283379    0.2420171  76.55  0.001712454    2.463    0.594
        38  -8.3484    209.1360    238.1722   5.2417395931e+01  -5.6937416186e+00    0.1515478    0.1458386   5.03 0.0005078175    1.366    0.268
        39  -8.5134    129.1741    238.2230   6.8811315236e+01   6.5468341819e+00     0.182991    0.1434519  60.23 0.0008367565    1.362    0.266
        40  -8.3054     14.0038    238.0000   9.2511678178e+01   2.2061828353e+01    0.1705872   0.05785417  32.66 0.0007981443    2.913    0.657
        41  -8.7570    217.0190    235.5274   5.0485670816e+01  -6.3996721628e+00    0.2091512    0.1982146  16.99  0.001065666    1.383    0.277
        42  -9.3761    213.6509    231.6276   5.0467129970e+01  -5.3364057580e+00    0.2865345    0.2419061  65.90  0.000995199    2.004    0.501
        43  -9.0048    203.1993    234.6832   5.2986252118e+01  -4.3061781410e+00    0.2849517    0.2124146 -64.90  0.001145359    2.348    0.574
        44  -9.7337    175.7319    233.2441   5.8251486905e+01   8.1796094048e-02    0.4686316    0.2387732 -55.78  0.002090273    2.807    0.644
        45  -8.1591    170.2034    235.2609   5.9710788977e+01   6.0033067125e-01    0.1792637    0.1048423 -57.65 0.0005288767    2.380    0.580
        46  -8.8390    109.7300    234.4431   7.2503965316e+01   1.0308976798e+01     0.554581    0.2088416  50.68  0.002100011    2.964    0.663
        47  -7.9573     99.7154    234.1332   7.4634113489e+01   1.1897967036e+01     0.229639    0.1205836  66.45 0.0009516482    2.796    0.642
        48  -8.5735     78.3477    233.8596   7.9197984236e+01   1.5074332051e+01    0.2376913    0.1172596 -78.03  0.001074393    2.531    0.605
        49  -8.5064      8.4606    234.5289   9.3354645068e+01   2.3324383382e+01    0.1145218   0.08712585  73.72 9.489334e-05    1.023    0.022
        50  -8.4277    194.3191    232.4351   5.4359548676e+01  -2.6345038461e+00    0.1834763    0.1564357 -62.67 0.0004653879    1.693    0.409
        51  -8.8678    140.1982    230.0773   6.5285555900e+01   6.3304683510e+00    0.3344963    0.1535249  50.52  0.001341991    2.518    0.603
        52  -8.7142     68.2917    232.1352   8.1161293769e+01   1.6823533527e+01    0.4338514    0.1671095  59.45  0.001612922    3.475    0.712
        53  -9.4035    186.4501    230.4759   5.5614597590e+01  -1.1135346397e+00    0.3406208    0.2546593 -73.56  0.001495402    2.387    0.581
        54  -8.5075    135.8557    238.8815   6.7475966860e+01   5.3731224301e+00    0.2066573    0.1449499  61.16  0.001106491    1.696    0.410
        55  -8.1721    132.4087    232.2146   6.7283130187e+01   7.1748272284e+00    0.1708203    0.1294545 -75.22 0.0004974948    1.676    0.403
        56  -9.5173    236.1581    229.6254   4.5979045774e+01  -8.1158513692e+00    0.4929284    0.1760711 -34.95  0.001890706    2.670    0.626
        57  -8.0494     92.1797    231.3983   7.5943967405e+01   1.3581833278e+01    0.1904024    0.1014416  47.77 0.0004074466    1.675    0.403
        58  -8.4948      1.4960    230.4931   9.4440307664e+01   2.4818056045e+01    0.1980891   0.08332932  84.85  0.001019864    2.192    0.544
        59  -9.0024    151.4788    228.9918   6.2687706183e+01   4.7081494555e+00    0.2857451    0.2136578 -81.81  0.001495714    2.014    0.504
        60  -9.5326    148.5253    224.2928   6.2599596959e+01   6.0751185247e+00    0.3799181    0.3222562  57.23  0.001564124    1.293    0.227
        61  -8.1620    229.5309    228.0811   4.6908401160e+01  -7.0061076767e+00    0.1792621    0.1090436 -34.81  0.001025973    1.580    0.367
        62  -8.6736    162.0168    227.7870   6.0248994060e+01   3.2231656611e+00    0.2651733    0.1862167  67.37  0.001256064    2.220    0.550
        63  -8.8144    127.9775    227.0465   6.7515731735e+01   8.8933699363e+00    0.3295923    0.2213141  69.86  0.001607451    2.039    0.510
        64  -7.8886    223.0000    226.9217   4.7908963454e+01  -5.9338888686e+00    0.1900261   0.06519426 -40.05 0.0005767753    2.870    0.652
        65  -8.1440     49.3575    226.5883   8.4644474111e+01   2.0460891791e+01    0.2337403    0.1003567 -89.27 0.0008706484    3.151    0.683
        66  -8.7110    205.9529    225.5101   5.0905217950e+01  -3.2547417331e+00    0.2750045    0.1713683 -42.57  0.001009604    1.727    0.421
        67  -8.1703    200.1139    226.1365   5.2155771911e+01  -2.4814103336e+00    0.1578026    0.1535725  21.14 0.0004777663    1.314    0.239
        68  -8.7887     94.2178    223.9128   7.4593978670e+01   1.4839491656e+01    0.3782528    0.2016049  67.15  0.001436824    2.662    0.624
        69  -8.9045    216.3552    223.3020   4.8527512494e+01  -4.4291486672e+00    0.2473885    0.2054128 -48.50 0.0007690404    1.570    0.363
        70  -8.7142    180.4612    224.0247   5.5768157990e+01   9.3004574369e-01    0.2303883    0.1739159  48.57 0.0006450988    1.510    0.338
        71  -8.7843    104.8194    223.4283   7.2164055684e+01   1.3314385938e+01    0.3355446    0.2076912  80.99  0.001429411    2.366    0.577
        72  -8.4257    172.9200    222.6192   5.7104791855e+01   2.3919708003e+00    0.2423363     0.179931 -66.85 0.0007716224    1.948    0.487
        73  -7.5372    113.5922    223.5390   7.0216625712e+01   1.1909676801e+01    0.1350863    0.1201244  54.60 0.0001316242    1.045    0.043
        74  -9.1240    238.8929    221.1851   4.4030407118e+01  -7.2404056665e+00    0.2516843    0.1782043 -42.36 0.0009518121    1.623    0.384
        75  -9.4592    242.6890    216.1669   4.2478548369e+01  -6.9986747068e+00    0.3530936    0.1822118   3.13  0.001481859    3.328    0.699
        76  -9.5635    225.6540    221.6321   4.6498954771e+01  -5.4951660454e+00    0.2920506    0.2312475  49.98   0.00148631    1.802    0.445
        77  -9.0968    160.1001    220.9887   5.9564553210e+01   4.7917725460e+00    0.5102228    0.2444401  55.12  0.001850583    3.485    0.713
        78  -9.1857    120.4372    219.0689   6.8047300156e+01   1.1732005690e+01    0.4786506    0.2730809  68.99  0.001896633    2.984    0.665
        79  -8.0501     26.9786    220.9841   8.8850052069e+01   2.4271639710e+01    0.1512092    0.1204099  74.01  0.001008736    1.002    0.002
        80  -8.3042    202.6873    220.0230   5.0594437762e+01  -1.8633323286e+00    0.1802281     0.152989 -16.05 0.0004557062    1.112    0.101
        81  -8.1904     82.7365    220.1640   7.6706582064e+01   1.7347062286e+01    0.2387992    0.1197537  66.35 0.0009552814    2.796    0.642
        82  -7.9574     72.9925    220.4876   7.8918660209e+01   1.8666875498e+01     0.189441   0.08643604  55.04 0.0004410837    2.285    0.562
        83  -9.4267    192.3409    221.0680   5.2838471445e+01  -4.3693920341e-01    0.3086791    0.2514257 -63.21  0.001246078    1.741    0.426
        84  -8.4735    210.2596    218.8475   4.8912644519e+01  -2.8163885325e+00    0.2119795    0.1476346 -38.37  0.000573074    1.467    0.318
        85  -8.6982    249.0425    218.0414   4.1714119955e+01  -8.1075900672e+00    0.2267367    0.1650867  55.46  0.001294837    2.525    0.604
        86  -9.1494    133.1208    215.8983   6.4707734243e+01   1.0291639081e+01    0.5426355     0.321565  75.82  0.001976834    3.709    0.730
        87  -8.7423     51.9733    217.6904   8.3263813819e+01   2.2073961423e+01     0.273163    0.1499657  63.37  0.001368958    1.828    0.453
        88  -8.6811    169.4487    216.1108   5.6744962777e+01   4.1544066945e+00    0.2894904    0.2232512 -78.94  0.001146537    2.004    0.501
        89  -8.5983    142.8846    216.2395   6.2571897836e+01   8.5858726933e+00    0.2387343    0.1931407  84.11 0.0007955295    1.612    0.380
        90  -8.2792    111.7981    217.1809   6.9736019022e+01   1.3525250933e+01    0.2365836    0.1322377  67.41 0.0009378714    2.794    0.642
        91  -8.2230     61.8245    217.0039   8.1024909436e+01   2.0954292515e+01     0.222935    0.1264745  74.10 0.0009284281    2.017    0.504
        92  -8.8698    232.2517    214.5961   4.4049434172e+01  -5.3324341303e+00    0.2175717    0.2049445 -71.05 0.0008129287    1.658    0.397
        93  -8.3819    154.3978    214.7346   5.9776649089e+01   6.9421246834e+00    0.2472664    0.1369966 -55.20 0.0008917748    2.122    0.529
        94  -9.3964    214.2389    211.6763   4.6869499468e+01  -2.2358175507e+00    0.4945542    0.3715542 -43.83  0.001897228    1.483    0.326
        95  -8.8892     93.1541    213.8011   7.3545795319e+01   1.7182912634e+01    0.3938431    0.1712378  53.22  0.001495721    2.586    0.613
        96  -9.3424     73.2182    211.6318   7.7857853816e+01   2.0597436489e+01    0.7284152    0.2777613  59.28  0.002336488    4.280    0.766
        97  -8.4550    185.6566    214.3076   5.3027166303e+01   1.8146611514e+00    0.2208079    0.1666907 -55.38 0.0008225272    1.654    0.395
        98  -9.1148    204.3552    210.8298   4.8633540601e+01  -5.6837928008e-01    0.2821722    0.2129045 -57.94 0.0007659152    1.829    0.453
        99  -8.7266    161.6146    212.0000   5.7735030556e+01   6.2516224125e+00    0.2378314     0.210827  83.70 0.0009891192    1.440    0.306
       100  -7.8316    106.4902    212.5137   7.0293368089e+01   1.5377454368e+01    0.1421406    0.1228511  60.79   0.00080847    1.101    0.092
       101  -8.1942    192.6480    210.5759   5.0931258974e+01   1.3445857189e+00    0.2082465    0.1671003 -64.16 0.0006508837    1.745    0.427
       102  -9.5302    175.4670    209.9355   5.4391783479e+01   4.3028092605e+00    0.3959154    0.2727906  67.70  0.001620242    2.479    0.597
       103  -8.7889    148.1533    210.5076   6.0458966503e+01   8.8421728870e+00    0.2911618    0.2198188  72.63  0.001343131    1.812    0.448
       104  -8.7896    116.0328    209.9584   6.7710421035e+01   1.4381199604e+01    0.3040955    0.2161301  83.58 0.0009134637    1.848    0.459
       105  -8.3856     85.4673    209.3961   7.4751902579e+01   1.9323830250e+01    0.3154983    0.1763729  69.05    0.0013463    2.379    0.580
       106  -9.2015    236.5860    208.0957   4.2101722531e+01  -4.9268836116e+00    0.2777617    0.2244843 -65.91  0.001353699    2.112    0.527
       107  -7.9764     46.2434    209.2566   8.3717055690e+01   2.4672234925e+01    0.2011196   0.09574712 -86.94 0.0008771315    2.408    0.585
       108  -9.1713    246.4947    207.0175   4.0180091988e+01  -6.1265282301e+00    0.2516141    0.1791671 -28.88 0.0005167235    1.223    0.182
       109  -8.3825    139.0026    207.9180   6.2097339081e+01   1.0940566954e+01    0.2248023    0.1687607  70.75 0.0008293124    1.717    0.417
       110  -8.0128    126.4221    208.2317   6.5037786925e+01   1.3017814164e+01    0.1852256    0.1371983 -73.12 0.0005213989    1.617    0.382
       111  -7.8876    156.4546    207.5165   5.8100504629e+01   8.0149686745e+00    0.1393576    0.1303669  34.32 0.0001441826    1.062    0.058
       112  -9.1667     99.3288    205.7442   7.1004219090e+01   1.8012175146e+01    0.4077161    0.2471257  85.38  0.001176158    2.466    0.595
       113  -7.9834     11.6033    206.7605   9.1025179503e+01   2.8961292436e+01    0.1703831   0.09392678  87.97 0.0009439608    1.593    0.372
       114  -9.0988    183.8092    203.8877   5.1544462740e+01   4.0279413670e+00     0.321071    0.2586022  76.98   0.00124398    1.907    0.476
       115  -8.5674    108.6638    205.1159   6.8708580022e+01   1.6650764313e+01    0.2382385    0.1803883  53.83 0.0007976115    1.281    0.219
       116  -8.1687     56.0400    205.0100   8.1059237360e+01   2.4421951252e+01    0.2273249    0.1354073  69.04  0.001123741    1.777    0.437
       117  -9.4208    194.7828    203.2746   4.9168120617e+01   2.3055353217e+00    0.3960115    0.2959473 -44.25  0.001441808    1.419    0.295
       118  -9.2099    192.3604    196.7177   4.8438423298e+01   3.9156958019e+00    0.4036817    0.2711347 -48.29 0.0009631682    1.613    0.380
       119  -9.7376    163.6764    202.7688   5.5668916481e+01   7.7068928010e+00    0.4399673    0.2998877  56.93  0.001133705    1.836    0.455
       120  -8.4949    131.2101    204.0296   6.3251180308e+01   1.3099272674e+01    0.2792759    0.1728267  60.98  0.001191019    2.095    0.523
       121  -9.4269    250.1545    201.8031   3.8610793466e+01  -5.8228075247e+00    0.3711147    0.1503418 -36.62  0.001161406    2.161    0.537
       122  -8.6348    211.1476    201.9112   4.5672373264e+01  -1.0274894569e-01    0.2491944    0.1784851 -51.66 0.0007889658    1.703    0.413
       123  -8.8368    243.3066    200.7544   3.9582814095e+01  -4.7173603354e+00    0.2681093    0.1730899 -45.53 0.0008455095    1.715    0.417
       124  -8.7581    140.3675    200.8858   6.0601264372e+01   1.2179071191e+01    0.3752317    0.2457196  70.84  0.001434969    2.407    0.585
       125  -8.3433     80.2921    201.4720   7.4939316053e+01   2.1897704494e+01    0.3562237    0.1465254  57.81  0.001205673    3.525    0.716
       126  -8.2039    221.8758    201.0316   4.3474030928e+01  -1.6221220065e+00    0.1955265    0.1494672 -61.14 0.0007537608    1.955    0.489
       127  -7.5121     73.2928    201.7017   7.6634509372e+01   2.2855439384e+01    0.1409451   0.09440678  67.69 0.0002831252    1.564    0.361
       128  -9.3393    149.6066    198.4794   5.8059100480e+01   1.1056630240e+01     0.428008    0.2980072  82.40   0.00115402    2.441    0.590
       129  -8.8467    123.9975    199.0338   6.4121662845e+01   1.5424789519e+01    0.3386518    0.2306722 -85.62  0.001406693    2.105    0.525
       130  -9.5217    113.0662    198.4124   6.6628000145e+01   1.7420599727e+01    0.4882459    0.2771622  67.00  0.001881217    2.767    0.639
       131  -9.1303    237.1301    198.2954   4.0202111099e+01  -3.4450393820e+00     0.279706    0.1591632 -41.82  0.001050332    1.709    0.415
       132  -9.0508    177.1428    198.7407   5.2008678656e+01   6.1501772131e+00    0.2307042    0.1893764 -53.54 0.0005968673    1.384    0.278
       133  -8.8966     88.6458    198.1466   7.2478799216e+01   2.1413104776e+01    0.4074426    0.2424208  83.87  0.001703241    2.408    0.585
       134  -8.4552    202.3261    197.6682   4.6605038029e+01   2.0722921834e+00    0.2388698    0.2069813  83.52 0.0009813017    1.734    0.423
       135  -8.9488     61.1756    196.7197   7.8912060484e+01   2.5684174840e+01    0.4263047    0.2153687  72.97  0.001695224    2.809    0.644
       136  -8.9499    215.9635    195.4599   4.3537214504e+01   2.5168488314e-01    0.3247656    0.2219224 -61.32  0.001151822    2.291    0.563
       137  -7.9184     29.9865    197.7659   8.6303112035e+01   2.9166638242e+01    0.1552721    0.1013715  35.34 0.0007194251    1.614    0.380
       138  -9.5426    245.9089    193.5703   3.7805347638e+01  -3.9466268356e+00    0.3565601    0.2762502 -73.30  0.001503461    2.509    0.601
       139  -7.8054     53.6923    196.3548   8.0652666929e+01   2.6738535527e+01    0.1450499   0.08882398  69.11 0.0007042402    1.721    0.419
       140  -7.7652     36.3037    196.6743   8.4756976945e+01   2.8731806554e+01    0.1375815   0.08262221  67.95 0.0007032746    1.643    0.391
       141  -8.8659    224.4945    193.6300   4.1596244466e+01  -7.7455678485e-01     0.323186    0.1189518 -44.11 0.0009466559    2.707    0.631
       142  -7.5984    209.2640    195.6149   4.4852794511e+01   1.3024874100e+00    0.1265935    0.1073581 -69.49 0.0006981505    1.691    0.409
       143  -8.9522    185.1193    194.6361   4.9547411991e+01   5.5533232315e+00    0.2552442    0.2126948 -71.51 0.0005661384    1.624    0.384
       144  -8.9512     44.2327    193.4453   8.2576875154e+01   2.8581540366e+01    0.4801178    0.2053971  64.04  0.001830712    3.159    0.683
       145  -8.1401    230.9854    193.9792   4.0483695921e+01  -1.8272934923e+00    0.1799742    0.1591566 -62.83 0.0005894008    1.588    0.370
       146  -8.8352    160.6420    193.8497   5.4719471565e+01   1.0046472133e+01    0.2615498    0.2144424  88.48 0.0008786175    1.660    0.398
       147  -8.7580     76.7933    193.7635   7.4755329950e+01   2.4212547607e+01    0.2572057    0.1817636 -85.23 0.0005832655    1.492    0.330
       148  -8.3494    205.1992    191.4080   4.4842909033e+01   2.7278613832e+00    0.2201747    0.1522247 -43.71 0.0009698548    1.466    0.318
       149  -8.4608    198.9282    191.5796   4.6123834369e+01   3.7533458193e+00    0.2629802    0.1808668 -58.11  0.000885636    1.916    0.478
       150  -8.3877    172.4641    191.5181   5.1664435231e+01   8.3985127849e+00    0.2375403    0.1384571 -57.40 0.0006703233    2.166    0.538
       151  -8.1207    132.9873    195.9251   6.1470385170e+01   1.4542628012e+01    0.2246342     0.171897  73.54 0.0005753433    1.640    0.390
       152  -7.9813    179.1599    191.2347   5.0163036844e+01   7.2603828523e+00    0.1860209    0.1700157 -77.06 0.0005364782    1.360    0.265
       153  -9.2163    139.4204    190.3308   5.8963077845e+01   1.4619815025e+01     0.366045    0.2715892  83.76  0.001314094    1.909    0.476
       154 -10.2243     92.6966    188.8797   7.0120366159e+01   2.2954243640e+01     1.035141    0.2832955  46.31  0.003104026    3.943    0.746
       155  -7.6479     21.5186    191.5182   8.7679553422e+01   3.1489704094e+01    0.1292839    0.1015049  78.56 0.0008089291    1.077    0.072
       156  -9.0158    216.5729    187.8673   4.1965357597e+01   1.4856439892e+00    0.2965326    0.2164206 -53.11 0.0007975156    1.650    0.394
       157  -8.2912    148.6281    189.1063   5.6582283539e+01   1.3217057297e+01    0.2261425    0.1829254 -76.79  0.001139539    1.538    0.350
       158  -8.8979    129.2915    188.5776   6.1065608727e+01   1.6824265097e+01    0.3117186    0.2304773  76.92 0.0008556245    1.783    0.439
       159  -8.2165    237.2380    188.2766   3.8295189156e+01  -1.8204807852e+00    0.1660018    0.1396226 -44.25 0.0006140759    1.345    0.257
       160  -8.9935    191.5741    187.2134   4.6775057556e+01   5.8465664596e+00    0.3498686    0.2567814 -78.10  0.001489909    2.368    0.578
       161  -9.2437    155.9164    187.2263   5.4548814729e+01   1.2286036646e+01    0.3798789    0.2352806 -61.43  0.001129394    2.031    0.508
       162  -9.5358    120.5501    185.7321   6.2690797583e+01   1.9019128494e+01    0.5191492    0.2777882 -68.59   0.00194762    2.560    0.609
       163  -9.7499     53.6675    186.9436   7.9561692104e+01   2.8985642065e+01    0.4679685    0.2816555  44.29   0.00169008    1.608    0.378
       164  -8.4837     34.1555    187.6057   8.4365236222e+01   3.1109617815e+01    0.3162791    0.1547032  76.11  0.001360646    2.499    0.600
       165  -8.1469    230.4939    187.0041   3.9241359127e+01  -5.7820794597e-01    0.2015017    0.1168198 -39.13 0.0008532241    1.578    0.366
       166  -8.6332    164.8891    186.4968   5.2377934956e+01   1.0793827615e+01    0.2606945    0.2055292 -67.05 0.0007769654    1.571    0.363
       167  -9.1845    109.5202    185.9107   6.5449759972e+01   2.0887791877e+01    0.3681665     0.248495  73.46  0.001140042    1.965    0.491
       168  -9.1074    249.3252    185.2828   3.5675715218e+01  -3.1059637541e+00    0.2695453    0.1878104 -46.77  0.000847391    1.564    0.361
       169  -8.5240    202.9257    184.5870   4.3964016751e+01   4.3679022708e+00    0.2433986    0.1902899 -56.16 0.0008241357    1.539    0.350
       170  -8.7529    182.9926    184.5052   4.8039915012e+01   7.9012265512e+00    0.2632192     0.198143 -60.02 0.0007326122    1.626    0.385
       171  -8.8455     66.6030    184.3971   7.6015481565e+01   2.7899298261e+01    0.3632479     0.195288  64.40  0.001030211    2.332    0.571
       172  -8.4541    224.1305    183.6204   3.9735713456e+01   1.0094275167e+00    0.2228003    0.1661301 -42.63 0.0005329938    1.341    0.254
       173  -8.6220    210.0958    183.9361   4.2433618894e+01   3.2659963356e+00    0.2336945     0.180402 -36.60 0.0004849426    1.229    0.186
       174  -8.9657    174.3215    183.4088   4.9691059334e+01   9.6980844625e+00    0.3026416    0.2400023 -66.31 0.0007558517    1.582    0.368
       175  -8.3380    243.3105    183.6297   3.6365916978e+01  -1.9584461125e+00    0.1219003   0.09913152 -62.81 0.0007034973    1.770    0.435
       176  -9.0798     44.7053    182.6293   8.1264524218e+01   3.1117348387e+01    0.3531545    0.1693612  53.49  0.001106173    2.188    0.543
       177  -7.7263      1.5359    183.4605   9.1569043100e+01   3.5140824834e+01    0.1232424    0.0950122  83.01  0.000338867    1.050    0.048
       178  -7.9054    235.3548    181.1862   3.7259711026e+01  -3.4329000343e-01    0.1857052    0.1095092 -46.10 0.0005251908    1.732    0.423
       179  -9.1924    147.6098    180.3757   5.5167230816e+01   1.5299705448e+01    0.3625391    0.2667166  73.03  0.001136809    1.882    0.469
       180  -9.2331     25.7627    179.1396   8.5536941599e+01   3.4006906338e+01     0.557485      0.22496  80.72  0.001927604    3.983    0.749
       181  -8.6553    137.8101    179.3708   5.7313324862e+01   1.7344933112e+01    0.2850389    0.2301186  82.99   0.00138545    1.548    0.354
       182  -9.3891    191.2563    177.9595   4.5005045460e+01   7.6943454955e+00    0.2881138    0.2461677 -61.96 0.0004009325    1.398    0.285
       183  -8.5272    250.5269    172.5500   3.3045417182e+01  -1.2051372078e+00    0.2630057    0.1503502 -35.60 0.0004652644    1.487    0.328
       184  -9.1135    249.0265    177.2014   3.4184234866e+01  -1.7477889884e+00    0.2595612    0.2298214 -51.45 0.0006872645    1.388    0.279
       185  -8.3320    247.2959    173.6763   3.3787124424e+01  -9.0729258231e-01    0.2238106     0.152791 -23.27 0.0006169946    1.368    0.269
       186  -8.7507    217.5807    177.1290   3.9664914626e+01   3.2407082877e+00    0.2776898    0.2148378 -61.81 0.0009031261    1.715    0.417
       187  -8.7670    205.1180    177.2160   4.2065518991e+01   5.3655540388e+00    0.2485742    0.1789146 -64.83 0.0007124176    1.993    0.498
       188  -8.1665    169.2637    178.2449   4.9781306879e+01   1.1697621209e+01    0.1979367    0.1750727 -87.18 0.0007262908    1.401    0.286
       189  -8.6867    129.4071    177.3524   5.8981463759e+01   1.9352273014e+01    0.3270604     0.220063  78.65 0.0009559538    2.333    0.571
       190  -8.2006     37.3202    178.6416   8.2644154016e+01   3.2922498525e+01    0.2034824   0.08584666  52.65 0.0006618937    2.561    0.610
       191  -8.2842     35.2440    175.2372   8.2782926785e+01   3.3976140251e+01    0.2759055    0.1471879  79.53  0.001229271    2.206    0.547
       192  -8.4565    231.0908    176.7345   3.7136829512e+01   1.0922045859e+00    0.2292356    0.1598972 -42.93 0.0005848548    1.384    0.277
       193  -9.0942    183.1066    176.0382   4.6324315682e+01   9.5685120608e+00    0.3089778    0.2290453 -56.67 0.0005673065    1.548    0.354
       194  -9.0146     89.1451    176.6172   6.9084295049e+01   2.6461056112e+01    0.3100449    0.2146347  68.79 0.0008920041    1.682    0.406
       195  -9.3337     58.3447    175.0278   7.6852116724e+01   3.1294714013e+01     0.483381    0.2450423  72.19  0.001809272    3.047    0.672
       196  -9.1174     55.9785    170.7216   7.6878695270e+01   3.2663211777e+01    0.7270937    0.3403124  73.57   0.00230583    4.323    0.769
       197  -8.3010    211.5384    176.1461   4.0608452389e+01   4.4491329739e+00    0.2067088    0.1271445 -40.75  0.001007039    1.528    0.345
       198  -9.2476    158.6887    174.5645   5.1436233218e+01   1.4475261128e+01    0.4471765    0.3160939  85.29  0.001821325    2.404    0.584
       199  -9.2524    104.2133    174.4046   6.4806987667e+01   2.4519785671e+01    0.5792522     0.286218  60.20  0.001735207    3.222    0.690
       200  -8.2359     12.7060    176.3295   8.8417525854e+01   3.5889121774e+01    0.2102126    0.1160337  66.70 0.0009200149    1.823    0.452
       201 -10.5394     75.9453    170.8774   7.1623651552e+01   2.9885846751e+01     1.108003    0.4629227 -77.65  0.003191649    4.663    0.786
       202  -8.6707     74.3819    159.7985   7.0236278488e+01   3.2872635744e+01     0.269102    0.1934295 -12.57  0.001231666    2.067    0.516
       203  -8.4819    224.4829    174.1227   3.7798445200e+01   2.6273668569e+00    0.2006005    0.1812328 -54.16 0.0005844918    1.310    0.236
       204  -9.4622    175.6357    172.0908   4.7128114762e+01   1.1773608258e+01    0.3448901    0.2572316 -46.83 0.0009593077    1.351    0.260
       205  -8.3328    143.1429    172.3367   5.4654607173e+01   1.7925899205e+01    0.2818552    0.1992602 -82.55 0.0009299811    2.107    0.525
       206  -8.8635    134.8486    171.5913   5.6528299751e+01   1.9663077533e+01     0.282481    0.2036166 -74.62  0.000901203    1.773    0.436
       207  -9.5922    121.3380    170.3602   5.9669622795e+01   2.2455957799e+01    0.4237162    0.2848575 -80.05  0.001056881    2.072    0.517
       208  -8.9232     45.2613    170.9689   7.9713352757e+01   3.3906205775e+01    0.4353456    0.2181934  69.76  0.001639469    2.759    0.638
       209  -8.3636    205.9315    170.2620   4.0495450409e+01   6.5338072469e+00    0.2447619    0.1880989 -62.00 0.0006089938    1.647    0.393
       210  -8.9228    230.6376    170.0069   3.5882775680e+01   2.3411644208e+00    0.1973349    0.1558375 -32.08 0.0005089975    1.117    0.105
       211  -8.4341    198.5308    170.0063   4.1903487234e+01   7.9200734239e+00    0.2359499    0.1943629 -77.56 0.0007312994    1.676    0.403
       212  -8.7124    149.6826    169.3518   5.2486641331e+01   1.7341518816e+01    0.3024189    0.2378857  79.41 0.0008310614    1.679    0.404
       213  -8.2905    244.4615    169.0418   3.3348364590e+01   3.0246019777e-01    0.1995428    0.1115161 -39.64 0.0005796546    1.556    0.357
       214  -8.1881    237.2997    169.0965   3.4554188984e+01   1.4209731883e+00    0.1950803    0.1507479 -35.30 0.0007556395    1.143    0.125
       215  -9.1022    166.8149    168.3795   4.8317862780e+01   1.4241424712e+01    0.3387431    0.2510474  65.52  0.001104398    1.757    0.431
       216  -8.2738     88.9652    168.9183   6.7843986194e+01   2.8373499491e+01    0.2429921     0.169348  70.64  0.001080142    1.718    0.418
       217  -8.5953    218.8238    168.1261   3.7621718541e+01   4.6662004627e+00    0.2003516    0.1792649 -49.73 0.0004910455    1.231    0.188
       218  -7.9590    211.4327    167.9444   3.8964085088e+01   5.9916345704e+00    0.1920924    0.1175012 -61.19 0.0008058912    2.471    0.595
       219  -8.4474    111.6125    167.2776   6.1581355614e+01   2.4943601556e+01    0.2922882    0.2147935  75.25 0.0009189191    1.712    0.416
       220  -8.9593    191.8973    166.4955   4.2520225969e+01   9.8371737029e+00    0.3040097    0.1975078 -45.84 0.0006137635    1.516    0.340
       221  -8.7855    184.9972    166.4449   4.3945630265e+01   1.1150991572e+01    0.2780238    0.1975119 -57.96 0.0007380974    1.641    0.391
       222  -9.5046     20.2190    166.5163   8.5637986616e+01   3.7586425093e+01    0.3260747    0.1908277  36.76   0.00136065    1.808    0.447
       223  -9.5765    137.4952    164.6908   5.4487694315e+01   2.0742255416e+01     0.721179    0.3109576  54.52  0.002242511    3.470    0.712
       224  -9.9646     94.9844    162.6178   6.5114469846e+01   2.8943950789e+01     0.842807    0.4518974  75.29  0.002409354    4.836    0.793
       225  -8.2082    234.1019    164.8538   3.4252357974e+01   2.6775831053e+00    0.1972352    0.1687509 -47.26 0.0005369021    1.241    0.194
       226  -8.7270     35.9751    164.4939   8.1335153221e+01   3.6538495923e+01    0.3435171    0.1495996  48.60  0.001470484    2.450    0.592
       227  -8.3731     32.2493    162.2600   8.2046793963e+01   3.7476970513e+01    0.2505913    0.1636223  76.71  0.000785829    1.606    0.377
       228  -8.0752    240.0118    163.7688   3.3040696006e+01   1.9054011366e+00    0.1879475    0.1333213 -53.50  0.000544601    1.607    0.378
       229  -8.7648    212.8706    163.5693   3.7791546175e+01   6.5548384393e+00    0.2641032    0.1887798 -47.22 0.0006258553    1.396    0.283
       230  -8.6619    159.3392    163.8346   4.9074314824e+01   1.6677436133e+01    0.2754211    0.2268793 -82.78 0.0008767946    1.537    0.349
       231  -9.2344    246.1973    162.6959   3.1817683291e+01   1.1058534895e+00    0.2195917     0.161907 -32.24 0.0007252789    1.156    0.135
       232  -8.5235    204.6488    162.5201   3.9141528732e+01   8.2443178853e+00     0.267587    0.1624931 -44.30 0.0006234896    1.573    0.364
       233  -8.9291     61.1600    160.5948   7.4003910417e+01   3.4517081805e+01    0.3889111    0.2278079  72.52  0.001636831    2.312    0.568
       234  -8.9530      3.6015    162.2884   8.9403686839e+01   3.9969349767e+01    0.3986598    0.1569243  55.98    0.0016809    2.880    0.653
       235  -8.7636    151.8600    160.9673   5.0223048377e+01   1.8782193103e+01    0.3122648    0.2182565 -71.70 0.0009274376    1.941    0.485
       236  -9.1202    177.3584    160.4038   4.4299864540e+01   1.3868459831e+01    0.2954096    0.2476367 -75.93 0.0007471541    1.482    0.325
       237  -8.6859    227.4764    158.9947   3.4207252276e+01   4.8330904184e+00    0.3204173    0.1924518 -52.01  0.001184632    1.840    0.457
       238  -9.5941    250.2215    157.5491   3.0164245226e+01   1.3448582796e+00    0.3284129    0.1581632 -40.63 0.0009206433    1.765    0.434
       239  -8.8485    246.7324    155.3544   3.0276189857e+01   2.2702144759e+00    0.1740499      0.16502   1.38 0.0004950333    1.171    0.146
       240  -8.7573    128.0346    158.9576   5.5683168533e+01   2.3888143200e+01     0.301189    0.2767126  51.35  0.001037839    1.092    0.084
       241  -9.5769    105.8137    157.8618   6.1293048132e+01   2.8250789133e+01    0.4827236    0.3164968  74.63  0.001232857    2.253    0.556
       242  -8.6146    196.3796    157.5167   3.9713030609e+01   1.0769363615e+01    0.2593718    0.2155423 -44.41  0.000648086    1.172    0.147
       243  -8.5002    188.0700    157.6685   4.1439019092e+01   1.2339316695e+01    0.2518584    0.1946405 -52.75 0.0006874618    1.355    0.262
       244  -9.2709    167.4922    157.1681   4.5783887506e+01   1.6505096713e+01    0.3612747     0.277366 -76.94  0.001021324    1.752    0.429
       245  -8.6131    218.1197    156.4329   3.5339830159e+01   6.9456458692e+00    0.2786754    0.1668504 -53.90 0.0008268232    1.924    0.480
       246  -9.0229    157.4994    155.9038   4.7803684664e+01   1.8780810737e+01    0.2852814    0.2374038  80.10 0.0007423855    1.489    0.328
       247  -9.1581    119.6131    155.1219   5.7068025506e+01   2.6392955538e+01    0.3946623    0.2719066  89.53  0.001412059    2.187    0.543
       248  -9.1994     81.6222    154.6234   6.7317088874e+01   3.3075465039e+01     0.463957    0.2820525  71.54  0.001290568    2.427    0.588
       249  -8.9886     49.8739    155.1369   7.6297420104e+01   3.7308481993e+01     0.420608    0.2183814  60.86  0.001653117    2.521    0.603
       250  -9.7067    242.2288    154.3098   3.0784294834e+01   3.1803432440e+00    0.3587449    0.2563126  84.51  0.001740606    2.680    0.627
       251  -8.1973    204.6792    155.2093   3.7591456984e+01   9.6479803545e+00    0.2194968    0.1668806 -51.72 0.0005635888    1.366    0.268
       252  -9.0051    144.5445    154.5341   5.0607015837e+01   2.1681621667e+01    0.3010399    0.2468607  84.70 0.0009787042    1.516    0.340
       253  -8.1457    232.9551    153.8073   3.2206787392e+01   4.8223916858e+00      0.20385    0.1595332 -89.30  0.000869641    1.993    0.498
       254  -9.5832    132.7480    152.7572   5.3167447821e+01   2.4426029508e+01    0.4806312    0.3549124  72.36  0.001327985    1.771    0.435
       255  -9.0682    133.3296    148.3586   5.2058513265e+01   2.5334806455e+01    0.4312738    0.2324338 -37.30  0.001643074    2.147    0.534
       256  -9.1313     67.7667    153.3273   7.0982432764e+01   3.5442956432e+01    0.4140481      0.24871  72.84  0.001505876    2.365    0.577
       257 -10.4615    148.8262    145.1392   4.7477769623e+01   2.2936952480e+01    0.6260597    0.4391057 -88.66  0.001703769    2.295    0.564
       258  -8.4492     20.0509    152.5483   8.4160663312e+01   4.1019540938e+01    0.1706126    0.1280748  30.09 0.0006617141    1.536    0.349
       259  -8.3086      9.0163    153.0000   8.7148690503e+01   4.1802347149e+01    0.1759339   0.07303617  22.04 0.0007959499    2.898    0.655
       260  -9.0423    243.3644    150.0232   2.9738999221e+01   3.7351400715e+00    0.2872277    0.1369737 -45.13  0.001232683    1.903    0.475
       261  -8.1350    182.4783    151.0042   4.1159700811e+01   1.4803971721e+01    0.2266561    0.1424227 -46.14 0.0007663047    1.551    0.355
       262  -8.2914    162.7937    150.6759   4.5426651493e+01   1.8854239833e+01    0.2889992    0.2012476 -73.22 0.0008757605    2.063    0.515
       263  -8.5404     98.3064    150.4369   6.1863012671e+01   3.1381397296e+01    0.3194773    0.2093912  85.56 0.0009624727    2.347    0.574
       264  -9.6322     29.4811    150.4563   8.1323375582e+01   4.0676533038e+01    0.4106741    0.2040213  67.78   0.00167649    2.786    0.641
       265  -9.3568    248.8497    149.0917   2.8696567973e+01   2.9972525030e+00    0.3061121    0.1738121 -38.97  0.000783034    1.490    0.329
       266  -8.2341    212.9548    149.6837   3.4857282265e+01   9.1550923076e+00     0.182793    0.1796221   9.28  0.000368168    1.108    0.097
       267  -8.4595      3.0000    149.9823   8.8429914769e+01   4.2965584138e+01    0.2060405   0.05882161 -74.11  0.000459295    2.847    0.649
       268  -8.2547    198.8945    148.9304   3.7361404977e+01   1.1979844742e+01     0.216644    0.1764286 -77.29 0.0005331126    1.590    0.371
       269  -8.8160     91.3044    148.6667   6.3465676239e+01   3.3004296228e+01    0.3134319     0.227441  60.84 0.0007180637    1.568    0.362
       270  -9.4221     88.4958    144.9900   6.3528407528e+01   3.4379383347e+01    0.4280707    0.2664629 -83.15  0.001421732    2.342    0.573
       271  -9.4939     40.0329    148.0727   7.8030443787e+01   4.0197524450e+01    0.4701514    0.2420341  62.66  0.001947745    2.634    0.620
       272  -9.2366    233.6925    147.5458   3.0796198637e+01   5.8104346115e+00    0.2617215    0.1634838 -39.69 0.0006712008    1.402    0.287
       273 -10.2603     54.8800    144.4576   7.3181348544e+01   3.9381098876e+01    0.8305633    0.4157082  69.53  0.002764827    3.934    0.746
       274  -9.9327     55.8359    135.5171   7.1337941160e+01   4.1504042523e+01    0.5601543    0.3104817  -8.00  0.001937137    3.992    0.749
       275  -8.4366    223.1690    146.8521   3.2432961831e+01   7.8044872056e+00    0.2021834    0.1755985 -52.46 0.0003761035    1.187    0.158
       276 -10.1219    106.6146    144.3734   5.8300927319e+01   3.1391408723e+01    0.7093144    0.4188615  71.30  0.002432116    3.170    0.685
       277  -8.7556     77.9257    146.6171   6.6877404795e+01   3.5644493414e+01    0.3001837    0.1936705 -81.08  0.001088916    1.925    0.481
       278  -9.2572     13.5482    146.2630   8.5212359721e+01   4.3095550900e+01    0.3075277    0.1920927  61.30  0.001225175    1.742    0.426
       279  -8.8493    189.4323    149.8753   3.9463979730e+01   1.3649855439e+01    0.2630647    0.2231167 -73.50  0.000728589    1.417    0.294
       280  -8.2188    175.7948    146.0999   4.1500125539e+01   1.7176440509e+01    0.2322721    0.2025324 -81.45 0.0008155453    1.352    0.260
       281  -9.8379    138.9751    144.8191   4.9837324341e+01   2.5019819686e+01    0.5143867    0.3373494 -70.94  0.001742605    2.122    0.529
       282  -8.6735    139.7034    136.6622   4.7777326395e+01   2.6732860658e+01     0.355262    0.2278379 -15.95  0.001295935    2.686    0.628
       283  -8.8408    240.3028    145.0011   2.9203726256e+01   5.1228793630e+00    0.1960503    0.1467286 -39.50 0.0004443126    1.155    0.134
       284  -9.7978    124.8649    142.4715   5.2944066497e+01   2.8385347509e+01    0.5392265    0.3486017 -77.29   0.00153283    2.391    0.582
       285  -8.9981    165.5136    143.9576   4.3295159863e+01   1.9749354745e+01     0.313963    0.2549284  66.86 0.0009922192    1.438    0.305
       286  -7.7435    194.2932    143.6642   3.7111080484e+01   1.3930494356e+01    0.1469112     0.115605 -74.90 0.0006587818    1.643    0.391
       287 -10.3974     69.5183    141.0941   6.8281993042e+01   3.8267168867e+01    0.4868903     0.358431  75.41  0.001958254    1.636    0.389
       288  -9.3446    243.4109    140.8982   2.7879522609e+01   5.3091029963e+00    0.3860765    0.1135525 -39.29  0.001388191    2.965    0.663
       289  -7.3071    230.6605    142.2977   3.0206416394e+01   7.2841567489e+00    0.1333464    0.1044516 -71.99 0.0007033249    1.661    0.398
       290  -8.8181      2.8945    141.7859   8.7642675577e+01   4.4948325456e+01    0.2398775    0.1314753  75.00  0.000709363    2.011    0.503
       291  -8.3424    181.9168    141.2011   3.9087068102e+01   1.6939424034e+01    0.2297709    0.2003929 -75.09  0.000590954    1.313    0.238
       292  -8.0561    250.4841    140.5449   2.6736694035e+01   4.1858106875e+00    0.1309407    0.1103227 -38.90 0.0001073164    1.030    0.029
       293  -9.7706     23.4927    138.0267   8.1381180754e+01   4.4303946751e+01    0.5022962    0.2502021  65.27  0.002111745    2.828    0.646
       294  -8.6014     11.4985    140.0800   8.5072288925e+01   4.4761531970e+01    0.1909016    0.1058879 -71.02 0.0003128416    1.482    0.325
       295  -7.4100    218.4826    138.4728   3.1462524880e+01   1.0221785865e+01    0.1409231    0.1270649 -42.63 0.0001682064    1.040    0.039
       296  -8.4582    207.6450    137.7157   3.3239347694e+01   1.2450678268e+01    0.2769229    0.1565902 -58.26 0.0008857055    2.273    0.560
       297  -8.6930    197.5958    137.3733   3.5059913196e+01   1.4514995352e+01    0.2821981    0.2029721 -63.42 0.0009033699    1.670    0.401
       298  -8.7480    172.2419    137.8763   4.0400807125e+01   1.9642314990e+01    0.2808104    0.2242338 -72.58 0.0005986301    1.512    0.339
       299  -8.6501    149.7035    136.5092   4.5273550400e+01   2.4682363803e+01    0.5212697    0.3127266 -10.61  0.001538216    4.335    0.769
       300  -8.5664    107.0990    137.7962   5.6727788395e+01   3.2894588565e+01    0.5132425    0.2073151  25.79  0.001322599    5.124    0.805
       301 -10.3191     83.4312    133.0790   6.2539354521e+01   3.8148525989e+01    0.6319767    0.3518797 -62.95  0.001438852    1.890    0.471
       302  -9.0070    248.6865    134.8893   2.5861836394e+01   5.4502032417e+00      0.31565    0.1681216 -39.80 0.0008574994    1.586    0.370
       303  -8.7386    250.7713    129.8720   2.4543058891e+01   5.9518937119e+00    0.3642455    0.1017085 -38.94  0.001298743    3.105    0.678
       304  -8.4149    162.4752    136.0474   4.2160899928e+01   2.2089820771e+01    0.2342152     0.149184 -46.73 0.0006358138    1.542    0.352
       305  -9.0876    247.1270    143.6460   2.7866683676e+01   4.2109581593e+00    0.2490872    0.1631171 -35.12 0.0004971235    1.325    0.245
       306  -9.1606     39.1616    135.8263   7.6420983510e+01   4.3351582255e+01    0.2799509    0.2136891  72.50 0.0009000154    1.449    0.310
       307  -8.0373    187.8115    135.0707   3.6475039513e+01   1.6973148048e+01    0.2088239    0.1104183 -43.66 0.0006764627    1.798    0.444
       308  -8.2273     95.4282    135.2919   5.9495503418e+01   3.5596485069e+01    0.2605543    0.1780888  58.11  0.001151947    1.727    0.421
       309  -9.7260     70.4370    133.8618   6.6602572923e+01   3.9940725679e+01    0.5029705    0.2553451  14.86  0.001761404    3.392    0.705
       310  -9.7007     73.2337    129.2477   6.4806604301e+01   4.0673246877e+01    0.3851976    0.2753449 -84.92  0.001092406    1.743    0.426
       311  -8.1048    237.7416    133.7150   2.7278224176e+01   7.5504588441e+00    0.2214793   0.09381617 -49.08 0.0008907345    2.376    0.579
       312  -7.9044    231.3818    133.7997   2.8302621992e+01   8.6801194972e+00    0.1852871    0.1172936 -33.08 0.0003195324    1.502    0.334
       313  -8.6746    179.3623    133.8041   3.7927990277e+01   1.8994894459e+01    0.2811697    0.2145003 -66.26 0.0008612667    1.542    0.351
       314  -8.8380    112.7749    133.1244   5.4082353196e+01   3.2945468890e+01    0.3486307    0.2623294  81.70 0.0009533749    1.785    0.440
       315 -10.2266    132.3738    130.7445   4.8248723556e+01   2.9594748330e+01    0.7219893    0.4681278 -69.54  0.001947106    2.126    0.530
       316  -9.1222    143.0962    131.5475   4.5716401801e+01   2.7177864647e+01    0.3288633    0.2553347  81.45 0.0007858022    1.683    0.406
       317 -10.2056     13.1275    128.0154   8.3101865274e+01   4.7583048511e+01      0.81722    0.3407498 -79.13  0.003335326    2.456    0.593
       318  -8.4018    246.9411    129.7425   2.5071136284e+01   6.6292412689e+00    0.2406383    0.1427415 -50.54 0.0007139901    1.609    0.378
       319  -8.0693    204.5277    130.0031   3.2097753555e+01   1.4550636272e+01    0.2258244    0.1335023 -43.14 0.0007027228    1.565    0.361
       320  -8.1234    192.8009    129.9910   3.4318561787e+01   1.6954226882e+01    0.2357583    0.1586816 -63.42 0.0004483281    1.842    0.457
       321  -9.3106    168.2271    129.2565   3.9262823926e+01   2.2309840442e+01    0.3567534    0.2525819 -64.92 0.0006983039    1.712    0.416
       322  -9.7106    152.8870    128.5184   4.2605652314e+01   2.5764650818e+01    0.5439988    0.2544761 -51.84  0.001651559    2.301    0.565
       323 -10.0359     99.3710    127.7294   5.6641246704e+01   3.6728228990e+01    0.6169924    0.4060599 -89.31  0.001747928    2.574    0.611
       324  -7.8458    234.6749    129.6952   2.6915380727e+01   8.8116924302e+00    0.1325722    0.1031257  -5.28 0.0003298453    1.644    0.392
       325  -8.1173    211.5422    128.8236   3.0570802910e+01   1.3372096438e+01    0.2082538    0.1232306 -52.48 0.0008989344    1.745    0.427
       326 -10.6912     45.4693    123.8834   7.2415364716e+01   4.5631335786e+01     1.137382    0.5943112  76.22  0.003753693    4.349    0.770
       327 -10.0236     34.0078    128.7363   7.6848003739e+01   4.5634799113e+01    0.2616997    0.2181994 -53.46 0.0002850654    1.108    0.098
       328 -10.3894     28.6660    122.3970   7.7482842474e+01   4.7696505963e+01    0.6728441    0.3536788  74.07  0.002663803    3.218    0.689
       329 -10.3877     60.5400    125.2251   6.7913336483e+01   4.3453908427e+01    0.7189869    0.4277528  76.42  0.002705119    2.968    0.663
       330 -10.0090    117.9401    125.0003   5.0720531352e+01   3.3843994777e+01    0.5803665     0.415644  87.67  0.001552985    2.105    0.525
       331  -8.9406    179.2802    124.5069   3.5762379960e+01   2.0914327061e+01    0.3035028    0.2416601 -71.70 0.0006767592    1.472    0.321
       332  -8.0331    188.4930    123.8960   3.3752472723e+01   1.9066742605e+01    0.2237188    0.1405305 -44.22 0.0004623397    1.511    0.338
       333  -8.7012     84.2719    122.1571   5.9860887778e+01   4.0674945880e+01    0.3519221    0.2522147  13.04  0.001239743    1.764    0.433
       334  -7.9634    202.8766    121.8129   3.0545025930e+01   1.6455073796e+01    0.1953507    0.1648771 -70.44 0.0004610831    1.292    0.226
       335  -7.9351    195.1789    121.9663   3.2008881114e+01   1.8031417368e+01    0.2391975    0.1564315 -63.87   0.00046173    1.920    0.479
       336  -8.6954    171.9069    121.3177   3.6554105345e+01   2.3163045555e+01    0.2499379    0.2048863 -58.07 0.0005120267    1.254    0.202
       337  -9.4032    158.5651    121.3191   3.9519612077e+01   2.6079991590e+01    0.3527742    0.2717155 -83.18 0.0009689126    1.697    0.411
       338  -9.5238     71.2990    119.7675   6.3357068932e+01   4.3280094401e+01    0.3891179     0.258425 -89.45  0.001455743    2.276    0.561
       339  -9.8772    141.6224    118.1586   4.2788886977e+01   3.0448705241e+01    0.5411436    0.3209631 -60.66  0.001174046    2.117    0.528
       340  -9.8297    131.1112    118.6557   4.5600723536e+01   3.2584425610e+01    0.5327483    0.3582502  86.03   0.00165852    2.625    0.619
       341 -10.5270      2.8343    115.3111   8.4575256206e+01   5.1307259253e+01     0.814262    0.2925669 -75.08  0.003436854    2.538    0.606
       342  -7.8469    231.5483    117.4963   2.4809041699e+01   1.1549719573e+01    0.1386983    0.1180856 -53.35 0.0004067169    1.088    0.081
       343  -8.1910    185.5355    115.9614   3.2458489001e+01   2.1267697360e+01    0.2262445    0.1412885 -43.05 0.0004234385    1.527    0.345
       344  -9.9521    109.5353    114.1565   5.0376995151e+01   3.7994712904e+01    0.5365725    0.3697296 -80.90  0.001452289    2.252    0.556
       345  -8.2290    192.9024    115.1133   3.0836691401e+01   1.9841097349e+01     0.224655    0.1882775 -66.58 0.0004919678    1.256    0.204
       346 -10.0685     92.7439    112.5989   5.4960821310e+01   4.1490456883e+01    0.5308282    0.3333055 -66.29  0.001382123    1.987    0.497
       347  -9.8561     79.2141    112.5908   5.9176825999e+01   4.3778979214e+01    0.5254368    0.3637396  85.22  0.001839256    2.297    0.565
       348  -8.2477    250.2719    114.6183   2.1514483884e+01   8.6133600562e+00     0.157801    0.1232597  40.68 0.0009369291    1.581    0.368
       349  -8.0406    167.3944    114.1529   3.5771499039e+01   2.5620453372e+01    0.2215022    0.1385852 -53.32 0.0007146532    1.684    0.406
       350  -9.6551    121.8573    112.1798   4.6413965900e+01   3.5956040144e+01    0.3410356    0.2775275 -62.72 0.0005520324    1.332    0.249
       351  -8.6490    174.8509    111.6343   3.3566772614e+01   2.4470568470e+01     0.300788    0.1861642 -58.20  0.000734223    1.865    0.464
       352  -8.9560    159.0421    111.2278   3.6887912316e+01   2.8078078510e+01    0.4021922    0.1992581 -47.96  0.001502532    2.039    0.510
       353  -9.8246    133.6316    109.0639   4.2472589910e+01   3.4140576817e+01    0.5644724    0.3050215 -51.39  0.001569421    1.954    0.488
       354 -10.1189     14.3226    111.2813   8.0314535019e+01   5.1535160395e+01    0.3671333    0.2133605  56.01  0.001562478    2.237    0.553
       355 -10.1009     66.3717    109.5293   6.2599259794e+01   4.6450786908e+01     0.567606    0.2904111 -62.30  0.001984402    2.112    0.526
       356  -9.9090    248.4587    107.9165   2.0388085737e+01   1.0057475940e+01    0.3122303     0.235318 -47.65  0.001864574    1.120    0.107
       357  -8.0938    189.4340    107.9796   2.9792735269e+01   2.1959405280e+01    0.2265284    0.1377814 -43.35 0.0005777704    1.560    0.359
       358  -7.9294    195.6073    107.0091   2.8420108605e+01   2.0796134845e+01    0.2955943    0.1557775  64.81 0.0007610248    2.480    0.597
       359  -8.2392    109.7685    107.0343   4.8454300325e+01   3.9549406253e+01    0.4107564    0.2104732  19.31  0.001098528    5.101    0.804
       360 -10.4228     45.7556    102.1796   6.7888818512e+01   5.0832427017e+01    0.7504337    0.4380506  72.00  0.002848788    3.579    0.721
       361 -10.8648     22.7624    102.4807   7.5959166125e+01   5.2988486682e+01    0.6639547    0.3939331  73.33  0.001924958    2.661    0.624
       362  -9.5399    150.6221    102.8886   3.6669630594e+01   3.1666963968e+01    0.4794835     0.298674 -67.32   0.00150225    2.351    0.575
       363  -9.3358    139.7767    104.2255   3.9637242437e+01   3.3816562317e+01     0.385293    0.2852229 -73.15 0.0009152815    1.749    0.428
       364  -8.5433     93.4547    104.6707   5.2699599795e+01   4.3177143924e+01    0.2587119    0.1868759  10.33 0.0009127245    1.791    0.442
       365  -8.5529     59.4894    114.6155   6.6015401605e+01   4.6182239231e+01    0.3692497    0.1988363   6.67  0.001356015    3.305    0.697
       366  -8.6628    166.7473    103.8038   3.3307943108e+01   2.7836393065e+01    0.3016601     0.197501 -52.77 0.0007815667    1.583    0.368
       367  -9.9409    115.6362    102.6956   4.5617839549e+01   3.9312582527e+01    0.3797628    0.2772081  26.17  0.001749019    1.566    0.361
       368 -10.2173    108.6664     98.4740   4.6453334545e+01   4.1633601688e+01    0.6287119    0.4160315  72.72 0.0009895172    2.498    0.600
       369  -8.6585    107.3638     92.7611   4.5230392741e+01   4.3099991386e+01      0.43319      0.29956  14.62  0.001882054    1.976    0.494
       370  -9.0538      7.2977    103.3066   8.1397891881e+01   5.3878776176e+01    0.2410406    0.1545057  65.14 0.0008798681    2.030    0.507
       371  -9.8780    128.6253    101.9596   4.1882159524e+01   3.6728721142e+01    0.3861735    0.2770115  85.78 0.0009482944    2.122    0.529
       372  -7.9027    175.5343    102.0147   3.1035939888e+01   2.6196207442e+01    0.2266239    0.1433452 -43.03  0.000386364    1.536    0.349
       373  -8.3908    159.6263    100.7853   3.4075080313e+01   3.0046660118e+01    0.2163783    0.1377836 -51.81 0.0005253535    1.633    0.388
       374  -9.3671     82.0678     99.8220   5.5015211535e+01   4.6253552734e+01    0.3210367    0.2380427 -72.05  0.000959627    1.712    0.416
       375 -10.0231     64.0180     96.0117   6.0052923091e+01   4.9914882054e+01     0.560833    0.3858415 -79.45  0.001886282    2.141    0.533
       376  -8.4802    182.4088    109.0967   3.1417324507e+01   2.3292528032e+01    0.2318738    0.1995725 -88.26 0.0005340285    1.278    0.218
       377  -9.1584     95.0131     96.9594   5.0132286235e+01   4.4597489845e+01    0.3167002    0.2350394 -61.98 0.0005946475    1.548    0.354
       378  -8.3343    165.0258     94.0576   3.1161020687e+01   3.0109832330e+01    0.2346601    0.1772961 -74.42 0.0004911732    1.597    0.374
       379 -10.1686    123.9831     90.7486   4.0005156728e+01   4.0030858188e+01    0.5642434    0.4754251  -9.56    0.0020217    1.373    0.272
       380  -9.5493    249.4476    102.5510   1.9159903849e+01   1.0766927777e+01    0.3709542    0.1796754 -25.26  0.001419409    3.444    0.710
       381  -8.2191    176.2903     93.0282   2.8619557958e+01   2.7716052618e+01    0.2114712    0.1803619 -54.33 0.0004487973    1.142    0.124
       382  -9.2605    139.0987     92.1341   3.6526437426e+01   3.6409802065e+01    0.3601487     0.263592 -70.96 0.0007484926    1.763    0.433
       383  -9.6887      5.3004     91.8110   8.0202006314e+01   5.6651632111e+01    0.3446521    0.2128093  62.96  0.001365493    2.293    0.564
       384  -9.0036     46.5554     91.9598   6.5202826135e+01   5.3093794349e+01    0.3461481    0.1874118  11.99  0.001518611    2.444    0.591
       385  -9.6546     35.0428     90.0152   6.8946242496e+01   5.4773457960e+01    0.4154826    0.2678902 -84.08  0.001576838    2.269    0.559
       386  -7.9830    157.5642     91.5157   3.2086965033e+01   3.2309552950e+01    0.1496293    0.1436622 -78.58 9.038552e-05    1.025    0.025
       387  -9.2210     23.0540     89.9046   7.3355029142e+01   5.5875240885e+01    0.3156724    0.2155581  -4.79  0.001535012    1.691    0.409
       388  -8.4154    151.1452     89.1418   3.2872192531e+01   3.4238103144e+01    0.2421365    0.1833346 -78.08 0.0004364588    1.668    0.400
       389 -10.1603     86.5792     85.9673   4.9678514421e+01   4.8467653663e+01    0.6260882     0.412044 -60.79  0.001623491    1.890    0.471
       390  -7.7328    163.9878     86.9791   2.9518663384e+01   3.1666588354e+01    0.1773551     0.169852 -68.14 0.0004112958    1.024    0.024
       391  -8.7601     66.2613     86.7695   5.6784144434e+01   5.1627950827e+01    0.5141733    0.2156743  20.46  0.001610219    4.324    0.769
       392  -9.8751     48.4551     84.0496   6.2479126074e+01   5.4623038896e+01    0.4840252    0.3429638  77.94  0.001866872    2.444    0.591
       393  -8.2209    157.8922     83.8545   2.9960370512e+01   3.3653689192e+01    0.2131655    0.2019855  11.50 0.0004218718    1.179    0.152
       394  -9.6457    104.7940     83.0479   4.3159640326e+01   4.5586756689e+01    0.3711465    0.2948394 -70.37  0.000802841    1.612    0.380
       395  -9.0622    140.8983     82.5034   3.3401238839e+01   3.7835030449e+01    0.3346354    0.2090344 -46.59  0.001382795    1.650    0.394
       396  -9.2996    249.8718     81.4411   1.4806981643e+01   1.4077101117e+01    0.3187414    0.1046936 -49.22  0.001257351    2.776    0.640
       397  -8.0387     63.9573     82.0266   5.6255781880e+01   5.2978654333e+01    0.1748056    0.1464321 -39.21  0.000454313    1.119    0.106
       398  -9.6433     24.5229     80.2395   7.0635283036e+01   5.7911518721e+01      0.44502    0.2659543 -81.37  0.001510034    2.520    0.603
       399  -8.7711     74.8287     80.3262   5.1939066685e+01   5.1643259448e+01    0.3033337    0.1964296 -61.36 0.0009040671    1.976    0.494
       400  -9.3628      9.6739     80.5853   7.6464201888e+01   5.8914863369e+01    0.2665386    0.1795482  48.47  0.001072621    1.981    0.495
       401  -8.2389    150.3977     80.3086   3.0613841026e+01   3.6039390521e+01    0.2066098    0.1362423 -50.75 0.0006675113    1.598    0.374
       402  -8.6378    119.2928     79.8551   3.8104197917e+01   4.3162220690e+01    0.2705139    0.2199319 -69.60 0.0007164146    1.497    0.332
       403  -8.2456    166.9276     79.3249   2.6898908144e+01   3.2348315163e+01    0.1985554    0.1883271  76.11 0.0005258279    1.031    0.030
       404  -7.9487    184.3709     77.8318   2.3287881663e+01   2.8544160236e+01    0.1968372    0.1359406 -28.22 0.0006247501    1.678    0.404
       405  -7.8760    157.3583     76.1988   2.7990485957e+01   3.5136598547e+01    0.2067605    0.1304653 -49.64 0.0004795374    1.651    0.394
       406  -9.2891    128.0340     75.0388   3.4388529555e+01   4.2116587556e+01    0.3518496    0.2542434 -66.81 0.0006059455    1.802    0.445
       407  -8.4635    140.6153     75.1403   3.1369826773e+01   3.9228778401e+01    0.2273435    0.1749748 -55.80   0.00057594    1.409    0.290
       408  -9.9052     63.2407     73.5433   5.3999580004e+01   5.4828695557e+01    0.4147635    0.2957877 -63.44    0.0011339    1.812    0.448
       409  -9.5350     82.4741     72.4600   4.6928599524e+01   5.1894810734e+01    0.3982367    0.2763635 -66.21 0.0009119839    2.142    0.533
       410  -8.3252    163.4696     73.0641   2.5904753928e+01   3.4234326203e+01    0.2198089    0.1404104 -41.92  0.001019974    1.575    0.365
       411  -8.4136    115.6824     72.9007   3.6990491416e+01   4.5224333200e+01    0.2033345    0.1853552 -36.39 0.0004985389    1.128    0.114
       412  -8.2027     42.9376     72.9431   6.1517567843e+01   5.7636092811e+01    0.1885033    0.1619479  75.01 0.0005856845    1.647    0.393
       413  -9.0444    105.9482     71.5549   3.9315523158e+01   4.7527784832e+01    0.2661012    0.1985618 -57.04 0.0006460176    1.598    0.374
       414  -9.1212     95.2111     71.1050   4.2397108709e+01   4.9771092020e+01    0.3287705     0.231658 -57.65 0.0008414394    1.771    0.435
       415  -9.5023     51.3527     69.3607   5.7186431938e+01   5.7327511625e+01    0.4321703    0.2578126 -65.28  0.001537815    2.502    0.600
       416  -9.1685     30.7023     69.1981   6.5348408754e+01   5.9708401652e+01    0.4027338     0.179846  -7.76  0.001262117    5.558    0.820
       417  -9.0934     16.6176     69.5592   7.1213330541e+01   6.0827972233e+01    0.2702263    0.1762275 -71.16  0.001112621    1.776    0.437
       418  -8.5551    147.1202     67.9359   2.7847613530e+01   3.8943652993e+01    0.2256168    0.1887665 -75.71 0.0005993932    1.327    0.247
       419  -8.3757    132.3730     66.4781   3.0771891943e+01   4.2613349426e+01    0.3705944    0.2273153 -61.07  0.001425477    2.265    0.559
       420  -8.9298    138.4798     65.6955   2.9114771142e+01   4.1332890275e+01    0.3071106    0.2140725 -67.42 0.0008043926    1.878    0.468
       421  -8.7041    121.5869     65.6161   3.3185557917e+01   4.5197860613e+01    0.3089223    0.2080966 -56.33  0.001065441    1.816    0.449
       422  -8.8219    110.1272     63.3967   3.5553627132e+01   4.8075129386e+01    0.2550462    0.2048846 -49.67 0.0006121317    1.377    0.274
       423  -8.2196     95.3535     64.3202   4.0173852586e+01   5.0961960658e+01    0.1496962    0.1071467   9.06 0.0007046972    1.751    0.429
       424  -9.3153     97.8408     60.5688   3.8187146808e+01   5.1107789243e+01    0.3350161    0.3046478 -18.42  0.001438352    1.109    0.098
       425  -8.5839     37.3269     63.9617   6.1127371681e+01   6.0087726738e+01     0.206104    0.1796951  54.29  0.001263167    1.558    0.358
       426  -7.9170    158.4192     61.5393   2.3738207861e+01   3.7301635782e+01    0.1420611    0.1320139  89.91  6.15157e-05    1.040    0.038
       427  -9.6705     73.4530     59.2757   4.5709539111e+01   5.5887889828e+01    0.3837187    0.2516868 -54.57  0.001118555    1.955    0.488
       428  -9.8852     23.4221     56.1716   6.4665050669e+01   6.2993458928e+01    0.3972283    0.2809692 -87.06  0.002078837    2.663    0.625
       429  -9.5707      7.6526     56.9890   7.1836549477e+01   6.4017116867e+01    0.2788079    0.2113675  88.37  0.001106023    1.981    0.495
       430  -8.3945    130.5280     57.1027   2.8372030404e+01   4.4544611158e+01    0.2050274    0.1406675 -37.81 0.0005590083    1.537    0.350
       431  -8.1070    140.0045     56.0349   2.5920521768e+01   4.2503933195e+01    0.2207534    0.1662133 -74.37 0.0005272988    1.644    0.392
       432  -8.8005    119.0675     55.3978   3.0628936339e+01   4.7409567138e+01    0.2888294    0.1889946 -47.13 0.0006840177    1.709    0.415
       433  -8.8515     44.1673     55.3289   5.5565830631e+01   6.0937848627e+01    0.2823999    0.2127356 -64.10 0.0009883535    1.862    0.463
       434  -9.4732     62.8920     54.0843   4.7760071385e+01   5.8520283647e+01    0.3793392    0.1917258 -48.30  0.001463669    2.233    0.552
       435  -8.9048     54.3400     53.8799   5.0975573013e+01   5.9836804404e+01    0.2915258    0.2119786 -66.19  0.001072251    2.203    0.546
       436  -8.3181    105.9184     52.9690   3.3330267928e+01   5.0655199592e+01    0.2128994    0.1722267 -79.64 0.0007773362    1.706    0.414
       437  -9.3575     92.4427     50.3163   3.6360881573e+01   5.3844421152e+01    0.3845758    0.2337891 -49.78   0.00114514    2.063    0.515
       438  -7.6251    171.9931     49.7868   1.8144386716e+01   3.5821716647e+01    0.1851804    0.1046147  63.01 0.0008592575    1.665    0.399
       439  -8.1974    144.6546     48.7971   2.2814633233e+01   4.2467960768e+01    0.1881942    0.1243188 -45.59 0.0004635846    1.615    0.381
       440  -8.0596    129.6558     48.8224   2.6020973378e+01   4.5977997580e+01    0.1942477     0.124362 -44.87 0.0004995724    1.709    0.415
       441  -8.0131    120.6202     47.2500   2.7639249410e+01   4.8268739883e+01    0.1806508    0.1341595 -17.88 0.0009367767    1.563    0.360
       442  -8.3035    112.2007     46.8767   2.9623691334e+01   5.0200464364e+01    0.2002042    0.1830271 -76.70 0.0006218115    1.284    0.221
       443  -9.0367     82.2756     46.4432   3.8212657591e+01   5.6408493744e+01    0.2466823    0.2265426 -73.51 0.0006771249    1.454    0.312
       444  -8.4664     45.1259     44.5434   5.1387359378e+01   6.2710819185e+01    0.1997037    0.1600021 -39.09 0.0006772951    1.320    0.242
       445  -9.1793     16.5519     44.2329   6.4035004595e+01   6.5828443922e+01    0.2352163    0.1848586 -74.58  0.000976172    1.936    0.483
       446  -9.0897     58.1342     42.0327   4.5202206761e+01   6.1245732392e+01    0.3555198    0.2130514 -50.24  0.001435056    2.193    0.544
       447  -9.6811      5.1582     41.9845   6.8745190315e+01   6.7066596014e+01    0.2820556    0.1926354 -71.86  0.001272408    2.053    0.513
       448  -7.9254    132.5244     42.5432   2.3444743790e+01   4.6181556551e+01     0.137552    0.1261635  68.59 -4.460194e-05    1.058    0.055
       449  -9.2884     69.6232     41.2884   4.0645879957e+01   5.9471597655e+01    0.2665437    0.2171209 -53.29 0.0009099554    1.640    0.390
       450  -8.2718    105.9616     41.0345   2.9294961706e+01   5.2375355767e+01    0.2029025     0.164239 -76.38  0.000497009    1.677    0.404
       451  -8.7233     36.7667     40.4922   5.3482743148e+01   6.4441221086e+01    0.2188069    0.1546345 -36.66 0.0007494185    1.330    0.248
       452  -8.3433     95.8153     38.0976   3.1066757713e+01   5.4917782068e+01    0.1905149    0.1803554 -75.66 0.0005728163    1.300    0.231
       453  -8.1824     80.7266     36.5663   3.5097383269e+01   5.8125663574e+01    0.2065521     0.157179 -52.03 0.0006834638    1.749    0.428
       454  -7.5032    133.6928     36.3113   2.1277318808e+01   4.6716248106e+01    0.1354048    0.1021859 -76.27 0.0003332303    1.619    0.382
       455  -9.5694     26.2225     35.2149   5.6304568180e+01   6.6497813432e+01    0.2669934    0.1937952 -52.22 0.0009423082    1.714    0.417
       456  -8.1517    125.9439     35.3415   2.2603209017e+01   4.8637729251e+01    0.1900121    0.1598927  53.78 0.0005503442    1.068    0.064
       457  -8.5534    111.9506     34.4952   2.5545883582e+01   5.1913565219e+01    0.2442641     0.180245 -51.11 0.0007727923    1.635    0.388
       458  -8.3569    119.4025     33.2186   2.3367562527e+01   5.0396392072e+01    0.1779902    0.1226593 -43.98 0.0005628903    1.647    0.393
       459  -8.6084     60.6914     32.3226   4.0460678513e+01   6.2269807329e+01    0.1940012    0.1868295   6.74 0.0007491483    1.297    0.229
       460  -8.8085     48.6037     32.8421   4.5447263700e+01   6.4068576584e+01    0.2137842    0.1929643 -30.58  0.000809385    1.353    0.261
       461  -8.7582     72.3241     31.0366   3.5774936637e+01   6.0427193410e+01    0.2007703    0.1800284  72.90 0.0006674393    1.556    0.357
       462  -9.1275     12.9345     30.0396   6.0838178271e+01   6.8600801252e+01    0.2775881    0.1582232 -57.16    0.0011802    2.275    0.560
       463  -8.4564    101.8695     29.1433   2.6231972128e+01   5.4766110657e+01    0.1940857    0.1765349  85.34 0.0007615203    1.311    0.237
       464  -8.8212     81.6177     27.2968   3.1299101616e+01   5.9145580456e+01    0.2337504    0.2027927 -76.00 0.0007495279    1.673    0.402
       465  -9.0874      3.9129     27.4001   6.4515412601e+01   6.9725291278e+01    0.1877028    0.1473151 -55.56 0.0007486944    1.585    0.369
       466  -8.7275     91.9414     26.2944   2.7877076191e+01   5.7191323434e+01    0.2534703    0.1733456 -45.74 0.0006696763    1.830    0.454
       467  -8.1798     34.7277     23.1428   4.7465522905e+01   6.7351452992e+01    0.1602604    0.1339333  79.21 0.0008678788    2.713    0.631
       468  -8.1707    120.8567     21.7788   1.9303540018e+01   5.1362753701e+01    0.1687174    0.1465484 -79.73  0.000487434    1.312    0.238
       469  -8.9039     63.6748     20.9981   3.4750462786e+01   6.3216698614e+01    0.2621958    0.1877135 -50.63  0.001041552    2.101    0.524
       470  -8.8071     48.4702     21.5681   4.0821626065e+01   6.5635614551e+01    0.2089315     0.196775 -33.97 0.0007002488    1.490    0.329
       471  -8.0527     19.5901     20.8385   5.3781179342e+01   6.9426674923e+01    0.1472291    0.1011968 -45.95 0.0009398774    1.745    0.427
       472  -8.9133     74.2021     19.4865   3.0564248315e+01   6.1471986936e+01    0.2281902    0.1890592 -41.72 0.0007324414    1.529    0.346
       473  -7.8477     38.7696     18.0502   4.3420678171e+01   6.7495200584e+01    0.1433563   0.08856056 -29.89 0.0004283449    1.580    0.367
       474  -8.3861     87.8713     17.1134   2.5554741409e+01   5.9028690630e+01     0.174806    0.1695442  78.83 0.0005336921    1.271    0.213
       475  -7.5049    112.5391     16.5359   1.9312742473e+01   5.3778381920e+01    0.1292207    0.1107854  50.45 4.510456e-05    1.005    0.005
       476  -8.1222     30.0421     15.9777   4.6498652013e+01   6.8914905807e+01    0.1486512    0.1469776   7.92 0.0007719177    1.674    0.403
       477  -7.9942     97.3551     15.1425   2.2332074632e+01   5.7240490736e+01    0.1632144    0.1125578 -37.06 0.0006065993    1.697    0.411
       478  -8.4960      7.5160     15.0273   5.7667577522e+01   7.1409134148e+01    0.1285608   0.09854257 -65.70 0.0008099576    2.518    0.603
       479  -9.4371    233.4288    246.2246   4.9238452832e+01  -1.0091540897e+01    0.5143037    0.2152325 -33.20  0.002048096    2.324    0.570
       480  -7.9370    191.5111    249.5144   5.7632458930e+01  -4.8980344036e+00    0.1230006    0.1037674  19.69 0.0001689049    1.090    0.082
       481  -7.9870    183.9752    250.0000   5.9188190208e+01  -3.8825366440e+00    0.2053216   0.06139459  35.66 0.0007473984    2.900    0.655
       482  -9.0851    175.5646    247.5508   6.0497069710e+01  -2.2570092640e+00    0.2819892    0.2345511  80.61  0.001110488    1.917    0.478
       483  -7.8441     83.5101     10.5496   2.4215559330e+01   6.0555689384e+01    0.1228048    0.1051799  39.80 0.0001483238    1.063    0.059
       484  -8.3133     93.9984    249.2139   7.7546104164e+01   9.7876108513e+00     0.219952    0.1128943  57.48 0.0008841571    2.067    0.516
       485  -9.2649    242.9433    246.4389   4.7590589450e+01  -1.1292598050e+01    0.2957852    0.1445844 -31.18  0.001510829    1.904    0.475
       486  -9.0901    218.7373    246.4402   5.1953125014e+01  -8.2194917910e+00    0.3596705    0.1349761 -33.94  0.001646129    2.789    0.641
       487  -8.5222    156.1803    248.0314   6.4508252817e+01   5.9753719096e-01    0.2387462    0.1473707  54.95 0.0009076945    2.043    0.511
       488  -8.5671    132.0542    247.6722   6.9456825521e+01   4.3664629404e+00    0.1990019    0.1725134  87.62 0.0006100658    1.394    0.283
       489  -7.8590    113.1848    248.2214   7.3459898440e+01   7.1396529277e+00    0.1768807   0.09884476 -72.17 0.0008524033    2.468    0.595
