#   1 NUMBER                 Running object number                                     
#   2 MAG_AUTO               Kron-like elliptical aperture magnitude                    [mag]
#   3 X_IMAGE                Object position along x                                    [pixel]
#   4 Y_IMAGE                Object position along y                                    [pixel]
#   5 X_WORLD                Barycenter position along world x axis                     [deg]
#   6 Y_WORLD                Barycenter position along world y axis                     [deg]
#   7 A_WORLD                Profile RMS along major axis (world units)                 [deg]
#   8 B_WORLD                Profile RMS along minor axis (world units)                 [deg]
#   9 THETA_WORLD            Position angle (CCW/world-x)                               [deg]
#  10 FWHM_WORLD             FWHM assuming a gaussian core                              [deg]
#  11 ELONGATION             A_IMAGE/B_IMAGE                                           
#  12 ELLIPTICITY            1 - B_IMAGE/A_IMAGE                                       
         1 -14.7131      5.7394    145.0450   1.4105927503e+02   4.4423482679e+01     4.010005     1.346693 -79.65   0.01607663    3.048    0.672
         2 -14.7593      2.8516    110.0758   1.3739984469e+02   5.2589618344e+01     8.302547          nan -67.19   0.01684325   11.611    0.914
         3 -13.3383    201.6094     28.9163   6.3279343523e+01   3.1448839918e+01     1.246765     1.132942  54.13   0.00693987    1.316    0.240
         4 -13.4056    218.0441     11.7920   5.7729142007e+01   2.9629366664e+01     0.907404    0.7784666  63.45  0.003010273    1.362    0.266
         5 -14.3617     12.9987    241.2899   1.4740706995e+02   2.2575051228e+01     2.770768     1.727704  49.53   0.01897341    1.466    0.318
         6 -10.6895    249.3466    249.0555   1.0243473303e+02  -1.4770845996e+01    0.3641294    0.2090797 -20.44  0.002123232    1.715    0.417
         7 -12.6267    161.8135    248.4439   1.1931055054e+02  -9.6748230521e-01    0.7390828    0.3503214  38.95  0.003467421    1.789    0.441
         8 -12.9533    125.4282    249.1800   1.2680965183e+02   5.1113363835e+00     1.210981    0.3536061  35.90  0.004074293    3.737    0.732
         9 -13.0362    141.8324    248.5986   1.2340123296e+02   2.4312365844e+00     1.102936    0.3665452  40.29  0.004340094    2.535    0.606
        10 -12.6713     27.0969    229.4373   1.4410945770e+02   2.3425319153e+01    0.2595827    0.2350407  76.78 0.0007310383    1.339    0.253
        11 -13.8734     32.2216    223.0401   1.4264786526e+02   2.4181238286e+01    0.7522891      0.56362  71.77  0.002345498    1.069    0.065
        12 -11.0911     81.1936    249.3253   1.3559441047e+02   1.2167674063e+01     0.332299    0.1742495  35.91  0.001689754    1.993    0.498
        13 -12.6678      9.8579    207.2211   1.4572854201e+02   2.9977859166e+01    0.6983984    0.6150303  19.74  0.003645816    1.703    0.413
        14 -12.4901    187.8842    249.0550   1.1415005095e+02  -5.4661188177e+00     0.807853    0.2154299  42.24  0.002884382    3.310    0.698
        15 -11.5485     86.7642    225.9110   1.3191135135e+02   1.6082912144e+01    0.6192384    0.1487587  46.88  0.002066698    3.639    0.725
        16 -12.0922     96.6270    228.2137   1.3011340684e+02   1.4025009712e+01    0.5845366    0.2128824  44.89  0.002380388    2.362    0.577
        17 -12.1237    118.9547    231.4463   1.2580499206e+02   9.6217704385e+00    0.5246295    0.2227589  38.92  0.002202785    2.156    0.536
        18 -12.8132     42.8975    211.9601   1.3955182647e+02   2.5310520526e+01     1.038642    0.7622716 -77.48   0.00505114    1.233    0.189
        19 -13.3265     53.0186    208.8151   1.3712246487e+02   2.4725361078e+01      3.77315     1.161197  61.49  0.007266197   13.155    0.924
        20 -11.5953    243.4679    248.2413   1.0335985207e+02  -1.3861830031e+01    0.3597211    0.2297681  -9.88  0.002159331    1.556    0.357
        21 -11.5293    226.3217    249.5440   1.0675960733e+02  -1.1583754329e+01    0.4367331    0.1307339  38.00  0.001776695    2.974    0.664
        22 -10.5721     73.6610    175.6854   1.2812871174e+02   2.9637228390e+01    0.2479855    0.2234495 -75.85 0.0003717216    1.079    0.073
        23  -8.5886    152.7205    213.0069   1.1560714582e+02   7.2543457078e+00    0.1609179    0.1295177 -51.68  0.000354964    1.362    0.266
        24 -10.0594     90.9066    168.4209   1.2258127992e+02   2.8704120100e+01    0.5611454    0.2714226  61.19  0.001931037    3.170    0.685
        25 -11.6060     81.2151    167.1493   1.2484991091e+02   3.0573275009e+01    0.6036936     0.498742 -49.90  0.003278009    1.274    0.215
        26 -10.1934     53.2562    202.6875   1.3640915312e+02   2.6084967513e+01    0.3755203    0.2249097  87.28  0.001937784    1.684    0.406
        27 -10.0233     95.0621    151.4336   1.1830452718e+02   3.2163253516e+01    0.3141722    0.2741566 -60.08 0.0008138298    1.101    0.092
        28 -11.7001     83.4813    150.2719   1.2121665589e+02   3.4364250223e+01    0.3207845     0.254217 -47.26  0.001143673    1.279    0.218
        29  -9.1113     98.2410    147.1895   1.1657992026e+02   3.2647427846e+01    0.2151201    0.2022662 -31.57 0.0006795633    1.160    0.138
        30 -11.9025     67.5412    143.5133   1.2433470901e+02   3.8402701875e+01    0.6865581    0.4384315  61.07  0.003208427    1.909    0.476
        31  -9.5043    107.8889    136.8515   1.1168889832e+02   3.3389229081e+01     0.422563    0.2768839 -16.86  0.001604938    2.630    0.620
        32 -10.3566     94.8089    133.8498   1.1466904898e+02   3.6482690858e+01    0.2554335    0.2272948 -29.33 0.0003688966    1.213    0.176
        33  -8.9981    105.6712    123.4239   1.0915278743e+02   3.6983045043e+01    0.1827321    0.1495483  27.25 0.0002651284    1.328    0.247
        34  -8.7926    167.4391    112.2801   9.0400487500e+01   2.5986702883e+01    0.2161365     0.147556 -55.26  0.000577307    1.568    0.362
        35 -11.5611     55.6476    196.5925   1.3518863772e+02   2.7176083346e+01     0.296214    0.2408385 -62.23 0.0005000401    1.308    0.236
        36  -9.4976    159.5202     77.5382   8.2889332139e+01   3.4564672278e+01    0.1508063    0.1425905  70.48 7.195535e-05    1.008    0.008
        37 -11.7998     62.5333    188.3149   1.3259215500e+02   2.8191418466e+01    0.2725362    0.2441055 -75.15 0.0004492034    1.149    0.130
        38 -11.2752      4.1529    183.8945   1.4508806877e+02   3.5648951108e+01    0.3820413    0.2120701  66.77 0.0007239388    1.714    0.417
        39 -10.9204     63.2269    246.3689   1.3874187898e+02   1.5355441124e+01     0.268509    0.1858754  70.81 0.0006175954    1.209    0.173
        40 -13.0389     59.8424    173.6313   1.3124200527e+02   3.2079333077e+01    0.5418375    0.2802714 -46.96  0.001604419    2.230    0.552
