#   1 NUMBER                 Running object number                                     
#   2 MAG_AUTO               Kron-like elliptical aperture magnitude                    [mag]
#   3 X_IMAGE                Object position along x                                    [pixel]
#   4 Y_IMAGE                Object position along y                                    [pixel]
#   5 X_WORLD                Barycenter position along world x axis                     [deg]
#   6 Y_WORLD                Barycenter position along world y axis                     [deg]
#   7 A_WORLD                Profile RMS along major axis (world units)                 [deg]
#   8 B_WORLD                Profile RMS along minor axis (world units)                 [deg]
#   9 THETA_WORLD            Position angle (CCW/world-x)                               [deg]
#  10 FWHM_WORLD             FWHM assuming a gaussian core                              [deg]
#  11 ELONGATION             A_IMAGE/B_IMAGE                                           
#  12 ELLIPTICITY            1 - B_IMAGE/A_IMAGE                                       
         1 -11.8985      3.9753     20.1099   1.1470174448e+02   6.9784150154e+01    0.5742834    0.2422692 -37.81  0.003446156    1.822    0.451
         2 -11.8540    129.1303     23.2685   7.3646903008e+01   4.9521578753e+01    0.3238169    0.2315614 -35.54 0.0003179254    1.579    0.367
         3 -10.8152     35.5101     21.9071   1.0134049819e+02   6.6552982742e+01    0.3452264    0.1705131 -35.04  0.001990525    1.889    0.471
         4  -9.1851     35.0634     15.3914   9.8818712538e+01   6.7425090676e+01    0.3208161    0.1698175  -3.09    0.0011416    2.327    0.570
         5 -11.2693     26.4680     20.0228   1.0440941944e+02   6.7817757564e+01      0.51406    0.2831406   7.28  0.002714507    1.933    0.483
         6 -11.0384     18.9499     16.9692   1.0649623358e+02   6.8982802970e+01    0.3089582    0.2468977  -3.54  0.001423964    1.170    0.145
         7  -9.8525     15.4731     13.4875   1.0664091249e+02   6.9769559929e+01    0.1560846    0.1281701 -14.93 -4.701813e-07    1.280    0.219
         8 -10.6353     76.0006     16.7158   8.4639010237e+01   6.1082600440e+01    0.5325467    0.2921045   3.09  0.002640459    2.444    0.591
         9 -12.0636     81.0767      6.5441   7.9213930998e+01   6.1110724016e+01    0.3685313    0.2169443   2.13 0.0004213763    1.967    0.492
        10 -11.7597     75.3779      5.8761   8.0570181924e+01   6.2216878103e+01    0.4130188    0.2879003 -26.51   0.00148652    1.616    0.381
        11 -11.1706    132.0035     13.7793   7.0141256486e+01   4.9811653343e+01     0.371333    0.2092564  -0.17  0.001751691    2.723    0.633
        12 -10.5885     56.3005     14.8943   9.0413040684e+01   6.4548057651e+01     0.276787      0.18749 -48.03  0.001619374    2.417    0.586
        13 -10.0553     70.4469     14.2330   8.5389369677e+01   6.2309031590e+01    0.1965019    0.1093617 -19.38 0.0006932488    1.878    0.467
        14 -11.7887     25.8177     13.8057   1.0209626834e+02   6.8687097660e+01     0.215845    0.1458623   4.30 0.0004052095    1.240    0.194
        15  -9.9099     30.4444     13.2185   9.9837396183e+01   6.8237642785e+01    0.2012737    0.1261766 -14.32  0.001338306    1.384    0.277
        16 -10.4617     99.6346     13.1602   7.6838371743e+01   5.6890364813e+01    0.2372877    0.2164329 -46.45  0.001249548    1.381    0.276
        17 -12.3004     62.0166     11.6715   8.7104002054e+01   6.3978815297e+01    0.2840879    0.2334532  59.12 0.0005755857    1.736    0.424
        18  -9.7387    175.5784     12.2382   6.2964700608e+01   3.9756246853e+01    0.1509446    0.1274249  -2.45 0.0007572133    1.596    0.373
        19  -9.6369      4.0908     11.1160   1.1108405723e+02   7.1043058572e+01    0.1287738    0.1184273 -20.66 0.0005430724    1.640    0.390
        20 -10.9740     23.2535      9.0615   1.0117334494e+02   6.9540038681e+01    0.3436345    0.1606119 -37.70  0.001529015    2.180    0.541
        21 -11.9157     26.5301      3.5273   9.7228620670e+01   6.9796025348e+01    0.2220134    0.1601337  12.82 0.0009735252    1.136    0.119
        22 -12.6606     31.2049      2.1388   9.4579946277e+01   6.9375697971e+01    0.3221102     0.171742  35.51  0.001456338    1.774    0.436
        23  -9.4269    122.2184      8.9498   7.0483767437e+01   5.2441586169e+01    0.1463268    0.1028165 -22.17  0.000863625    1.655    0.396
        24 -11.4682      9.1571      7.8893   1.0723942701e+02   7.1053796289e+01    0.2541317    0.1520299 -12.23  0.001786071    1.381    0.276
        25 -11.5154     17.0787      5.0801   1.0221653505e+02   7.0652965858e+01    0.3834631     0.235536   5.42   0.00269581    1.399    0.285
        26 -10.9177     12.7261      1.7931   1.0277406119e+02   7.1462974046e+01    0.4409202    0.1652063  19.60  0.002235413    3.102    0.678
        27  -9.3646    226.0112      8.7122   5.6831716802e+01   2.8506595666e+01     0.143891   0.09096602  80.80  0.000425085    1.339    0.253
        28 -10.3208    115.4557      4.1309   7.0249868030e+01   5.4322442700e+01    0.2719025    0.1928367  -4.29 0.0009970847    1.672    0.402
        29  -9.3377     43.4444      7.9339   9.2228464313e+01   6.7164736936e+01    0.1341871   0.09075747 -45.74 0.0008070149    2.462    0.594
        30 -10.2345    132.2207      4.6622   6.7317946884e+01   5.0560984579e+01    0.1678165    0.1508752  75.89 0.0008227273    1.133    0.118
        31  -9.9432    139.1751      1.8239   6.5327144577e+01   4.9209096178e+01    0.1808194    0.1480571  78.96  0.000487279    1.164    0.141
        32 -10.1323    129.7663    226.9316   1.2295627326e+02   8.7090609206e+00    0.3520452    0.1571167  54.24  0.001395546    2.493    0.599
        33 -10.6248    247.0976    250.0863   1.0356897624e+02  -1.4337163101e+01    0.3520593    0.1631617  26.45  0.001824242    2.091    0.522
        34 -11.0487    250.4102    245.0507   1.0212713362e+02  -1.4124703825e+01    0.4772688     0.171369 -32.80  0.002207164    2.795    0.642
        35 -12.3761    226.2605    246.4027   1.0672843492e+02  -1.0887176415e+01    0.6836897    0.4662076   7.28  0.004094422    1.471    0.320
        36 -12.1397     16.4916    238.4139   1.4635012854e+02   2.2743914529e+01    0.7974001    0.2729472  40.66  0.004107854    2.629    0.620
        37 -12.4842     20.8494    248.9676   1.4627781137e+02   2.0175208865e+01    0.8147805    0.2480706  44.49  0.004113684    2.596    0.615
        38 -11.5762     14.2190    244.7817   1.4713032322e+02   2.1727563319e+01    0.4937596    0.1613287 -73.75  0.002492663    2.620    0.618
        39 -12.2897      6.8823    243.4326   1.4826851041e+02   2.2770449320e+01    0.6208414    0.3531878 -85.45  0.004165237    1.412    0.292
        40 -10.3616     66.3366    226.7069   1.3608296228e+02   1.8947955150e+01    0.2821865    0.1290039  44.00 0.0008677276    1.963    0.491
        41 -10.3906    180.8454    224.4137   1.1185451316e+02   6.2129364775e-02    0.2152316    0.1584638 -37.09 0.0006073367    1.478    0.323
        42  -9.8193     81.1557    224.4781   1.3282679077e+02   1.7247747912e+01    0.2661775    0.1571875 -89.57  0.001314433    1.921    0.479
        43 -11.0446    141.3705    221.4148   1.1965266070e+02   7.7505745529e+00    0.3071392    0.2422327  11.61  0.001515568    1.650    0.394
        44 -10.8959    123.1983    221.5202   1.2356209592e+02   1.0961927934e+01    0.3299781    0.2450424  57.20  0.001415758    1.254    0.202
        45 -10.2599      5.4755    226.4930   1.4750812151e+02   2.6312934754e+01    0.3132824   0.07326581  57.53  0.001187927    4.377    0.772
        46 -10.4450     13.1669    221.9303   1.4584359823e+02   2.6482650692e+01    0.1792144    0.1399087  70.13 0.0005066863    1.155    0.135
        47  -9.8689    174.1563    219.8557   1.1245358126e+02   2.0947194275e+00    0.1935352    0.1564373  15.28 0.0006058727    1.332    0.249
        48  -9.9701     21.9981    220.4628   1.4411456552e+02   2.5855248304e+01    0.1567705    0.1029068  47.26 0.0004405588    1.508    0.337
        49  -9.7161    250.4718    219.1175   9.7506436422e+01  -1.0489952256e+01    0.1778483    0.1094023 -31.77 0.0005606145    1.503    0.335
        50 -11.0666     10.0272    217.0174   1.4607718385e+02   2.7837937556e+01    0.2777044    0.1637971  68.38 0.0007645137    1.408    0.290
        51  -9.9630    191.4939    217.0650   1.0838466390e+02  -5.1605562613e-01    0.1971771    0.1344558 -40.86 0.0006452975    1.552    0.356
        52  -9.3796     37.5672    217.4916   1.4089535967e+02   2.4711098827e+01    0.1237672   0.09670856  82.50 0.0001201232    1.022    0.021
        53 -11.6143    235.1733    214.9510   9.9495837667e+01  -7.5331895265e+00    0.3877454     0.225992 -24.05  0.001611948    1.803    0.445
        54  -9.6852    201.5511    215.5424   1.0607719744e+02  -2.0241762813e+00     0.137379    0.1204871   9.07 0.0006718602    1.071    0.066
        55  -9.7926    194.5418    215.4715   1.0747678597e+02  -7.7376684489e-01    0.1367395    0.1244237  16.65 -2.213422e-05    1.004    0.004
        56  -9.4315    137.1869    215.6295   1.1963898831e+02   9.6840346658e+00    0.2029609    0.1264334  32.20 0.0009418047    1.719    0.418
        57  -9.8536    170.4628    213.4710   1.1211572376e+02   3.9803658402e+00    0.1401102    0.1298134  35.30 0.0003316464    1.007    0.006
        58  -9.5118    142.8434    213.3873   1.1804492553e+02   9.1122635705e+00    0.1959751    0.1282754  32.14 0.0006097784    1.608    0.378
        59 -11.0478     20.6723    211.8056   1.4369577715e+02   2.7860617679e+01    0.3188638    0.1605619  75.17 0.0009316957    1.889    0.471
        60 -10.3345    208.9705    212.0870   1.0396402837e+02  -2.7157978379e+00    0.2053262    0.1833707   8.31 0.0004573793    1.017    0.017
        61 -12.1566      4.1886    207.8890   1.4652722019e+02   3.0350413009e+01    0.4939705    0.2930872 -85.92  0.003156192    1.302    0.232
        62  -9.6759    184.4088    208.7944   1.0833937330e+02   2.2920241936e+00    0.1914359    0.1307049 -30.86 0.0006528538    1.635    0.388
        63 -10.1919     31.1354    215.8501   1.4200670453e+02   2.5823851145e+01    0.1985739    0.1330333  74.20  0.001235241    1.241    0.194
        64  -9.3035    218.4810    206.5051   1.0105336942e+02  -3.3919292597e+00    0.1374495    0.1192372   0.62 0.0001788477    1.069    0.064
        65 -10.6245     19.7350    202.4233   1.4311592183e+02   3.0020771164e+01    0.3505831    0.1586692 -88.64  0.001724576    2.108    0.526
        66  -9.9766    223.0900    201.2549   9.9158870336e+01  -3.2759460361e+00    0.3190658    0.2179576 -76.32  0.001301903    3.487    0.713
        67 -10.0265    175.0659    202.4927   1.0914359153e+02   5.2628145392e+00    0.2190528    0.1351594  42.52 0.0005374717    1.541    0.351
        68  -9.8730    218.4252    201.4904   1.0010037499e+02  -2.5105978736e+00    0.1364316     0.122003  -3.97 0.0001413636    1.023    0.022
        69  -9.4874     34.6844    200.9767   1.3994859237e+02   2.8716891245e+01    0.1708563    0.1329115 -89.43 0.0004085073    1.044    0.042
        70 -10.1747    227.1747    196.9135   9.7538012428e+01  -3.2240348739e+00    0.2388088    0.1884883  14.05  0.000651086    1.282    0.220
        71 -11.0602    192.8007    195.1451   1.0399760357e+02   3.3292373791e+00    0.3555871    0.2350574 -49.28   0.00171335    1.623    0.384
        72  -9.5692    203.0051    195.9857   1.0207394871e+02   1.2577130020e+00    0.1704868    0.1593094  -1.12 0.0005435683    1.012    0.012
        73 -10.5932    215.3723    194.7221   9.9369271395e+01  -7.6475448635e-01    0.2428965    0.1649311 -29.34 0.0005977606    1.488    0.328
        74  -9.9633    232.0330    191.3521   9.5533418757e+01  -3.0898571705e+00    0.2656882     0.138383 -25.05  0.001124536    2.328    0.571
        75  -9.2648    205.5087    190.4531   1.0047301374e+02   1.8315995536e+00    0.1410864    0.1323472   0.67 9.057767e-05    1.004    0.004
        76  -9.2325      1.6722    188.2638   1.4558572489e+02   3.4869488473e+01    0.1182483   0.06842988  69.27 0.0002664581    1.568    0.362
        77  -9.6364    243.3068    187.3201   9.2688740655e+01  -4.2943546140e+00    0.1366784   0.09619071  -5.24 0.0007031916    1.637    0.389
        78 -10.3579    167.9766    184.2564   1.0716909001e+02   1.0393049862e+01    0.4526701    0.2654026  67.86  0.001624455    2.996    0.666
        79  -9.4949     61.7704    184.9819   1.3216565646e+02   2.9045806557e+01    0.1848282    0.1013225 -67.20 0.0008436645    1.655    0.396
        80 -11.6180     16.0775    182.8105   1.4214234566e+02   3.4811208049e+01    0.4215645    0.2133221  88.89   0.00217956    1.864    0.464
        81 -10.4174      2.4961    180.6259   1.4481110044e+02   3.6509351454e+01    0.2910817     0.137442  62.56  0.001537458    2.162    0.537
        82  -9.5109    246.3248    190.3363   9.2752466848e+01  -5.2972327070e+00    0.1382125   0.09448773  -4.75 0.0007051273    1.718    0.418
        83 -11.0006    244.5806    178.1467   9.0624928798e+01  -2.9299501060e+00    0.2761466    0.1537885 -26.67  0.001276158    1.917    0.478
        84 -11.0281    224.4438    178.2903   9.4309199526e+01   5.9397514538e-01    0.2787202     0.272003  58.58 0.0005243056    1.195    0.163
        85  -9.5135     36.0726    178.5120   1.3728164074e+02   3.3761890433e+01    0.1639191    0.1234143  42.87 0.0004989702    1.464    0.317
        86 -10.7473    200.2730    176.9409   9.8772533147e+01   5.4505342141e+00    0.2096187    0.1863045 -31.89  0.000585623    1.099    0.090
        87  -9.5977     70.1834    177.6121   1.2914471705e+02   2.9633871867e+01    0.1689306    0.1361565  25.08 0.0005154104    1.558    0.358
        88  -9.4509     24.4857    174.5386   1.3947117161e+02   3.5913858688e+01    0.1267141    0.1011189 -84.26 8.027416e-05    1.016    0.015
        89  -9.7167     74.7373    171.2668   1.2706421103e+02   3.0506564297e+01    0.1801772    0.1611285 -40.79 0.0007885388    1.325    0.245
        90 -11.2969     12.8062    170.1305   1.4164327062e+02   3.8030013144e+01    0.3400888    0.1397575 -84.51  0.001521791    2.413    0.586
        91  -9.6244    209.8915    166.1847   9.4567454316e+01   5.6731836783e+00    0.2010202    0.1698236  -0.57  0.000553872    1.314    0.239
        92  -9.6363     67.1884    165.1394   1.2798096087e+02   3.3090919594e+01    0.1991998    0.1517351  77.34 0.0007903362    1.346    0.257
        93 -10.6288     51.4050    164.6266   1.3184984879e+02   3.5295925407e+01    0.3571068    0.1824511 -40.09  0.001485774    2.815    0.645
        94 -10.5712      4.5200    168.9894   1.4337081721e+02   3.8986216881e+01    0.2870434   0.07746014 -67.61  0.001220998    2.644    0.622
        95 -10.4156     44.8036    163.0667   1.3326497296e+02   3.6464293020e+01     0.357849    0.1625356 -77.46  0.001495329    2.350    0.574
        96 -10.2371    246.4980    162.4879   8.7090812517e+01  -5.0469753381e-01    0.1367035    0.1211314 -33.24  9.85273e-07    1.037    0.035
        97  -9.5630    200.2320    162.6428   9.5734181800e+01   8.3253025535e+00    0.1997507    0.1390087  36.02 0.0005193791    1.529    0.346
        98 -11.2461     37.0887    158.9455   1.3461578306e+02   3.8319519475e+01    0.4317047    0.1864336 -64.46            0    1.906    0.475
        99 -10.4589    247.7328    158.5846   8.6074481802e+01  -2.6884650398e-02    0.1760668    0.1334353  60.07  0.000950529    1.675    0.403
       100  -9.8707    238.6509    158.6504   8.7634780505e+01   1.5981896679e+00    0.1461551    0.1053354  -3.87 -0.0003781752    1.822    0.451
       101  -9.0362      8.3140    158.2913   1.4147156134e+02   4.1148156668e+01    0.1178244   0.07754437 -50.99 0.0005588041    1.592    0.372
       102 -11.2141     22.6102    155.6843   1.3776644500e+02   4.0537653184e+01    0.3934389    0.3023931 -69.97  0.002505884    1.094    0.086
       103  -9.0720    147.6837    156.3495   1.0600803077e+02   2.0771487296e+01    0.1639172    0.1236715  88.00 0.0007047525    1.730    0.422
       104  -8.9210    235.6838    154.6798   8.7311059142e+01   2.8803009454e+00    0.1419783    0.1071614  -4.90 0.0004535663    1.658    0.397
       105  -9.7592    196.8113    153.6100   9.4441625023e+01   1.0880972157e+01    0.2164807     0.144157  57.51 0.0008130522    1.714    0.416
       106  -9.3289    151.6742    153.3371   1.0438770269e+02   2.0617649128e+01    0.1640096     0.124384  87.70 0.0005570597    1.723    0.419
       107 -10.5422     11.5605    153.3557   1.4017401690e+02   4.2036397944e+01    0.2493464    0.1256489  16.81  0.001262357    2.916    0.657
       108 -10.5720    178.1134    151.4116   9.7906021845e+01   1.5347125842e+01    0.3030969    0.2666273  83.24  0.001528486    1.275    0.215
       109 -10.1108     26.5798    149.2372   1.3596123060e+02   4.1700089090e+01      0.24524      0.10734 -71.89 0.0006453226    1.974    0.493
       110 -10.7044    206.9782    146.1656   9.0742010768e+01   1.0253568791e+01    0.2549422    0.2142093 -40.43 0.0006943417    1.134    0.118
       111 -10.2563     17.0186    146.8776   1.3807333217e+02   4.3106390290e+01    0.2171784    0.1631776 -30.87  0.001342362    1.709    0.415
       112  -9.3699    233.5422    146.5349   8.5937748237e+01   4.8067098090e+00      0.14234    0.1288791 -34.84 7.263013e-05    1.021    0.021
       113 -11.1778      9.1217    145.6063   1.3989051032e+02   4.4032016455e+01    0.4133055    0.1634652  45.19   0.00196581    2.865    0.651
       114 -10.5379      2.8534    143.8082   1.4123301369e+02   4.4902110783e+01    0.2303014    0.1221749 -63.34  0.001311912    1.470    0.320
       115 -12.5684      9.6274    136.8538   1.3871089366e+02   4.6027941554e+01    0.4405991    0.3233129  70.73 0.0003010144    1.462    0.316
       116 -11.2774      3.2430    137.0385   1.4036898559e+02   4.6433308202e+01    0.4623316    0.1512047 -58.10  0.001861502    2.274    0.560
       117 -10.3615    236.6294    139.0326   8.3787958689e+01   5.6084632307e+00    0.2151967     0.195918  78.21 0.0005116396    1.251    0.200
       118 -10.8760     54.7817    136.1251   1.2637134725e+02   4.1811118095e+01    0.5899467    0.2908596  64.77  0.002056473    3.947    0.747
       119 -10.8471     21.8061    135.5857   1.3533675531e+02   4.5361639628e+01    0.3298676    0.2532097 -83.61  0.001964928    1.192    0.161
       120  -9.8324    137.8662    135.3870   1.0362004175e+02   2.7681987388e+01    0.2295039    0.1497439  33.16 0.0009515547    1.757    0.431
       121 -10.2148    106.9683    133.2171   1.1120935912e+02   3.4396360083e+01    0.2692582    0.2188296 -51.57 0.0009976123    1.183    0.155
       122 -11.5975     36.6663    130.5361   1.3047797877e+02   4.5179322407e+01    0.3770092    0.3293675 -61.41  0.001920029    1.061    0.058
       123 -10.1977     74.0311    129.3450   1.1958344354e+02   4.0843622138e+01    0.2508389    0.1839072 -47.49 0.0008129894    1.290    0.225
       124  -9.5579    249.3112    129.6862   7.9743033222e+01   4.8813288413e+00    0.1388404     0.100691 -67.54 0.0007030835    1.633    0.388
       125  -9.5033    243.0038    128.4744   8.0466477108e+01   6.3128037766e+00    0.1869422    0.1403934  53.15 0.0005160636    1.498    0.333
       126 -10.5271      1.8173    125.7772   1.3937032153e+02   4.9102600622e+01    0.2899351    0.1380807 -71.74  0.001482174    1.651    0.394
       127 -10.1600    226.2523    124.3965   8.2312799070e+01   1.0456701817e+01    0.1923061    0.1396364  67.89 0.0008164032    1.616    0.381
       128  -9.8190    219.8731    124.5283   8.3443188577e+01   1.1778488165e+01    0.2072387    0.1463898  51.77  0.001006673    1.520    0.342
       129 -11.2122     10.3126    122.6220   1.3662975114e+02   4.9264731951e+01    0.2439124    0.1900517  81.22 0.0009008945    1.369    0.270
       130 -12.1929     17.3523    117.3502   1.3383802885e+02   4.9962833698e+01     0.528586    0.3391204 -36.87  0.003083352    1.659    0.397
       131  -9.9471     19.8233    121.8382   1.3383682284e+02   4.8736815033e+01    0.1925396    0.1433471 -45.31  0.000610937    1.297    0.229
       132 -10.0381    249.5474    118.4798   7.7324344775e+01   6.8439647951e+00    0.1390101    0.1197898 -50.49 7.987535e-05    1.012    0.012
       133 -10.5570     86.0957    116.6044   1.1320411675e+02   4.1973452248e+01     0.239201    0.1882688 -61.14 0.0005385972    1.262    0.207
       134  -9.3848    179.4620    116.5196   8.9306075946e+01   2.2441242782e+01    0.1544079    0.1499408 -65.77 0.0001043409    1.023    0.023
       135  -9.0282    166.3193    115.6801   9.1945132929e+01   2.5663990755e+01    0.1623691    0.1234424 -82.83 0.0002442703    1.665    0.399
       136 -11.6631     35.7653    110.6409   1.2714463912e+02   4.9919391187e+01    0.5545682    0.3709878 -68.33  0.002961096    1.403    0.287
       137 -10.2146    248.5421    112.4691   7.6189561069e+01   8.1091293551e+00    0.1383959    0.1203894 -50.80 6.157783e-05    1.017    0.017
       138  -8.8223    212.5501    112.4845   8.1950783705e+01   1.5681891064e+01    0.1485076    0.1376763 -57.81  0.000250914    1.014    0.014
       139  -9.6683    107.7285    112.0648   1.0583803370e+02   3.9149152137e+01    0.2084878    0.1843406 -47.74 0.0002983527    1.095    0.086
       140  -9.0647     66.3720    112.7227   1.1819391125e+02   4.5854079411e+01    0.1386538    0.1065773  72.32 0.0007007867    1.690    0.408
       141 -10.7967     43.9621    109.8920   1.2446579918e+02   4.9254013756e+01    0.3489224    0.1984347 -36.95  0.001650847    1.867    0.464
       142 -12.1915     16.7959    109.0021   1.3262625353e+02   5.1904038139e+01     0.474681    0.3074285  15.19   0.00233547    1.942    0.485
       143 -11.5229     23.1833    107.3390   1.3038646873e+02   5.1786957978e+01    0.3106332    0.2292714  51.59  0.001203844    1.683    0.406
       144 -10.5694     55.8684    109.7994   1.2075814753e+02   4.7900146327e+01    0.2702527    0.1634746  -3.38    0.0011616    2.753    0.637
       145 -11.1590      5.6830    107.3727   1.3568922580e+02   5.3015646560e+01    0.3448722    0.1949282 -44.54  0.002018662    1.596    0.374
       146 -10.5652      3.0306    105.1603   1.3613566557e+02   5.3663880399e+01    0.2247201    0.1427634 -68.90 0.0004602674    1.277    0.217
       147  -9.3270    133.3784    107.7913   9.7795504603e+01   3.4802888050e+01    0.2204477    0.1449252 -34.60 0.0007151478    1.654    0.395
       148 -11.0417      3.4678    100.3749   1.3524295133e+02   5.4692072386e+01    0.2858908    0.2308572 -88.86 0.0009961561    1.346    0.257
       149 -11.1421    243.5019    104.4807   7.5201113065e+01   1.0533723182e+01    0.2263713    0.1888652  -2.97  0.000679318    1.662    0.398
       150 -10.0763    223.3758    103.9498   7.8152226159e+01   1.4887734090e+01     0.228169    0.1937967 -88.47 0.0004908087    1.224    0.183
       151 -11.0007    247.8994    102.3410   7.4116511262e+01   1.0018272733e+01    0.2475406    0.1683871 -52.89 0.0007557839    1.313    0.239
       152 -11.0797     69.7879    102.5929   1.1471394730e+02   4.7670021932e+01    0.2775337    0.2223846  38.04 0.0007995939    1.368    0.269
       153 -10.5064     10.1477    102.6188   1.3356366533e+02   5.3790746732e+01    0.2013609    0.1400753  42.88  0.001261404    1.802    0.445
       154 -10.4297     35.6480    101.3440   1.2528867732e+02   5.2033730118e+01    0.2291189    0.2018484  23.79  0.001186757    1.325    0.246
       155 -10.9397     27.5571    101.0875   1.2782003180e+02   5.2825587743e+01    0.2257694     0.173619 -36.03 8.080088e-05    1.250    0.200
       156  -9.7815    119.7789    101.4201   9.9665981593e+01   3.9056696493e+01    0.2150636    0.1437847  32.17  0.000942405    1.678    0.404
       157  -9.4243     84.7301     99.9999   1.0941970968e+02   4.5932905849e+01    0.1895698    0.1193756 -48.43  0.000540586    1.496    0.332
       158  -9.9574     50.2621     99.5986   1.2019828335e+02   5.0872388793e+01    0.2495169    0.1309011 -46.11   0.00119412    1.667    0.400
       159 -11.8811     20.4097     97.2952   1.2935723950e+02   5.4242489349e+01    0.3713725    0.2217874 -70.06 0.0009465916    1.621    0.383
       160  -9.9128     94.5356     96.5824   1.0553182305e+02   4.4979042043e+01    0.1420423    0.1380386 -33.75 5.052902e-05    1.043    0.041
       161 -10.6117      1.8420     93.1970   1.3455037464e+02   5.6340250393e+01    0.4157184   0.07008545 -57.96  0.001633037    3.115    0.679
       162  -9.4036     31.6833    104.3004   1.2715729993e+02   5.1742213950e+01    0.1211372   0.09451337  78.56 0.0002208892    1.616    0.381
       163  -9.6014     66.8781     93.4710   1.1329840509e+02   5.0075768984e+01    0.1823055     0.135568  29.71 0.0005105195    1.453    0.312
       164  -9.6378     31.4469     92.9825   1.2484781754e+02   5.4266128154e+01     0.194491    0.1070987 -58.44 0.0004206029    1.558    0.358
       165 -11.8132     11.5337     91.1829   1.3105358889e+02   5.6197258031e+01    0.3652593    0.2317034  12.45  0.002240692    1.932    0.482
       166 -10.8667     26.3406     91.1015   1.2613443044e+02   5.5117213347e+01    0.2559741    0.1931914 -11.30  0.001605074    1.486    0.327
       167  -9.7060    171.2685     91.0008   8.4482141695e+01   2.9413424947e+01    0.2019815    0.1323827 -41.27 0.0008944182    1.534    0.348
       168 -10.6213     94.6768     91.6683   1.0411796568e+02   4.5981988328e+01    0.2940881    0.1798366  -4.11  0.001048186    3.337    0.700
       169 -10.6136     62.9940     98.6837   1.1588518125e+02   4.9479161958e+01    0.3913718    0.1940439  23.87  0.001669165    2.539    0.606
       170  -9.5029    158.2435     89.9964   8.7002086864e+01   3.2707880948e+01    0.2041696    0.1292025 -41.02 0.0008841102    1.600    0.375
       171  -9.9224    103.7392     88.5958   1.0056278076e+02   4.4916131238e+01     0.194636     0.138748  51.99 0.0008653295    1.538    0.350
       172 -12.2653     48.4470     85.6153   1.1734858808e+02   5.4096698320e+01    0.3972603    0.3476501  41.37  0.002516006    1.368    0.269
       173 -10.3835      3.6309     85.9127   1.3266009067e+02   5.7793891163e+01    0.3088458    0.1905421  47.91  0.001838195    2.266    0.559
       174 -10.5147    112.5697     86.0042   9.7294321825e+01   4.3677867298e+01    0.2872735    0.2114232  62.53  0.001371124    1.637    0.389
       175 -10.8196     67.0827     85.6648   1.1111732561e+02   5.1686471097e+01    0.2817585    0.1834782 -40.54  0.001454144    1.406    0.289
       176 -11.1796    117.8265     82.9708   9.4957114860e+01   4.3174655599e+01     0.393942    0.2356464 -35.77  0.001738309    1.738    0.425
       177  -9.2958    130.2721     81.9850   9.1395342217e+01   4.0667736609e+01    0.1861294    0.1307887 -40.41 0.0005107374    1.448    0.309
       178 -11.3541     39.4272     81.0647   1.1927721041e+02   5.6021794602e+01    0.2283663    0.1993952 -37.06 0.0003353306    1.053    0.050
       179 -11.8021     19.3653     80.9771   1.2627019248e+02   5.7811461751e+01    0.2956442    0.2283425  84.93 0.0007243045    1.807    0.447
       180 -11.4233     23.4373     79.9919   1.2461712237e+02   5.7700800390e+01    0.3671007    0.1571139 -58.48  0.001132382    2.015    0.504
       181 -10.4686     75.3025     80.0409   1.0681510624e+02   5.1592856296e+01    0.3157834    0.1634221 -32.33  0.001354784    2.154    0.536
       182 -10.9749     71.4150     79.1436   1.0782431098e+02   5.2365716813e+01    0.2674312    0.2464838   8.60 0.0005009356    1.104    0.094
       183 -10.3014      2.1021     72.6511   1.3054087660e+02   6.0611925615e+01    0.2217641    0.1467303 -53.36 0.0007006081    1.157    0.135
       184 -11.3928      3.0742     77.7459   1.3125467674e+02   5.9523802683e+01    0.3166215    0.2890937  65.00 0.0006225759    1.447    0.309
       185 -11.4874      7.5718     74.1742   1.2891621558e+02   5.9996994791e+01    0.5203911    0.2261637 -58.48  0.002772984    1.806    0.446
       186 -10.7026    150.0751     77.5700   8.5383959374e+01   3.6922546807e+01     0.268035    0.2176621 -40.55 0.0003485298    1.269    0.212
       187 -10.5963     92.5469     77.7327   1.0068053481e+02   4.9130261064e+01    0.2669231    0.2002829  34.76 0.0008991076    1.344    0.256
       188 -11.6004     59.0677     75.6766   1.1096810787e+02   5.4797388199e+01    0.4139137    0.3421449  75.73  0.002234617    1.833    0.455
       189 -10.3823     54.5349     72.5015   1.1161177292e+02   5.6004108059e+01    0.2608882    0.1631458 -53.13  0.001374371    1.645    0.392
       190 -10.6268     65.2918     73.6841   1.0825137844e+02   5.4325765980e+01    0.2143653    0.1944304 -16.00 0.0003899595    1.042    0.040
       191 -11.4168     62.2306     71.7775   1.0872298926e+02   5.5121089893e+01    0.3969193    0.2308192 -31.59   0.00189705    1.724    0.420
       192  -9.9110     35.1430     76.9868   1.1972899964e+02   5.7281507231e+01    0.1704776    0.1569337 -61.95            0    1.269    0.212
       193  -9.2710     81.2872     79.0153   1.0458308264e+02   5.0832879733e+01    0.1625552    0.1169522 -40.46 0.0003640975    1.321    0.243
       194  -9.5912     29.7372     82.6197   1.2304020919e+02   5.6624447621e+01    0.3245046    0.1009824 -47.22  0.001357487    2.507    0.601
       195  -9.2891    187.5655     75.6148   7.7353500327e+01   2.8243434019e+01    0.1448811     0.134319  85.19 0.0001499128    1.027    0.026
       196  -9.2582    133.0260     74.9804   8.8654384794e+01   4.1323139601e+01     0.172248    0.1613382 -35.52 0.0003249893    1.099    0.090
       197 -10.9530     37.3786     67.4446   1.1631158110e+02   5.8941464705e+01    0.3582151    0.2076858 -36.26 0.0009900011    1.511    0.338
       198 -10.2094     41.1134     63.8387   1.1387519340e+02   5.9229949292e+01     0.201288    0.1944737 -40.51  0.001255742    1.299    0.230
       199 -10.8551     44.8652     75.0528   1.1575357361e+02   5.6656509933e+01    0.1971936    0.1774346  14.05 0.0003049479    1.226    0.184
       200 -10.5491     40.4153     72.5182   1.1663784326e+02   5.7640569452e+01    0.3581779    0.2239681 -55.81  0.001573528    1.599    0.374
       201 -11.2678     16.9249     72.5672   1.2517573463e+02   5.9707232285e+01    0.2603768    0.1850184 -68.65 0.0008953194    1.557    0.358
       202 -10.6020     16.6485     67.7288   1.2408561066e+02   6.0687215814e+01     0.230204    0.2046613 -65.43  0.001241666    1.335    0.251
       203 -10.6327     20.8454     65.9115   1.2204731091e+02   6.0726280560e+01    0.2541327    0.1903758  14.16  0.001703022    1.488    0.328
       204 -11.4541    152.4579     72.2254   8.3345294394e+01   3.7287173244e+01    0.2966207    0.2718618 -31.72 0.0005569262    1.163    0.140
       205 -10.9644    102.5914     73.0170   9.6239469153e+01   4.8113367466e+01     0.259495    0.2026312  39.59  0.000314879    1.265    0.210
       206  -9.6259    245.2923     72.6717   6.8139552578e+01   1.5536253119e+01    0.1412674   0.08837149 -66.68 0.0005737974    1.624    0.384
       207  -9.8841    175.0150     71.6944   7.8625324462e+01   3.1942598659e+01     0.207025    0.1860341  72.85 0.0003212679    1.057    0.054
       208 -11.0163     78.0402     71.9628   1.0348478171e+02   5.2705667964e+01    0.2957223    0.1892651  42.38 0.0003433382    1.674    0.403
       209 -11.3491     27.2759     70.3268   1.2082483175e+02   5.9333572552e+01    0.2787405    0.2031221 -55.01 0.0003186052    1.311    0.237
       210 -10.8718     31.0768     66.2724   1.1831472994e+02   5.9781154613e+01    0.3328262      0.18224 -53.06    0.0011468    1.665    0.399
       211 -11.1341    140.3757     69.8713   8.5389240939e+01   4.0524894746e+01    0.3875119    0.2303561 -49.60 0.0009116113    1.874    0.466
       212 -11.3513     49.5209     70.5544   1.1281205834e+02   5.6997631903e+01    0.3620319    0.2058401  41.02   0.00170661    2.125    0.529
       213 -10.4454     50.7058     67.6724   1.1153154490e+02   5.7402946578e+01    0.2387942    0.1744216  -1.48  0.001004265    1.452    0.311
       214 -11.4443     95.0918     67.8006   9.6827103754e+01   5.0475841624e+01    0.4594087    0.3086564 -42.95  0.001433714    1.528    0.345
       215 -10.7196     68.8443     67.5001   1.0514513211e+02   5.4964315319e+01    0.2979472    0.2455093 -22.79  0.001178462    1.106    0.096
       216  -9.0391    230.3114     68.7172   6.9177248839e+01   1.9410710866e+01    0.1410897   0.09363096 -71.98  0.000444352    1.571    0.363
       217 -10.3431    109.7753     73.3935   9.4303369385e+01   4.6612660246e+01     0.198057    0.1303762  35.23 0.0001278799    1.561    0.359
       218 -12.1520      4.2628     65.3884   1.2813735210e+02   6.1936826248e+01    0.4826497    0.3439595  74.26  0.002968506    2.354    0.575
       219 -10.3972    147.2166     66.2894   8.2795690680e+01   3.9520050134e+01    0.3487955    0.2310632  85.25    0.0012219    2.204    0.546
       220  -9.7307    102.9562     67.7016   9.4475099205e+01   4.8982563912e+01    0.2332234    0.1005057  29.08 0.0007034945    4.189    0.761
       221 -10.9149    129.8839     64.5950   8.6323070954e+01   4.3798621990e+01    0.3309071    0.2037359 -28.99 0.0004934227    1.814    0.449
       222 -10.8008    121.0463     63.5597   8.8227478069e+01   4.5923143733e+01    0.4535586    0.2599119  -9.11  0.001623135    3.439    0.709
       223 -12.1241     82.1723     61.6070   9.8847284040e+01   5.3862008065e+01    0.7768751    0.3987756  28.71  0.002554527    2.255    0.557
       224  -9.5113    189.1541     64.1622   7.4165066000e+01   2.9741923989e+01    0.1937513    0.1546675 -78.66 0.0002393561    1.270    0.212
       225  -9.8702    174.0014     63.9581   7.6754136992e+01   3.3450778428e+01    0.2195227    0.2009031  71.09 0.0004724224    1.040    0.039
       226  -9.2893     45.3262     64.6311   1.1256216065e+02   5.8610998630e+01    0.1169667     0.100572  88.22 4.769296e-05    1.811    0.448
       227 -11.6069     56.1866     62.1917   1.0787095454e+02   5.7713916309e+01     0.266151     0.203447 -11.13 0.0002203538    1.266    0.210
       228 -10.6994     51.8294     62.4782   1.0952898510e+02   5.8224525655e+01    0.2887177    0.1891113 -16.95 0.0008834897    1.634    0.388
       229 -11.8694     10.1147     62.0487   1.2511367404e+02   6.2233529889e+01    0.4467427    0.2731729  53.22 0.0009832397    2.961    0.662
       230  -9.7694    202.5104     62.4857   7.1636857152e+01   2.6803340637e+01    0.1418001    0.1274868 -84.07 -2.074214e-05    1.017    0.016
       231 -11.1110     27.2729     61.4141   1.1837344269e+02   6.1048423248e+01    0.3782007    0.1778575  18.42  0.001944429    2.445    0.591
       232 -10.4576     33.1660     59.8395   1.1566317005e+02   6.0791908684e+01    0.2804505    0.1939597 -14.76  0.001726264    1.422    0.297
       233  -9.6225    160.7033     61.0291   7.8483829213e+01   3.7136252713e+01    0.1971645    0.1887417 -50.51 0.0008105247    1.107    0.097
       234 -10.9963     64.6708     60.0734   1.0419527417e+02   5.6906305689e+01    0.3193751    0.1797368  36.02  0.001378212    1.830    0.454
       235 -10.8083     69.3967     58.1216   1.0192405039e+02   5.6532149422e+01    0.3758646    0.3352293 -61.01  0.002336157    1.489    0.329
       236 -10.0218     17.9014     59.7568   1.2151177420e+02   6.2127179872e+01     0.195588    0.1592452  40.06  0.001351368    1.667    0.400
       237  -9.0044     51.3092     58.2670   1.0837663877e+02   5.9042898853e+01    0.1257789   0.08589785 -11.38 0.0002130992    1.538    0.350
       238 -10.8538     44.6394     57.6100   1.1063462076e+02   5.9967757382e+01    0.2946713    0.2142535  28.11  0.001102662    1.481    0.325
       239  -9.6606     38.7652     58.2223   1.1304041521e+02   6.0513464084e+01    0.1745931    0.1203457 -19.96  0.000582058    1.366    0.268
       240 -10.7499    123.1565     56.5179   8.5497865306e+01   4.6574994706e+01    0.2594666    0.2181432 -61.78 0.0009708172    1.414    0.293
       241  -9.7404    122.0337     51.4570   8.4183356804e+01   4.7578490851e+01    0.3053477    0.1373877  30.73 0.0009786439    3.966    0.748
       242 -10.0706    114.7540     57.3429   8.7916007066e+01   4.8267057619e+01    0.2646224    0.1904135  40.07 0.0003403809    1.324    0.245
       243  -9.9328    117.5366     54.5793   8.6309464748e+01   4.8095133561e+01     0.214892    0.1995584   8.87 0.0004357005    1.075    0.070
       244  -9.6085    104.6658     56.3385   9.0340267160e+01   5.0513534891e+01    0.1835396    0.1408506 -49.38 0.0006061594    1.517    0.341
       245 -10.6303    100.7453     55.5759   9.1203841384e+01   5.1414815668e+01    0.4037019    0.1597784  42.93  0.001602166    2.424    0.587
       246 -10.2498     75.4575     56.0588   9.9194848410e+01   5.5914059428e+01    0.2170062    0.1812673  51.96 0.0007464886    1.490    0.329
       247 -12.2774     38.4743     51.4077   1.1097429610e+02   6.1744454584e+01    0.5428829    0.3777693 -23.93  0.001979029    1.256    0.204
       248 -10.3588     45.0040     51.4134   1.0847266007e+02   6.0999073519e+01    0.2723357    0.1806581 -23.37 0.0005862322    1.389    0.280
       249 -12.1374    127.9737     51.2889   8.2693368796e+01   4.6280318428e+01    0.4232834    0.3131705 -15.96 0.0005272566    1.579    0.367
       250 -11.3216      5.2009     52.3123   1.2449201606e+02   6.4362221131e+01    0.3688533    0.1728169 -22.45  0.002000452    2.300    0.565
       251 -10.4957     87.1355     52.4798   9.4232504332e+01   5.4472256470e+01    0.1893425    0.1835411  40.79 0.0008543771    1.230    0.187
       252 -11.3305     13.1237     51.2629   1.2100538409e+02   6.4039624193e+01      0.32479    0.1912186 -49.28  0.001289734    1.424    0.298
       253 -10.5491     71.6038     51.0219   9.8767135673e+01   5.7348735788e+01    0.3684897    0.2361516  39.63  0.001238959    1.589    0.371
       254 -10.3207     76.7457     50.4311   9.6848871425e+01   5.6600296780e+01      0.22714    0.1500363  28.05 0.0006941265    1.490    0.329
       255  -9.3234     50.0377     51.9968   1.0677646306e+02   6.0282160908e+01     0.146454     0.122848  -8.86  0.000348715    1.035    0.034
       256 -10.9364    114.2490     49.7357   8.5600917590e+01   4.9515621722e+01    0.3946737     0.277103 -42.48  0.002072794    1.571    0.364
       257 -10.4845    196.9352     48.1775   6.8976693100e+01   3.0270742539e+01    0.2108237     0.182324 -62.40 0.0002427979    1.125    0.111
       258 -10.5179    101.5205     48.4885   8.8625900742e+01   5.2327560781e+01    0.2279701    0.1762531  51.08  0.001276394    1.321    0.243
       259  -9.1716    104.3360     46.2962   8.7108455901e+01   5.2073137129e+01    0.2369531    0.1103286  40.86 0.0006455659    2.068    0.516
       260 -10.9640     51.1744     48.4421   1.0513892587e+02   6.0723420497e+01     0.222425    0.1939342 -82.86 0.0007906597    1.958    0.489
       261 -10.9291    153.0146     47.2080   7.6080144043e+01   4.1020630981e+01     0.499095    0.2741709 -66.73  0.001885684    3.147    0.682
       262 -10.5008     62.6477     47.2008   1.0053218134e+02   5.9326372688e+01     0.224271    0.1706145   4.09 0.0003295284    1.252    0.201
       263 -10.5525    142.6576     45.8493   7.7767941133e+01   4.3663479313e+01    0.2765711    0.2352825 -62.95 0.0007740422    1.314    0.239
       264 -10.4826     96.6964     46.4134   8.9298570709e+01   5.3578569900e+01       0.3682    0.2237132  17.90  0.001703086    2.170    0.539
       265 -10.4599     96.6361     32.7838   8.4585677140e+01   5.5396859435e+01    0.3493216     0.187594  26.07  0.001031036    2.297    0.565
       266 -11.3481     96.3131     40.6063   8.7411153220e+01   5.4458350024e+01    0.3910124    0.2757962  64.05  0.001506751    1.823    0.452
       267 -10.0254     97.0185     37.0046   8.5959044462e+01   5.4792628479e+01    0.1846727    0.1619208 -82.78 0.0004849419    1.594    0.373
       268  -9.7731     19.1791     46.9918   1.1725272580e+02   6.4336728164e+01    0.1697565    0.1354043 -80.59  0.001084144    2.165    0.538
       269 -10.8718      4.6149     47.2002   1.2331649583e+02   6.5321488324e+01    0.2268216    0.1368284 -36.66  0.001506267    1.265    0.209
       270 -11.2178     11.2344     43.8108   1.1955690266e+02   6.5487173694e+01    0.2890365    0.1973291 -22.56  0.001169012    1.230    0.187
       271 -11.2564      6.9948     41.1462   1.2052779588e+02   6.6231298889e+01    0.3104561    0.1283489 -50.95 0.0006160794    1.996    0.499
       272  -9.0285    233.3190     45.2875   6.3723483748e+01   2.2271698170e+01    0.1173327     0.100522  43.28 0.0003930979    1.595    0.373
       273 -10.3679    122.8263     44.7096   8.1846278691e+01   4.8353869335e+01    0.2696287     0.220675  19.14  0.000792803    1.307    0.235
       274 -10.1706     91.8249     45.0831   9.0269254632e+01   5.4703691157e+01    0.1815883    0.1734735 -17.52  0.000310633    1.182    0.154
       275  -9.9173     85.8192     45.1058   9.2098535371e+01   5.5813834737e+01    0.1790043    0.1730202  12.62 0.0003463648    1.196    0.164
       276 -11.3478     80.6584     42.6917   9.2865977859e+01   5.7080386610e+01    0.3899839    0.2612659 -48.39  0.002092459    1.924    0.480
       277 -10.3929    163.3803     42.6241   7.2870147572e+01   3.9149164702e+01    0.2608051     0.156304  58.89 0.0007549056    1.502    0.334
       278 -10.1936     64.1252     41.4957   9.7969267447e+01   5.9966774213e+01    0.2501184    0.1612565 -35.13  0.001224407    1.531    0.347
       279 -10.3958    110.7250     41.9884   8.3968870584e+01   5.1339460286e+01    0.2421972    0.1851171  58.56 0.0003757621    1.360    0.264
       280 -10.8229     51.9263     41.2774   1.0231829490e+02   6.1748917467e+01     0.198817    0.1499041 -37.88 0.0005596055    1.393    0.282
       281 -10.4781     25.5136     41.3688   1.1280342861e+02   6.4735102562e+01    0.4452347    0.1896218  18.42  0.002231005    2.699    0.630
       282 -10.8299     20.6123     37.7796   1.1362626558e+02   6.5759309862e+01    0.2408555    0.1784969 -32.59 0.0008823188    1.144    0.126
       283 -11.6989     24.8325     35.5815   1.1106895646e+02   6.5725686544e+01    0.3003972    0.2233029  30.57  0.001025846    1.640    0.390
       284 -10.2023     89.9807     40.3372   8.9161206781e+01   5.5710735837e+01    0.2107726    0.1834667 -57.94 0.0006814602    1.537    0.349
       285  -9.6812    235.3571     38.9606   6.2171428125e+01   2.2702232541e+01    0.2869294    0.1170155 -53.15  0.001101351    2.322    0.569
       286 -10.0637    226.5887     40.1671   6.3373367885e+01   2.4485238221e+01    0.2130282    0.1536674 -87.75 0.0004648904    1.257    0.204
       287 -11.0930    135.4874     39.2744   7.7289299415e+01   4.6201659786e+01    0.3702691    0.1795029 -34.14 0.0009980131    2.221    0.550
       288 -10.1677    129.6955     33.3259   7.6683038567e+01   4.8262822398e+01     0.239114    0.1784148 -62.52  0.001134792    1.706    0.414
       289  -9.8716     44.1272     39.2596   1.0456281173e+02   6.3058567557e+01     0.219471    0.1231307 -45.19 0.0009205428    1.930    0.482
       290 -11.0142     84.9793     38.8382   9.0140422633e+01   5.6840036977e+01    0.1978714    0.1519495  21.04 0.0005113055    1.215    0.177
       291 -10.2119     68.4394     38.7613   9.5475446936e+01   5.9684999438e+01    0.2690233    0.1428282 -14.07 0.0009345755    2.593    0.614
       292 -10.1697     70.9735     35.3362   9.3353521875e+01   5.9743473098e+01    0.1743964    0.1445465  14.14 0.0006877212    1.042    0.040
       293 -11.7012      2.4038     35.1902   1.2065394784e+02   6.7522657715e+01    0.8101993    0.4069824 -18.19  0.002516577    1.989    0.497
       294 -10.0240    137.0200    247.6898   1.2437548202e+02   3.5122179126e+00    0.1856883    0.1475876  46.12 0.0004080012    1.070    0.066
       295 -10.9070      9.6339     25.2855   1.1400338858e+02   6.8600834919e+01    0.4817497    0.1934341 -30.39  0.002587234    2.240    0.554
       296 -10.2317      8.1451     21.2001   1.1315785752e+02   6.9319769632e+01    0.1551112    0.1289755  -1.91 0.0003883699    1.294    0.227
       297 -10.9815    101.6443     36.9656   8.4671332811e+01   5.3872419359e+01    0.2333263     0.174377  44.55 0.0003780948    1.223    0.182
       298 -11.4587     80.8812     36.8784   9.0706514592e+01   5.7839977952e+01    0.3815233    0.2282817  23.63   0.00196359    1.807    0.447
       299 -10.4868    105.9144     34.8064   8.2798388061e+01   5.3267846666e+01    0.3135885    0.2083437 -48.78  0.001639604    1.932    0.482
       300 -10.4361     56.9931     35.7147   9.8388474215e+01   6.1855643326e+01    0.1690069    0.1389147   5.55 0.0006347164    1.040    0.038
       301 -10.7681      9.5149     16.0668   1.1049951083e+02   6.9941282921e+01    0.2122134    0.1358076  -1.96 0.0008013701    1.356    0.262
       302 -10.3720    110.9556     34.8601   8.1530748985e+01   5.2203497411e+01    0.1984729    0.1823321  -3.92 0.0002862706    1.140    0.123
       303 -10.9045    150.9501     34.1051   7.2698639014e+01   4.3215860579e+01    0.2078025    0.1808847  57.43 0.0005376612    1.052    0.049
       304  -9.9202     31.8132     33.8766   1.0752830897e+02   6.5285833776e+01     0.210506    0.1138274  29.86  0.001234611    1.918    0.478
       305  -8.9158    158.2653     33.2875   7.1166626107e+01   4.1568307082e+01    0.1293262   0.09768684  35.96 0.0001613183    1.496    0.332
       306  -9.3620    118.6280     32.8048   7.8995161413e+01   5.0796399105e+01    0.1728382    0.1189678 -42.47 0.0005322843    1.675    0.403
       307  -9.8638     77.6262     33.1358   9.0364631080e+01   5.8901769174e+01    0.1760384    0.1091851 -15.40 0.0004735268    1.751    0.429
       308 -10.5651     18.7156     31.8468   1.1234922563e+02   6.6860897115e+01      0.21949     0.189551 -54.61  0.001619274    1.699    0.411
       309 -10.4496    178.9052     31.8465   6.7500870891e+01   3.6774202272e+01    0.2247686    0.1786225 -66.15 0.0004129866    1.271    0.213
       310  -9.1938     89.6962     31.7223   8.6174469993e+01   5.6873780564e+01    0.1297324   0.08713334  20.77 0.0002865101    1.546    0.353
       311 -10.2344     73.8368     31.1090   9.0829350628e+01   5.9813427776e+01    0.2110472    0.1543965  21.81 0.0003576017    1.238    0.192
       312 -10.0606     56.2365     31.0395   9.6888338703e+01   6.2606763189e+01    0.1689289    0.1360358  -6.83 0.0003896608    1.071    0.066
       313 -10.2997     50.2314     28.4476   9.8119415055e+01   6.3802816025e+01    0.3973751    0.1292311 -28.56   0.00154519    3.765    0.734
       314  -9.6999    162.7679     29.3756   6.9331237832e+01   4.0954381606e+01    0.2097671    0.1615486  12.90 0.0007528466    1.767    0.434
       315 -10.3478    100.9916     28.7242   8.1985822995e+01   5.5003632616e+01    0.1952755    0.1761146  -3.59 0.0004237544    1.152    0.132
       316 -10.8871    214.2949     28.1007   6.2097899965e+01   2.8865731878e+01     0.359179    0.1377306  60.68  0.001570804    2.377    0.579
       317 -10.2729    154.7359     27.3341   7.0097825037e+01   4.3109830009e+01    0.2056403    0.1586713  17.71 0.0006640662    1.667    0.400
       318 -10.2522    124.9654     27.9406   7.5998549833e+01   4.9952669659e+01    0.1922347    0.1641562  43.83            0    1.052    0.049
       319 -11.5758     70.8733     26.2662   8.9959729024e+01   6.0910750555e+01    0.4145318    0.2394455  33.13  0.001618741    1.576    0.365
       320  -9.7185    203.3571     27.2882   6.3166070150e+01   3.1506881859e+01    0.1283382   0.09273814  46.40  0.000330316    1.680    0.405
       321  -9.9842     24.7924     26.9590   1.0788725867e+02   6.7026717551e+01    0.1693651    0.1186836 -14.10 0.0005002928    1.153    0.133
       322  -9.0223    119.5331    247.4912   1.2783396903e+02   6.4735093048e+00    0.1300035    0.1096295  54.99 2.846427e-05    1.020    0.020
       323  -9.2706     90.5311     26.5555   8.4065550655e+01   5.7323353360e+01    0.1258719    0.1089361  27.20 4.965138e-05    1.031    0.030
       324 -10.1644     16.5981     25.8764   1.1107727695e+02   6.7945946194e+01    0.2040763   0.08307718 -39.72   0.00111922    2.029    0.507
       325 -11.2656     62.1423     24.0125   9.2036464910e+01   6.2602527462e+01    0.3639233    0.2950868  51.43  0.002390335    1.635    0.388
       326 -10.6487     65.2511     20.9879   8.9774227133e+01   6.2457372030e+01    0.2052795    0.1524984  29.23 0.0006747785    1.175    0.149
       327  -9.5456    221.1794     24.5953   6.0600833393e+01   2.7730554177e+01    0.1749968     0.102465  62.74 0.0006833514    1.648    0.393
       328 -10.2053    147.7609    245.2215   1.2188022301e+02   2.1281293286e+00    0.1919589    0.1022489 -39.30 0.0008900862    2.486    0.598
       329  -9.5542    115.4996    244.5127   1.2826595499e+02   7.7002199417e+00    0.1313948    0.1100829  57.62 -3.075693e-05    1.003    0.003
       330 -10.2844     72.0343    243.7033   1.3668007315e+02   1.4622283240e+01    0.2398009    0.1846893  54.29   0.00124756    1.171    0.146
       331 -11.8799     74.3744    238.3997   1.3570136760e+02   1.5351451046e+01     0.586898    0.3759405  59.37  0.003409033    1.333    0.250
       332 -11.6563     35.3738    241.7201   1.4327315035e+02   1.9904346508e+01    0.6797872    0.2222186  46.36  0.003296536    2.462    0.594
       333 -10.3765    124.2674     22.0466   7.4262805677e+01   5.0743907443e+01    0.1690257    0.1596835  42.43 -0.000430966    1.090    0.083
       334 -11.2008     85.4349     20.5969   8.3323777361e+01   5.8948332230e+01    0.3760004    0.2031312   2.85  0.001731176    2.736    0.634
       335  -9.8442     94.6455     22.1461   8.1336138717e+01   5.7004570843e+01     0.168092    0.1114018  -6.17 0.0006458216    1.712    0.416
       336 -10.8024     53.8490     23.3604   9.4750530072e+01   6.3939041796e+01    0.2223222    0.1845077  21.47 0.0006108634    1.193    0.162
       337 -10.2481    136.9914     20.0028   7.1112309819e+01   4.8062105257e+01    0.1975093    0.1667839  54.87            0    1.034    0.033
       338 -10.3503    103.5964     19.2728   7.8021446584e+01   5.5486604679e+01    0.2940571    0.1381621  32.58  0.001309325    2.437    0.590
       339  -9.6852     45.1048     20.0774   9.6734452904e+01   6.5567159406e+01    0.1486084    0.1458974 -24.63  0.001118588    1.641    0.391
       340 -10.2053     31.4405    237.2270   1.4364245294e+02   2.1285337694e+01    0.2544527     0.157625  82.41 0.0009727036    1.330    0.248
       341 -10.7971     29.0668    233.0168   1.4375774704e+02   2.2426699685e+01    0.2794857    0.1472337  58.15   0.00109049    1.597    0.374
       342 -10.9569    156.2039    240.7449   1.1952179233e+02   1.4719473558e+00    0.2398787    0.1789943 -86.23  0.001291563    1.900    0.474
       343 -10.4561    217.2702     16.5102   5.9263497591e+01   2.9578277873e+01    0.3459388    0.1187907  60.81  0.001499139    2.619    0.618
       344 -10.0428    133.3833     17.2581   7.0951455524e+01   4.9164526132e+01    0.1774905    0.1334018 -18.82 0.0005008068    1.562    0.360
       345 -10.1300     88.9661    241.0094   1.3312198687e+02   1.2630483530e+01     0.176986     0.159558 -21.46 0.0009460638    1.687    0.407
       346 -10.0425    108.2266     17.0495   7.6148286738e+01   5.4736531861e+01      0.17289    0.1608763  89.95 0.0005954201    1.305    0.234
       347  -9.4292     50.2977    240.3297   1.4045327127e+02   1.8300199142e+01     0.104636   0.09154561 -53.99 0.0003612574    1.639    0.390
       348 -10.1877    165.7274     15.0082   6.5012199342e+01   4.1813517213e+01    0.3092354    0.1522502  75.19  0.001434671    1.968    0.492
       349 -10.0245    195.8580    238.4054   1.1120106922e+02  -4.8960657646e+00    0.2416873    0.1788427  16.61  0.001377615    1.351    0.260
       350  -9.7989     49.8896     15.1489   9.2860065820e+01   6.5475311575e+01    0.1655048    0.1424125   7.74  0.001042204    1.204    0.170
       351 -11.2883    176.7786    235.9212   1.1459928919e+02  -1.2467616774e+00    0.4845468     0.297047 -10.17  0.002054428    3.033    0.670
       352 -12.3882    232.9886    246.5357   1.0551163383e+02  -1.1890276334e+01    0.4311005    0.3387497  16.24  0.002890222    1.069    0.065
       353 -11.6086     27.9385    246.5629   1.4491825075e+02   1.9828792730e+01    0.4473636    0.1873478 -78.17   0.00240986    2.163    0.538
       354 -10.1713    115.4983     12.8012   7.3102404134e+01   5.3575662011e+01    0.2564189     0.158344  60.50  0.001418143    1.450    0.310
       355 -10.2526    159.9169    235.8706   1.1802379829e+02   1.6981607804e+00    0.2066688    0.1718238  20.80 0.0006250808    1.262    0.207
       356 -11.1552     73.8424    233.1362   1.3526088952e+02   1.6512335296e+01    0.2575799     0.187992  64.65 0.0008824909    1.154    0.133
       357 -10.4836      1.4305    245.0071   1.4924240647e+02   2.3021300199e+01    0.1565495   0.08133874 -83.55 0.0004588467    1.548    0.354
       358  -9.5789    108.1302     10.4065   7.3896726698e+01   5.5369724773e+01    0.1681714    0.1093153  69.14 0.0007096307    1.664    0.399
       359 -10.0727    167.0154    233.7671   1.1623963864e+02   8.3131833945e-01    0.2163375    0.1977466 -39.58 0.0007968941    1.229    0.186
       360 -10.5526    153.4505    233.7557   1.1902823265e+02   3.2195287768e+00    0.2463121    0.1958484  -6.60  0.001358413    1.673    0.402
       361 -10.1112    109.5841    242.8560   1.2924379124e+02   8.9888146070e+00     0.271416    0.1385853  54.88  0.001055874    1.852    0.460
       362  -9.9143     79.7378    231.3933   1.3389760785e+02   1.6000735741e+01    0.2067778     0.149192  42.05 0.0006062624    1.399    0.285
       363 -10.1715     88.1143    227.1485   1.3170685451e+02   1.5608997463e+01    0.1880975    0.1801538  64.98   0.00122724    1.260    0.207
       364 -10.0853     72.6029    250.1560   1.3718988861e+02   1.3269135874e+01    0.1779557    0.1684547  19.86  0.001243087    1.580    0.367
       365  -9.2120     58.3517    230.2911   1.3801773180e+02   1.9298652544e+01    0.1082029   0.09910319 -34.46 0.0003757092    1.674    0.403
       366 -10.2636    190.5284    227.2665   1.1037686143e+02  -2.1382589009e+00    0.3817402    0.1318357 -44.13  0.001463174    3.146    0.682
       367 -10.8184    115.9883    226.4810   1.2580137091e+02   1.1185146143e+01     0.333969    0.1413781 -61.28   0.00126383    2.685    0.628
       368  -9.6701    249.4489    227.4235   9.9199494284e+01  -1.1558654589e+01    0.1236821   0.09931823  -0.73 0.0002206713    1.038    0.036
       369  -9.8339    127.3350    233.3477   1.2438164611e+02   7.8607360686e+00    0.1304982    0.1065549  -1.28 0.0007048253    1.775    0.437
