#   1 NUMBER                 Running object number                                     
#   2 MAG_AUTO               Kron-like elliptical aperture magnitude                    [mag]
#   3 X_IMAGE                Object position along x                                    [pixel]
#   4 Y_IMAGE                Object position along y                                    [pixel]
#   5 X_WORLD                Barycenter position along world x axis                     [deg]
#   6 Y_WORLD                Barycenter position along world y axis                     [deg]
#   7 A_WORLD                Profile RMS along major axis (world units)                 [deg]
#   8 B_WORLD                Profile RMS along minor axis (world units)                 [deg]
#   9 THETA_WORLD            Position angle (CCW/world-x)                               [deg]
#  10 FWHM_WORLD             FWHM assuming a gaussian core                              [deg]
#  11 ELONGATION             A_IMAGE/B_IMAGE                                           
#  12 ELLIPTICITY            1 - B_IMAGE/A_IMAGE                                       
         1 -11.8378      2.4074     40.5941   1.3183691029e+02   6.6319835534e+01    0.9071293   0.09738959 -60.33  0.002845463    5.549    0.820
         2 -13.3850    189.2675     27.8537   7.3148117917e+01   3.4021158245e+01     1.312677      1.08742  69.03  0.005833368    1.175    0.149
         3 -13.9198    201.8849     10.0354   6.6404460867e+01   3.2705184096e+01     1.903748      1.14214  43.86   0.00916916    1.838    0.456
         4 -13.3954      7.0829     10.5294   1.1934785462e+02   7.1492520242e+01     1.664122    0.7380157 -36.21  0.009689076    1.735    0.424
         5  -9.7292    152.4705    248.4612   1.2949665636e+02   5.6273970386e+00    0.1139263   0.08770435  44.36 9.368941e-05    1.018    0.018
         6 -11.2003    247.5527    249.1783   1.1399073145e+02  -8.9373098243e+00    0.5272421     0.201711  33.16  0.002851492    2.092    0.522
         7 -11.4961    139.7538    249.2399   1.3171884036e+02   7.4815427133e+00    0.3357935    0.2556711  51.90  0.002455861    1.063    0.060
         8 -10.3472     98.3152    249.4242   1.3860172424e+02   1.3540855566e+01     0.244707    0.1668755  46.88  0.001364001    1.234    0.189
         9 -10.7169    102.4062    247.5744   1.3776523539e+02   1.3242796454e+01    0.2237896    0.1539671  61.70 0.0007600957    1.194    0.163
        10  -9.2320     73.7913    250.3808   1.4262124868e+02   1.6689855947e+01      0.13851    0.0832278  40.84 0.0005487655    1.622    0.383
        11  -9.0606     67.4974    250.5346   1.4362313090e+02   1.7467282393e+01    0.1056076   0.07440352  63.63 6.373412e-05    1.029    0.028
        12 -12.3224     32.7079    246.8885   1.4873571951e+02   2.2126432260e+01    0.8580195    0.6218082  26.59  0.006449678    2.332    0.571
        13 -14.3994     56.4285    212.0318   1.4251232169e+02   2.5341220597e+01       6.9887    0.3325338  47.45   0.02076071    7.099    0.859
        14 -14.6644     18.7992    170.7182   1.4616255339e+02   3.7455493368e+01     4.995838     1.635749  87.44   0.01755396    5.222    0.809
        15 -10.8369    196.3884    241.8266   1.2123284066e+02  -4.6510683036e-01    0.5391015    0.3063806 -64.06  0.002150363    6.186    0.838
        16 -11.1214    233.7138    237.2101   1.1436762546e+02  -5.7448411122e+00    0.4304194    0.2594342 -55.23  0.002019309    4.705    0.787
        17  -8.5325     57.5945    240.2924   1.4447258717e+02   2.0321574189e+01    0.1162293   0.05533612  63.39 0.0006989099    1.816    0.449
        18  -8.5401     26.6325    239.3108   1.4925099263e+02   2.4003165562e+01    0.1100732    0.0493948  64.50 0.0007037197    1.763    0.433
        19  -9.5864     21.1707    238.8403   1.5005435290e+02   2.4648654045e+01    0.1197307    0.0969627  80.52 0.0005200473    1.303    0.233
        20 -10.0540    183.1727    238.2797   1.2298146738e+02   2.0781858864e+00    0.1901527    0.1222772  28.86 0.0006971071    1.450    0.310
        21 -14.8972      3.4424    230.6539   1.5233797168e+02   2.7737798398e+01     10.11904    0.2290335 -75.02    0.0310964   10.156    0.902
        22  -9.9409    228.7940    229.0889   1.1389668931e+02  -4.1184860546e+00    0.3531981     0.196465 -53.75  0.001550035    4.761    0.790
        23 -10.4885     82.9563    243.7251   1.4062580149e+02   1.6520894811e+01    0.2793635    0.1429093  63.49  0.001699033    1.813    0.449
        24 -13.3996      9.8737    206.9523   1.5017674832e+02   3.1284935364e+01    0.7515972    0.5925884  76.90  0.002701579    1.177    0.150
        25  -9.0187     33.9560    229.1944   1.4753456853e+02   2.4910846913e+01    0.1649448   0.09742511  66.52 0.0007624018    1.288    0.224
        26 -12.6275     43.3803    233.4553   1.4629115173e+02   2.3134514327e+01    0.2830234    0.2532557 -85.00 0.0007863076    1.480    0.325
        27 -13.7957     49.4230    224.3124   1.4467590798e+02   2.3995957257e+01    0.9553198    0.5836191  81.68  0.005542388    1.433    0.302
        28 -10.8051    173.7942    222.1624   1.2233750150e+02   5.7780817432e+00    0.3629925    0.2805786  74.23  0.002243802    1.776    0.437
        29  -8.7947    152.4979    212.9185   1.2488508304e+02   1.0777781213e+01     0.154593    0.1248277 -51.97  0.000388903    1.466    0.318
        30 -12.4380     26.7611    203.3380   1.4708081482e+02   3.0299454874e+01    0.4512089    0.1885659  54.94  0.001295359    2.007    0.502
        31  -9.9039    193.0984    195.3548   1.1448518288e+02   6.2824211705e+00    0.6217192    0.2936936 -58.19  0.001953754    6.199    0.839
        32 -11.3873     67.8191    198.6976   1.3919774023e+02   2.6386787988e+01    0.3079807    0.2108974 -49.59  0.001474317    1.943    0.485
        33 -11.5370     73.0641    190.9450   1.3736780930e+02   2.7188065497e+01    0.2416454     0.210342 -67.97 0.0006045188    1.311    0.237
        34  -8.6966    104.8299    180.8322   1.2963795855e+02   2.4492305655e+01    0.1704275    0.1314344  74.88 0.0003860682    1.287    0.223
        35 -13.2129     69.5509    176.0828   1.3636671277e+02   3.0642036369e+01    0.4531634    0.2650402 -46.03  0.001791801    2.279    0.561
        36 -10.7479     82.0663    178.2786   1.3403287539e+02   2.8461513362e+01    0.2209694    0.1912253  85.50 0.0003592833    1.046    0.044
        37  -8.6167    171.7842    173.5739   1.1459612916e+02   1.3799016952e+01    0.1859494    0.1236103  53.33 0.0004293978    1.539    0.350
        38 -11.8974     89.1168    168.6002   1.3121236052e+02   2.9414659325e+01    0.5913503     0.514409  67.64  0.003809613    1.063    0.059
        39  -8.6917    250.6891    171.6797   9.9798147619e+01  -7.8271573864e-01    0.1349476   0.08707666   9.34 0.0002222868    1.647    0.393
        40 -10.6269    192.5025    156.2320   1.0697987535e+02   1.2641479589e+01    0.4369735    0.3153597 -77.58  0.001742058    2.441    0.590
        41 -11.2627     32.7925    156.3176   1.4195326050e+02   3.9110764167e+01    0.4234277    0.1345611 -75.14  0.001771112    3.056    0.673
        42  -9.7309    100.6516    152.4097   1.2606206975e+02   3.1019047672e+01    0.2407832    0.2328525 -52.58 0.0007295083    1.177    0.151
        43 -11.9256     89.5729    151.8688   1.2852991283e+02   3.2891655045e+01    0.2616533    0.2399786 -39.67 0.0006140532    1.304    0.233
        44 -12.7184     66.2835    143.1512   1.3262270554e+02   3.8117565922e+01      1.14901    0.6253713  81.23   0.00320305    2.792    0.642
        45  -9.1495    181.9037    144.6765   1.0656382627e+02   1.6861747590e+01    0.2031886    0.1781451  50.37 0.0005887534    1.163    0.140
        46  -8.5541    192.0480    143.9891   1.0437982281e+02   1.4836304573e+01    0.1699498    0.1595004  -6.57 0.0003713509    1.047    0.045
        47 -11.7694     28.9357    139.1115   1.4092669054e+02   4.3201942562e+01    0.3330047    0.2090995  37.73  0.001808897    1.805    0.446
        48  -9.6878    111.1509    137.3049   1.2075239135e+02   3.2472600019e+01    0.3331953    0.2420878 -21.04   0.00159059    2.024    0.506
        49  -9.1096    174.0134    137.3956   1.0653570914e+02   1.9873572539e+01    0.2587775    0.2054232 -71.32 0.0007551945    1.638    0.389
        50 -10.6654     98.6129    134.9508   1.2332823722e+02   3.5135539495e+01    0.3001429    0.2285771 -39.20 0.0009374648    1.477    0.323
        51  -9.6961    167.3331    131.3501   1.0653869192e+02   2.2452358326e+01    0.2686085      0.23781  85.43 0.0006575816    1.328    0.247
        52 -10.4403     25.0176    126.5033   1.4034167885e+02   4.6329277564e+01    0.1557957    0.1167642  35.70 0.0005759648    1.606    0.377
        53  -9.2807     71.2863    124.8752   1.2829760035e+02   4.1524760627e+01    0.2040219    0.1693185  63.91 0.0003633079    1.263    0.208
        54  -9.3075    107.9533    124.0900   1.1874532025e+02   3.5903882888e+01    0.2001918    0.1911318 -72.47 0.0002747379    1.008    0.007
        55  -9.0124    103.3111    148.1874   1.2469710927e+02   3.1482560112e+01    0.2062598    0.1618376 -41.79 0.0005449986    1.436    0.304
        56  -9.8018    155.0594    120.3947   1.0658230191e+02   2.7246740899e+01     0.415601     0.263794  74.39  0.001586602    2.652    0.623
        57 -10.6396    168.0627    113.2704   1.0190936559e+02   2.5728646228e+01    0.3590738     0.304311 -81.97  0.000914578    1.455    0.313
        58  -8.3716    146.3878    113.6935   1.0688188936e+02   3.0462654395e+01    0.1576426    0.1206527  89.55 0.0007016148    1.807    0.447
        59  -9.4003    203.7121    111.1711   9.4227027511e+01   1.7926424248e+01    0.2931882    0.1840888  25.52  0.001194858    2.052    0.513
        60 -10.3577     52.7767    110.2803   1.3053061883e+02   4.7156353780e+01    0.3233707    0.1624119 -76.09   0.00141435    2.432    0.589
        61 -10.2708     44.2989    109.1697   1.3267306214e+02   4.8345796774e+01    0.2466242    0.1668305  50.15  0.001434659    1.684    0.406
        62  -8.3795    184.4938     77.4813   8.8700287552e+01   2.8195828933e+01    0.1523914    0.1475322   2.38 2.802519e-05    1.027    0.026
        63  -9.1844    155.0000     75.9945   9.4304722600e+01   3.5661075452e+01    0.2593831   0.08642241 -35.30 0.0008057783    2.966    0.663
        64  -9.9056     18.7176     66.9993   1.3217624057e+02   5.9889577425e+01    0.2006427    0.1710379  18.72 0.0006055348    1.469    0.319
        65 -11.1397      3.6124     61.9513   1.3636082691e+02   6.1915933904e+01    0.2732503    0.2386622  33.16  0.001076807    1.501    0.334
        66 -10.8795     17.8536     56.7397   1.3004411482e+02   6.2092442560e+01    0.4869238    0.1845715  36.64  0.002349761    3.354    0.702
        67 -10.4960     81.4346    248.2997   1.4124270349e+02   1.6011617873e+01     0.254058    0.1507808  74.98   0.00107313    1.666    0.400
        68 -11.2633      6.1714     41.9505   1.3067220688e+02   6.5838994477e+01    0.2538862    0.1593678 -26.82  0.001663232    1.604    0.376
        69 -10.9186      5.8630     53.1018   1.3361445673e+02   6.3619171131e+01    0.2065706    0.1839791  14.25 0.0006884855    1.440    0.306
        70 -10.5869      1.6894     51.9396   1.3491283709e+02   6.4085708537e+01    0.2581235    0.1523075 -59.59 0.0006268711    1.260    0.207
        71  -9.6970     74.9595    243.4711   1.4190841685e+02   1.7618754405e+01    0.1599054   0.08022043  48.21 0.0007232841    1.555    0.357
        72 -10.2822     46.3687    248.3642   1.4675190110e+02   2.0359159507e+01    0.2616797    0.1195093  75.89 0.0009131625    2.206    0.547
