#   1 NUMBER                 Running object number                                     
#   2 MAG_AUTO               Kron-like elliptical aperture magnitude                    [mag]
#   3 X_IMAGE                Object position along x                                    [pixel]
#   4 Y_IMAGE                Object position along y                                    [pixel]
#   5 X_WORLD                Barycenter position along world x axis                     [deg]
#   6 Y_WORLD                Barycenter position along world y axis                     [deg]
#   7 A_WORLD                Profile RMS along major axis (world units)                 [deg]
#   8 B_WORLD                Profile RMS along minor axis (world units)                 [deg]
#   9 THETA_WORLD            Position angle (CCW/world-x)                               [deg]
#  10 FWHM_WORLD             FWHM assuming a gaussian core                              [deg]
#  11 ELONGATION             A_IMAGE/B_IMAGE                                           
#  12 ELLIPTICITY            1 - B_IMAGE/A_IMAGE                                       
         1 -18.6070    229.6429     89.1914   4.2020933054e+01   1.6904843560e+01     7.222427     5.152682 -37.42   0.03024873    1.227    0.185
         2 -13.8647     19.5510    129.2504   1.0370995203e+02   4.6727267465e+01     3.036709     2.052509  42.59   0.01375065    1.541    0.351
         3 -11.7534    133.7554     41.1859   4.4448081701e+01   4.6367154767e+01     1.070735    0.4767541 -20.53  0.003690562    3.492    0.714
         4  -9.4786    142.0126     15.6960   3.4474448055e+01   4.7479070785e+01     0.364636    0.1881374 -14.07  0.001567824    2.651    0.623
         5 -10.1355    125.6425     14.3682   3.6696847498e+01   5.1669619312e+01    0.3295838    0.2143169 -56.06  0.001179695    1.733    0.423
         6 -11.7467    119.2799      9.7788   3.6159228841e+01   5.3686664754e+01    0.6658133     0.438205  52.19  0.002415405    1.406    0.289
         7  -9.4644     48.8170     10.1753   5.6585900139e+01   6.8985932152e+01    0.1774338    0.1305742  12.14 0.0005871631    1.342    0.255
         8  -9.8840    108.4932      7.0502   3.7151902579e+01   5.6553481344e+01     0.189134    0.1311339 -23.07  0.001021913    1.595    0.373
         9 -10.8205     98.5853      4.2431   3.8057852947e+01   5.9155256922e+01    0.3958176    0.2189777  82.04  0.001815306    2.259    0.557
        10  -9.2599    204.0083      1.3954   2.3894918699e+01   3.4034929373e+01    0.1729848    0.1052492  79.46 0.0004475567    1.517    0.341
        11  -9.4771     84.9599    218.8840   9.6663265798e+01   1.7864555817e+01    0.1935494    0.1613715  53.03 0.0003750004    1.018    0.018
        12 -10.4811    248.6481    249.6914   6.9359288302e+01  -9.0182476105e+00    0.3743234    0.1834385  19.49  0.002359527    1.838    0.456
        13 -10.3482    237.2211    248.8377   7.1050666349e+01  -7.6774296588e+00    0.2291062    0.1418338 -15.24  0.001180659    1.445    0.308
        14 -11.0323    192.7247    249.7500   7.8786526504e+01  -2.4331962925e+00    0.4673184    0.1796235  38.57  0.001551442    2.355    0.575
        15  -8.5857    245.7473    213.8760   6.4232321624e+01  -4.4604432628e+00    0.1890054    0.1227952  17.26 0.0008450757    1.418    0.295
        16  -8.4011    156.4682    212.5216   8.0372081416e+01   8.3488009655e+00    0.1290045    0.1134989  22.37 0.0001870951    1.008    0.008
        17  -9.8345    123.9984    205.9907   8.6375607727e+01   1.4643156382e+01    0.1869821    0.1674207  41.76  -0.01509786    1.012    0.012
        18  -9.6816    170.2020    203.1073   7.6061422017e+01   7.8311532821e+00    0.3666598     0.265238  75.69  0.001222043    2.562    0.610
        19  -9.1998     17.0112    201.7996   1.1037439565e+02   2.9603909304e+01    0.1886017    0.1473583  87.17 0.0004177286    1.152    0.132
        20 -10.6778    192.4977    194.1006   7.0119974632e+01   5.8394372080e+00    0.8923653    0.4420814 -60.05  0.002915969    5.626    0.822
        21  -9.6119    206.9392    198.7974   6.8252727826e+01   2.8894427906e+00    0.4358896    0.2419364  12.68  0.002039167    2.472    0.596
        22 -10.1156    175.5359    248.3143   8.1738247843e+01   1.1594006441e-02    0.2864068    0.2029142  55.09  0.001326962    2.019    0.505
        23 -11.0872    144.2129    145.5942   7.0943259371e+01   2.3724782702e+01    0.9036367    0.4533212 -66.43  0.002792022    4.034    0.752
        24 -10.8214    197.0672    243.1979   7.7086457359e+01  -2.1314720650e+00    0.2274876    0.1981396 -21.60 0.0003918656    1.326    0.246
        25 -12.5706     67.9878    143.6965   9.1029535486e+01   3.7537010776e+01     1.403899     1.077513  64.32  0.005240707    1.336    0.251
        26 -14.0792     63.5337    124.9316   8.9056685755e+01   4.2905078123e+01     2.283424     1.427921  35.35  0.004803272    1.665    0.399
        27  -8.8227    110.7245    167.9399   8.3547483102e+01   2.4898152767e+01    0.2039373    0.1861457 -82.59 0.0006003841    1.122    0.108
        28 -10.6817     45.8400    138.2063   9.6777999796e+01   4.1808200543e+01    0.2883931    0.2192886  75.41 0.0007068127    1.317    0.241
        29 -10.1282    125.9718    127.7210   7.1466539564e+01   3.1307611938e+01    0.3604956    0.2248826 -49.23  0.001345664    1.587    0.370
        30  -9.7609    116.1730    128.7850   7.4307177265e+01   3.2996218143e+01    0.2599992    0.2048857 -64.53 0.0003590709    1.325    0.245
        31 -11.8313     51.0214    126.5598   9.3334917283e+01   4.4150003927e+01    0.5095947    0.4954721 -13.35  0.001174142    1.182    0.154
        32 -10.5041     89.8853    119.6550   7.9749225283e+01   4.0049468885e+01    0.6727307      0.23388 -55.29  0.002229806    2.815    0.645
        33  -9.2018    112.6261    190.1360   8.6661373328e+01   1.9690507543e+01    0.2396568    0.1877407  65.91 0.0008398151    1.373    0.272
        34  -8.4704     96.8194    118.1889   7.7331867394e+01   3.9163348768e+01    0.2019368    0.1817397  -7.15 0.0005446988    1.298    0.229
        35  -9.7353    165.5950    159.9984   6.9126499739e+01   1.6657722499e+01    0.2471148     0.202877  38.94 0.0002830608    1.216    0.178
        36 -10.3350     78.8327    102.9376   7.9261072397e+01   4.6002110010e+01    0.2284915    0.2203828  41.21  0.000237839    1.085    0.079
        37  -9.4652    153.5158    158.7036   7.1524722657e+01   1.9175076669e+01    0.3501914    0.2284437 -65.35 0.0009995805    2.048    0.512
        38  -9.4939    157.4062    181.0793   7.4942187110e+01   1.3988301342e+01    0.2895679    0.2245884  77.67  0.001242868    1.863    0.463
        39  -9.3807    137.5581    156.2789   7.4746271221e+01   2.2683570329e+01    0.4231718    0.2969579 -85.09  0.001337449    2.167    0.538
        40  -9.7206    113.9116     94.2846   6.6153945579e+01   4.1280337733e+01    0.3136646    0.2254552 -38.29  0.001182048    1.439    0.305
        41 -10.5465    131.4467    134.9644   7.1724029668e+01   2.8581057309e+01    0.5662594     0.282127 -58.91  0.001792413    2.428    0.588
        42 -11.4040    135.5683     73.0019   5.4240640423e+01   4.0702675707e+01    0.5952493    0.4021074 -21.59  0.002323208    1.898    0.473
        43  -9.5642    142.0851     74.0648   5.3062540492e+01   3.8972052634e+01    0.3519008    0.2538202 -58.96 0.0009236571    1.505    0.336
        44 -10.3996    134.4416    148.2043   7.3848972309e+01   2.5044688925e+01    0.5900063    0.2808228 -57.78  0.001664072    2.486    0.598
        45  -8.3328    113.8325     61.1899   5.5938382424e+01   4.7895321084e+01    0.1980919    0.1738268   2.21  0.000435098    1.310    0.236
        46  -8.7219    114.6903     48.2316   5.1251007577e+01   4.9886586927e+01    0.1941654    0.1651039  20.52 0.0007466077    1.328    0.247
        47 -11.7702    221.7736    242.1519   7.2620542310e+01  -5.0953276479e+00    0.5165398    0.3476463 -41.93   0.00346808    1.925    0.480
        48 -10.6534    131.5322     35.5170   4.2985509387e+01   4.7699542165e+01    0.4084166    0.3144057 -40.29  0.001020099    1.337    0.252
        49 -11.1722    168.1441     36.0492   3.6898208105e+01   3.8587611230e+01    0.6967211    0.4949275  23.48  0.003205371    2.068    0.517
        50  -9.1067    177.7102     34.1459   3.5042531009e+01   3.6508734510e+01    0.2811518    0.2688406 -37.41  0.001743398    1.188    0.158
        51  -9.7771    144.1821     32.7443   3.9689161452e+01   4.4939429189e+01    0.2516463    0.2276711  18.05 0.0003170874    1.299    0.230
        52  -9.2569    146.2342     28.0805   3.7837037891e+01   4.5016700671e+01    0.2924914    0.2219141  21.47  0.000998699    1.727    0.421
        53  -9.1707    159.1995     31.3845   3.6831603575e+01   4.1389663087e+01    0.3098642    0.2275898  20.18  0.001265057    1.921    0.479
        54  -9.0212    161.9348     26.3353   3.4916860779e+01   4.1335749957e+01    0.2573947     0.200685 -13.03 0.0003099329    1.587    0.370
        55 -10.0907    133.2414    143.2366   7.3092572028e+01   2.6379042172e+01    0.5981517    0.2679646 -58.01  0.002096727    2.748    0.636
        56  -8.9165     20.1482    186.1346   1.0865530520e+02   3.2811303308e+01    0.1687441    0.1517703 -86.88 0.0004145323    1.201    0.168
        57  -9.8423    135.0278     21.2707   3.7469411098e+01   4.8603355970e+01    0.3900301    0.1962388 -40.08  0.001764759    2.022    0.505
        58 -10.2420    180.6527    177.6357   6.9440901433e+01   1.0627548727e+01     0.592352    0.1635088 -47.26  0.001912537    4.036    0.752
        59  -9.2788    130.4936     19.4845   3.7646048264e+01   4.9925731763e+01    0.2739838    0.1364089 -26.65  0.001217707    2.189    0.543
        60 -11.5152    214.7440    241.6033   7.3740512604e+01  -4.1674621211e+00    0.3416147    0.2368331   5.35  0.002349039    1.250    0.200
        61  -9.9580    163.6501    242.4092   8.3200452777e+01   2.4790914558e+00     0.286474    0.1614287  39.12  0.001005956    1.558    0.358
        62  -9.5823    165.2366    238.0231   8.2303003072e+01   2.9143297191e+00     0.213875    0.1494421  36.11  0.000669244    1.259    0.205
        63  -8.8242    166.0558    233.2756   8.1486337863e+01   3.5220155793e+00    0.1671015    0.1321111  27.57 0.0002826924    1.072    0.067
        64  -8.9808    108.9996    154.1031   8.1491086983e+01   2.8390724182e+01    0.2093582    0.2090149  81.57 0.0003160587    1.068    0.064
        65 -10.4145    165.7752    150.8634   6.7195863752e+01   1.8444352651e+01    0.2929429    0.2628667 -56.34 0.0004404096    1.183    0.154
        66 -10.2442    133.2984    225.7870   8.7080779987e+01   9.5480676960e+00    0.2192824    0.2149338  68.06 0.0004932607    1.174    0.148
        67  -9.1378    226.9957    220.9476   6.8456034870e+01  -3.0408720995e+00    0.2610051    0.1503403  38.51  0.001556361    1.865    0.464
