#   1 NUMBER                 Running object number                                     
#   2 MAG_AUTO               Kron-like elliptical aperture magnitude                    [mag]
#   3 X_IMAGE                Object position along x                                    [pixel]
#   4 Y_IMAGE                Object position along y                                    [pixel]
#   5 X_WORLD                Barycenter position along world x axis                     [deg]
#   6 Y_WORLD                Barycenter position along world y axis                     [deg]
#   7 A_WORLD                Profile RMS along major axis (world units)                 [deg]
#   8 B_WORLD                Profile RMS along minor axis (world units)                 [deg]
#   9 THETA_WORLD            Position angle (CCW/world-x)                               [deg]
#  10 FWHM_WORLD             FWHM assuming a gaussian core                              [deg]
#  11 ELONGATION             A_IMAGE/B_IMAGE                                           
#  12 ELLIPTICITY            1 - B_IMAGE/A_IMAGE                                       
         1 -13.8091    245.1943    158.2768   9.0964495523e+01   1.1587552709e+00     2.719494    0.8237945 -42.92   0.00933833    3.854    0.741
         2 -13.1728    248.4466    114.2312   8.0894442276e+01   7.2632908849e+00     1.438351    0.8962189 -17.70  0.006911451    1.870    0.465
         3 -14.2596    202.0464     17.6200   6.3338989203e+01   3.1780735656e+01     2.587935     1.440888  31.53   0.01080682    2.952    0.661
         4 -11.3017    189.6734     15.6389   6.4223977173e+01   3.5145880547e+01    0.2830334    0.2263735 -55.81 0.0007129856    1.248    0.199
         5 -12.3037      2.2342     13.7552   1.2025929240e+02   7.2376930816e+01    0.8858069    0.1521777 -52.01  0.003460342    4.143    0.759
         6 -12.6071      2.2816      4.3690   1.1614993245e+02   7.3882740894e+01    0.7949572    0.4278734   7.34  0.005118463    1.934    0.483
         7 -10.7568    121.6471    244.9522   1.2923812646e+02   9.4342730101e+00    0.3995238    0.1742097  49.93  0.001423844    1.906    0.475
         8  -9.5439    205.4819    250.4719   1.1448753589e+02  -4.7564546656e+00    0.1198857   0.08923369  25.87 0.0008093618    1.043    0.041
         9  -9.8639    188.7591    250.4724   1.1747966754e+02  -2.1515931165e+00    0.2308523    0.0922239  43.21 0.0007675639    2.032    0.508
        10  -9.8945    184.0366    250.5555   1.1834597124e+02  -1.4144849568e+00    0.1809224   0.09234034  38.19 0.0003171851    1.512    0.339
        11 -11.1004    136.4957    227.8151   1.2431242034e+02   9.8112021336e+00    0.4043641    0.3127015 -12.12  0.002354128    1.989    0.497
        12 -11.4617    150.1571    249.0372   1.2438031898e+02   4.2426400420e+00    0.4263866    0.3035128  55.87  0.002733869    1.368    0.269
        13 -11.1581    143.3326    249.0212   1.2564737094e+02   5.3448288178e+00    0.4462389     0.287592 -86.21   0.00208516    2.764    0.638
        14 -11.4274    135.7079    241.0515   1.2612720324e+02   7.7959875790e+00    0.3439647    0.2663064  49.57   0.00097399    1.055    0.052
        15 -11.8162    135.3708    236.4822   1.2563398407e+02   8.5779106202e+00    0.4506084    0.3378793  25.86  0.001464128    1.487    0.327
        16 -10.4726    133.9898    232.7314   1.2543455011e+02   9.4159250930e+00     0.220154    0.1864706  75.43 0.0006318262    1.293    0.227
        17 -11.2392    133.8238    249.2048   1.2743787395e+02   6.8394668145e+00    0.5722281    0.2292339  48.81  0.002756878    2.083    0.520
        18 -11.4469    124.8996    249.3675   1.2911427074e+02   8.2269091607e+00    0.7251661     0.245244  37.30  0.003114203    2.692    0.629
        19 -11.8064    126.3532    240.7430   1.2787287565e+02   9.3595341909e+00    0.4330735    0.3907222 -89.43  0.002085357    1.294    0.227
        20 -11.0663    114.4271    250.0240   1.3112189186e+02   9.7539464859e+00     0.455323    0.3016708  28.22  0.002737656    1.793    0.442
        21 -11.6370    109.6810    247.0600   1.3169749159e+02   1.0957893724e+01    0.4691941    0.4078043  85.05  0.003020744    1.279    0.218
        22 -11.9921     99.4500    247.5114   1.3363453194e+02   1.2432232588e+01    0.7524723    0.4454655  47.98  0.004641492    1.290    0.225
        23 -11.6190     96.6563    239.4505   1.3337438214e+02   1.4205619407e+01    0.4699754    0.3049353  60.02  0.002914099    1.316    0.240
        24 -10.8561    104.3296    237.8979   1.3176112298e+02   1.3304689305e+01    0.3919454    0.2013357  45.51  0.002156347    1.527    0.345
        25 -11.2329     98.4677    231.5261   1.3222304042e+02   1.5313437868e+01    0.3571627    0.2937612 -86.48 0.0008272271    1.305    0.234
        26 -10.4442     92.4511    225.9562   1.3281671248e+02   1.7232487555e+01    0.3161963    0.1535617  49.42  0.001148085    1.675    0.403
        27 -11.7017     99.1865    223.4465   1.3121152068e+02   1.6659538567e+01    0.4792993    0.3343376  50.07  0.001090802    1.167    0.143
        28 -11.5124    112.3893    230.1049   1.2934901739e+02   1.3385318718e+01    0.4790574    0.3401959  35.31  0.001586627    1.408    0.290
        29 -10.8986    105.3966    229.0217   1.3060009766e+02   1.4683472112e+01     0.398308      0.21095  40.52 0.0009629779    1.618    0.382
        30 -10.0530     83.2302    238.1482   1.3577595756e+02   1.6405301747e+01     0.171815    0.1052964  60.45 0.0005567652    1.370    0.270
        31 -11.5016     89.9636    237.7581   1.3447369586e+02   1.5493820486e+01    0.3990164    0.2693516  88.78  0.001750288    1.611    0.379
        32 -10.6935     83.8206    242.1561   1.3602570312e+02   1.5623309550e+01    0.2584625    0.1873619 -48.26  0.001187819    2.027    0.507
        33  -9.9877     89.0480    250.5794   1.3581238855e+02   1.3451817259e+01     0.416247    0.1269171  35.66  0.001642446    3.679    0.728
        34 -10.6918     88.7873    247.3299   1.3557325081e+02   1.4029275276e+01    0.4566067    0.2530565  31.97  0.002300774    2.103    0.525
        35 -10.5259     81.5359    247.0825   1.3687101748e+02   1.5107130785e+01    0.3253039    0.2165936 -86.12  0.002159019    1.618    0.382
        36  -9.5248     79.3440    243.2010   1.3694053497e+02   1.6078884225e+01    0.1918153    0.1047921  62.17 0.0002194041    1.629    0.386
        37  -8.9563     74.7458    250.5505   1.3837306907e+02   1.5468240263e+01    0.2157245    0.0929369  38.80  0.001146422    2.057    0.514
        38 -14.7946     15.5196    149.3728   1.4190997961e+02   4.2852366013e+01      3.64582     1.627306 -72.51   0.01919219    1.833    0.454
        39 -10.4484    152.7725    243.8607   1.2324391281e+02   4.5755172346e+00    0.2049703    0.1653329  83.57  0.001336015    1.646    0.392
        40 -10.2809    165.0005    242.0735   1.2070984807e+02   2.8245628493e+00    0.1883242    0.1485452  35.84 0.0005231591    1.043    0.041
        41 -10.8919    172.7790    240.0821   1.1897686426e+02   1.8236273113e+00     0.268654    0.2148626  70.51  0.001552281    1.688    0.407
        42 -10.3430    144.2031    240.3865   1.2442705815e+02   6.5081479357e+00    0.2961437    0.0909974  44.36  0.001215654    2.563    0.610
        43 -10.4891    115.8798    239.5070   1.2973033263e+02   1.1231559233e+01    0.2575021    0.2413639  20.21  0.001471267    1.386    0.279
        44 -11.6530    128.6300    234.4091   1.2668498325e+02   1.0023364919e+01    0.4652955    0.3555359 -88.90  0.002928581    1.612    0.380
        45 -11.5038    122.3870    232.6718   1.2769172870e+02   1.1332673382e+01    0.4639945    0.3317245 -46.15   0.00258154    1.826    0.452
        46 -11.5504    250.0000    242.0698   1.0555956109e+02  -1.0333803551e+01     1.148444    0.1449992 -31.94  0.003134151   10.362    0.903
        47 -10.4191    165.8606    235.0087   1.1957683830e+02   3.7114918981e+00    0.2165245    0.1850554 -24.69 0.0009924136    1.438    0.305
        48 -10.3605    161.9855    232.7909   1.2000905737e+02   4.6979497922e+00    0.3002093    0.1782517  66.28  0.001391137    2.815    0.645
        49  -9.9732     55.6450    235.6213   1.4066928943e+02   2.0612111705e+01    0.2751881    0.1460331  67.99  0.001210002    1.703    0.413
        50  -9.6089     77.9610    233.2214   1.3632302357e+02   1.8033916615e+01    0.2031557    0.1481753  89.74  0.000980136    1.370    0.270
        51 -11.1798    156.4921    231.8013   1.2093241263e+02   5.7809325307e+00    0.2440449    0.2100774  22.96 0.0007001769    1.214    0.176
        52  -9.0710     62.7231    233.3334   1.3919137635e+02   2.0104196368e+01    0.1454664   0.09230489  41.09 0.0003413591    1.487    0.327
        53  -8.8161     92.4447    232.5184   1.3348898417e+02   1.6048848982e+01    0.1223379   0.09594569  58.38 4.662594e-05    1.009    0.009
        54 -11.6412    245.1076    229.3254   1.0430290850e+02  -8.2438229951e+00    0.3529513    0.1936378   1.63   0.00186709    2.270    0.560
        55 -10.4442    141.8182    230.3310   1.2359462670e+02   8.4988836943e+00    0.3044903    0.2106676 -29.74   0.00125273    2.122    0.529
        56 -11.5697    141.9264    221.8327   1.2242555412e+02   9.8909072131e+00    0.3760258    0.3350858  29.76 0.0003975742    1.187    0.158
        57 -11.1848    137.7185    214.3165   1.2222474817e+02   1.1921161347e+01    0.4773661     0.305889  38.03  0.001271102    1.389    0.280
        58 -10.8216     77.5943    221.0315   1.3525217629e+02   2.0340021139e+01    0.3340382    0.1713464  54.74  0.001182308    1.658    0.397
        59 -11.1204     70.7528    220.3188   1.3653394696e+02   2.1440918364e+01     0.482206    0.2797665 -72.77  0.002664986    1.797    0.444
        60 -10.8509     80.5808    227.2985   1.3527150429e+02   1.8739228205e+01    0.2948768    0.2524999 -18.52 0.0009074408    1.980    0.495
        61 -10.1933     78.6993    224.6993   1.3538922570e+02   1.9491829018e+01    0.2105895    0.2062633  13.40 0.0005656093    1.483    0.326
        62  -9.7346    179.5437    228.0794   1.1595237099e+02   2.4134119346e+00    0.2572472      0.17346  66.03  0.001021135    2.283    0.562
        63 -10.3019    165.9377    226.9510   1.1840822016e+02   4.9152228522e+00    0.2882621    0.2185002 -72.07  0.001687802    1.943    0.485
        64 -10.9743    160.5712    223.6145   1.1897031135e+02   6.3656023203e+00    0.3311974    0.2255426  30.60 0.0005762367    1.385    0.278
        65  -9.3374    164.5204    220.4956   1.1772721356e+02   6.1722524751e+00    0.3576684    0.1192214 -38.91  0.001307087    4.311    0.768
        66  -9.8538    197.6416    226.6937   1.1231869329e+02  -4.4833379831e-01    0.2434221    0.1969139  63.81  0.001501811    1.724    0.420
        67 -10.8642    132.0789    224.6745   1.2477993777e+02   1.1087323700e+01    0.2511345    0.2341621  56.60  0.001219926    1.152    0.132
        68 -10.6309    129.4942    221.0260   1.2482022270e+02   1.2156173789e+01    0.2463287    0.1956212 -88.98  0.001505805    1.489    0.329
        69 -10.3316    148.0899    224.2157   1.2152656500e+02   8.4304250087e+00    0.4047357     0.257133   6.65  0.001427488    3.243    0.692
        70 -10.8747    117.3065    224.3226   1.2769057291e+02   1.3606316386e+01    0.2360813    0.1913445  46.90 0.0003049423    1.086    0.079
        71 -10.4187    111.0664    221.5516   1.2860908982e+02   1.5119362552e+01    0.3435273    0.2065832 -58.34  0.001485486    1.936    0.483
        72 -10.2412    105.2305    219.2231   1.2951260221e+02   1.6484810206e+01     0.314329    0.1954475  74.70 0.0005069948    1.924    0.480
        73  -9.2169    176.9651    220.2999   1.1525461617e+02   4.0222097035e+00    0.2109017     0.087167  55.25 0.0007033748    4.163    0.760
        74 -12.0393    245.5771    240.9959   1.0612323733e+02  -9.6038271575e+00    0.4512859    0.2427375  22.87  0.002693878    1.621    0.383
        75 -10.8857     84.8317    229.8340   1.3469259923e+02   1.7658127794e+01    0.2994442    0.2434125  84.05 0.0008840653    1.211    0.174
        76  -8.3218     89.5060    218.4795   1.3261102159e+02   1.9070304676e+01    0.1273618     0.100685  61.35 -2.857082e-05    1.025    0.024
        77 -10.6584     23.4917    217.5250   1.4533683230e+02   2.7780250246e+01    0.1866409     0.090185 -77.03 0.0005768748    1.887    0.470
        78 -12.7627     11.8038    186.3680   1.4563198446e+02   3.5178587557e+01    0.9198783    0.5042164  27.46  0.005519491    2.293    0.564
        79  -9.0941     93.9571    217.0055   1.3154792398e+02   1.8670392515e+01    0.2082738    0.1258966  67.85 0.0007973178    1.727    0.421
        80  -8.8215    190.6391    215.2670   1.1179769863e+02   2.3893602944e+00    0.1251096   0.09483311  59.06 0.0005956257    1.643    0.391
        81  -9.6902     88.1201    213.0636   1.3230236690e+02   2.0317646136e+01    0.2129371    0.1565453  79.39 0.0005161722    1.324    0.245
        82 -10.9146     68.0517    214.6310   1.3653691299e+02   2.2912777951e+01    0.2133149    0.1666608  82.34 0.0007074231    1.154    0.134
        83 -10.0540    102.4057    212.1911   1.2925060355e+02   1.8259293955e+01    0.3472795    0.1766287  60.52  0.001617757    2.147    0.534
        84  -9.1821     33.7080    211.4259   1.4302048025e+02   2.7846813409e+01    0.1308621      0.10247  40.01 0.0004212696    1.472    0.321
        85  -9.4454    134.6359    208.3007   1.2199743156e+02   1.3543005895e+01    0.2466995     0.186345   3.99 0.0009391234    2.011    0.503
        86  -9.1854    119.9623    208.7246   1.2513470519e+02   1.6012023868e+01    0.1914039    0.1470054  47.78 0.0003799759    1.109    0.098
        87 -10.1143    109.0279    207.4778   1.2727195823e+02   1.8086251403e+01    0.2784276    0.1848132 -68.66   0.00100531    1.701    0.412
        88 -12.2579     93.5996    202.9743   1.2997951156e+02   2.1460670245e+01    0.5446236    0.4639427  89.96  0.003487654    1.170    0.145
        89 -10.5733    102.5970    202.5799   1.2800441511e+02   2.0099698056e+01    0.5095119    0.2667263  42.47  0.002512991    1.673    0.402
        90 -10.0986     98.7085    196.7695   1.2808673151e+02   2.1898163820e+01    0.4214387     0.232626  62.83  0.001173008    2.011    0.503
        91  -9.8341    102.5877    195.5563   1.2707461532e+02   2.1511110351e+01     0.201583    0.1830275  70.05 0.0001551889    1.084    0.078
        92 -11.3607    246.2251    206.0948   1.0008724475e+02  -5.6193908405e+00    0.3314646    0.2189407  13.96  0.001979956    1.425    0.298
        93 -10.0141    175.2666    205.3317   1.1316618965e+02   6.6993537310e+00    0.2980644    0.2098786 -10.54  0.001433325    1.950    0.487
        94  -9.5698    178.2871    204.7044   1.1245451762e+02   6.2491312919e+00     0.216122    0.1780175  29.31 0.0002193696    1.084    0.077
        95 -10.1776    125.8084    205.2357   1.2341369133e+02   1.5660940917e+01    0.2516744    0.1840887 -77.75 0.0008787815    1.654    0.395
        96 -10.7012     73.2323    209.7505   1.3500753071e+02   2.3150328759e+01    0.4906639    0.2908401  29.43  0.002393359    2.107    0.525
        97  -9.5799    166.9927    203.2355   1.1449317378e+02   8.5703948964e+00    0.1870684    0.1530654  41.43            0    1.064    0.060
        98  -9.6114    133.1522    202.6050   1.2146869695e+02   1.4859513426e+01    0.2227785    0.1909845 -61.90 0.0004770044    1.329    0.248
        99  -9.7786     64.0059    202.0993   1.3614600779e+02   2.5970384705e+01     0.238473    0.1628533  39.26 0.0008529116    1.486    0.327
       100 -11.0050     32.8702    201.9206   1.4249352419e+02   2.9841182938e+01    0.1774621    0.1445692  75.43 0.0002920729    1.098    0.090
       101  -9.8752    197.1864    200.9168   1.0806978888e+02   3.4045100045e+00    0.2472231    0.1741767  38.40  0.001047577    1.250    0.200
       102  -9.2357    137.9865    201.5328   1.2027787414e+02   1.4191748299e+01    0.2014101     0.118336  42.81 0.0003257291    1.472    0.321
       103 -10.2327    115.1280    200.3418   1.2500499156e+02   1.8447798433e+01    0.2167187    0.1837947 -86.79 0.0002523581    1.246    0.197
       104 -10.3725    120.0831    199.3999   1.2380005980e+02   1.7777155854e+01    0.3943799    0.2057249  55.39  0.001411643    1.950    0.487
       105  -9.1593    169.5221    200.1172   1.1345024486e+02   8.6329600889e+00    0.1759957    0.1370686 -41.58 0.0004124757    1.471    0.320
       106  -9.7860     44.1332    199.2437   1.4000131446e+02   2.9089986015e+01    0.2785625    0.1780005  46.54  0.001166814    1.423    0.297
       107  -8.5284     86.2542    199.2917   1.3110866450e+02   2.3342145110e+01    0.1596611    0.1469482  25.27 0.0001963353    1.400    0.286
       108  -9.4118     86.0680    195.8593   1.3073241367e+02   2.4075489034e+01    0.2132789    0.1650227 -88.50 0.0003592728    1.271    0.213
       109 -10.6897     53.2886    198.0540   1.3799575692e+02   2.8208014733e+01    0.6390876    0.1689001  41.46   0.00264056    3.021    0.669
       110  -9.4846    134.0849    197.8680   1.2054728409e+02   1.5586259767e+01    0.2354307    0.1806301  83.20 0.0002955264    1.577    0.366
       111  -9.3859    133.4050    194.2805   1.2013356463e+02   1.6397196629e+01    0.2453894    0.1520556  34.24 0.0006646109    1.625    0.384
       112 -11.6868     66.1600    194.9773   1.3495169465e+02   2.7149545394e+01    0.3853455    0.2948409 -49.78  0.001518137    1.685    0.407
       113 -11.9703     71.5568    187.5874   1.3293822748e+02   2.7958128953e+01    0.4686911    0.3172723  42.86  0.002508983    1.412    0.292
       114 -10.8398     76.3131    186.0732   1.3169024127e+02   2.7596229759e+01    0.2712341    0.2011102  74.23 0.0003432797    1.258    0.205
       115 -10.3166    113.0471    193.7839   1.2452313596e+02   2.0107551357e+01    0.4568825    0.2626552 -65.55  0.001234089    2.007    0.502
       116 -10.9207    249.2671    194.4636   9.7435450520e+01  -4.6012885521e+00    0.2932414    0.2007522  39.74  0.001760276    1.496    0.332
       117  -9.1099     30.9227    194.9461   1.4235567696e+02   3.1483969543e+01    0.2337285    0.1136377  51.07  0.001100501    1.760    0.432
       118  -9.5951    159.5582    193.9878   1.1447325007e+02   1.1579582244e+01    0.2285129    0.1813586  58.77 0.0004715801    1.314    0.239
       119 -10.3558    120.7033    191.7073   1.2252252253e+02   1.9187296374e+01    0.4771314    0.3274749 -40.97  0.002465155    1.838    0.456
       120  -9.9466    118.0134    190.0074   1.2286086215e+02   2.0004494673e+01     0.204964    0.1786213  62.33            0    1.039    0.037
       121  -8.5751     82.0020    194.4688   1.3145178814e+02   2.4979686620e+01    0.1785661    0.1150114  43.23 -5.064688e-05    1.429    0.300
       122  -9.5270     72.9437    193.0896   1.3327074917e+02   2.6594974112e+01    0.1869788    0.1565268  67.89 0.0002903415    1.024    0.023
       123  -9.1181     26.3264    192.8323   1.4313244144e+02   3.2411347044e+01    0.1585155    0.0863253 -68.98 0.0008071622    1.727    0.421
       124  -9.6983     20.4149    192.1013   1.4427872446e+02   3.3166459020e+01    0.2556494    0.1233897  64.26  0.001428283    1.851    0.460
       125 -10.1846    191.4303    191.3873   1.0746951908e+02   5.9845880478e+00    0.2634024    0.2248165  19.59 0.0006136437    1.094    0.086
       126  -9.5234    172.9510    192.1059   1.1134634102e+02   9.3682447056e+00    0.2166418    0.1611856   8.55 0.0008867124    1.671    0.401
       127 -10.4386     38.6644    192.5276   1.4056049655e+02   3.1124353666e+01    0.2423764    0.1640028 -60.23 0.0001696637    1.658    0.397
       128 -10.4461     56.6219    194.0684   1.3690473522e+02   2.8611791227e+01    0.3202132    0.2643295  71.59  0.001611925    1.036    0.035
       129  -9.1257    135.2839    190.0953   1.1905106098e+02   1.6864409287e+01    0.1805366    0.1696068  72.80 0.0003569596    1.099    0.090
       130  -9.8409     32.5991    189.5019   1.4157636666e+02   3.2436948391e+01    0.3299925    0.2197015  28.89  0.002039788    1.870    0.465
       131 -11.2109    249.6754    187.5109   9.6051512131e+01  -3.7457454649e+00     0.358076    0.2397033 -17.22  0.002093586    1.420    0.296
       132  -9.2866     41.2614    187.9686   1.3961038250e+02   3.1786413657e+01    0.2654554    0.1460195  74.09  0.001437212    1.783    0.439
       133 -10.9113    141.6714    183.0382   1.1645103025e+02   1.7046753371e+01    0.4665129    0.3675451  34.80 0.0008545087    1.243    0.195
       134  -9.9728     30.0432    183.5185   1.4162219783e+02   3.3978266682e+01    0.2905937     0.195608  85.36  0.001201666    1.249    0.199
       135 -10.5003     25.1967    184.3203   1.4271551047e+02   3.4311508639e+01    0.2135533    0.1619644  62.37  0.001092195    1.158    0.136
       136  -9.3182     36.6650    184.1104   1.4025151316e+02   3.3132002195e+01    0.2099486    0.1309244  51.71 0.0005461898    1.438    0.304
       137  -8.4698     52.2826    183.2958   1.3675262953e+02   3.1459045504e+01    0.1100971   0.09394131 -47.83 0.0006958757    1.540    0.351
       138 -10.6547    236.2734    145.9119   8.9833786000e+01   4.7083139791e+00    0.3517346    0.1832795  41.63 0.0009816624    1.966    0.491
       139 -12.6119    248.0751    172.0315   9.3290719110e+01  -1.3434866812e+00    0.7590054    0.4877516 -27.74  0.004225065    1.463    0.317
       140 -10.5106    169.6953    248.5201   1.2069579002e+02   1.1548272127e+00    0.3025817    0.1894602  18.73 0.0007423785    1.968    0.492
       141 -12.5519    248.4738    134.1605   8.5298883230e+01   4.1947147657e+00     1.105926     0.602257 -31.54  0.005323888    1.705    0.413
       142 -12.6834    248.3130    101.2980   7.7991690642e+01   9.2769400309e+00    0.8530634    0.4937386 -32.05  0.004152833    1.609    0.378
       143  -9.7493    175.1038    179.7461   1.0861379170e+02   1.1138851772e+01    0.3505386    0.1119258  41.55  0.001190152    2.897    0.655
       144 -10.3712    108.6956    178.2588   1.2316049080e+02   2.4076013183e+01    0.3741104    0.2261084  53.46  0.001036036    1.580    0.367
       145  -9.3388     47.9870    179.6110   1.3732911316e+02   3.2787407190e+01     0.172023    0.1091074  42.14 0.0004413509    1.542    0.352
       146 -11.0308     80.8606    175.6337   1.2928540544e+02   2.9186433245e+01    0.3364016    0.2304069  63.04  0.000412879    1.408    0.290
       147  -9.7597     77.4671    175.5156   1.3006590852e+02   2.9720752328e+01    0.2053049     0.170236  87.27 0.0005604264    1.109    0.098
       148  -9.1764    115.1443    176.9242   1.2144795264e+02   2.3219948288e+01    0.2312232    0.1535635  85.63 0.0009114409    2.042    0.510
       149 -11.7227     68.1621    173.5490   1.3199377468e+02   3.1495145819e+01    0.4868574    0.2781793 -54.28   0.00115071    1.886    0.470
       150 -10.5747     68.8064    166.8083   1.3095473013e+02   3.2911915481e+01    0.2303832    0.1999406 -78.20 0.0003826256    1.124    0.110
       151  -8.6732    121.5704    175.5586   1.1972837522e+02   2.2340931690e+01    0.1434323    0.1261827  63.97 5.530049e-05    1.061    0.057
       152  -9.5380    107.6981    173.0393   1.2255871754e+02   2.5368111737e+01    0.1906582    0.1688137  88.20 0.0005105704    1.112    0.100
       153  -9.8216     95.5522    172.7308   1.2538983139e+02   2.7500169207e+01    0.1933572    0.1330453 -66.58 0.0005961185    1.491    0.329
       154 -10.2751     90.9845    172.9435   1.2650762368e+02   2.8197663536e+01    0.3105305     0.245581   0.35  0.001156255    1.983    0.496
       155 -10.5787     89.9138    160.5066   1.2483288661e+02   3.1144163206e+01    0.3329938    0.2145463 -59.76 0.0003605067    1.552    0.356
       156  -9.7558     93.5124    169.4108   1.2536583698e+02   2.8566413309e+01    0.1965828    0.1777056  34.01 3.105069e-05    1.257    0.205
       157 -12.5620     87.4014    166.7668   1.2643672562e+02   3.0139926960e+01    0.7548836    0.5796332 -57.15  0.004217111    1.368    0.269
       158  -9.0110     31.6535    171.7466   1.4023040685e+02   3.6354522037e+01    0.1603833   0.09741888  89.65 0.0003706676    1.472    0.321
       159  -8.8507    167.1958    170.0851   1.0842046713e+02   1.4510169477e+01    0.1884621     0.115607 -42.34 0.0008560423    1.770    0.435
       160  -8.8990    100.5312    170.4919   1.2385214357e+02   2.7157498484e+01    0.1398049    0.1261189  69.14 -5.629476e-05    1.011    0.010
       161 -10.6325     43.4001    168.7419   1.3723356176e+02   3.5725043601e+01    0.3594898    0.2729066 -77.99  0.001447281    1.182    0.154
       162 -10.0436     47.3253    168.6723   1.3630769649e+02   3.5280052231e+01    0.2873919     0.161806  38.74  0.001547831    1.787    0.440
       163 -12.5143     29.5640    227.3954   1.4483148013e+02   2.5253079971e+01    0.9307959    0.5186591  50.98  0.003141227    1.422    0.297
       164  -9.3818     65.8469    181.9279   1.3355568686e+02   2.9975607359e+01    0.1738422    0.1623221 -89.41 0.0002890924    1.205    0.170
       165  -9.3758    126.3565    167.6338   1.1721632730e+02   2.3116427972e+01    0.2245914    0.1639799  74.19 0.0008227291    1.631    0.387
       166  -9.4716    107.1883    168.2036   1.2188175574e+02   2.6507433097e+01    0.1969657     0.185737  44.78  0.000379456    1.144    0.126
       167  -9.3045     58.5654    167.6862   1.3352978978e+02   3.4099693519e+01    0.1726128    0.1123436 -84.40 0.0007257553    1.490    0.329
       168 -14.3665      7.9604    208.8912   1.4769693203e+02   3.1007910125e+01     2.308234     1.278867 -84.25   0.01537727    1.514    0.340
       169  -9.0463     77.2535    165.3896   1.2870401137e+02   3.2009902240e+01    0.1308341     0.100062 -40.09 0.0006959055    1.679    0.404
       170  -9.2711     53.9961    164.6267   1.3424864820e+02   3.5372718139e+01    0.1958278    0.1462256 -77.55  0.000413128    1.213    0.176
       171 -11.0250     28.5564    170.8316   1.4084413600e+02   3.6875611656e+01    0.3852349    0.1988095 -67.85   0.00168479    1.726    0.421
       172  -8.9915     36.8134    162.5924   1.3812588325e+02   3.7836193240e+01    0.1658507   0.09859241  50.61 0.0006478505    1.606    0.377
       173  -8.5864    154.3624    161.6933   1.0958158244e+02   1.8776468162e+01    0.1534238    0.1149013  75.95  0.000703901    1.738    0.425
       174 -10.9314     95.9151    157.1240   1.2276820150e+02   3.0916108836e+01     0.473713     0.198933 -59.02  0.001187787    2.433    0.589
       175 -11.0954    100.1171    151.4015   1.2069032079e+02   3.1491866076e+01    0.5147117    0.4295304  28.53  0.002791251    1.362    0.266
       176  -9.5493    103.1829    145.9806   1.1888532567e+02   3.2182211756e+01    0.3117709    0.2478033 -25.37 0.0009235668    1.661    0.398
       177 -10.4583     73.6135    159.7615   1.2877846752e+02   3.3822099139e+01    0.4144672    0.2305795 -42.37  0.001503385    2.434    0.589
       178  -9.4227     72.0232    156.3277   1.2866622458e+02   3.4837819669e+01    0.3626566    0.2307776  14.27  0.001641228    2.619    0.618
       179  -9.3372     78.9673    158.7508   1.2728783748e+02   3.3258202580e+01    0.1876612    0.1643837  67.13 0.0003950999    1.060    0.056
       180  -9.2116    228.4392    155.1267   9.3167105360e+01   4.7640940365e+00     0.204416     0.128288 -33.16 0.0005481157    1.551    0.355
       181  -9.2771    134.4778    155.5278   1.1296882058e+02   2.4103885237e+01    0.1481807    0.1399439  50.48 -2.171157e-06    1.033    0.032
       182  -9.0600     52.4768    158.4832   1.3385336479e+02   3.6956012738e+01    0.1290451     0.111236  87.70 0.0003647206    1.022    0.022
       183  -9.5032     52.9857    146.3012   1.3209250491e+02   3.9697485961e+01    0.2393522    0.1636013 -83.87 0.0002081982    1.406    0.289
       184 -10.5668     60.2355    150.9646   1.3088089857e+02   3.7696457290e+01    0.5829732    0.2804765  80.59  0.002022093    3.985    0.749
       185 -10.2003     56.0133    150.5079   1.3190026279e+02   3.8345998054e+01    0.2966786     0.209066  52.88 0.0008453531    1.395    0.283
       186 -10.3136    113.9044    150.7997   1.1708418295e+02   2.9134207153e+01    0.3533381    0.2467193 -58.92 0.0007089853    1.481    0.325
       187 -12.2660     33.3642    140.5597   1.3646037207e+02   4.3213118493e+01    0.4316536    0.3103105  51.80  0.002433135    1.417    0.294
       188 -10.1786     35.1419    149.1532   1.3703811983e+02   4.1058954309e+01    0.2285352    0.1602195  53.86  0.001258469    1.408    0.290
       189 -11.9626     32.1049    146.2799   1.3747114440e+02   4.2025718532e+01    0.5900236    0.1432304 -62.66  0.002273907    3.153    0.683
       190 -12.2876     60.7388    137.5636   1.2870265346e+02   4.0750349585e+01    0.8914194     0.428237 -78.87  0.003579306    2.698    0.629
       191 -12.3934     72.6857    139.6914   1.2581535195e+02   3.8597854981e+01     1.117592    0.9387506 -17.75  0.006275649    1.591    0.371
       192 -12.7080     68.1771    143.8153   1.2771282412e+02   3.8279763553e+01    0.6514529    0.4592844  82.27  0.003427121    1.544    0.353
       193 -11.0826     64.7007    142.3389   1.2840166708e+02   3.9104259881e+01    0.3118306     0.196178 -70.66 0.0007284304    1.520    0.342
       194 -10.7701    133.6056    142.4201   1.1044418738e+02   2.7097458154e+01    0.8638791    0.2960504 -51.46  0.002792023    3.182    0.686
       195  -9.9246    138.7292    138.6743   1.0836004132e+02   2.6834954907e+01    0.2460978    0.2282004  -0.09 0.0004740436    1.217    0.178
       196  -9.2815     49.4982    150.4751   1.3356282528e+02   3.9154283744e+01    0.1280569    0.1126252 -81.23 -9.410241e-06    1.078    0.072
       197 -10.1347     39.9460    147.4722   1.3561665966e+02   4.0934421397e+01    0.1785424    0.1202577  38.02  0.001029558    1.590    0.371
       198  -9.6087    158.9980    145.0910   1.0499971485e+02   2.1149019767e+01    0.2195901    0.2072341  48.16            0    1.016    0.016
       199  -9.0638     93.1215    145.3553   1.2138669659e+02   3.4071142935e+01    0.2052363    0.1210102  50.73 0.0007432494    1.710    0.415
       200  -9.2694     41.5078    140.4937   1.3430845158e+02   4.2376297864e+01    0.1278795     0.109764 -82.34 2.820155e-05    1.025    0.025
       201 -11.1753     47.4239    138.3492   1.3243050924e+02   4.2210148834e+01    0.4225691    0.2068816  22.75  0.001888485    2.794    0.642
       202 -11.7681     45.5026    131.7962   1.3198937057e+02   4.3958576616e+01    0.4889443    0.3422028  85.01  0.002737157    1.476    0.322
       203 -10.4537    111.3935    136.1698   1.1475502237e+02   3.2894242820e+01     0.469675     0.305435  33.27  0.001802684    1.692    0.409
       204  -9.6487    136.8215    134.1463   1.0780427473e+02   2.8211229578e+01    0.2024121    0.1814959   4.92  0.001035662    1.295    0.228
       205 -14.1548     27.5727    247.3367   1.4629007433e+02   2.1898835601e+01     2.993476    0.8671624  35.43   0.01413661    3.552    0.718
       206 -13.6650     30.0155    126.7335   1.3557105695e+02   4.6732205965e+01     2.267986    0.1336557  35.15  0.006923813    6.170    0.838
       207 -11.9701     20.4882    121.0180   1.3748813061e+02   4.8883468957e+01    0.4010848    0.1541778 -61.72  0.001461185    2.062    0.515
       208 -11.8887     31.4469    117.4627   1.3383411015e+02   4.8745407176e+01    0.3989252    0.3130647 -18.68  0.002455716    1.661    0.398
       209 -11.8789     67.5577    128.1949   1.2518948776e+02   4.2022673811e+01     0.469408    0.3911892  59.18  0.002719076    1.226    0.184
       210  -9.1749    109.7529    128.9926   1.1362989412e+02   3.4829508267e+01    0.2035689    0.1891484 -61.54  0.001108033    1.076    0.070
       211  -9.6585    122.9293    128.0795   1.0993618522e+02   3.2430994977e+01    0.2230519    0.2150346  63.76 0.0003074254    1.011    0.011
       212  -9.7022    117.0268    128.5108   1.1158377067e+02   3.3522689897e+01    0.3023434    0.1892546 -16.14  0.001035045    3.438    0.709
       213 -10.4573    209.8344    125.7682   8.9946676285e+01   1.3519639676e+01    0.2844462     0.249198 -25.64   0.00052042    1.128    0.113
       214 -11.6217     37.7954    123.1777   1.3285860590e+02   4.6796957337e+01    0.4773304    0.1765039 -61.81  0.001776972    2.226    0.551
       215  -8.6375    170.2624    180.2775   1.0973485990e+02   1.1998962945e+01    0.1343802    0.1067884   9.45 0.0006864475    1.475    0.322
       216 -10.0197     58.9105    124.9408   1.2707215337e+02   4.3948226675e+01    0.3422772    0.1864303  20.03  0.001246766    2.622    0.619
       217 -10.3103     54.6681    120.7829   1.2756192536e+02   4.5457666405e+01    0.2594645    0.1976798  21.52  0.001175743    1.586    0.370
       218 -12.0496     23.9684    121.4662   1.3656138967e+02   4.8489755732e+01    0.3075997    0.2786976 -60.79 0.0009928931    1.170    0.145
       219  -9.7065     86.2216    116.3298   1.1738637553e+02   4.1936881034e+01    0.3017825    0.2030661 -68.01 0.0009803809    1.608    0.378
       220 -12.2628     15.3668    115.1557   1.3819510948e+02   5.0623578289e+01    0.3627458    0.2012849 -68.43  0.001096496    1.453    0.312
       221 -10.2359    209.6427    247.2012   1.1327356788e+02  -5.0053498121e+00    0.1463717    0.1006588 -13.48 0.0002707043    1.668    0.401
       222 -10.9028    168.0541    113.2320   9.5302088437e+01   2.5475565151e+01       0.3542    0.2991535 -88.56 0.0007705982    1.398    0.285
       223  -9.9494     50.1470    112.8616   1.2746453172e+02   4.7851344676e+01    0.1928133    0.1652318  89.21  0.000346892    1.171    0.146
       224  -9.2650    203.5155    111.5167   8.7675195527e+01   1.7444463257e+01    0.1483427    0.1434734   2.98 0.0002321683    1.047    0.045
       225  -8.8700     83.6221    111.1820   1.1698226246e+02   4.3547896987e+01    0.1956334    0.1259806 -45.61 0.0001571528    1.544    0.353
       226 -11.0087     57.0265    110.2317   1.2485103938e+02   4.7625505333e+01    0.3506647    0.2273737  -0.34  0.001621501    2.516    0.603
       227 -11.0100    249.5176    151.0278   8.8744051638e+01   1.4573566507e+00     0.501052    0.2842588 -34.98  0.002532557    1.643    0.391
       228 -12.9858     38.1427    244.5800   1.4435596872e+02   2.1167635768e+01    0.9567266    0.5063924 -70.97  0.006259211    1.993    0.498
       229 -14.1107      5.8434    245.6247   1.4974427807e+02   2.4481230563e+01     1.120018    0.6056813  82.01   0.00713813    1.464    0.317
       230 -10.5423     31.4008    110.9425   1.3283238389e+02   5.0257732070e+01     0.246071    0.1865753  39.31 0.0005848609    1.483    0.326
       231 -10.8664     27.6873    106.6577   1.3327841270e+02   5.1577700865e+01    0.2295879    0.1911833  88.02   0.00149657    1.194    0.163
       232 -11.7071     19.1732    104.2644   1.3553699444e+02   5.2820158982e+01    0.3675578    0.1996878 -42.56  0.001971798    1.941    0.485
       233 -12.8198     14.0456    238.9821   1.4812465437e+02   2.4811970128e+01    0.4734371    0.3528881  52.91  0.001304927    1.305    0.234
       234  -8.6559     77.5576    103.4370   1.1700243177e+02   4.6286310939e+01    0.1393513    0.1315598 -54.93  0.000102868    1.011    0.011
       235 -12.7729     40.8305    228.5302   1.4286799181e+02   2.3744360567e+01    0.3241571    0.2722263 -69.95 0.0008223553    1.522    0.343
       236  -8.6744     85.9485     97.0368   1.1280521227e+02   4.6351197331e+01    0.1628737    0.1586592 -50.61 -0.001877172    1.016    0.016
       237  -9.0585     72.1496     90.1895   1.1540817021e+02   5.0085698849e+01    0.1764876    0.1579642  74.03  0.001011171    1.278    0.217
       238  -9.6048     31.0209     90.3005   1.2926503069e+02   5.5006110118e+01    0.1634325    0.1528699 -58.51 0.0004058093    1.097    0.088
       239 -14.5984     47.1389    219.1925   1.4101999255e+02   2.4749451644e+01     1.610866      1.29986  49.94   0.01162853    1.285    0.222
       240  -9.8920     24.2355     88.0053   1.3112961601e+02   5.6098800875e+01    0.1810325    0.1699304 -44.86 0.0003623468    1.140    0.123
       241 -11.8374    247.9482    142.6151   8.7208799419e+01   3.0068471827e+00    0.6229671    0.5040962   0.39  0.002849271    1.243    0.195
       242  -8.7485     50.0178     83.0182   1.2107029622e+02   5.4654699694e+01    0.1575026    0.1378549 -48.41 0.0003052367    1.014    0.014
       243 -10.5886    193.7541    245.4514   1.1586688478e+02  -2.3049103130e+00    0.2228822    0.1793241 -20.42 0.0002641908    1.462    0.316
       244  -9.9114    199.9588    245.9379   1.1481647744e+02  -3.3471984720e+00    0.1677326    0.1337088  56.06 0.0005055022    1.633    0.388
       245 -10.4401    222.2697    244.9581   1.1071964383e+02  -6.6576169321e+00    0.2200713    0.1201585  25.71  0.001269668    1.595    0.373
