#   1 NUMBER                 Running object number                                     
#   2 MAG_AUTO               Kron-like elliptical aperture magnitude                    [mag]
#   3 X_IMAGE                Object position along x                                    [pixel]
#   4 Y_IMAGE                Object position along y                                    [pixel]
#   5 X_WORLD                Barycenter position along world x axis                     [deg]
#   6 Y_WORLD                Barycenter position along world y axis                     [deg]
#   7 A_WORLD                Profile RMS along major axis (world units)                 [deg]
#   8 B_WORLD                Profile RMS along minor axis (world units)                 [deg]
#   9 THETA_WORLD            Position angle (CCW/world-x)                               [deg]
#  10 FWHM_WORLD             FWHM assuming a gaussian core                              [deg]
#  11 ELONGATION             A_IMAGE/B_IMAGE                                           
#  12 ELLIPTICITY            1 - B_IMAGE/A_IMAGE                                       
         1 -17.0147    213.2694     74.4734   3.6186656148e+01   2.3527602055e+01     10.55689     4.532753 -53.58   0.04608422    2.358    0.576
         2 -15.0157    232.8713     23.7930   2.4127515135e+01   2.6570721761e+01      1.48094     1.143965 -13.51  0.006879821    2.265    0.558
         3 -16.9202    239.4137     51.1605   2.8631298307e+01   2.1890333915e+01     6.971684     1.280719  58.58   0.01345732    5.297    0.811
         4 -13.6787    212.4296     27.0609   2.6478032095e+01   3.0181382430e+01     1.606045    0.7747081 -60.19  0.004957954    1.999    0.500
         5 -14.5041    249.6507     27.0366   2.3459956594e+01   2.3114534428e+01    0.8428705    0.3521425 -38.13   0.00366545    2.334    0.572
         6 -12.9691    134.3848     19.3010   3.4301239152e+01   4.8072495275e+01    0.5361922    0.2624469 -20.75  0.001023525    2.729    0.634
         7 -11.8436    204.6814     10.1541   2.3787693863e+01   3.3614124954e+01    0.3196797    0.1909679 -25.30  0.001906688    2.313    0.568
         8 -10.2523     81.5460     10.0472   4.2408866917e+01   6.0425730094e+01     0.178933    0.1360261  46.39 0.0003790355    1.069    0.064
         9 -10.2387    234.0198      8.0001   2.1217824578e+01   2.8110791894e+01    0.3309245    0.1172702 -41.66  0.001280478    2.409    0.585
        10 -11.1111    236.5157      3.1295   2.0213841834e+01   2.8156635931e+01    0.3465425    0.1377753  66.63   0.00199504    2.419    0.587
        11  -8.6548    216.4179      7.8547   2.2420162324e+01   3.1498752525e+01    0.2472247    0.1250588 -36.05  0.001474694    2.107    0.525
        12 -10.0263    242.3136      7.9164   2.0674931365e+01   2.6596276681e+01    0.1822789    0.1085127  63.60 0.0008776573    1.913    0.477
        13 -10.4922    250.0493      5.3645   1.9788452852e+01   2.5486790992e+01    0.1625641    0.1437272 -35.84  0.001128489    1.685    0.407
        14 -11.1496    119.2275      4.9423   3.2648126131e+01   5.2734640538e+01    0.3119834    0.1688257  22.93  0.001532969    2.795    0.642
        15 -10.9782    181.0127      3.1956   2.4422454617e+01   3.9236178979e+01    0.3188359    0.2336377 -68.40  0.002195238    1.243    0.196
        16 -10.5565    159.2060      1.5668   2.6263314454e+01   4.4112153948e+01    0.1957347    0.1374937  57.26 0.0005340611    1.379    0.275
        17 -11.5321    126.8808      2.7005   3.0762300502e+01   5.1206226312e+01    0.3129294    0.1610556  85.81  0.001534053    2.289    0.563
        18 -13.0361    191.3058    152.3509   5.6920157451e+01   1.3434020206e+01    0.7827277    0.3526316 -54.95    0.0027937    2.826    0.646
        19 -14.3757    176.1547     78.3106   4.2670858456e+01   3.0733472697e+01     0.960362    0.7863544 -13.42  0.002072033    1.592    0.372
        20 -11.6789    172.9659    150.4529   6.0376291834e+01   1.7266273299e+01    0.3189914    0.2236218 -44.18 0.0009395516    1.338    0.253
        21  -9.8988    132.4585    138.4851   6.7438997736e+01   2.7933237544e+01    0.3055688    0.1527883 -51.90 0.0008622457    2.052    0.513
        22 -10.8925    134.0000    147.5558   6.9145278860e+01   2.5494120585e+01    0.5975907    0.1997688 -52.16  0.001780851    3.200    0.687
        23 -10.1114    133.0000    142.9799   6.8352474578e+01   2.6770560543e+01    0.4844113    0.1690563 -50.15  0.001490245    2.878    0.652
        24  -9.5173     86.3223    146.2225   8.2495070111e+01   3.4403464485e+01    0.1500714    0.1176749 -10.27 0.0002429904    1.500    0.333
        25  -9.8917    143.0000    144.9966   6.6232011811e+01   2.4336017613e+01    0.2657202   0.08741725 -47.55  0.000802563    2.943    0.660
        26 -13.7068    227.5524     34.5604   2.6574790241e+01   2.6289174238e+01    0.4214779    0.3151329 -51.94 0.0009189961    1.237    0.192
        27 -11.1185    183.5978    212.1050   7.0537915394e+01   2.5403965981e+00    0.2991526    0.1772393  12.64  0.001346405    2.026    0.506
        28 -15.8270    230.3237     68.3851   3.2876834195e+01   2.1137587593e+01     2.252242     1.074347  77.18   0.01047895    2.790    0.642
        29 -12.5512    201.9074    131.8966   5.0443462890e+01   1.5576424925e+01     0.342406    0.3093962 -29.55  0.001638983    1.099    0.090
        30 -10.8879    136.0985    129.7319   6.4371855005e+01   2.9223405940e+01    0.4858959   0.09261906 -48.30  0.001098667    5.450    0.817
        31 -11.6949    216.2885    129.5969   4.7456978256e+01   1.3374530897e+01    0.2569649    0.1477585 -50.37 0.0006178354    1.619    0.382
        32 -11.7371    160.8632    128.5046   5.8034670030e+01   2.4408747851e+01    0.4356401    0.3501804 -58.89  0.001863014    1.313    0.238
        33 -12.4930    217.3571    124.0379   4.6112532601e+01   1.4216044996e+01    0.3817227    0.2708966 -12.97  0.001894368    2.028    0.507
        34 -12.2646    212.3181    123.4193   4.6805862551e+01   1.5254028607e+01    0.3123127    0.2575571  74.65   0.00109831    1.448    0.309
        35 -11.6920    194.8772    124.1060   5.0011626870e+01   1.8444100959e+01    0.2287441    0.1878926 -67.88 0.0009591691    1.325    0.245
        36 -11.1573    172.3795    123.5880   5.4339585400e+01   2.3069680902e+01    0.3381851    0.2377923 -76.30  0.001209543    2.052    0.513
        37 -10.7545    135.0408    121.0375   6.2485103007e+01   3.1391166231e+01     0.585991    0.2015359 -47.31  0.001725351    2.898    0.655
        38 -14.3364    247.8225     58.2962   2.9171439240e+01   1.9386506622e+01    0.6881387    0.3142022 -47.39  0.002819272    1.758    0.431
        39 -12.5282    232.4515    207.9106   6.0082626955e+01  -3.5494190659e+00    0.4367639    0.2726043 -24.62  0.001939931    1.410    0.291
        40 -11.6319    225.3962    204.5078   6.0745112546e+01  -2.0358631450e+00    0.5840888    0.2903973 -22.21  0.002547559    2.444    0.591
        41 -12.1049    167.2715    115.2641   5.3432884672e+01   2.5830689892e+01    0.4914483     0.422517  11.43  0.002557401    1.386    0.278
        42 -11.0109    135.1984     99.2051   5.6748536436e+01   3.5969288373e+01      0.27293    0.2455516 -83.20 0.0004390274    1.250    0.200
        43 -11.1586    135.0000    111.5098   6.0053947113e+01   3.3469417611e+01    0.6522632    0.1989904 -43.16  0.001970357    3.267    0.694
        44 -11.2680    134.4929    104.5145   5.8345384335e+01   3.5043026573e+01    0.8395482    0.4506573 -58.82  0.003091688    2.553    0.608
        45 -10.3300    125.3245    112.3191   6.2821785497e+01   3.5319184119e+01    0.1598403    0.1226764  -2.87 0.0003245679    1.675    0.403
        46 -12.0796    176.3275    172.7977   6.4442222519e+01   1.1823691449e+01    0.5660487    0.2923814 -37.47  0.002318859    1.904    0.475
        47 -11.9966    126.8401    104.8724   6.0436386828e+01   3.6594539245e+01    0.5548931    0.3452027 -65.69  0.002161657    2.388    0.581
        48  -9.6304    142.4969    106.4982   5.6874359197e+01   3.2916501253e+01    0.1512295    0.1467504  -7.35 -0.0002570784    1.054    0.051
        49 -11.1057    211.0459    104.0457   4.2847317421e+01   1.9028338006e+01    0.1998431     0.174732 -57.98            0    1.025    0.024
        50 -11.3276    149.1517    103.4284   5.4498120244e+01   3.2096810904e+01     0.316288    0.2723575  33.12 0.0007440901    1.235    0.190
        51 -11.8026    143.0517     93.8024   5.3392907319e+01   3.5311344575e+01    0.3248066    0.2963002 -84.56 0.0007546418    1.182    0.154
        52 -12.0067    117.8331     93.4729   5.9749031810e+01   4.0824753669e+01    0.4923427    0.1927731 -50.87  0.001615602    3.117    0.679
        53 -11.0559    113.6264     94.9345   6.1344515035e+01   4.1406461232e+01    0.2529614    0.2053931  27.10 0.0004915519    1.269    0.212
        54 -12.9316    158.4662     89.7196   4.8909960096e+01   3.2663132555e+01    0.3473944    0.2829297 -30.37  0.001825201    1.326    0.246
        55 -13.6381    246.3751    167.7286   5.0213161077e+01   1.5969830078e+00    0.7925529     0.579039 -51.14  0.004759017    1.421    0.296
        56 -13.8537    233.4464    198.3904   5.8153105884e+01  -2.0343465227e+00    0.7590809    0.5556929   2.99  0.004531118    1.408    0.290
        57 -12.2496    132.9416     82.1995   5.2634156529e+01   3.9700120462e+01    0.4995635    0.2178708  37.98  0.001760837    2.825    0.646
        58 -12.8878    143.9778     54.2578   4.2373743198e+01   4.1705651136e+01    0.6430528    0.3283063  48.74  0.002491097    1.883    0.469
        59 -11.8578    175.8147     51.6081   3.6230916591e+01   3.4867894626e+01    0.5784002    0.2495956 -40.98  0.002593991    2.274    0.560
        60 -12.8245      2.4873    173.9896   1.1119639681e+02   3.6569622276e+01    0.4657389    0.2313056 -81.59  0.002246334    1.776    0.437
        61 -13.3397     21.0633    158.7687   1.0453214998e+02   3.9050232760e+01    0.5557802    0.3346063  83.18  0.002629067    1.874    0.467
        62 -11.7955    191.2478     41.7908   3.1856380387e+01   3.2795413465e+01    0.2561012    0.1919531 -55.46 0.0006043985    1.256    0.204
        63 -13.1972    203.5341     35.0936   2.9002915530e+01   3.1038550911e+01    0.4097932    0.2199252 -44.31 0.0009362299    1.746    0.427
        64 -11.0482    124.4129     37.7659   4.1587203906e+01   4.8320523272e+01    0.1697462     0.129435  -9.84 0.0007489045    1.635    0.388
        65 -11.7796    118.2680     37.1090   4.2713809764e+01   4.9778796494e+01    0.3017142    0.1844793 -26.61  0.001556101    1.902    0.474
        66 -10.9013    189.9980     35.6681   3.0639239000e+01   3.3833351250e+01    0.2233066    0.1636809 -43.79 0.0006972863    1.399    0.285
        67 -13.8818      4.4736    168.2595   1.1016327134e+02   3.7878713239e+01    0.8406141    0.4758412  87.95  0.003406262    1.720    0.418
        68 -10.1109    200.3383    164.6651   5.7723949979e+01   9.3310501849e+00    0.1401364    0.1138268 -78.56 0.0007051644    1.749    0.428
        69 -10.4694    159.8852     24.7868   3.1904498937e+01   4.1741070609e+01    0.1810779    0.1669669 -64.74  0.000381855    1.174    0.148
        70  -9.7313    171.3083    204.6062   7.1856244768e+01   5.9518863331e+00    0.1397112    0.1173338  85.23 0.0007007369    1.830    0.454
        71 -11.3324    143.1845     20.4622   3.3213662957e+01   4.5965063679e+01    0.3155931    0.1602273  60.92   0.00143857    1.645    0.392
        72 -10.3002    190.1824     15.4359   2.6189980128e+01   3.6086013582e+01    0.2609883    0.1441981 -73.96  0.001440413    1.855    0.461
        73 -11.2520    125.8066     14.7999   3.4456869508e+01   5.0431133706e+01    0.1676384    0.1349096 -86.80 0.0003927664    1.319    0.242
        74 -12.6491     65.9369    143.8437   8.8368577179e+01   3.8059687286e+01      2.40923      1.09656  26.04  0.009097218    2.424    0.587
        75 -12.0907    192.3120    194.3723   6.5335973944e+01   4.6865081598e+00       1.1488    0.5791342 -64.10  0.002968268    7.202    0.861
        76 -12.8922    210.1475    187.0064   6.0304305455e+01   3.3578354535e+00     0.670745    0.4498648  26.61  0.003532193    1.618    0.382
        77 -10.8181    228.9055    186.9604   5.6810153358e+01   6.1590628918e-01    0.2014928    0.1651108 -25.73 0.0004075481    1.014    0.013
        78 -14.7650    176.3091     91.2141   4.5782899965e+01   2.8477696236e+01     2.586568     1.266841  44.46   0.01072283    2.307    0.567
        79 -13.5796    196.8779     81.9909   4.0153619161e+01   2.5675173579e+01    0.8996325    0.3357945  44.65  0.003202356    3.776    0.735
        80 -11.0179    242.5990    230.7589   6.2319924583e+01  -8.4862318953e+00    0.1594871   0.09978559 -40.81 0.0003926755    1.601    0.376
        81 -13.9483     35.4605    154.9735   9.9762693697e+01   3.8726100805e+01     0.736196    0.6303485 -64.67  0.001673031    1.043    0.041
        82 -13.8048     43.1762    151.5105   9.6880327552e+01   3.8836511699e+01    0.8054201    0.6040713 -77.05  0.002407527    1.325    0.245
        83 -13.4768     49.0322    149.1744   9.4677352138e+01   3.8796339689e+01    0.7270043    0.4565257 -76.12   0.00184222    1.711    0.416
        84  -9.3103    207.6320    161.2938   5.5620752365e+01   8.7652396785e+00    0.1353033    0.1115803 -82.16  0.000579008    1.720    0.419
