#   1 NUMBER                 Running object number                                     
#   2 MAG_AUTO               Kron-like elliptical aperture magnitude                    [mag]
#   3 X_IMAGE                Object position along x                                    [pixel]
#   4 Y_IMAGE                Object position along y                                    [pixel]
#   5 X_WORLD                Barycenter position along world x axis                     [deg]
#   6 Y_WORLD                Barycenter position along world y axis                     [deg]
#   7 A_WORLD                Profile RMS along major axis (world units)                 [deg]
#   8 B_WORLD                Profile RMS along minor axis (world units)                 [deg]
#   9 THETA_WORLD            Position angle (CCW/world-x)                               [deg]
#  10 FWHM_WORLD             FWHM assuming a gaussian core                              [deg]
#  11 ELONGATION             A_IMAGE/B_IMAGE                                           
#  12 ELLIPTICITY            1 - B_IMAGE/A_IMAGE                                       
         1 -14.3428    148.9038     61.9949   8.6938864697e+01   4.0167413937e+01     1.467707     1.171554  -1.85  0.004074038    1.521    0.343
         2 -14.7244    159.9834     46.8956   7.9732667441e+01   3.9721150382e+01     1.286642     1.046445 -29.93  0.003737173    1.284    0.221
         3 -14.8012    172.5239     15.7903   6.7751253200e+01   4.0350890688e+01     1.158617     1.068252  19.69     0.003956    1.238    0.192
         4 -13.9677    188.4360     13.4122   6.4996100075e+01   3.6454496764e+01     1.015091    0.5277868 -74.28   0.00391247    2.439    0.590
         5 -13.1862    199.9994      8.9924   6.2476315061e+01   3.3940517683e+01    0.3776753    0.2897066 -72.84  0.002126503    1.226    0.184
         6 -11.3224     13.2219    239.8777   1.4943909080e+02   2.4606479237e+01    0.1683503    0.1139988 -87.74  0.001320912    1.353    0.261
         7 -20.2568     80.6888    177.2532   1.3131496378e+02   2.8780250305e+01     15.87747     7.175942 -66.92   0.07155542    2.221    0.550
         8 -11.3308     20.0427    196.3257   1.4594457512e+02   3.2175938264e+01    0.1669597    0.1243232 -75.42 0.0004236989    1.368    0.269
         9 -11.3949    139.7442    249.1166   1.2815958356e+02   6.0190291173e+00    0.3465407    0.1767704 -62.46  0.001866657    2.779    0.640
        10 -11.0259    140.0000    241.5190   1.2723107705e+02   7.1249049793e+00    0.2464946    0.1731442 -59.64  0.001573103    1.790    0.441
        11 -12.0345    163.8881    169.7905   1.1129327644e+02   1.5385405440e+01    0.2771088    0.1951636  60.99  0.001008385    1.594    0.373
        12 -12.4338    230.5038    167.7496   9.7746766006e+01   2.5903944834e+00     0.441776    0.1990134 -45.74  0.001808506    2.718    0.632
        13 -14.0462    134.6874    238.6482   1.2787580745e+02   8.4291019124e+00    0.3831514    0.2859333 -59.98  0.001721022    1.652    0.395
        14 -12.0255    114.7843    250.4026   1.3277910416e+02   9.6930983570e+00    0.1692236    0.1196306  42.61  0.001127864    1.230    0.187
        15 -10.4716     39.4930    250.7317   1.4573194476e+02   1.9852713369e+01    0.1045178   0.06727467  57.95 0.0007602408    1.131    0.115
        16 -11.1530    151.5983    236.8401   1.2450120974e+02   5.9506165181e+00    0.2799453    0.1606242  43.24 0.0007183017    1.387    0.279
        17 -11.1104     28.2217    234.7779   1.4672948854e+02   2.3920760259e+01    0.1399945   0.09618085  82.43 0.0006607718    1.184    0.155
        18 -10.5361    176.9309    154.9411   1.0544997334e+02   1.5558934484e+01    0.2211689    0.1805993  88.95 0.0005674394    1.595    0.373
        19 -13.3824    161.4793    153.0795   1.0841105599e+02   1.9188308257e+01    0.4268997    0.3924792  57.90  0.001306646    1.074    0.069
        20 -11.3156     17.7930    154.1456   1.4325328493e+02   4.1448403011e+01    0.1939048    0.1571008 -67.94  0.000344959    1.290    0.225
        21 -11.3918     18.5178    149.1981   1.4263705867e+02   4.2498960628e+01    0.3100688    0.2376041  67.78  0.002116187    1.211    0.174
        22 -12.5646    174.1688    148.7868   1.0469977484e+02   1.7341255888e+01    0.3923073    0.3350999 -50.91  0.001335704    1.237    0.192
        23 -10.5998     21.6575    232.4743   1.4771147427e+02   2.5047020851e+01    0.1047765   0.07313697  74.44 0.0001625869    1.058    0.055
        24 -11.5615    171.3495    137.8449   1.0283220531e+02   2.0122988618e+01    0.2598768    0.2073075  58.91 0.0005975458    1.313    0.238
        25 -10.4488      2.7533    135.1415   1.4518572797e+02   4.6887463840e+01    0.1881175    0.1246228 -41.21 0.0007916242    1.957    0.489
        26 -13.0489    160.6871    127.9727   1.0287308226e+02   2.4512503751e+01    0.5145017    0.3991363 -60.31  0.001635365    1.420    0.296
        27 -10.2519     32.5935    221.6552   1.4521539139e+02   2.5856199671e+01    0.2624594    0.1513842 -65.60  0.001693873    1.919    0.479
        28 -11.6852    218.1104    219.8707   1.0970740630e+02  -2.7189230476e+00    0.2693393    0.1665548 -45.00  0.001509617    2.128    0.530
        29 -11.0768    167.5999    112.6685   9.7457692808e+01   2.6040103098e+01    0.3839037    0.2637676  85.34  0.001341556    2.260    0.558
        30 -10.7724     24.4632    216.0672   1.4633288748e+02   2.7809303850e+01     0.141849    0.1046719  71.29 0.0003344202    1.053    0.050
        31 -10.8673    205.4656    110.1846   8.9127954842e+01   1.7583808447e+01    0.3266337    0.2149174  43.40 0.0009713902    1.592    0.372
        32 -12.1925     25.7472    106.4200   1.3557040277e+02   5.1776159548e+01    0.3515241    0.2450545   1.75   0.00154845    2.031    0.508
        33 -10.3102     19.1611    216.3189   1.4729164667e+02   2.8314821486e+01   0.09279286   0.06249575 -76.13 0.0001942533    1.480    0.324
        34 -12.6177     47.7787     92.8448   1.2608945757e+02   5.2809579594e+01    0.4195765    0.2892815  22.48  0.001985091    1.758    0.431
        35 -10.7102    152.0370    250.5802   1.2611655102e+02   3.8592882630e+00    0.1701692   0.09122423  41.17 0.0001681212    1.447    0.309
        36 -11.8197     40.0296     94.4608   1.2896810670e+02   5.3254222250e+01    0.3354973    0.2307047  26.27  0.001197731    1.734    0.423
        37 -13.1541     11.4051    206.0146   1.4812364243e+02   3.1082377644e+01    0.3675829    0.2463268  32.61  0.001877659    1.885    0.470
        38 -11.7945      5.9911     89.1157   1.3914303387e+02   5.7117508510e+01    0.4803057    0.2259787 -11.67  0.002268106    3.676    0.728
        39 -10.5662    143.0854     81.5086   9.4423974599e+01   3.8062623220e+01    0.2393453    0.2114145 -39.70 0.0005960343    1.133    0.118
        40 -10.3946     31.6910    205.0014   1.4429531604e+02   2.9200223432e+01    0.1496728    0.1112478  85.17 0.0004260862    1.114    0.102
        41 -12.8601    138.5355    199.5102   1.2186417917e+02   1.4535562366e+01    0.8326044    0.3996704  38.85  0.003738121    1.945    0.486
        42 -10.8828    155.8752    247.3935   1.2503978983e+02   3.6999487666e+00    0.1642661     0.141169  54.56 0.0003091097    1.176    0.150
        43 -12.0124    127.7566    246.6102   1.3005080182e+02   8.2843822967e+00    0.2205606    0.1610885  55.61  0.001203032    1.140    0.123
        44 -13.3643    163.9944     37.9879   7.6118688447e+01   3.9927886537e+01    0.4877121    0.4649174  61.19 0.0008189565    1.034    0.033
        45 -11.1243     13.4701     59.9410   1.3107772689e+02   6.3101182660e+01    0.1774759    0.1599536  56.95 0.0004192504    1.409    0.290
        46 -12.1197    162.8186    244.6784   1.2343981418e+02   2.9669128198e+00    0.3289599    0.2721403 -27.84 0.0007812704    1.562    0.360
        47 -10.7991     29.1892    201.1929   1.4451092088e+02   3.0238751693e+01     0.150407    0.1250206 -89.23 0.0005319336    1.248    0.199
