#   1 NUMBER                 Running object number                                     
#   2 MAG_AUTO               Kron-like elliptical aperture magnitude                    [mag]
#   3 X_IMAGE                Object position along x                                    [pixel]
#   4 Y_IMAGE                Object position along y                                    [pixel]
#   5 X_WORLD                Barycenter position along world x axis                     [deg]
#   6 Y_WORLD                Barycenter position along world y axis                     [deg]
#   7 A_WORLD                Profile RMS along major axis (world units)                 [deg]
#   8 B_WORLD                Profile RMS along minor axis (world units)                 [deg]
#   9 THETA_WORLD            Position angle (CCW/world-x)                               [deg]
#  10 FWHM_WORLD             FWHM assuming a gaussian core                              [deg]
#  11 ELONGATION             A_IMAGE/B_IMAGE                                           
#  12 ELLIPTICITY            1 - B_IMAGE/A_IMAGE                                       
         1 -13.8993     56.4951     64.6637   6.0524705552e+01   6.0162703514e+01     2.196804     1.295686 -24.53  0.007985617    2.816    0.645
         2 -14.9530      6.3594     70.9011   9.0002742288e+01   6.4585102506e+01     1.254105    0.9123239 -65.62  0.006600895    1.235    0.190
         3 -12.9586      7.8947      2.6187   5.9823303738e+01   8.0687315539e+01    0.5956413    0.4077477  41.87  0.003421193    1.621    0.383
         4 -15.9122     11.1352     23.5631   7.1810609054e+01   7.6185410236e+01     2.129264     1.225916 -33.83  0.009784162    1.780    0.438
         5 -14.5112     27.0121     11.8091   4.9597509106e+01   7.6134246747e+01    0.9699177    0.7237861   7.44  0.005359791    1.507    0.337
         6 -14.6504    188.4768     23.3130   1.5667627290e+01   3.5438967524e+01      1.41145    0.7489637 -50.48  0.007389546    1.552    0.356
         7 -13.4960    187.7310     11.1327   1.2433577477e+01   3.6887405433e+01     0.619667    0.4703126 -35.67  0.003022857    1.248    0.199
         8 -13.9604    122.1835     36.8223   2.8047876812e+01   4.9907227041e+01     1.031438    0.5664069  40.03  0.003061577    2.432    0.589
         9 -14.6664    166.5691     28.8570   1.9160970578e+01   3.9823310181e+01     1.038102    0.8425226 -83.45  0.004091777    1.169    0.145
        10 -12.9580    120.4000     25.9344   2.4174960497e+01   5.1783436825e+01     0.700947    0.5342695  43.07  0.003465687    1.506    0.336
        11 -11.6425    232.5720      1.7487   8.1921275475e+00   2.8724958279e+01    0.3704363    0.1584259  74.88  0.002078948    2.635    0.621
        12 -14.6744    217.2106     13.3420   1.1424948886e+01   3.0510147352e+01     1.337826    0.9103165 -32.25    0.0064125    1.336    0.251
        13 -14.5662    147.8030     29.6699   2.1543792644e+01   4.4303359947e+01     1.281754    0.8254973  78.38  0.004514455    1.536    0.349
        14 -15.2785     99.1800     11.3825   2.1639875666e+01   5.8959421331e+01     1.585356    0.9779168  66.16  0.004654893    1.475    0.322
        15 -12.3767     85.5684     13.8615   2.5620878354e+01   6.2288313170e+01    0.4930024    0.3936388 -48.13  0.001797467    1.300    0.231
        16 -11.6151     70.9355     16.4005   3.0970109409e+01   6.5751657725e+01    0.2802628    0.2326737 -32.30 0.0007357415    1.278    0.218
        17 -12.3133     60.1817     15.2209   3.3990887994e+01   6.8531920405e+01    0.5951968    0.3275313  39.98     0.002463    1.931    0.482
        18 -11.6441    175.9239     13.8009   1.3938404707e+01   3.9287682181e+01    0.2225923    0.1525033 -50.78 0.0002594957    1.208    0.172
        19 -11.9474     46.9005     12.9273   3.8203412964e+01   7.1906304159e+01    0.3255442    0.2799294  73.93  0.001236956    1.294    0.227
        20 -13.9411     41.7800      4.4718   3.4350420779e+01   7.4061092754e+01    0.7709006     0.598295  26.75  0.003458636    1.300    0.231
        21 -11.5114    123.0593     10.6805   1.7811533354e+01   5.2726459125e+01    0.3415409    0.2026129 -66.40  0.001432638    1.695    0.410
        22 -11.9402     75.0078      9.7087   2.5980089378e+01   6.5440415885e+01    0.3829215    0.2434196 -13.98  0.001866611    1.832    0.454
        23 -11.0732    168.4778      9.4832   1.3200950788e+01   4.1456424688e+01    0.1328871    0.1080163 -61.75 5.974044e-05    1.011    0.011
        24 -12.1744    153.0022      8.6070   1.4086400193e+01   4.5281584979e+01    0.3419648    0.2438659  88.73  0.001931553    1.301    0.231
        25 -10.9245     80.5050      7.1058   2.3202298196e+01   6.4264045952e+01    0.1978434    0.1387533 -21.91 0.0007511398    1.562    0.360
        26 -12.2272    118.6168      2.4319   1.5049677653e+01   5.4611166244e+01    0.5378487    0.2305169 -82.27  0.002107379    2.586    0.613
        27 -11.7505     81.0411      1.3487   1.9943825798e+01   6.4601851475e+01    0.9047331          nan  64.53  0.002251643    5.820    0.828
        28 -11.2879     67.6619      2.7133   2.3743658599e+01   6.7951956114e+01    0.3059607    0.1868035  39.98  0.001501186    1.696    0.410
        29 -12.8061    139.9768     21.4635   1.9721228726e+01   4.7237840850e+01    0.8795139     0.331493  69.82  0.002593051    2.484    0.597
        30 -11.2631     61.2318      1.4552   2.4703929975e+01   6.9680498938e+01    0.3767477    0.1215908  67.92   0.00137544    2.799    0.643
        31 -12.0181     77.0522    156.7657   7.4977092797e+01   3.2941748967e+01    0.4492499    0.3254575  24.68  0.001155438    1.409    0.290
        32 -12.7677    109.3220    249.0314   7.8225157269e+01   9.9522519543e+00    0.3538211    0.2490423  34.92  0.002382176    1.240    0.194
        33 -12.9575     50.9210    248.7331   9.0883416956e+01   1.6169482931e+01    0.5580617    0.3888052  -0.95  0.003507979    1.795    0.443
        34 -13.2273     28.4530    246.2265   9.5719976241e+01   1.8750358513e+01    0.4517368    0.3097079  58.19   0.00307128    1.311    0.237
        35 -12.2236      2.8114    249.4805   1.0136509913e+02   2.0333391986e+01    0.3688475    0.2081284  42.62  0.001779223    1.248    0.199
        36 -13.8535      9.5828    245.6458   9.9830065266e+01   2.0488587093e+01    0.9066002    0.3569389  43.11  0.003761937    1.729    0.422
        37 -13.0458     73.5325    153.2050   7.5494426466e+01   3.4351965428e+01    0.7258081    0.5165646  18.81  0.002297944    1.541    0.351
        38 -12.6241      8.2685    148.8501   9.6567403680e+01   4.2706229439e+01    0.6670275    0.4656322  38.48  0.003552337    1.339    0.253
        39 -12.3166     60.8388    147.2588   7.8632007063e+01   3.7678273174e+01    0.3915368    0.2959408 -15.80  0.001855255    1.714    0.417
        40 -11.3567    103.4193    149.8402   6.6034940612e+01   3.0480525924e+01    0.3677767    0.2437652 -32.86  0.001261048    1.802    0.445
        41 -11.7426    246.3861    134.7964   3.5194400710e+01   1.0143460684e+01    0.1999076    0.1356848 -79.74 0.0009626595    4.403    0.773
        42 -12.4683     43.8463    132.8556   8.2392594771e+01   4.3752982364e+01    0.2325796    0.2070859 -38.44 0.0007012297    1.252    0.201
        43 -12.0462    136.5649    132.1823   5.3602131673e+01   2.8513779095e+01     0.505254    0.1925668  38.46   0.00177464    2.818    0.645
        44 -14.7006    105.7626    104.5213   5.4915871378e+01   4.0822315286e+01     1.470632     1.363655 -66.62  0.006144477    1.067    0.063
        45 -12.8036     28.8389    121.8509   8.6593275766e+01   4.8470679432e+01    0.7894852    0.3624493 -62.16  0.003151387    2.005    0.501
        46 -11.6770    181.0239    120.5157   4.1695577774e+01   2.2467015265e+01    0.1908088    0.1373066  47.44   0.00100115    1.579    0.367
        47 -12.8333      5.3684    118.3110   9.5670200730e+01   5.1316633668e+01     1.062202    0.5236643 -54.06  0.004554446    2.041    0.510
        48 -12.5033     50.0651     98.6243   7.3593778594e+01   5.2435612505e+01    0.9477023    0.5569386  11.13  0.003661404    2.363    0.577
        49 -12.3628     49.0187     93.3986   7.2797290900e+01   5.4010781142e+01    0.5197415     0.436667  41.50  0.002620968    1.208    0.172
        50 -12.4859     42.4527     90.4600   7.5056066966e+01   5.5725427061e+01    0.4401225    0.3181544 -89.16 2.742483e-05    1.551    0.355
        51 -14.6477     24.4739     93.0620   8.4139269711e+01   5.7046224206e+01     1.870628     1.496887 -17.17   0.00956403    1.433    0.302
        52 -12.1182     36.9194     92.9121   7.8192359744e+01   5.5751868547e+01    0.4748937    0.3187099   0.84  0.001469067    1.913    0.477
        53 -13.4964      2.2699     96.9818   9.5299798192e+01   5.7501695745e+01     1.127666    0.4308808  89.45  0.004116121    2.613    0.617
        54 -13.9844     18.3205    111.7834   8.9662823868e+01   5.2266306159e+01    0.8340301    0.6742643 -14.66  0.003017622    1.448    0.310
        55 -13.7923     11.5892    103.4313   9.1651822056e+01   5.5137587454e+01    0.7874721    0.7493559  57.72  0.003554669    1.091    0.083
        56 -11.8299     32.9525    110.4439   8.3250155109e+01   5.1276041029e+01    0.4459923    0.3402958  86.86  0.002193442    1.311    0.237
        57 -11.5039     88.4620    109.2830   6.1642767158e+01   4.3112315207e+01    0.4749788    0.2421807 -61.85    0.0017327    2.225    0.551
        58 -12.7485     84.6206    114.8993   6.4325844855e+01   4.2407400596e+01    0.9924535    0.5429327  25.64  0.003288651    2.297    0.565
        59 -12.2883     79.0062    110.0282   6.5073159341e+01   4.4670316014e+01    0.4575157    0.3584351  88.30  0.001852534    1.488    0.328
        60 -11.6443     62.9070    110.7751   7.1172348581e+01   4.7192351025e+01    0.3731804     0.246137  50.84   0.00161914    1.587    0.370
        61 -10.7411     46.2002    109.9799   7.7637926079e+01   4.9827516051e+01    0.2666351    0.1556305 -41.85 0.0009809413    1.954    0.488
        62 -11.1105     42.6717    106.8489   7.8498027800e+01   5.1154886902e+01    0.2589642    0.2145202   5.95  0.001152116    1.388    0.279
        63 -12.2001     61.8402     98.2272   6.8584618038e+01   5.0727045668e+01    0.5898344    0.3938224  76.06  0.002096805    2.023    0.506
        64 -12.4468    136.2687    102.9280   4.6387280760e+01   3.4709885962e+01    0.5321423    0.3067683  54.36  0.001798691    1.911    0.477
        65 -13.9433    104.9404    122.0518   5.9643225849e+01   3.6839154489e+01     1.433175     1.051001  51.46  0.006681036    1.428    0.300
        66 -13.1384    112.1261    116.6693   5.6251093252e+01   3.6706677336e+01    0.6550868    0.3465806  36.93  0.002572739    2.022    0.505
        67 -11.9038    163.3415     97.3087   3.9212925865e+01   3.0055822312e+01    0.3971179    0.2708142 -54.93 0.0009067096    1.514    0.340
        68 -13.2179    136.8461     94.4760   4.3919289603e+01   3.6296965557e+01    0.5701715    0.4564995 -70.74  0.002277407    1.397    0.284
        69 -12.0469    121.7342    112.0944   5.2452821311e+01   3.5801820103e+01    0.2872585    0.2613221  71.38 0.0008002041    1.174    0.148
        70 -10.9556    118.9906     96.2668   4.8856062892e+01   3.9856407843e+01    0.2108904    0.2018397  54.72 0.0002478137    1.080    0.074
        71 -11.3008     35.1536     86.5133   7.7599890235e+01   5.7732934371e+01    0.2970207     0.205764 -55.64 0.0008457762    1.369    0.269
        72 -13.1710    188.5163     83.9830   3.1672973452e+01   2.7149495148e+01    0.5291356    0.3547283  41.66  0.002069638    1.863    0.463
        73 -12.9755    187.1252     79.1568   3.0644803154e+01   2.8187868478e+01    0.2668845    0.2564813  -9.59  0.001041804    1.203    0.169
        74 -11.8357    158.5322     64.3136   3.0863675891e+01   3.6781993109e+01    0.7314655    0.2310404 -46.28  0.002436824    3.057    0.673
        75 -13.3234    164.0934     71.3522   3.1999764951e+01   3.4376293285e+01     1.170341    0.4545743  49.27  0.004373358    2.978    0.664
        76 -13.2135    161.1004     80.5745   3.5099846484e+01   3.3498162809e+01     1.032542    0.6526584  13.85  0.003838824    3.456    0.711
        77 -14.3694    169.3772     77.1072   3.2752858848e+01   3.2263559796e+01      1.26284    0.6489962  51.77  0.003474974    2.160    0.537
        78 -10.4947     97.7687     84.3888   5.1426625267e+01   4.7144155139e+01    0.2252364    0.1492047  35.73 0.0009468118    1.705    0.414
        79 -12.4670    237.2526     80.0958   2.5088195802e+01   1.8866868980e+01    0.3126621    0.2021377 -71.25  0.001858349    2.038    0.509
        80 -11.8535     40.2998     68.0148   6.9858068288e+01   6.1986396566e+01     1.181372    0.2484196  32.72  0.003252934    4.352    0.770
        81 -11.2022     41.0000    245.9347   9.2928988318e+01   1.7634924181e+01    0.1618311   0.06597923 -77.15 0.0008090539    2.988    0.665
        82 -13.4884     92.1795     57.3603   4.3603480555e+01   5.4082860200e+01    0.5641912    0.5447142 -68.59   0.00161041    1.028    0.027
        83 -13.8032     73.7713     74.0294   5.6454095766e+01   5.4618998679e+01     1.524763    0.8423959  20.58  0.004464694    3.556    0.719
        84 -13.1290     87.3569     65.2598   4.8241530404e+01   5.3626021827e+01    0.5705924    0.5004225  -3.11  0.001082656    1.385    0.278
        85 -12.8574     54.9181     81.2160   6.6822521711e+01   5.6331042559e+01    0.6442416     0.472798 -42.44  0.001983451    1.415    0.294
        86 -13.9374     61.3452     75.5621   6.2161326382e+01   5.6645514213e+01    0.8228111    0.6048977 -33.48   0.00138472    1.549    0.354
        87 -12.7367     69.6029     51.4719   4.9314812912e+01   6.0417975674e+01    0.5302916    0.3450475 -55.07 0.0005111155    1.693    0.409
        88 -12.6003     64.0357     48.2389   5.0235059638e+01   6.2266148304e+01    0.6733277    0.4276999 -34.87  0.001896526    1.714    0.417
        89 -12.5580    135.4441     79.2592   3.9770677012e+01   3.9573436333e+01    0.7383476    0.3887205  56.73  0.002898762    2.009    0.502
        90 -11.1429     42.5329     79.4809   7.2170191574e+01   5.8678107559e+01    0.3038431    0.2379942 -49.37  0.001041989    1.250    0.200
        91 -11.1363     41.6208     75.7642   7.1561372028e+01   5.9788598503e+01    0.2736761    0.2338537 -64.52  0.000690453    1.138    0.121
        92 -13.4625    171.4288    242.5982   6.5139494390e+01   4.1267185359e+00     0.414355    0.3037273   2.79  0.003034202    1.069    0.064
        93 -14.3143      5.3067     63.3113   8.9354750727e+01   6.6709047954e+01    0.8223929    0.7603602 -15.66  0.004862027    1.143    0.125
        94 -11.4118     27.1897     75.2564   7.9020328508e+01   6.1712141464e+01     0.567372     0.287154  89.11  0.001996075    2.961    0.662
        95 -10.1399     98.2746     75.3047   4.8267311558e+01   4.9019060650e+01    0.1504011    0.1263318  -2.09            0    1.543    0.352
        96 -11.9501    114.0649     79.9739   4.5225842119e+01   4.4408529719e+01    0.4674733    0.3497141 -53.81  0.001754474    1.328    0.247
        97 -13.6561    199.2907     69.7461   2.6709337423e+01   2.7149653595e+01    0.6357663    0.4445617  49.03  0.002482665    1.762    0.432
        98 -12.9847    133.4899     66.0562   3.6038091265e+01   4.2441987163e+01    0.8500804    0.7157457   7.77  0.003999073    1.559    0.358
        99 -11.0458    117.6345     72.1422   4.1723971440e+01   4.5133979590e+01    0.2591182    0.2093818  70.83 0.0006621869    1.299    0.230
       100 -11.6853     99.8390     64.2352   4.3862110542e+01   5.0924579748e+01    0.4153751     0.349294 -49.90  0.001958443    1.174    0.148
       101 -11.9361    199.8288     61.6660   2.4628609843e+01   2.8188036036e+01    0.3202495    0.2513328 -46.06  0.001406937    1.045    0.043
       102 -13.0224     79.0412     60.0328   4.9193246509e+01   5.6586572118e+01    0.7345878    0.5412382 -48.94  0.003037022    1.364    0.267
       103 -13.6271    177.6957     56.7737   2.5945857249e+01   3.3569727292e+01    0.9340352    0.4931768 -45.01    0.0032295    1.631    0.387
       104 -12.0480     38.8149     59.9851   6.7915182201e+01   6.4219340115e+01    0.3829807    0.2455759  60.94  0.001633064    2.095    0.523
       105 -12.5418     35.6183     57.2140   6.8734744012e+01   6.5362259171e+01    0.9883618    0.2910235 -49.96  0.003199686    3.110    0.678
       106 -11.5849     24.8697     58.8746   7.5817547520e+01   6.6298395415e+01    0.5344635    0.2554843 -52.10  0.002222698    1.909    0.476
       107 -11.9595    110.2211     53.5539   3.7017673591e+01   5.0357204398e+01    0.4988028    0.3830308 -12.78  0.002352211    1.688    0.408
       108 -11.8074    111.1514     58.7744   3.8718697611e+01   4.9207404035e+01    0.2607503    0.2403198 -35.10  0.000379733    1.148    0.129
       109 -14.4316    120.0760     54.8175   3.5130700500e+01   4.7678401317e+01    0.8917701    0.6974055  47.23  0.004452444    1.381    0.276
       110 -11.8460    247.7127     54.1506   1.8706726472e+01   2.0430842891e+01    0.4976955    0.1046622 -40.25  0.002115639    2.810    0.644
       111 -11.6113    249.2071     48.5721   1.7435541407e+01   2.0845200999e+01    0.1958253    0.1811439   6.35  0.001533545    1.506    0.336
       112 -11.3458     17.7021     55.3650   7.9364611394e+01   6.7927766038e+01    0.3502845    0.2147162 -69.60  0.001645332    1.608    0.378
       113 -12.4311    135.7595     51.0883   3.0619890396e+01   4.4358992583e+01    0.5950391    0.4445695 -36.17  0.002101248    1.323    0.244
       114 -13.7011    103.2412     50.2625   3.7560398780e+01   5.2665394369e+01     1.118158    0.5753455 -53.02  0.001337502    2.228    0.551
       115 -13.3226     98.0895     49.8760   3.8829514305e+01   5.4013163925e+01    0.6985019    0.4645097 -47.52  0.002067715    1.516    0.340
       116 -13.7373    211.5514     77.3877   2.7143859838e+01   2.3700082528e+01    0.7912226    0.4505517  85.70  0.003806066    2.788    0.641
       117 -10.5257     23.5364     49.9623   7.3658539650e+01   6.8694432911e+01    0.2069486    0.1330032 -58.20 0.0004415549    1.475    0.322
       118 -11.8868    151.9935     47.0000   2.6586659728e+01   4.0965443008e+01    0.4314927    0.1902161  68.44  0.001474163    2.388    0.581
       119 -13.1153    158.5493     42.9174   2.4387474289e+01   3.9950541043e+01    0.5598536     0.529564  52.80  0.002813649    1.248    0.199
       120 -11.2248     29.4977     46.9281   6.8496119874e+01   6.8686479187e+01    0.2705147     0.217933 -29.98  0.000798377    1.263    0.208
       121 -10.9143     25.4035     44.2130   7.0124405955e+01   6.9860835755e+01    0.2533213    0.1780426  43.34  0.001269694    1.550    0.355
       122 -10.8337     38.8448     46.0605   6.2239895945e+01   6.7497595110e+01    0.2133513    0.1988907  86.52 0.0005752764    1.212    0.175
       123 -13.2267      6.4006     42.9698   8.3887823794e+01   7.1973003095e+01     1.033969    0.4973124  15.28  0.004614368    2.170    0.539
       124 -13.7929     97.4474    239.2693   7.9834896698e+01   1.2867875887e+01    0.7473036    0.4038552  27.52  0.004225281    1.473    0.321
       125 -14.0584     91.2708    231.7168   8.0487404265e+01   1.4890477083e+01    0.5733861    0.5185655 -42.45  0.004056535    1.322    0.244
       126 -11.7774    147.4014    239.1729   6.9310416879e+01   7.2147124564e+00    0.1329134    0.1129179 -56.57 0.0007516083    1.701    0.412
       127 -14.4987    211.9786     40.9712   1.8373351345e+01   2.8458143909e+01     1.839313     0.632351  82.37  0.006959504    4.456    0.776
       128 -11.2083     27.8402    235.2937   9.5405440468e+01   2.0861205892e+01    0.2089264    0.1080218  42.54  0.001191522    1.454    0.312
       129 -12.5821     23.4428    216.2563   9.5614541603e+01   2.5115141310e+01     0.782396    0.3138027  41.18  0.003823311    1.854    0.461
       130 -12.3456    109.8928     41.9556   3.2606078760e+01   5.2325333500e+01    0.4264373    0.2116928  64.16 0.0006336299    2.007    0.502
       131 -13.6226     26.2327    226.5292   9.5399003200e+01   2.2738107683e+01    0.7295651    0.3949346 -49.85  0.003871208    2.513    0.602
       132 -13.0786    113.7917     37.8492   3.0116970026e+01   5.1930064355e+01    0.4479974    0.3745674  44.16   0.00137023    1.322    0.243
       133 -12.9872    131.5594     33.2279   2.5090221795e+01   4.7975156154e+01     0.549446    0.4534074  -1.79  0.001644506    1.543    0.352
       134 -12.2439     40.4830     40.3555   5.8538147516e+01   6.8462920779e+01    0.5972125     0.343926  39.99   0.00270256    1.732    0.423
       135 -12.5999     32.9331     40.0668   6.3138416151e+01   6.9757632874e+01    0.3612607    0.3066375   2.38 0.0006754107    1.239    0.193
       136 -12.5127     75.9385     37.0111   4.0173600527e+01   6.1606477819e+01    0.4885838    0.3283353  44.67  0.001333182    1.499    0.333
       137 -11.9122     70.8458     36.2607   4.1681458987e+01   6.2938511162e+01    0.3689958    0.3351482 -69.92  0.001135656    1.176    0.150
       138 -12.9784    242.1902     35.9335   1.5182830009e+01   2.3471156423e+01     0.474527    0.2861564  88.08  0.002205459    1.952    0.488
       139 -11.7162    104.5015     36.5606   3.1666918240e+01   5.4514410420e+01    0.3038938    0.1452304 -32.22   0.00120609    2.147    0.534
       140 -12.8432     45.5289     33.5744   5.2022152020e+01   6.8889986335e+01     1.104795    0.5793501  43.39   0.00481154    1.871    0.465
       141 -12.1586     42.5123     29.4677   5.1398993084e+01   7.0234731024e+01     0.255291    0.1862055 -38.75 0.0007244464    1.395    0.283
       142 -13.8277     20.6529    223.9977   9.6620242663e+01   2.3753865115e+01    0.6878351    0.5088197  27.61  0.003587347    1.237    0.191
       143 -13.6168     66.0629    223.2015   8.5625136429e+01   1.9355600966e+01     1.038115    0.6208445  38.50  0.005852947    1.362    0.266
       144 -12.9652     59.6658    212.4612   8.6306276915e+01   2.2248799687e+01     0.475072    0.3099576 -22.10  0.001597487    2.219    0.549
       145 -12.4396    223.3963     20.9009   1.2876089703e+01   2.8528076846e+01    0.2888497     0.241665  58.75  0.001434206    1.602    0.376
       146 -13.6529    216.6014     28.1274   1.4959907384e+01   2.9050256518e+01    0.5601385    0.2793144 -50.45  0.002521671    1.578    0.366
       147 -13.7787     64.4127    214.3811   8.5282374743e+01   2.1316569880e+01    0.5233153    0.3968875  39.53   0.00277853    1.108    0.097
       148 -13.5347     57.6774     26.6322   4.1933769426e+01   6.7526024439e+01     1.192167    0.3891798  49.62    0.0035889    2.839    0.648
       149 -10.5468      5.5908    219.2332   1.0006086923e+02   2.6004296288e+01    0.1491551    0.1064169 -76.13 0.0006452103    1.600    0.375
       150 -11.8075     40.0316     24.4398   4.9794252269e+01   7.1606841728e+01    0.2626693    0.2355083  -8.21  0.001531193    1.126    0.112
       151 -12.0030     30.7349     25.5437   5.6623419204e+01   7.3093478470e+01    0.4056549    0.2468734  30.29  0.001906579    1.691    0.408
       152 -12.2387     35.4490     23.4365   5.2041514524e+01   7.2649344694e+01    0.3303272    0.2678009  11.48  0.001035531    1.315    0.240
       153 -12.2030     94.2040    217.9835   7.8391866050e+01   1.7080993665e+01    0.2430324    0.1623609  28.89  0.001392454    1.257    0.205
       154 -11.7521      4.0202    213.0162   1.0027674049e+02   2.7442672608e+01    0.2965738    0.1642358  76.49  0.001666199    1.710    0.415
       155 -11.9026     48.8149     20.0972   4.2119367726e+01   7.0487690534e+01    0.7088901     0.252562  55.43  0.002533267    2.925    0.658
       156 -12.4700     72.3501    206.9934   8.2599804972e+01   2.1930655123e+01     0.319438    0.2727535  73.81  0.001989752    1.274    0.215
       157 -12.3038     57.4767    203.1640   8.6071287267e+01   2.4485675596e+01    0.5165048    0.2731088  80.54  0.002323288    2.540    0.606
       158 -11.6467    142.5992     15.2286   1.7260430277e+01   4.7236794979e+01    0.2066487     0.127649 -32.18 0.0004361335    1.574    0.365
       159 -11.9454     41.3518    205.6737   9.0472339181e+01   2.5675851608e+01    0.2248224    0.1190116  53.40  0.001115091    1.734    0.423
       160 -13.1746     16.1035    197.8670   9.6670214661e+01   2.9819233080e+01    0.9111046     0.238212 -60.73  0.003274831    4.204    0.762
       161 -13.1708     38.8728    194.8561   9.0365252607e+01   2.8372645483e+01     0.937493    0.2949766  41.96   0.00371563    2.481    0.597
       162 -13.5546     29.8702    169.3966   9.1037756714e+01   3.5477013997e+01     1.140701    0.8167473  15.25  0.005840071    1.520    0.342
       163 -13.3918     22.1437    180.8018   9.4118968957e+01   3.3342807446e+01    0.7857468     0.398846 -64.64  0.003615156    2.065    0.516
       164 -10.1102     55.3430     11.2887   3.3330870328e+01   7.0155127755e+01    0.1459371   0.09575392  33.40 0.0007023134    1.649    0.394
       165 -15.2112      8.2977    183.1387   9.8183235144e+01   3.3929635056e+01     1.347224     1.269339 -82.07  0.008900972    1.220    0.180
       166 -15.2911     15.1820    174.6827   9.5805917747e+01   3.5460243095e+01     2.344209    0.8612471  46.46  0.009737463    2.246    0.555
       167 -12.1142    198.7119    181.3548   5.0853686525e+01   9.6985707290e+00    0.2186769    0.2056073 -65.03  0.001527133    1.674    0.402
       168 -11.5818     48.9991    181.2108   8.6388128484e+01   3.0512315110e+01    0.3084395    0.1988473 -58.70  0.001556467    1.679    0.404
       169 -12.4351    124.2154    166.5071   6.3648955002e+01   2.3344762304e+01    0.5244018    0.3748406 -80.33  0.002469714    2.128    0.530
       170 -11.2081    200.9860    191.5905   5.2225708499e+01   7.9005665271e+00    0.2088145    0.1726401   6.34  0.001167359    1.163    0.140
       171 -11.9299    135.0618     39.2162   2.6650601054e+01   4.6276497962e+01    0.4717381    0.2924054  81.12  0.001354126    1.715    0.417
       172 -11.6384    111.1585    155.6130   6.5006520524e+01   2.7856668505e+01     0.572782    0.3503408  83.73  0.001963817    3.760    0.734
