#   1 NUMBER                 Running object number                                     
#   2 MAG_AUTO               Kron-like elliptical aperture magnitude                    [mag]
#   3 X_IMAGE                Object position along x                                    [pixel]
#   4 Y_IMAGE                Object position along y                                    [pixel]
#   5 X_WORLD                Barycenter position along world x axis                     [deg]
#   6 Y_WORLD                Barycenter position along world y axis                     [deg]
#   7 A_WORLD                Profile RMS along major axis (world units)                 [deg]
#   8 B_WORLD                Profile RMS along minor axis (world units)                 [deg]
#   9 THETA_WORLD            Position angle (CCW/world-x)                               [deg]
#  10 FWHM_WORLD             FWHM assuming a gaussian core                              [deg]
#  11 ELONGATION             A_IMAGE/B_IMAGE                                           
#  12 ELLIPTICITY            1 - B_IMAGE/A_IMAGE                                       
         1 -11.4478    202.1298     36.2511   6.5865010273e+01   3.0681447594e+01     1.018729    0.4491057 -58.00   0.00410505    2.733    0.634
         2 -11.2863     24.2363     32.2215   1.1049612208e+02   6.6396036210e+01    0.6512284    0.2213219 -49.97  0.002812818    3.573    0.720
         3 -12.1500     29.6103     24.1951   1.0511257871e+02   6.7018869867e+01     1.231389    0.2739137 -37.62  0.004813849    4.041    0.753
         4 -10.9810      8.9979     19.4870   1.1244328593e+02   6.9605912480e+01    0.5638163    0.2628275  16.11  0.003397375    2.221    0.550
         5 -12.3160     23.4410      4.1099   9.9154205470e+01   7.0200303217e+01    0.9826841    0.3957093  32.23  0.005599611    2.342    0.573
         6 -12.0595     18.7407     13.6040   1.0551459257e+02   6.9552195822e+01    0.4304896    0.3065518   5.48  0.002447528    1.195    0.163
         7 -11.5650     13.4508      8.7509   1.0586511439e+02   7.0672924477e+01    0.2951724    0.2212867   0.60   0.00081718    1.141    0.123
         8 -13.1466      4.1785      9.8513   1.1082135819e+02   7.1316595099e+01    0.7744046    0.3655396 -39.23  0.002719898    1.793    0.442
         9 -12.1301    217.5058     29.0511   6.2387167879e+01   2.8006007921e+01     0.709814    0.5065379 -85.34  0.002985572    1.257    0.204
        10 -10.3087     89.4592     22.9682   8.3461757031e+01   5.8038061284e+01    0.7638405    0.3595121 -10.62  0.003193101    3.266    0.694
        11 -11.4302     66.8725     20.5968   8.9460656415e+01   6.2345201754e+01     1.083175    0.5235708 -36.30  0.005162216    2.283    0.562
        12 -11.0620     73.1241     17.2517   8.6111883262e+01   6.1646803681e+01    0.3919143    0.2267497  44.41  0.002246985    1.570    0.363
        13 -11.5036     79.2178     31.3862   8.9644845639e+01   5.8947258372e+01    0.7271754    0.6684482 -56.89  0.003198397    1.508    0.337
        14 -12.6257    132.3510     22.9482   7.3314503185e+01   4.8919421355e+01     1.592746     1.181528 -64.85  0.008874599    1.702    0.412
        15 -11.6034    117.0975     15.3947   7.3998768622e+01   5.3092857378e+01    0.2624599    0.2267787  76.45 0.0003594086    1.272    0.214
        16 -12.6231    132.9104      4.0563   6.7355344428e+01   5.0551130828e+01    0.8292152     0.302932  57.53  0.003322829    2.104    0.525
        17 -11.2243    122.9193      2.8572   6.8743059369e+01   5.2890367995e+01     0.615344    0.2031582  47.40  0.002631633    2.541    0.607
        18 -12.6299    112.3974     22.1898   7.7330955322e+01   5.3437484644e+01      0.64821    0.5111312  70.65  0.001427781    1.406    0.289
        19 -11.7907    112.0552     15.4696   7.5120532538e+01   5.4179648218e+01    0.5648969    0.2508134 -29.54  0.002491824    2.463    0.594
        20 -11.8137    112.6725      7.8656   7.2404077252e+01   5.4726513854e+01    0.8586667    0.2543168  62.67  0.003241492    3.255    0.693
        21 -13.7872    100.5373      6.4645   7.4586686526e+01   5.7401704804e+01    0.6523132    0.5136351 -34.71  0.002075841    1.526    0.345
        22 -12.3422     93.2268      8.2421   7.6993117078e+01   5.8733045999e+01    0.5116092    0.3277342  45.27  0.002339294    1.295    0.228
        23 -11.4330    147.9435     25.8075   7.1264613226e+01   4.4975880741e+01    0.6939378    0.4451459  22.84  0.003401557    2.163    0.538
        24 -11.6050     50.4381     10.0663   9.0839980891e+01   6.6054105015e+01    0.3800738    0.2832821  15.95  0.002075433    1.079    0.073
        25 -12.4946     43.4368     15.7439   9.5937730628e+01   6.6417614707e+01    0.8584701    0.4997236  47.25  0.004975431    2.321    0.569
        26 -11.5425     68.0136      4.9432   8.2720957547e+01   6.3717043233e+01    0.6840309    0.2754205  40.23  0.002662751    2.076    0.518
        27 -11.1721     60.1174      4.1569   8.4916091660e+01   6.5114760220e+01    0.3677523    0.1899231  24.74  0.001602504    1.905    0.475
        28 -11.7014     55.6107      2.6902   8.5800813393e+01   6.5970938013e+01    0.3594048     0.240696  25.88  0.001063513    1.218    0.179
        29 -10.1487    161.4577     18.4940   6.6969716074e+01   4.2543449700e+01    0.2945974    0.2159672 -29.31  0.001119478    1.579    0.367
        30 -10.7508    156.5760     16.1839   6.7074464577e+01   4.3942201809e+01    0.4869115    0.2153118  59.67  0.002252505    1.870    0.465
        31 -10.9706    150.3395     15.3316   6.7815436326e+01   4.5502612409e+01    0.4877478    0.3024436  23.92  0.002430841    2.261    0.558
        32 -10.3206    147.0058     12.0352   6.7401095603e+01   4.6601553678e+01    0.3106547    0.2035199 -66.85  0.001333455    1.906    0.475
        33 -11.6451    221.1290     12.3645   5.8401719547e+01   2.9171888698e+01    0.9021464    0.2636311  73.02  0.003533188    3.155    0.683
        34  -9.9232    198.4433     19.5419   6.2349892382e+01   3.3598897050e+01    0.3776302    0.2007105 -39.68  0.001839233    1.924    0.480
        35 -10.9713    202.5687     18.9301   6.1739568050e+01   3.2698249975e+01    0.4096347    0.3656156 -48.03  0.002190921    1.278    0.217
        36 -11.9772    232.0454      9.5320   5.6856814595e+01   2.7066248070e+01    0.6099494    0.3403601  88.12  0.001924632    1.599    0.375
        37  -9.8877    224.6699      8.4379   5.7263127471e+01   2.8816173189e+01    0.2187923    0.1278723  65.81 0.0008521607    1.607    0.378
        38 -10.8998    209.2436     18.0412   6.0813478167e+01   3.1243633068e+01    0.4039292     0.210932 -74.73  0.001911368    2.157    0.536
        39 -11.0344    210.8997     14.0827   5.9760513971e+01   3.1309124800e+01    0.3852315    0.2434966 -64.49  0.001523036    1.496    0.331
        40 -10.1355    247.4543     17.4264   5.7145003236e+01   2.2826518196e+01    0.2837082    0.1280331 -48.09  0.001013357    1.896    0.472
        41 -10.4433    163.6887      5.5640   6.3158118614e+01   4.3267900764e+01    0.3236535    0.2523535 -82.10  0.001340169    1.270    0.213
        42  -9.9797    167.6431      7.5310   6.3154743751e+01   4.2152903032e+01    0.1847426    0.1689116  84.59 3.638172e-05    1.107    0.096
        43 -10.7774    170.2006     14.0592   6.4524785094e+01   4.0910469088e+01    0.3567592    0.1829353 -45.78  0.001371208    2.106    0.525
        44 -11.1808    165.3793     11.8540   6.4603376430e+01   4.2277610742e+01    0.4471794    0.2959749 -73.67  0.001743977    1.694    0.410
        45  -8.3692    168.9841      4.4817   6.2188364362e+01   4.2116342990e+01    0.2593919    0.1668856  89.71  0.001073003    1.527    0.345
        46 -10.2782    166.0383      1.7817   6.1858860669e+01   4.3049335851e+01    0.2520796    0.1563748  71.82 0.0008928234    1.342    0.255
        47 -11.2995    200.0059      5.8655   5.9019173936e+01   3.4702216477e+01    0.6088237    0.3193072 -48.43   0.00288096    1.890    0.471
        48 -10.0254    193.0520      6.7606   5.9949224225e+01   3.6232113088e+01    0.2286069   0.09808619  69.12 0.0004550203    1.942    0.485
        49  -9.3910    187.5058     14.5051   6.2428603925e+01   3.6741921597e+01    0.3241872    0.1756921  64.26  0.001396652    1.589    0.371
        50 -10.3448    187.8104      9.4889   6.1177358583e+01   3.7189336865e+01    0.4933634    0.3710592  68.33  0.003051541    1.181    0.153
        51 -10.2269    239.0141     13.4861   5.7066027247e+01   2.5097526693e+01    0.2400311    0.1601336  58.29 0.0009080842    1.735    0.424
        52 -10.4963    250.0084      9.8337   5.5495314638e+01   2.3192897031e+01    0.2199197    0.2189743  63.86  0.001279742    1.556    0.357
        53 -10.2116    140.6407     10.0753   6.7869655360e+01   4.8263201477e+01    0.3561056    0.1997666 -61.06  0.001684606    2.533    0.605
        54 -10.6779    123.1469     10.0019   7.0999078384e+01   5.2247539263e+01    0.3702144    0.1953309  54.38  0.001240976    1.555    0.357
        55  -9.3157     77.4615      4.5057   7.9750704140e+01   6.2069042845e+01    0.2353834    0.1429881  15.13  0.001026844    1.720    0.419
        56 -10.8831     77.2178      9.1834   8.1677530670e+01   6.1705731699e+01    0.2805491    0.2152708  31.73 0.0009138833    1.072    0.067
        57 -11.3799     82.7091      6.1483   7.8942218663e+01   6.0952919967e+01    0.5069596    0.2354078 -26.36  0.001950877    2.320    0.569
        58 -11.4846    208.6552      3.7252   5.7704726721e+01   3.2929047923e+01    0.4724573    0.2937749 -89.64  0.002476661    1.402    0.286
        59 -11.1560    156.5444      4.7144   6.3903082577e+01   4.5024787495e+01    0.4808155    0.3648074  54.77  0.002607248    1.212    0.175
        60  -9.8797    180.8380      5.1511   6.0924040648e+01   3.9258247382e+01    0.1963959    0.1795195 -71.48 0.0006647392    1.178    0.151
        61 -10.5437    175.7785      4.2528   6.1295920487e+01   4.0534762746e+01    0.3525601     0.153412  74.18 0.0006691579    2.039    0.510
        62 -12.2403    246.7196      2.7471   5.4404048662e+01   2.4682959390e+01    0.4832665    0.2099893  66.14  0.001033479    2.162    0.537
        63 -10.2481    223.6689      2.3848   5.6104309607e+01   2.9689101182e+01    0.2890373    0.1567639  64.76  0.001162111    1.724    0.420
        64  -9.9226    145.0813      4.5018   6.5522893014e+01   4.7719094832e+01      0.17593    0.1694602  71.83  0.001224991    1.149    0.130
        65  -9.7404     42.4348      4.1965   9.1269624227e+01   6.7797674145e+01     0.221959    0.1940915  27.14  0.001714163    1.430    0.301
        66 -10.4620     44.8636      1.7798   8.9253469722e+01   6.7683436026e+01     0.245728    0.1121824  35.35 0.0009028078    1.881    0.468
        67 -10.9832    216.6098      3.3707   5.6910216455e+01   3.1162269898e+01    0.3614931    0.3058724  31.78  0.001627837    1.756    0.431
        68  -9.6788    191.1351      1.6110   5.8948468242e+01   3.7180584562e+01    0.2422903    0.1283567  86.50 0.0008354299    1.782    0.439
        69  -9.4304    229.7399      1.3817   5.5412236263e+01   2.8459902747e+01    0.1594769   0.09331082  71.53 0.0009356512    1.518    0.341
        70 -10.2296    183.0921      1.3920   5.9754435102e+01   3.9079416855e+01    0.1813804    0.1013735  73.67 0.0003122651    1.489    0.328
        71 -12.2521    246.4738    108.9808   7.6381988251e+01   9.0892294955e+00    0.4807351    0.4523733  86.81  0.002494842    1.151    0.131
        72 -11.8324    242.0030    101.1670   7.5321872591e+01   1.1380702481e+01    0.7279255    0.4428626 -78.40  0.002524924    2.454    0.593
        73 -10.7937     66.2978    109.3603   1.1794980214e+02   4.6685422014e+01    0.2667806    0.1981095 -21.49  0.001386519    1.597    0.374
        74 -10.0043     68.5118    105.9736   1.1646289126e+02   4.7145304904e+01    0.3225033    0.1685142 -31.28  0.001282094    2.606    0.616
        75 -10.7535    201.3522    108.3930   8.3642077164e+01   1.9008419389e+01    0.3118556    0.1814555 -44.97  0.001337122    1.635    0.388
        76 -11.2921      5.6295    118.1779   1.3767618616e+02   5.0653189020e+01    0.5687335    0.2167479 -71.07  0.002668349    2.160    0.537
        77 -10.7064    230.8317    105.3971   7.7937193537e+01   1.2986358732e+01    0.2792619    0.2378821 -50.51 0.0008174361    1.062    0.058
        78 -10.7209    133.7257    103.1388   9.7071634439e+01   3.5766989945e+01    0.4131395    0.2376616 -43.64  0.001589239    1.726    0.421
        79 -11.3217     48.0582    103.3736   1.2224560851e+02   5.0333082854e+01    0.4962844    0.1820217 -37.97  0.001710779    3.693    0.729
        80  -9.6276     75.5654    101.8100   1.1324904345e+02   4.7041920620e+01    0.1993162     0.130162 -62.59  0.000708621    1.678    0.404
        81 -11.2880      4.1896     99.5140   1.3525740904e+02   5.4901780201e+01    0.3451174    0.2155421 -60.21  0.001994576    1.214    0.176
        82  -8.9581    105.7366    102.6376   1.0449617675e+02   4.1661774392e+01    0.1520851    0.1146275 -17.53 0.0006983905    1.639    0.390
        83  -9.8714     45.9905     98.3486   1.2176157116e+02   5.1684925785e+01    0.2208094    0.1591581 -38.19  0.001028529    1.291    0.226
        84  -9.7013     34.4739     99.0022   1.2561381869e+02   5.2719674543e+01    0.1995683    0.1090915 -59.62 0.0004516041    1.567    0.362
        85 -11.5188    158.4347     96.5693   8.9352431541e+01   3.1444460297e+01    0.4789063    0.3963678  85.04  0.001832481    1.361    0.265
        86  -9.7367     63.5963     98.2036   1.1608260385e+02   4.9555976717e+01    0.2058518    0.1118204 -43.75 0.0009512724    1.683    0.406
        87  -9.9270    245.1663     93.1969   7.3137705243e+01   1.2105468008e+01    0.2112903    0.1795602 -67.25 0.0004082502    1.079    0.073
        88 -10.3767    188.3276     94.0437   8.2510504469e+01   2.4795215128e+01    0.2799565    0.2551029  47.86 0.0009057068    1.178    0.151
        89  -9.6019    187.1866     90.1141   8.1723611243e+01   2.5796367520e+01    0.2770235    0.1866297 -51.80 0.0006430634    1.484    0.326
        90 -10.1394    115.0202     95.5341   9.9929762844e+01   4.1325599468e+01    0.2303689    0.1473958  45.81 0.0006226142    1.593    0.372
        91 -10.7041    193.5311     92.3217   8.1107439336e+01   2.3874986365e+01    0.4533029    0.2864669 -40.86  0.002047016    1.556    0.357
        92 -11.8145    175.4831     97.4189   8.5914356109e+01   2.7223860228e+01    0.6028043    0.4335262 -74.85  0.002102562    1.737    0.424
        93 -11.1422    220.6167     92.0716   7.6467543499e+01   1.7626290841e+01    0.3793358    0.2215428 -64.34  0.001611769    2.080    0.519
        94 -11.2983     36.0878     91.8041   1.2348999497e+02   5.4142388331e+01    0.4849094    0.3112154  23.28  0.002751151    1.809    0.447
        95 -10.4291    214.1845     89.1584   7.6798230044e+01   1.9606886870e+01    0.3534988    0.1881154 -45.09  0.001371427    1.753    0.429
        96  -9.2156      3.1482     74.6220   1.3097226927e+02   6.0226760918e+01    0.1542557    0.1370001 -49.06 0.0006864064    1.170    0.145
        97 -11.0530      3.1899     88.9463   1.3374759119e+02   5.7240478878e+01    0.4933705    0.1906505 -47.25  0.002529817    2.010    0.502
        98 -10.5382      2.2568     83.9861   1.3313809668e+02   5.8339797883e+01    0.2237837    0.1452801 -66.40  0.001001147    1.321    0.243
        99 -11.3098      5.3797     80.5477   1.3141525058e+02   5.8884217924e+01    0.4843657    0.1596628 -55.70     0.001989    2.090    0.522
       100 -10.1219    205.3626     86.1742   7.7519450704e+01   2.2185563524e+01    0.2795874    0.1354151 -45.19 0.0008550081    1.960    0.490
       101 -11.5119    200.1055     89.8069   7.9307275028e+01   2.2775077577e+01    0.4629897    0.3111851  73.58   0.00138284    1.670    0.401
       102  -9.4616    121.5252     91.5119   9.7020098676e+01   4.0790462504e+01    0.1478887    0.1460318 -13.60 0.0001568932    1.001    0.001
       103 -10.2934     87.9730     90.0704   1.0625439768e+02   4.7552895736e+01    0.3483723    0.1921361 -40.15  0.001113998    1.762    0.433
       104 -10.9472     14.3125     88.3991   1.2999128853e+02   5.6669426918e+01    0.3075897    0.2946481 -20.85  0.001612407    1.235    0.190
       105 -11.2323     52.0536     87.5799   1.1712759471e+02   5.3317668983e+01    0.6037238    0.3183674  21.50  0.002854724    2.317    0.568
       106 -10.6799     57.4415     85.3279   1.1472988384e+02   5.3121018769e+01    0.4644452    0.2823956   8.83  0.002213471    2.257    0.557
       107 -11.2922    154.4919     87.5627   8.7777329581e+01   3.4110813070e+01     0.493503    0.2647135  58.96  0.001956798    1.999    0.500
       108 -11.3523    107.0522     85.9059   9.9397558233e+01   4.4870514862e+01    0.6122288    0.4803162  27.41  0.003142814    1.357    0.263
       109 -11.0426    102.7555     80.3325   9.8978371256e+01   4.6792962917e+01    0.5750642     0.311366 -36.02  0.002028844    1.901    0.474
       110 -10.8309     98.1569     77.4576   9.9457910626e+01   4.8217019512e+01     0.298317    0.2583137  68.43  0.001051054    1.418    0.295
       111 -11.5807    240.8230     84.1929   7.1759935979e+01   1.4546485854e+01    0.8929763    0.4988415 -53.89  0.004243345    1.682    0.405
       112 -11.1920    248.6788     84.0528   7.0702848539e+01   1.2917654319e+01    0.2947184    0.2183043 -71.41 0.0005732634    1.329    0.248
       113  -9.9547    237.5224     76.5114   7.0509214516e+01   1.6531343874e+01    0.2139815    0.1970808 -38.62 0.0008380908    1.256    0.204
       114 -10.3377    234.1705     73.4138   7.0263859312e+01   1.7770075972e+01    0.4627658    0.2642679 -54.04  0.001661611    1.638    0.389
       115 -10.6164    221.5872     84.2734   7.4502719880e+01   1.8768826144e+01    0.4369214    0.2353281 -51.41  0.001931891    1.786    0.440
       116 -10.6169    219.7901     74.8858   7.2582267522e+01   2.0763699218e+01    0.4068933    0.2958104 -37.21  0.001589175    1.422    0.297
       117  -9.3370    223.3000     74.7110   7.2039775442e+01   1.9991127742e+01    0.2406462    0.1441475 -60.89  0.000486333    1.742    0.426
       118 -10.5857    146.6920     86.4969   8.9269592481e+01   3.6143793114e+01    0.3074719    0.2393437  -1.50  0.001426173    1.732    0.423
       119 -10.2417     82.2572     85.9280   1.0684150827e+02   4.9362789909e+01     0.392093    0.1704075 -38.17  0.001397081    2.400    0.583
       120 -10.3427     42.3341     86.9005   1.2022266935e+02   5.4558985843e+01    0.2017847    0.1483137 -62.02  0.001171547    1.377    0.274
       121 -10.8118    140.2348     84.5142   9.0242722805e+01   3.8010476989e+01    0.3699812    0.1929125 -55.79  0.001368087    2.513    0.602
       122 -10.7114    118.8644     86.2350   9.6212156247e+01   4.2395437155e+01    0.4613668    0.2014799  41.32  0.001523503    2.383    0.580
       123 -11.3475    217.3376     82.7327   7.4784976236e+01   2.0002942134e+01    0.5343602     0.287354 -40.54  0.001854176    1.770    0.435
       124  -9.9559    186.6426     84.4312   8.0366530404e+01   2.6957932287e+01    0.2794364    0.2346007  76.47  0.001256482    1.191    0.160
       125 -10.8306    188.9678     80.9122   7.9039083793e+01   2.7020457103e+01      0.52099    0.3499051 -81.97  0.002284832    1.934    0.483
       126 -10.5719    188.7891     75.7710   7.7751910048e+01   2.7952220606e+01    0.3489985    0.2536964 -58.69  0.001161525    1.405    0.288
       127  -9.8563    192.4328     73.1653   7.6455915321e+01   2.7511644506e+01    0.4098342    0.3207175 -64.07  0.002120818    1.280    0.219
       128  -9.8447    182.0512     83.7464   8.1048034437e+01   2.8188735579e+01    0.2265713    0.1910269 -89.24 0.0004865215    1.226    0.184
       129  -9.7379    229.4850     83.1104   7.3082473910e+01   1.7196399986e+01    0.2161396    0.1288048 -41.28  0.001024912    1.568    0.362
       130 -10.3808    160.0301     81.2687   8.4819188093e+01   3.3951635457e+01    0.3712711    0.2662164  55.89 0.0009607795    1.364    0.267
       131 -11.1138    135.0893     80.6547   9.0384335620e+01   3.9901765651e+01    0.4022795    0.2195817 -33.31  0.001437767    2.012    0.503
       132  -9.4773    166.3200     86.6232   8.4950560020e+01   3.1462880351e+01    0.1641702    0.1162653 -74.83 0.0007027662    1.815    0.449
       133 -10.0221     62.8194     79.1467   1.1120066772e+02   5.3667598559e+01    0.3885987    0.2461828 -69.13  0.001777461    2.480    0.597
       134 -10.3068    176.7843     77.4784   8.0399502303e+01   3.0571244272e+01    0.4760543    0.2532938 -57.50  0.001840923    2.343    0.573
       135 -10.6717    173.6630     72.3127   7.9613435491e+01   3.2214473464e+01    0.2997557    0.2746271  32.72   0.00164111    1.235    0.190
       136 -10.0560    170.5154     70.5163   7.9731318564e+01   3.3281980597e+01    0.2920176    0.1362247  54.38  0.001150075    2.043    0.510
       137 -11.2135    167.4401     76.6307   8.2004366247e+01   3.2986659111e+01    0.6508473    0.3785661  73.90  0.002582038    2.264    0.558
       138 -11.4410     68.2703     76.0408   1.0846497541e+02   5.3506659224e+01    0.4741578    0.3104847 -47.58 0.0009937478    1.469    0.319
       139 -10.8654     51.8726     71.1934   1.1264765123e+02   5.6656809672e+01    0.2761648    0.2217929  18.70 0.0008426161    1.315    0.240
       140  -9.9959     58.4614     77.0416   1.1206958515e+02   5.4673175357e+01    0.3036882    0.2074416 -24.11  0.001638336    1.522    0.343
       141 -11.7770     59.2030     69.8953   1.0969505271e+02   5.5961564154e+01    0.5446743    0.4477503  -8.60  0.003349254    1.178    0.151
       142  -9.6376     43.7836     78.2267   1.1747511725e+02   5.6201787626e+01    0.1795698    0.1304693 -24.97 0.0008175892    1.343    0.255
       143  -9.9603     75.5112     83.3224   1.0823243442e+02   5.0969556229e+01    0.3732414    0.1958101 -29.55  0.001473653    2.368    0.578
       144 -10.4688    144.3540     76.0821   8.6841152929e+01   3.8594763248e+01    0.2988779    0.1442104 -30.32  0.001106355    2.520    0.603
       145 -11.0250    138.5467     77.3049   8.8565519678e+01   3.9722373091e+01    0.2407946     0.190059  61.69 0.0002691155    1.308    0.236
       146  -9.6076     36.4737     76.5417   1.1959504830e+02   5.7304177480e+01    0.3196413    0.1207337 -35.47  0.001262352    3.076    0.675
       147 -11.9525    124.6773     70.0471   8.9837790269e+01   4.4119476128e+01      0.53021    0.4594297  65.67  0.002502878    1.245    0.197
       148 -11.4612     82.0318     74.9676   1.0365384272e+02   5.1555423965e+01    0.2164533    0.1989504 -13.05  0.001298403    1.009    0.009
       149 -11.0391     19.0249     72.6824   1.2486115035e+02   5.9596769295e+01     0.499005    0.2452236 -25.60  0.002504148    2.391    0.582
       150 -10.2768    250.1629     74.1477   6.8414406814e+01   1.4224230471e+01     0.212073    0.1690686 -60.87  0.000412937    1.060    0.057
       151 -11.5443    250.2528     67.3095   6.6966061442e+01   1.5286934516e+01    0.6734515    0.1892038 -35.26  0.002227907    4.019    0.751
       152 -10.7310    250.2436     59.2735   6.5292441250e+01   1.6523204172e+01    0.3364074    0.1921402 -47.56  0.001765811    1.512    0.339
       153 -10.3267    246.0115     57.4199   6.5372714604e+01   1.7698785711e+01    0.2870013    0.1865036  73.16 0.0009282154    1.547    0.353
       154 -10.9209    244.4646     53.8994   6.4804688465e+01   1.8554631904e+01    0.5664113    0.2275511  57.24  0.002479353    2.637    0.621
       155 -11.7223    234.6948     56.7114   6.6520254788e+01   2.0267558748e+01    0.5822397    0.3220465  62.25  0.002819155    1.826    0.452
       156 -11.2142    237.9853     51.9039   6.5101382208e+01   2.0255651818e+01    0.3672652    0.3290921  58.51  0.002009528    1.377    0.274
       157 -11.5491    234.0140     47.1596   6.4527750944e+01   2.1819937341e+01    0.5498897    0.3281803 -56.27  0.001664373    1.523    0.344
       158 -10.5871    214.7736     71.8684   7.2605114445e+01   2.2419657515e+01    0.3482093    0.2876164  21.61  0.001611562    1.735    0.424
       159 -10.8155    150.9550     72.1754   8.4227286171e+01   3.7718253589e+01     0.363969    0.2411606  58.62  0.001688772    1.492    0.330
       160 -11.5803    115.9663     69.8677   9.2069526894e+01   4.6028361556e+01     0.434344    0.3148742 -37.09  0.001976236    1.402    0.287
       161 -11.4563     32.7143     70.1718   1.1923529376e+02   5.8938398561e+01    0.7205911    0.3581851 -19.70  0.003209742    2.932    0.659
       162 -10.5541     26.4811     65.1493   1.2015737214e+02   6.0479579426e+01    0.4300254    0.2113274 -25.49  0.002103206    2.387    0.581
       163 -10.1760     46.7048     68.0364   1.1355261774e+02   5.7880370933e+01    0.2728806    0.1823515 -48.34  0.001011008    1.393    0.282
       164 -10.7682     42.3375     69.1164   1.1544381373e+02   5.8164486956e+01    0.5879154    0.4127466 -51.98   0.00350011    1.384    0.278
       165 -11.2366     36.1062     63.3745   1.1605319734e+02   5.9914440496e+01    0.4370406    0.3258454  28.03  0.002792227    1.523    0.344
       166 -10.5428     32.1928     62.1292   1.1715333800e+02   6.0533765839e+01    0.2538186    0.1979485 -53.47 0.0006533663    1.345    0.256
       167 -10.1994    202.3687     70.4316   7.4145549953e+01   2.5579053003e+01    0.2649836    0.2332051 -66.46 0.0008396363    1.060    0.056
       168  -8.6873    198.4915     70.5395   7.4790838995e+01   2.6488856982e+01    0.2339162    0.1369432  60.54 0.0005699198    1.673    0.402
       169 -11.1096    102.7546     70.6362   9.5998827267e+01   4.8584986152e+01    0.4963604    0.2613268  56.52  0.002020275    2.464    0.594
       170 -10.7238      6.1499     71.0698   1.2913486029e+02   6.0775557710e+01    0.1887154    0.1536484  -3.96 0.0003474557    1.383    0.277
       171 -10.0553    226.4080     69.2138   7.0353117686e+01   2.0180791699e+01    0.3559409    0.1176923 -40.42  0.001314425    2.736    0.634
       172 -11.5577    132.9808     68.0602   8.7165950126e+01   4.2601770130e+01    0.4898656    0.3420104  61.14  0.002361415    1.512    0.339
       173 -10.7933    143.3080     68.6762   8.4922451259e+01   4.0115216559e+01    0.2349828    0.2093914  81.68 0.0006174627    1.192    0.161
       174 -11.0328    139.8611     67.8143   8.5460475235e+01   4.1062861545e+01    0.4705445    0.2803457  30.99   0.00194619    2.208    0.547
       175 -10.5648    179.8071     68.8157   7.7540089750e+01   3.1298958018e+01    0.5039106    0.1821251  53.94  0.001794919    2.612    0.617
       176 -11.0516    162.0993     68.0478   8.0711574020e+01   3.5735223921e+01    0.5545754    0.4220981  46.30   0.00280154    1.330    0.248
       177 -10.2582    158.4583     57.6951   7.8521489274e+01   3.8257921779e+01    0.4576697    0.2813764  15.50  0.001708041    3.263    0.694
       178 -11.8983    160.0194     50.2212   7.6099750880e+01   3.8982683104e+01    0.7657678    0.4520343 -57.18  0.003411248    2.070    0.517
       179 -11.1122    165.0287     62.6996   7.8643509898e+01   3.5887769157e+01    0.5607768    0.2783956  52.92  0.002340902    1.902    0.474
       180 -11.5444    166.0954     56.0871   7.6606351955e+01   3.6647329586e+01    0.6006426    0.5010697 -69.36  0.003278446    1.257    0.204
       181  -9.6120     79.5725     69.4619   1.0272872702e+02   5.2989543518e+01    0.2372295     0.123918  26.88  0.001018152    2.315    0.568
       182 -10.9554    147.4510     63.7291   8.2548542484e+01   3.9951242455e+01    0.5393191    0.3200789  82.33  0.002030037    2.867    0.651
       183 -11.7408    151.7025     66.5707   8.2454387103e+01   3.8478891067e+01    0.6946172    0.2702093  46.82  0.002007272    2.580    0.612
       184 -10.4793    205.2543     65.5445   7.2504887666e+01   2.5681453943e+01    0.3143599    0.2187018  86.82 0.0008660135    1.542    0.351
       185 -11.3502    109.5321     67.3261   9.3035072464e+01   4.7806175501e+01    0.3999428     0.254761  10.63   0.00166458    2.488    0.598
       186 -10.0426    190.0555     64.9655   7.4764031959e+01   2.9428005568e+01    0.2217925    0.2050195  67.05 0.0009643965    1.112    0.101
       187  -9.7625    185.7866     64.4211   7.5340498229e+01   3.0552301064e+01    0.2246405     0.182386  44.99 0.0006226836    1.359    0.264
       188 -10.4802    185.3793     60.6959   7.4442092766e+01   3.1236968359e+01    0.3026868    0.2053353 -55.41 0.0005935747    1.518    0.341
       189 -11.0357     12.5878     56.3895   1.2306757514e+02   6.3215806830e+01    0.3163719    0.2304261  33.63  0.002153614    1.781    0.438
       190 -10.7822     10.8100     63.5795   1.2563921319e+02   6.1967118643e+01    0.3646251    0.1911927 -47.10  0.001866795    1.443    0.307
       191 -10.6904     15.3248     61.2869   1.2333096158e+02   6.2100438016e+01    0.2313277    0.1679173 -22.63 0.0008058797    1.269    0.212
       192 -12.5133     20.0306     57.9259   1.2059261952e+02   6.2380821076e+01    0.4803437     0.261427 -54.77 0.0005434774    1.687    0.407
       193  -9.9801    234.4191     63.3435   6.8005785510e+01   1.9315038838e+01    0.2108737    0.1861419 -27.44 0.0005029603    1.416    0.294
       194 -10.2752     53.9071     62.4935   1.0926305102e+02   5.8032160823e+01    0.4988576     0.224973 -58.60  0.001866612    3.872    0.742
       195 -10.2296     57.5286     60.3067   1.0726908431e+02   5.7947472293e+01    0.3142833    0.1900259  35.80  0.001429172    1.770    0.435
       196 -11.4833     67.4191     61.9632   1.0435910915e+02   5.6247754059e+01    0.2846671    0.2398639   5.56   0.00069327    1.134    0.118
       197 -10.8929    111.8549     61.9673   9.0696536495e+01   4.8225047800e+01    0.3045679    0.1846502  29.30  0.001362882    1.942    0.485
       198 -10.2776     97.9750     61.9301   9.4611531805e+01   5.1015021616e+01    0.2089945    0.1899556  -1.50  0.000502307    1.044    0.043
       199 -11.1075    221.5553     56.8514   6.8177406594e+01   2.3213644887e+01    0.5624207    0.3863652 -78.89  0.002401901    1.489    0.328
       200 -10.7858    216.1645     60.1850   6.9662169174e+01   2.3952620733e+01    0.4576205    0.2193841  62.56   0.00139695    2.038    0.509
       201 -10.8028    212.0457     54.5195   6.8893184218e+01   2.5774247811e+01    0.6773289    0.2898584 -62.65  0.002288219    3.687    0.729
       202 -11.3089    200.3065     58.9085   7.1624283976e+01   2.7900037050e+01    0.7160025    0.5021423 -50.24  0.003711782    1.383    0.277
       203 -10.1930    142.0374    243.4711   1.2335151280e+02   3.6123239239e+00    0.1835244    0.1089253  21.54 0.0008097419    2.550    0.608
       204 -10.8602    200.7962     46.2086   6.8443005141e+01   2.9648212505e+01    0.9860121    0.1967293 -39.99  0.003084478    4.192    0.761
       205 -11.5832    205.0028     44.0159   6.7345201409e+01   2.8951417899e+01    0.4640929    0.2974995 -76.09  0.002314278    1.686    0.407
       206 -10.8163    207.8027     41.3695   6.6353686187e+01   2.8652354693e+01    0.2984971    0.2027985  56.55 0.0007927872    1.517    0.341
       207 -10.4029    177.9919     60.1274   7.5556990390e+01   3.3127638720e+01    0.5720448    0.3232517 -22.53  0.002275536    2.474    0.596
       208 -10.8667    171.4150     49.4408   7.3826910605e+01   3.6321543120e+01    0.4889624    0.2154964 -34.61  0.001996513    2.404    0.584
       209 -10.0582    186.8138     38.2062   6.8430135469e+01   3.4104588481e+01    0.2618001    0.1757465  65.62  0.001374447    1.352    0.260
       210 -11.0114    174.0241     57.4731   7.5545086210e+01   3.4503657703e+01    0.3620466    0.2638119 -28.17 0.0008164305    1.575    0.365
       211 -11.6150    175.6807     53.0384   7.4063603741e+01   3.4760421400e+01    0.4546483    0.3973953 -54.54  0.002298504    1.166    0.143
       212  -9.6239     79.3043     61.1300   1.0012574927e+02   5.4510254527e+01    0.3321244    0.1438219  49.41  0.001249108    2.956    0.662
       213 -10.1983    134.4487     52.0953   8.1950790177e+01   4.4775806219e+01    0.4809428    0.2290591  32.86  0.001705564    3.220    0.689
       214 -11.6390    150.0379     52.5149   7.8717788826e+01   4.1054089090e+01    0.7451181     0.458563 -25.43  0.003461415    1.921    0.480
       215 -11.5145    141.0844     51.3260   8.0245511736e+01   4.3345964035e+01    0.5455969    0.3696857  34.21  0.001522904    1.653    0.395
       216 -10.5580    145.9268     48.3376   7.8327919480e+01   4.2629907418e+01    0.4045503    0.1888652  53.54  0.001687924    1.936    0.483
       217  -9.6140     85.2228     59.7939   9.7792043221e+01   5.3720977798e+01    0.1878109    0.1475104  -1.27 0.0004293811    1.328    0.247
       218 -10.5244    191.7779     58.7100   7.2890080993e+01   2.9987701997e+01    0.3085105    0.2344445  78.90  0.001623511    1.281    0.219
       219  -9.7078    138.7737     58.7430   8.2995615272e+01   4.2775259511e+01     0.239164    0.1765541 -30.70  0.001052425    1.456    0.313
       220  -9.2537     46.5422     59.4800   1.1098502905e+02   5.9486847184e+01    0.1269607    0.1036631 -21.72 7.218291e-05    1.038    0.036
       221 -10.3424      3.3876     57.8546   1.2703942000e+02   6.3511975953e+01    0.2708071    0.1914483 -87.19  0.001690399    2.205    0.546
       222 -11.7192    121.0288     54.0943   8.5783391034e+01   4.7497701182e+01    0.9829261    0.5258293  66.93  0.003887136    2.710    0.631
       223 -10.7400     88.0514     55.5755   9.5497657382e+01   5.3907186852e+01    0.4879487    0.3284006  75.66  0.002015533    3.265    0.694
       224 -10.7826     85.7517     52.1554   9.5048282860e+01   5.4861756395e+01    0.4243632    0.2727065   0.22  0.001771682    2.096    0.523
       225 -11.2564     35.7203     56.3988   1.1407887467e+02   6.1237670963e+01     0.392948    0.2772116   7.04  0.002466708    1.474    0.322
       226 -11.1344     99.9783     55.0841   9.1772973802e+01   5.1731677937e+01    0.3583423    0.2408586  35.43  0.001258413    1.453    0.312
       227 -10.8229    106.0506     53.4313   8.9512001824e+01   5.0770427984e+01    0.5234454     0.183158  39.35  0.001822675    3.197    0.687
       228 -10.9881     60.7808     52.5776   1.0353347410e+02   5.8821329066e+01    0.3725407    0.2008264 -41.97 0.0006160109    1.791    0.442
       229 -10.0310     55.0456     50.0578   1.0472929378e+02   6.0032842245e+01    0.2534582    0.2176114  23.44  0.001463159    1.253    0.202
       230  -9.8775     54.9881     46.2404   1.0341270160e+02   6.0656009648e+01    0.2458619    0.1647143  37.00  0.001140944    1.617    0.381
       231 -10.2577     58.4969     45.5006   1.0187323207e+02   6.0283283884e+01     0.280716    0.1440169 -41.68  0.001429221    1.935    0.483
       232 -11.7439    180.5291     38.6179   6.9466108291e+01   3.5575364678e+01    0.5926564    0.3317204 -72.41  0.002511043    2.462    0.594
       233 -10.1866     71.2073     53.3809   1.0019738315e+02   5.7120705709e+01    0.2855589    0.1602021 -39.67  0.001272799    1.740    0.425
       234 -11.1754     25.6746     53.0350   1.1693605654e+02   6.2802450437e+01    0.2457137    0.1692345  -7.43 0.0005730459    1.457    0.313
       235  -9.7118     28.9716     48.9745   1.1434660466e+02   6.3214721108e+01    0.1787887    0.1451216 -23.80 0.0004766019    1.038    0.037
       236 -10.7736     76.0119     51.5494   9.7962765058e+01   5.6636513497e+01    0.2727127    0.2254751  57.35  0.001614673    1.598    0.374
       237  -9.1234     10.6232     52.2518   1.2269513862e+02   6.4112438607e+01   0.09550004   0.08613227  55.18 0.0003275334    1.648    0.393
       238 -10.3053    219.7008     42.3161   6.5107919549e+01   2.5744206407e+01    0.4065219    0.1844974 -53.77   0.00154787    2.206    0.547
       239 -11.4275    223.5271     46.5264   6.5598722064e+01   2.4274878929e+01    0.5900476    0.2980098 -42.50  0.002392346    1.858    0.462
       240 -11.2843    225.2484     43.5115   6.4726150625e+01   2.4307297091e+01    0.5314902    0.2561783 -56.39  0.002420535    2.079    0.519
       241 -11.1880     31.8045     43.1556   1.1126411469e+02   6.3917290336e+01    0.3127832    0.2818779  23.43  0.001391332    1.423    0.297
       242 -11.7158     42.8274     49.7909   1.0920551743e+02   6.1612022694e+01     0.582848    0.2395165  31.29  0.002392279    2.559    0.609
       243 -11.0889     38.2152     44.0332   1.0901533039e+02   6.3090262985e+01    0.3499689    0.3154095 -64.11  0.002000163    1.668    0.400
       244 -10.1720      6.9174     48.7658   1.2320517470e+02   6.4984165199e+01    0.2153768    0.1346441 -35.17 0.0006488985    1.245    0.197
       245  -9.9535     94.0378     48.2894   9.1204858949e+01   5.3913823691e+01    0.2922167    0.1468373  42.96  0.001349446    1.887    0.470
       246 -10.3403    152.9286     44.5788   7.5829770162e+01   4.1477586591e+01    0.3883482    0.2089208 -19.86  0.001628604    2.576    0.612
       247  -9.1955    129.5326     46.5127   8.1336204931e+01   4.6693805864e+01    0.1378076    0.1283035  48.11 8.172734e-05    1.019    0.019
       248 -12.1233     18.5710     42.1109   1.1634320514e+02   6.5306169162e+01    0.7327331    0.5255917  31.19   0.00401819    1.742    0.426
       249 -10.0522     12.9321     34.2151   1.1608876780e+02   6.7054216806e+01     0.177816    0.1297753  18.49 0.0009904851    1.518    0.341
       250 -10.0471     16.1465     32.1256   1.1395232580e+02   6.7130412676e+01    0.2613308    0.1597641 -48.70  0.001234797    1.694    0.410
       251 -10.5735    142.6592     43.5575   7.7569436515e+01   4.4057177651e+01    0.3901744    0.2592261  41.41  0.001833285    1.523    0.343
       252  -9.9150     97.5425     43.0423   8.8377949935e+01   5.3984032888e+01    0.4064965    0.2829439 -53.57  0.002115954    1.956    0.489
       253 -10.2687     99.9358     38.1212   8.5997627757e+01   5.4169356725e+01    0.3292781    0.2374738  14.00  0.001271432    1.519    0.342
       254 -10.7678    118.0090     42.0108   8.2622054578e+01   4.9870697281e+01    0.4510412    0.2501992 -40.26  0.002142304    1.980    0.495
       255  -9.7866    106.3819     43.8318   8.6208790030e+01   5.2093626829e+01    0.2538048     0.191738  79.36   0.00131675    1.910    0.477
       256 -10.6459     86.9719     41.4527   9.0927539971e+01   5.6216905982e+01    0.3595549    0.2467747 -37.90  0.001699597    1.568    0.362
       257  -9.8414     67.0833     43.7116   9.8199254040e+01   5.9276979374e+01    0.2024748    0.1615428 -38.53 0.0009447547    1.380    0.275
       258 -10.2883    249.3303     43.5934   6.2170104370e+01   1.9002334589e+01    0.2904699    0.1099949  65.78  0.001286764    2.594    0.615
       259  -9.9623    213.7643     42.8219   6.5942746273e+01   2.7052117879e+01    0.2269927    0.1615047  61.39 0.0007775951    1.409    0.290
       260 -12.2932    185.6691     47.0378   7.0861142797e+01   3.3184966980e+01    0.7402883    0.6515664  58.83  0.002607158    1.171    0.146
       261  -9.5452    238.2254     42.0758   6.2988164439e+01   2.1607380434e+01    0.2203124      0.11293 -60.14 0.0007872125    1.903    0.474
       262 -10.1215    191.7271     26.4258   6.4819756520e+01   3.4393462915e+01    0.2612597    0.1879816  -7.28  0.001098416    2.108    0.526
       263 -11.0520    194.7180     39.1441   6.7550785047e+01   3.2073017818e+01    0.6690084    0.2788855 -53.39  0.002632064    2.768    0.639
       264 -11.1940    194.1018     31.0460   6.5643894740e+01   3.3262369032e+01    0.3568988     0.341725 -54.55  0.002310318    1.222    0.182
       265  -9.9311     48.7171     41.9999   1.0422972074e+02   6.2151837760e+01    0.2065003    0.1355026 -22.30 0.0001805466    1.401    0.286
       266 -10.4604     45.8722     36.9115   1.0344635392e+02   6.3287441834e+01    0.3307135     0.168736 -31.18  0.001416655    1.810    0.447
       267 -11.0128     54.7599     36.6198   9.9979917622e+01   6.2142351731e+01    0.6271462    0.3513615  39.03   0.00348109    1.869    0.465
       268 -10.0588     49.0402     34.2237   1.0121653669e+02   6.3268024181e+01    0.2436347     0.163473  40.49 0.0008451507    1.742    0.426
       269 -10.0525     51.0651     30.9027   9.9170469342e+01   6.3458583335e+01    0.2634276    0.1655594 -15.34 0.0007866027    1.559    0.359
       270 -10.1817     55.0074     29.7022   9.7234625050e+01   6.3064795464e+01    0.2276842    0.1620464  -1.44   0.00058508    1.309    0.236
       271 -10.3028    161.9820     41.0061   7.3144303670e+01   3.9770336860e+01    0.2452737    0.2335773  -4.15 0.0006422608    1.220    0.180
       272 -10.0527    161.5374     37.5153   7.2242926538e+01   4.0328898290e+01     0.235054    0.1761787  71.28 0.0006726821    1.245    0.197
       273  -9.3388    250.2570     39.9392   6.1342005119e+01   1.9315087160e+01    0.1532381   0.09387382 -46.66 0.0003852346    1.455    0.313
       274  -9.8905    242.6099     40.5438   6.2217173674e+01   2.0864932691e+01    0.1613557    0.1075042 -88.33 0.0009081657    1.410    0.291
       275  -9.8273    130.2092     40.1580   7.9181224660e+01   4.7390844288e+01    0.1937302    0.1688224  36.76 0.0004057992    1.105    0.095
       276  -8.7722    173.0018     38.7925   7.0685290720e+01   3.7382935119e+01    0.2717747    0.1868268  83.53 0.0008995049    1.510    0.338
       277 -10.0702    169.8244     36.8734   7.0679293742e+01   3.8401698504e+01    0.2697223    0.1882362 -81.45  0.001072032    1.625    0.385
       278 -11.6710    147.0502     35.3032   7.4231594142e+01   4.4078617482e+01    0.7749667    0.3245232  57.36  0.003256174    2.078    0.519
       279  -9.6136    136.8801     38.5064   7.7229145552e+01   4.6067297718e+01     0.210836    0.1233936  56.25 0.0009728973    1.539    0.350
       280 -10.6247    124.1954     35.5063   7.9044271608e+01   4.9335821456e+01    0.4502251     0.270593 -23.54  0.002240034    1.897    0.473
       281  -9.8789    119.6984     33.2073   7.9325585437e+01   5.0613386630e+01    0.2934813    0.1557571 -45.76 0.0009576179    2.330    0.571
       282 -10.3382    109.7651     37.1383   8.3056104909e+01   5.2272329560e+01    0.3699291    0.1706267 -36.48  0.001336043    2.318    0.569
       283 -10.2855     36.5141     27.0759   1.0338245184e+02   6.5841492510e+01    0.1927058    0.1306806   6.51 0.0004148559    1.358    0.263
       284 -10.7467     15.1659    239.7611   1.4695860960e+02   2.2794247414e+01    0.3671604   0.07697359  54.61  0.001444511    4.063    0.754
       285  -9.8802     53.0272    238.0000   1.4011219480e+02   1.8587476861e+01    0.1847619   0.06073623  38.99 0.0005988285    2.888    0.654
       286  -9.8007     52.6850    224.6502   1.3896639712e+02   2.1409701912e+01    0.1131322   0.09349357 -47.51 0.0007046998    1.727    0.421
       287  -9.6919    126.5605    216.7233   1.2267779708e+02   1.1513686812e+01     0.185411    0.1315332 -75.63 0.0009406553    1.625    0.384
       288 -10.5281     26.2927    212.5276   1.4300404512e+02   2.7231060232e+01    0.2322852    0.1563183 -58.58  0.001441465    1.706    0.414
       289 -10.2264    247.8215    203.3929   9.5781554039e+01  -7.6161343971e+00    0.1800858    0.1116756  25.32 0.0005787091    1.701    0.412
       290 -11.3643      3.1412     17.3547   1.1437937114e+02   7.0349283852e+01    0.2339576    0.1146972 -34.65 0.0004311834    1.561    0.360
       291  -9.9519    234.4891    200.4987   9.7621505440e+01  -5.0027353156e+00     0.133304    0.1166425  -6.01 9.588329e-05    1.010    0.010
       292 -10.1534    222.4844     36.2372   6.3430879188e+01   2.5930844037e+01     0.411299    0.2158109  73.03  0.001561294    1.803    0.445
       293  -9.7231    245.3364    187.3389   9.3083248096e+01  -4.6036599381e+00    0.1399859   0.09574617  -3.33 0.0007051264    1.755    0.430
       294 -11.3161    216.0582     35.4020   6.3973458834e+01   2.7520660908e+01    0.2677877     0.203353 -86.45 0.0003218564    1.169    0.144
       295 -11.3428    211.4731     33.3147   6.4032414327e+01   2.8860299398e+01    0.5337644    0.3843084 -45.16  0.002358152    1.394    0.283
       296 -11.8826    245.8796    177.5037   9.1011848265e+01  -3.0248862110e+00    0.3810419    0.3474355 -88.44   0.00198805    1.484    0.326
       297  -9.3449     88.7446     34.0399   8.7730738409e+01   5.6870243546e+01     1.030469    0.3766981  40.14  0.004228867    2.639    0.621
       298 -11.6491    247.0187    172.4978   8.9795885919e+01  -2.3556507670e+00    0.3446585    0.2743539 -62.78  0.001926182    1.627    0.386
       299  -9.3468      1.4631    177.4959   1.4508282363e+02   3.7402771470e+01    0.1208179   0.08745131  87.66 1.546469e-05    1.077    0.071
       300 -10.3870    228.9240    175.3619   9.3604219106e+01   3.4484439377e-01    0.2387733    0.1831778 -47.27 0.0005506504    1.343    0.255
       301 -12.5851     66.1968     30.8455   9.3705460397e+01   6.1212946017e+01    0.8835111    0.5715674  57.57   0.00470227    2.382    0.580
       302 -10.6019     61.4976     31.4987   9.5591950634e+01   6.1862173711e+01    0.1976154    0.1669544   4.63 0.0005483982    1.046    0.044
       303  -9.9812    244.7555     25.5952   5.8978899387e+01   2.2385305545e+01    0.2448384    0.1301127  84.77 0.0009875986    1.817    0.450
       304  -9.5527    245.8747     33.3753   6.0436059183e+01   2.1134512825e+01    0.4216262     0.127522  67.29   0.00156227    3.112    0.679
       305 -10.8611    248.4902     29.6239   5.9446859131e+01   2.1072178803e+01     0.762571    0.2651671  64.35  0.003420643    2.723    0.633
       306 -11.0575    236.6697     32.3349   6.1107173351e+01   2.3267049264e+01    0.3743311    0.2336837  77.72   0.00204373    1.482    0.325
       307 -11.8962    229.6590     29.4148   6.1192041064e+01   2.5200760977e+01    0.6603524     0.405376 -83.00  0.003592821    1.572    0.364
       308  -9.3232    164.6623     33.8303   7.0689819080e+01   4.0033394614e+01    0.1787035    0.1176067 -45.96 0.0007272697    1.623    0.384
       309  -9.4122      9.3225    167.3294   1.4248571489e+02   3.9065209020e+01    0.1200922   0.07657752 -51.87 0.0007049288    1.695    0.410
       310 -11.2726    249.4790    155.6567   8.5898458849e+01   1.6686693853e-01    0.3447208    0.2167083 -45.43 0.0008924974    1.482    0.325
       311 -11.2186    247.1980    166.0210   8.8433985310e+01  -1.2575716198e+00    0.2410856    0.1997202  24.34 0.0005213073    1.311    0.237
       312 -11.3122    249.3168    161.7180   8.7186991403e+01  -8.7327204583e-01    0.3276777    0.2114137 -45.18  0.001322532    1.464    0.317
       313  -9.8315    229.6759    166.3198   9.1575796947e+01   1.8610264148e+00    0.1379522    0.1116957 -75.07 0.0007045687    1.676    0.403
       314 -10.6181     13.8196    164.9917   1.4124184151e+02   3.9220595367e+01     0.195022    0.1705634  68.33  0.001011786    1.240    0.194
       315 -10.1320      2.4041    161.8751   1.4350773959e+02   4.0868741917e+01    0.2263758    0.1504601 -61.17  0.001451424    1.382    0.276
       316 -10.1740     76.7900    156.1752   1.2451880179e+02   3.3956672514e+01    0.2551487    0.1432202  74.63 0.0009559917    2.891    0.654
       317 -12.4767     19.5495    148.1786   1.3797419866e+02   4.2654565835e+01    0.6578773    0.3697763 -44.96  0.003410767    1.980    0.495
       318 -10.1324    178.8498     30.9750   6.7726219360e+01   3.6946302907e+01    0.3937808    0.2114579  58.70  0.001148647    1.669    0.401
       319  -9.9812    178.4517     27.0044   6.6753285275e+01   3.7516718397e+01    0.4374899    0.1392347  58.01  0.001689878    2.629    0.620
       320 -10.6502    183.0153     27.9099   6.6347806056e+01   3.6309156308e+01    0.5899801    0.2674843 -47.75  0.002616222    2.327    0.570
       321  -9.6261    186.2052     25.9260   6.5415502199e+01   3.5776305486e+01    0.2017179     0.154517 -74.67 0.0004204586    1.272    0.214
       322 -11.4007    170.3969     30.6754   6.8914412928e+01   3.9028573674e+01    0.6296098    0.2631069  74.13  0.002391752    2.798    0.643
       323  -9.1400    160.6893     32.7230   7.1044143838e+01   4.1127923579e+01    0.1353491   0.09613447  39.38 0.0006971621    1.559    0.358
       324 -10.6945    109.0327     30.0238   8.0814264796e+01   5.3291386755e+01    0.4175384    0.2567885  64.61  0.002103775    1.855    0.461
       325 -10.6627    104.7061     29.0090   8.1552373042e+01   5.4314081248e+01    0.3532463    0.2153134  30.81  0.001822585    1.697    0.411
       326 -10.1351     34.7698    150.7567   1.3448688093e+02   4.0597145620e+01    0.1836294    0.1352186  79.57  0.001065223    1.370    0.270
       327 -11.0742    153.1148     27.9813   7.0990672305e+01   4.3502580107e+01    0.4173046    0.2325439 -20.68 0.0007125598    2.281    0.562
       328  -9.8753     15.5332     21.4511   1.1020750000e+02   6.8782214737e+01    0.1660278    0.1195279 -26.17 3.960013e-05    1.139    0.122
       329 -11.4133      5.2766     27.2308   1.1705694642e+02   6.8716517595e+01    0.3844243    0.2473256  13.14  0.002660143    1.605    0.377
       330 -11.2529     11.7045     25.7323   1.1358959115e+02   6.8472847849e+01    0.4073077    0.2097855 -14.46  0.001665457    2.044    0.511
       331  -9.8940     40.5726     27.7651   1.0201377105e+02   6.5258012888e+01    0.2842304   0.09820453 -36.28  0.001318511    2.672    0.626
       332 -11.7900    236.3209    135.1190   8.3681813522e+01   6.3764928949e+00    0.4097654    0.3308605   2.42  0.002042567    1.585    0.369
       333 -10.5130     55.1466     17.6333   9.2322085574e+01   6.4531331733e+01    0.2430148    0.1632843  -7.31 0.0008826344    1.402    0.287
       334 -10.9049     40.8440     21.5616   9.9401157108e+01   6.6046159311e+01    0.2484037    0.1551086 -31.18 0.0006477964    1.516    0.340
       335 -11.4293    248.1686    145.0155   8.3872067607e+01   2.3018961975e+00    0.4036876    0.2639092  33.58   0.00178747    1.876    0.467
       336 -11.9364    246.1443    140.4131   8.3218807955e+01   3.5079787766e+00    0.3942881    0.3335831  60.57  0.001824659    1.374    0.272
       337 -12.4032    242.0464    147.3611   8.5377503868e+01   3.0183495214e+00    0.6008866    0.3904709 -65.95  0.002731147    2.225    0.551
       338 -12.5755    235.2458    144.2318   8.5852612417e+01   4.8955124579e+00    0.7043429    0.4466305 -64.59  0.003107517    2.214    0.548
       339  -9.7511    201.1933     25.5917   6.3452158273e+01   3.2241698495e+01    0.2060511    0.1556813 -58.97 0.0006494728    1.273    0.215
       340 -10.7711    168.4297     24.1414   6.7456497814e+01   4.0261195367e+01    0.5486677     0.231471  50.08  0.002342696    2.318    0.569
       341  -9.9820    160.0715     24.5430   6.8859012110e+01   4.2224971146e+01    0.4027742    0.2543662 -84.66  0.001945659    1.942    0.485
       342 -11.3558    229.5249    154.1485   8.9003585544e+01   4.1548007828e+00    0.3414305    0.2396208 -47.66  0.001327436    1.384    0.277
       343 -10.7970     39.3987    146.7812   1.3272538781e+02   4.1064270892e+01    0.3081371    0.2353242 -63.01  0.001304888    1.137    0.121
       344 -10.2412     38.4752    143.4885   1.3247272467e+02   4.1953489720e+01    0.2386732    0.2003277 -48.29 0.0005698534    1.258    0.205
       345 -11.3029      6.7381    143.0142   1.4053441597e+02   4.4882903372e+01    0.3472411    0.1916734  55.87  0.001931902    2.078    0.519
       346 -10.6683     50.6842     25.1262   9.7030022663e+01   6.4275834096e+01    0.4066787    0.1534282  32.86  0.001622866    2.656    0.623
       347  -9.7751     18.7042     25.9998   1.1055708007e+02   6.7841577412e+01     0.216839     0.108434  -4.20 0.0007472822    2.585    0.613
       348  -9.6474    176.6732     21.5629   6.5593573801e+01   3.8565349139e+01    0.3141153    0.1781279 -18.02  0.001494976    2.478    0.597
       349 -11.4542     98.1572     22.0817   8.0787636491e+01   5.6418907174e+01    0.2816533    0.2211224  40.32 0.0008731192    1.106    0.096
       350 -11.3903    212.4331    138.2898   8.8616044162e+01   1.0684265941e+01    0.5170539    0.4164479  -7.42  0.002220608    1.543    0.352
       351  -9.6903     54.5205    137.5067   1.2715885189e+02   4.1562340323e+01    0.1381521    0.1197374 -68.73 0.0001414108    1.004    0.004
       352 -10.5531      3.6924    135.2742   1.4039712071e+02   4.6879032284e+01    0.2645386    0.1988779  34.98  0.001100291    1.644    0.392
       353  -9.9582      9.0832    134.8389   1.3896158059e+02   4.6601739696e+01    0.2412583    0.1922236 -26.25 0.0004693645    1.598    0.374
       354 -11.1862     12.8807    125.1265   1.3665390491e+02   4.8567197061e+01    0.2518366     0.156472 -76.78 0.0007792776    1.399    0.285
       355 -10.9189     15.1869    132.5772   1.3706692870e+02   4.6667463466e+01    0.3525992    0.2519837 -40.53  0.002140076    1.536    0.349
       356 -11.0189     12.0409    129.9652   1.3755023350e+02   4.7512034658e+01     0.334332    0.2390524 -36.47  0.001314971    1.603    0.376
       357 -11.4696    249.3149    132.5374   8.1033238902e+01   4.3273565763e+00    0.4195363    0.3020488 -14.75  0.002127669    1.786    0.440
       358 -10.9536    244.4116     20.7679   5.8051641948e+01   2.3063375059e+01     0.283563    0.2065089 -74.49  0.000845723    1.106    0.096
       359  -9.9517    240.5597     19.7572   5.8182152794e+01   2.4014071254e+01    0.2636765    0.1567132 -58.54 0.0008324707    1.458    0.314
       360  -8.8161    228.4275     21.5226   5.9646375862e+01   2.6462332097e+01    0.1225606    0.1053554 -88.65   6.2743e-05    1.138    0.121
       361 -10.2137     81.3498     19.8691   8.4629217737e+01   5.9896425837e+01    0.3089748    0.2299103 -87.14  0.001628941    2.741    0.635
       362  -9.7779     79.2574     15.8219   8.3685353423e+01   6.0698405972e+01    0.2262874    0.1652402 -56.09 0.0009813096    2.247    0.555
       363 -10.2155    184.2671     18.1533   6.3726003556e+01   3.7120737408e+01    0.4187531    0.2341303 -81.55  0.001976312    2.111    0.526
       364 -10.0079    232.4397     18.1893   5.8582604933e+01   2.5974462854e+01    0.2096461    0.1291213 -51.43 0.0006895508    1.468    0.319
       365 -11.5542    242.3246    129.7156   8.1523947144e+01   6.1857405130e+00    0.3689852    0.2462004  41.47  0.001853793    1.753    0.430
       366 -11.8656    225.9191    126.8847   8.3606622933e+01   1.0041941337e+01    0.5325851    0.4153611  -7.69  0.001518724    1.696    0.410
       367 -10.3634     72.3351    129.1278   1.2053991192e+02   4.1193295885e+01    0.2308629    0.1987173  14.87  0.000954205    1.380    0.275
       368 -10.5607     56.5247    126.6010   1.2455903069e+02   4.3932852731e+01    0.3701279    0.2267904 -36.73   0.00177596    1.875    0.467
       369 -11.6905     25.3993    128.4793   1.3370545291e+02   4.6780618715e+01    0.4822199    0.2418291  20.78  0.002401592    2.608    0.617
       370 -10.5560     67.6291    123.0338   1.2061017091e+02   4.3315253738e+01    0.4886121    0.1587468 -41.57  0.001438627    4.351    0.770
       371  -9.9337     92.3661     15.7555   7.9997025362e+01   5.8215732065e+01    0.1974403    0.1480308  41.68   0.00078557    1.143    0.125
       372 -10.6770    246.8516    122.1186   7.9172048766e+01   6.6724987913e+00    0.2175061    0.1727092 -58.73 0.0007391258    1.232    0.188
       373 -10.4314    217.1604    120.4283   8.3650262904e+01   1.3144190930e+01    0.3407893    0.2160873 -32.42 0.0009665757    1.670    0.401
       374  -9.7000     28.0611    120.3475   1.3163902049e+02   4.8444581213e+01    0.2580806    0.1497641 -82.05 0.0007423938    1.920    0.479
       375 -10.7208     22.7214    108.1882   1.3109626502e+02   5.1687308283e+01     0.299743    0.2083388 -25.73  0.001783122    1.666    0.400
       376  -9.7938    178.8202     14.6967   6.3551502118e+01   3.8788606732e+01    0.1837317    0.1385834  75.88 0.0005343001    1.130    0.115
       377 -10.4211    242.7310     13.3719   5.6739425672e+01   2.4313519401e+01    0.2485886     0.142821  78.02  0.001333933    1.544    0.352
       378 -11.0021     27.9365    101.6212   1.2823594316e+02   5.2728294052e+01    0.4133145    0.2607868  79.99   0.00205479    2.479    0.597
       379 -10.1272     67.0419     13.0045   8.6340996919e+01   6.3126445981e+01    0.2684905    0.1410093  45.80 0.0007985834    1.760    0.432
       380 -11.7983     10.1073    107.5087   1.3477534186e+02   5.2765047467e+01    0.8076809    0.2131948 -44.32  0.003055655    3.748    0.733
       381 -11.0014     17.9325     81.7930   1.2736808867e+02   5.7809517024e+01    0.2554267    0.1971848 -13.26 0.0007954948    1.404    0.288
       382 -11.5925     18.3840    104.2647   1.3171489894e+02   5.2907240141e+01     0.339247    0.2803977  32.27  0.001425043    1.482    0.325
       383 -11.5685     16.5277     98.4883   1.3123386987e+02   5.4325326865e+01    0.4934563    0.2638701 -24.71   0.00253014    2.407    0.585
       384 -11.5520     21.8676     96.1086   1.2907028802e+02   5.4447014639e+01    0.3827156    0.2772162 -28.07   0.00173245    1.447    0.309
       385 -12.4481     24.6408     83.3468   1.2540910967e+02   5.6966078210e+01    0.8820236    0.4220078 -70.44  0.003980778    2.689    0.628
       386 -11.4923     29.3273     80.7009   1.2316065091e+02   5.7120056377e+01     0.588237    0.2513231 -58.17  0.002076145    2.075    0.518
       387  -9.4932     20.0522    119.2945   1.3376763261e+02   4.9363352196e+01    0.1688456    0.1453677 -60.51  0.000895747    1.083    0.077
       388 -10.3131     13.0334    117.4852   1.3548898471e+02   5.0308790823e+01    0.1531848     0.123997  17.80 0.0007238691    1.566    0.362
       389 -11.6298    237.9082    113.4475   7.8643656322e+01   1.0037356616e+01    0.3360278    0.2922988 -47.81 0.0008253447    1.040    0.038
       390 -12.4471    227.9507    112.5368   8.0014868451e+01   1.2298094470e+01    0.8790112    0.3907502  51.18  0.003535089    2.428    0.588
       391 -11.6379    207.5540    112.4511   8.3487249468e+01   1.6810867543e+01    0.5850405    0.3239528 -50.83  0.001552559    1.804    0.446
       392  -9.7274     98.1618    114.8260   1.0983617377e+02   4.0356511578e+01    0.2090641     0.179329 -15.38  0.001080767    1.329    0.247
       393 -11.3464    194.5611    112.6952   8.5973507321e+01   1.9737512633e+01    0.3872221    0.3150636 -52.65  0.001867728    1.186    0.157
       394 -11.0482    200.1055    112.9737   8.4984892404e+01   1.8406049552e+01    0.3994873    0.2283643  61.84  0.001452068    1.991    0.498
       395 -10.8164    132.9660    111.5465   9.9516971437e+01   3.4138351969e+01    0.4337617    0.2627479 -37.82  0.001803933    1.741    0.426
       396 -11.3268    232.9907     99.0399   7.6172010933e+01   1.3661946141e+01    0.5468919    0.3223539 -89.04  0.002178364    2.823    0.646
       397 -10.3330     25.7828     14.3047   1.0266143995e+02   6.8737458665e+01    0.1927811    0.1287429  17.19 0.0007852219    1.350    0.259
       398 -11.6784    246.0100     97.7092   7.4001338900e+01   1.1154852118e+01    0.7020038    0.3944065  80.59  0.002960623    2.728    0.633
