#   1 NUMBER                 Running object number                                     
#   2 MAG_AUTO               Kron-like elliptical aperture magnitude                    [mag]
#   3 X_IMAGE                Object position along x                                    [pixel]
#   4 Y_IMAGE                Object position along y                                    [pixel]
#   5 X_WORLD                Barycenter position along world x axis                     [deg]
#   6 Y_WORLD                Barycenter position along world y axis                     [deg]
#   7 A_WORLD                Profile RMS along major axis (world units)                 [deg]
#   8 B_WORLD                Profile RMS along minor axis (world units)                 [deg]
#   9 THETA_WORLD            Position angle (CCW/world-x)                               [deg]
#  10 FWHM_WORLD             FWHM assuming a gaussian core                              [deg]
#  11 ELONGATION             A_IMAGE/B_IMAGE                                           
#  12 ELLIPTICITY            1 - B_IMAGE/A_IMAGE                                       
         1 -13.5821     98.0326     75.5604   3.2097945767e+01  -4.3822214630e+01     0.101132   0.04842092  80.66  0.006703725    4.717    0.788
         2 -12.7941     64.9423      4.6235   3.1998103797e+01  -4.4798815357e+01    0.0338297   0.01859141  49.43  0.001353918    1.836    0.455
         3 -14.8724     52.5465     71.5552   3.2778343200e+01  -4.4149347054e+01    0.1612314   0.07238152 -27.53   0.01410422    2.188    0.543
         4 -14.0008     10.1551     37.4011   3.3158166811e+01  -4.4782911236e+01     0.130589    0.0835462  75.64   0.01311863    1.924    0.480
         5 -13.3142     61.8473     44.3547   3.2395820468e+01  -4.4387386792e+01   0.04334127   0.02992601 -77.10  0.001290376    2.019    0.505
         6 -12.5362     57.6489     24.7369   3.2290970238e+01  -4.4626579450e+01    0.1082052   0.05257385 -58.79  0.007960472    3.668    0.727
         7 -13.7544     75.9993     20.7771   3.1965399033e+01  -4.4554320300e+01    0.0976934   0.03623281 -39.85  0.007841533    2.607    0.616
         8 -13.6302     50.9990     45.2254   3.2575209674e+01  -4.4445486570e+01    0.1249793    0.0626838  10.98  0.006962139    6.673    0.850
         9 -13.6652    185.3629     58.8942   3.0597230820e+01  -4.3444579221e+01   0.06482116   0.05634778  87.84  0.001078385    1.307    0.235
        10  99.0000    248.5279     44.0716   2.9499619998e+01  -4.3189031187e+01    0.1522668   0.02569842  60.07  0.007137425    8.191    0.878
        11 -13.2001    193.2537     35.5987   3.0267873719e+01  -4.3642752133e+01   0.08978561   0.04857528 -31.76  0.008697675    1.770    0.435
        12 -13.9556    217.9040     59.1020   3.0100685211e+01  -4.3230426144e+01     0.111017   0.08406887 -81.57   0.01211947    1.708    0.415
        13 -12.7356    229.7885     47.7002   2.9817251997e+01  -4.3274106745e+01   0.05897312    0.0447497   7.85  0.006512534    1.575    0.365
        14 -11.8908     51.0533     34.3019   3.2479286549e+01  -4.4563883798e+01     0.063068   0.03840782 -13.73  0.006151662    1.912    0.477
        15 -12.3407     26.0716     39.3876   3.2921011390e+01  -4.4663362751e+01    0.0680585   0.04113991  61.23   0.00692334    1.724    0.420
        16  99.0000     35.9381     21.2533   3.2605988428e+01  -4.4799716271e+01   0.09905089   0.04332246 -37.06  0.008697452    2.153    0.536
        17 -14.4930      8.0249     67.9655   3.3454349755e+01  -4.4461936968e+01    0.1643125   0.08905336 -13.02   0.01463556    2.317    0.568
        18 -10.7467    213.1381     30.0685   2.9912837653e+01  -4.3571613966e+01   0.03010023  0.009715704  59.10  0.002217138    3.264    0.694
        19 -11.7828    211.2151     21.3387   2.9863465867e+01  -4.3677351330e+01   0.02734398   0.01758313  20.86  0.002630564    2.136    0.532
        20 -12.8307    226.8694     22.7433   2.9636459633e+01  -4.3559185894e+01   0.02358945   0.01696873 -26.37  0.001180389    1.372    0.271
        21 -10.7010    103.2621     28.2455   3.1601528376e+01  -4.4301159636e+01   0.02312451    0.0160723  71.32  0.002468713    1.651    0.394
        22 -11.1613    136.0936     19.5342   3.1009966476e+01  -4.4185279315e+01     0.030484   0.02084553  19.09 0.0009333714    1.875    0.467
        23 -11.6503    130.4698     19.2188   3.1095009219e+01  -4.4224792489e+01   0.01538874   0.01343678  36.56 0.0002960782    1.179    0.152
        24 -11.0607    123.3958     24.4568   3.1252272690e+01  -4.4213721579e+01   0.03597545   0.01248207  47.74  0.002762424    2.969    0.663
        25 -12.0690    244.3135     22.3468   2.9366778825e+01  -4.3447851659e+01   0.03316212   0.01796487 -33.52  0.002775183    1.760    0.432
        26 -10.8280    203.9325     16.9964   2.9936040004e+01  -4.3771533844e+01   0.02579136   0.01037386 -41.96  0.002118264    2.503    0.601
        27 -13.8753     55.9160     58.8407   3.2615378433e+01  -4.4266854693e+01    0.1075737    0.0530232 -48.15  0.009428137    2.340    0.573
        28 -11.0961    116.3886     17.4289   3.1299556748e+01  -4.4334233231e+01    0.0238293   0.01670562  -6.24  0.002507284    1.683    0.406
        29  99.0000    109.1795     10.6925   3.1352805120e+01  -4.4452865342e+01   0.04081092   0.01633097  45.87  0.003321187    2.669    0.625
        30 -11.4729    114.8098     12.8075   3.1283189237e+01  -4.4394113105e+01    0.0150256   0.01434686 -36.49 0.0003392114    1.042    0.041
        31 -11.5914    117.7307     10.4238   3.1216092645e+01  -4.4401102436e+01    0.0189222   0.01165065 -55.33  0.001633309    1.989    0.497
        32 -12.1281    114.2555      6.2967   3.1233829656e+01  -4.4467783596e+01   0.02782547   0.01244995 -44.71  0.002035044    2.399    0.583
        33 -12.4423    221.4997      9.3902   2.9597366821e+01  -4.3736770223e+01   0.03364422   0.02053445  76.09  0.003188777    2.223    0.550
        34 -12.9334    227.9561      9.6502   2.9500869889e+01  -4.3691267612e+01   0.02854499   0.02666625  36.94 0.0004007727    1.091    0.084
        35 -11.7026    237.4456      9.5270   2.9354713115e+01  -4.3629615231e+01   0.02587363   0.01778564 -15.79  0.002568711    1.610    0.379
        36 -12.5005    249.8400     10.8120   2.9177515773e+01  -4.3533494771e+01   0.02750059   0.01656865  58.69 0.0009885153    1.727    0.421
        37 -13.6030    244.7398      8.4363   2.9233487351e+01  -4.3592672384e+01    0.0506166   0.02359067 -51.67  0.004068034    2.881    0.653
        38 -10.8971     94.2880     16.0127   3.1634501693e+01  -4.4490225688e+01   0.01104968    0.0108534  14.90 0.0005126046    1.031    0.030
        39 -10.0140     93.2635     12.0282   3.1615329840e+01  -4.4539755500e+01  0.009450403  0.008599913 -69.48 0.0003272112    1.199    0.166
        40  -9.7500    187.0983     14.2918   3.0170978260e+01  -4.3910746103e+01   0.01495164   0.00668047  44.60  0.001268986    2.422    0.587
        41 -10.2070    155.4676     12.8392   3.0648109737e+01  -4.4132154720e+01   0.01691202  0.004515859  49.82  0.001159041    3.618    0.724
        42 -11.2144    150.2323     13.1291   3.0732195230e+01  -4.4162924297e+01   0.01291638   0.01023379  51.35  0.001086594    1.285    0.222
        43  -9.6608     88.6343     12.2415   3.1690284026e+01  -4.4566808195e+01  0.008850457  0.005802448  47.58 0.0007577101    1.555    0.357
        44  -9.2566    130.8676      9.3673   3.1000791950e+01  -4.4328190159e+01   0.01879115  0.008409886  36.82  0.001446332    3.120    0.680
        45 -10.4548    124.7292      9.2830   3.1096161787e+01  -4.4368526927e+01   0.01617496  0.009098932  62.58  0.001380105    1.914    0.477
        46 -10.6676    102.0806     10.3278   3.1461259358e+01  -4.4502053946e+01   0.01091836   0.01043518  78.32 0.0005479973    1.113    0.102
        47 -10.8951     86.6549      1.4872   3.1626095078e+01  -4.4695513232e+01   0.02225548   0.01122656 -17.04 0.0008961632    2.478    0.596
        48 -11.0841     72.3895      4.7295   3.1880825320e+01  -4.4750737570e+01   0.02653389   0.01080102  55.66  0.002249759    2.412    0.585
        49 -11.6993     76.7452      5.4857   3.1818473309e+01  -4.4715056511e+01   0.02847693   0.01257356  39.99 -0.0001400407    2.806    0.644
        50 -10.7313     78.7001      9.9468   3.1827022036e+01  -4.4654465587e+01   0.01196968  0.009221659 -25.55 0.0003647102    1.268    0.211
        51 -10.7548     84.0157      7.3575   3.1719972860e+01  -4.4648834222e+01   0.02002273   0.01246513   0.13  0.001855684    2.268    0.559
        52 -10.8725     26.1826      9.8699   3.2662406045e+01  -4.4984039774e+01   0.01361943   0.00977842  23.99  0.001026946    1.640    0.390
        53 -11.8243    193.9187      8.0766   3.0009508684e+01  -4.3932445149e+01   0.01521059   0.01296389 -12.89  0.001410065    1.199    0.166
        54 -12.9833    173.1877      5.9576   3.0310948077e+01  -4.4090688656e+01   0.02735411   0.01316588  51.41  0.002505683    2.070    0.517
        55 -10.0407     46.2415      7.2297   3.2318744330e+01  -4.4887852044e+01   0.02218662   0.01759413 -31.76  0.002587381    1.216    0.177
        56 -10.7884     46.5270      1.9722   3.2267895208e+01  -4.4943098714e+01   0.01121603  0.008873872   3.94 0.0009998316    1.419    0.295
        57  -9.9303    215.4668      8.2961   2.9679939757e+01  -4.3788279720e+01  0.007788233  0.006452931  76.91 0.0002528024    1.364    0.267
        58 -11.4457     56.9411      3.2797   3.2113467209e+01  -4.4863663233e+01   0.01936457   0.01858419 -29.80  0.002260947    1.026    0.026
        59 -10.0630    142.8317      6.8709   3.0791426316e+01  -4.4277909719e+01  0.008815227  0.008295308   9.36 0.0003099377    1.075    0.070
        60  -9.5020    210.5279      6.0141   2.9735046354e+01  -4.3845171233e+01   0.01117294  0.009119243  31.79 0.0007397346    1.307    0.235
        61 -10.7477    216.5930      2.1520   2.9606720967e+01  -4.3846223573e+01   0.02829973   0.01160057 -25.85  0.002265357    2.671    0.626
        62 -10.0883    102.6532      5.7305   3.1411319202e+01  -4.4547984204e+01   0.01157053   0.00970042  20.05 0.0006246504    1.292    0.226
        63 -11.2596      4.1116      5.4642   3.2978195480e+01  -4.5168362802e+01   0.02051936   0.01236022  -0.99 0.0009877437    2.352    0.575
        64 -11.2330    183.8379      3.5524   3.0124256391e+01  -4.4046810731e+01   0.01303591    0.0111902   7.01 0.0008637508    1.254    0.202
        65  -9.6449    187.3007      1.2567   3.0049898146e+01  -4.4048638414e+01  0.009066412  0.005477683 -35.20 0.0002799751    1.581    0.368
        66  -9.1165     91.3749      6.4483   3.1595597395e+01  -4.4611990404e+01  0.006305446  0.006164057 -53.26 0.0001669393    1.060    0.056
        67 -10.0012    232.0179      1.7130   2.9366313117e+01  -4.3748650489e+01   0.02716735  0.006668565 -37.90  0.001831923    3.616    0.723
        68  -9.7648    203.0087      1.0000   2.9805146946e+01  -4.3948147784e+01  0.009987791  0.003609734 -30.59 0.0003780743    2.682    0.627
        69 -11.6926    183.3648     94.3779   3.0941232033e+01  -4.3076454681e+01   0.01868047    0.0128044  -5.86 0.0006203006    1.767    0.434
        70  -9.9209    158.1526     95.5298   3.1338612395e+01  -4.3225602915e+01   0.01290655  0.005826099 -34.58  0.001135274    2.074    0.518
        71 -11.7261     91.3537     34.2627   3.1841850293e+01  -4.4311531103e+01   0.02439325   0.01563306 -17.40    0.0017085    1.695    0.410
        72 -12.0794     45.2547     93.0304   3.3077400400e+01  -4.3960176054e+01   0.02018436   0.01099268 -14.26  0.001806748    2.252    0.556
        73 -10.7417    226.4354     91.7598   3.0261374416e+01  -4.2825565148e+01    0.0131596   0.00862516 -45.20 0.0007334696    1.569    0.363
        74 -12.0195    224.0036     87.0711   3.0256769325e+01  -4.2891579110e+01   0.02312636   0.01551322  36.74   0.00194078    1.649    0.394
        75 -11.8813    214.2804     91.0425   3.0439772644e+01  -4.2912359921e+01   0.01995534   0.01313389 -51.61 0.0007489958    1.700    0.412
        76  -9.8369    204.5648    116.7074   3.0813172379e+01  -4.2699936503e+01   0.01216992  0.007158256 -47.45  0.001181593    1.836    0.455
        77 -11.4540    174.1752     56.3507   3.0746868494e+01  -4.3544267488e+01   0.01996788   0.01451082 -20.96  0.000915664    1.402    0.286
        78 -10.1483    171.8725    116.4126   3.1309692506e+01  -4.2912859861e+01   0.01013047   0.00904288  86.63 0.0003195796    1.246    0.198
        79 -13.9655    195.7235     82.2083   3.0644894953e+01  -4.3127409062e+01   0.07139696   0.04353439  46.86  0.007008431    1.681    0.405
        80 -13.7029    207.1023     80.0447   3.0451884300e+01  -4.3076812739e+01    0.0779599   0.03052258 -37.03  0.006502664    2.383    0.580
        81 -12.3038    234.3939     37.1841   2.9652310458e+01  -4.3355772122e+01   0.03258336   0.01644272 -53.74  0.002723968    2.701    0.630
        82 -13.1195    191.6129     45.5481   3.0382205001e+01  -4.3546982197e+01   0.06081396   0.03372204 -39.00  0.002545953    1.745    0.427
        83 -11.3844    126.7135    115.9436   3.2000910932e+01  -4.3204193150e+01   0.01538078   0.00912138 -27.70  0.001082289    1.647    0.393
        84 -13.1740    174.6821     87.2087   3.1011499984e+01  -4.3209381765e+01   0.05223859   0.03176028   3.15   0.00465274    2.528    0.604
        85 -12.3064    175.0177     69.8837   3.0853733036e+01  -4.3393485317e+01   0.07765616   0.02385364 -47.08  0.004713967    4.846    0.794
        86 -12.1608    164.1670     65.7931   3.0984835389e+01  -4.3507318425e+01   0.04492192   0.02592804 -18.99  0.004300212    1.938    0.484
        87 -12.4742    208.6022     46.7118   3.0131964837e+01  -4.3423669747e+01   0.05667557   0.02033862 -43.95  0.004278009    3.033    0.670
        88 -12.9088    200.8587     61.8113   3.0385419469e+01  -4.3312688343e+01    0.0409758   0.02903436 -17.55  0.003390761    1.497    0.332
        89 -11.8291    209.1193     58.2750   3.0227483384e+01  -4.3296684590e+01     0.017428    0.0122983 -45.70  0.001177454    1.455    0.313
        90 -13.5355    207.4221     67.7848   3.0338174584e+01  -4.3206010701e+01   0.04293115   0.03196403 -13.50   0.00477477    1.448    0.310
        91 -12.2371    196.1823     67.9756   3.0511848503e+01  -4.3277049476e+01   0.03002102   0.01558669 -30.62 0.0005470524    1.855    0.461
        92  -9.9277    182.9515    115.3104   3.1130555456e+01  -4.2853878400e+01  0.009454464  0.007953679 -30.80 0.0004095463    1.149    0.130
        93 -10.9578     65.3096    114.6784   3.2946261442e+01  -4.3600513554e+01   0.01136648  0.009871765 -59.65 0.0006585738    1.246    0.197
        94 -12.2383    238.5120     51.4521   2.9718251796e+01  -4.3176663262e+01   0.01998021   0.01478622 -73.80  0.001003684    1.762    0.433
        95 -12.3778    221.5698     39.1793   2.9865956466e+01  -4.3419021204e+01   0.03784304   0.02185005 -61.70   0.00100608    2.611    0.617
        96 -13.5873    242.8845     60.6382   2.9734390386e+01  -4.3049983749e+01   0.05989783   0.04469733 -48.27 0.0008905454    1.399    0.285
        97 -11.3319    206.8710     89.4501   3.0538585810e+01  -4.2977522692e+01   0.01419996   0.01126834  76.75 0.0002517271    1.446    0.308
        98 -11.2148    100.0433     54.4495   3.1882479878e+01  -4.4038233166e+01   0.05437506   0.02886132 -21.64  0.005025767    2.036    0.509
        99  -9.3981    247.5761    113.5946   3.0134596552e+01  -4.2454128360e+01  0.006382609  0.006132208 -24.54 4.845999e-05    1.013    0.013
       100  -9.6778     85.9803     89.6975   3.2408772006e+01  -4.3744233972e+01  0.009107156  0.008108025 -20.80 0.0004480892    1.096    0.087
       101 -10.3237    248.0421     87.4790   2.9896173170e+01  -4.2729918002e+01  0.009252483  0.008695302  48.42 0.0003273127    1.090    0.083
       102 -11.9711    236.1077     86.0742   3.0064263754e+01  -4.2823153504e+01   0.03334142   0.01263489 -41.67  0.001884121    2.648    0.622
       103 -10.6412    156.3056     85.8609   3.1282569206e+01  -4.3341640600e+01   0.02249418  0.009529816 -44.21  0.001855103    2.524    0.604
       104 -11.5256    162.5361     83.7590   3.1168091905e+01  -4.3324429004e+01   0.02721835   0.02186983  45.44  0.003193818    1.271    0.213
       105 -12.0392    169.1035     80.6473   3.1039625895e+01  -4.3315806776e+01   0.01812605   0.01566866 -55.54 0.0009441142    1.232    0.188
       106 -11.0173    168.9648     76.4929   3.1005208981e+01  -4.3361391702e+01   0.02661304   0.01204642 -43.06  0.002252076    2.273    0.560
       107 -11.4907    133.2890    112.5838   3.1870269854e+01  -4.3199140554e+01   0.01663946  0.009709529  39.25 0.0005012101    1.919    0.479
       108 -11.7113    147.9656     84.5164   3.1399588321e+01  -4.3409365193e+01   0.02077939   0.01442737 -32.85  0.001249505    1.383    0.277
       109 -12.4608    147.3841     79.3510   3.1363376638e+01  -4.3468790689e+01   0.01581611   0.01391214 -83.70 0.0007752274    1.288    0.224
       110 -11.2823    248.8235     83.1683   2.9845970838e+01  -4.2770760247e+01   0.01527726   0.01127864 -54.53 0.0004227457    1.509    0.337
       111 -12.5438    181.2105     77.6765   3.0827332788e+01  -4.3269830009e+01   0.03984898   0.02419217   6.12  0.001413551    2.603    0.616
       112  -9.8776    210.2112    111.9754   3.0685892337e+01  -4.2714291495e+01   0.01198022  0.007216985 -40.26 0.0009166687    1.628    0.386
       113 -12.0668    246.0928     52.4625   2.9612234717e+01  -4.3115871764e+01   0.04242402   0.02449139  88.32  0.001717093    3.369    0.703
       114 -11.5791    229.6208     77.1437   3.0083251215e+01  -4.2961005106e+01   0.02749087   0.01725028 -52.50   0.00274985    1.840    0.456
       115 -11.4266    231.9848     73.9672   3.0019046225e+01  -4.2979450325e+01   0.01471632  0.008726389  59.98  0.001468833    1.768    0.434
       116 -10.8914     82.4289     79.0252   3.2372351373e+01  -4.3882340300e+01   0.01660463    0.0106204 -13.07   0.00121682    1.790    0.441
       117 -10.9796     86.8562     75.6605   3.2273822560e+01  -4.3891199664e+01    0.0231159   0.01307872  65.15  0.001384763    1.950    0.487
       118 -11.7641     82.2567     71.6826   3.2311529406e+01  -4.3963152818e+01   0.01603148   0.01396744  82.14 0.0005416237    1.278    0.217
       119 -14.5259     77.0639     59.0937   3.2283924912e+01  -4.4132286446e+01   0.05375698   0.02188239 -34.54  0.004164563    2.272    0.560
       120 -12.3707     73.2091     74.7901   3.2480562645e+01  -4.3985859377e+01   0.03458661    0.0184472 -46.68  0.003215641    2.041    0.510
       121 -10.9615    174.5099    111.9526   3.1230496592e+01  -4.2944080509e+01   0.01560408   0.01022023 -15.55 0.0004505552    1.696    0.410
       122 -10.1864    155.3718     76.8521   3.1218002696e+01  -4.3444692342e+01   0.01457238  0.008379262 -28.38  0.001142249    1.698    0.411
       123 -10.6501    103.9826     75.8040   3.2007062367e+01  -4.3782163535e+01   0.01054748  0.009498084  59.84 0.0005339208    1.153    0.133
       124 -11.3391    154.1875     63.2526   3.1116634700e+01  -4.3598735740e+01   0.02947822   0.01777905  73.02  0.002700188    2.084    0.520
       125 -10.6842    143.9904     60.2117   3.1247808478e+01  -4.3696790487e+01   0.03062624   0.01782545   5.70  0.002313902    2.937    0.660
       126 -10.2750    136.4262     62.0009   3.1380987061e+01  -4.3725813115e+01    0.0128633   0.01150986  -9.47 0.0003272379    1.125    0.111
       127 -11.4460    136.9107     57.5871   3.1334616884e+01  -4.3770318271e+01   0.02670022   0.01265549  62.53  0.002360485    2.302    0.566
       128 -11.9525    137.9674     71.2897   3.1438612757e+01  -4.3615782642e+01   0.04202471    0.0180304 -35.14  0.003659401    2.173    0.540
       129 -12.1620    144.1030     68.1100   3.1315563466e+01  -4.3610943549e+01   0.01744536   0.01517512 -36.71 0.0003832124    1.124    0.110
       130 -10.6322    149.6600     66.7618   3.1217625785e+01  -4.3589948512e+01   0.01369936   0.01078866 -58.26 0.0002448798    1.422    0.297
       131 -10.7272    146.9412     63.2963   3.1229229234e+01  -4.3644680795e+01   0.01562799   0.01194127 -24.39  0.001249861    1.289    0.224
       132 -10.9976    128.0003     58.3778   3.1480186891e+01  -4.3818587110e+01   0.02143294   0.01276554  -6.81  0.001953719    2.293    0.564
       133 -11.3339    160.6124     50.7569   3.0906700510e+01  -4.3691850192e+01   0.01889156   0.01482789  31.04  0.001237573    1.382    0.276
       134 -11.1003    162.8780     56.7604   3.0924872061e+01  -4.3612732476e+01   0.01915717   0.01604877 -28.38  0.001710181    1.156    0.135
       135  -9.9158    156.9122     54.6129   3.0998128269e+01  -4.3674203941e+01   0.02051259  0.009459328 -31.15  0.001260931    2.067    0.516
       136  -9.9034    149.6601     48.6684   3.1057872321e+01  -4.3784745388e+01   0.01325295  0.008742998  25.40  0.001318595    1.910    0.477
       137 -10.4730    143.2744     54.3154   3.1206914774e+01  -4.3764893354e+01   0.01159306  0.009980105  40.64 0.0001768313    1.190    0.160
       138 -10.6256    146.2749     52.3458   3.1142938612e+01  -4.3766883794e+01   0.01325004  0.009774888  18.93 0.0007441966    1.619    0.382
       139 -10.5540    123.4642     53.7758   3.1510411200e+01  -4.3897124156e+01   0.01535133   0.01004947 -27.51  0.001028059    1.492    0.330
       140 -10.8983    131.6201     51.9522   3.1367266652e+01  -4.3864842052e+01   0.01388289   0.01018683 -88.38  0.001471473    1.780    0.438
       141 -10.5634    167.0628     51.6983   3.0815329810e+01  -4.3640150387e+01   0.01691807   0.01035367   3.15  0.001505664    2.495    0.599
       142  -9.6336     90.2570     51.6625   3.2011673584e+01  -4.4130083356e+01  0.006463736  0.004987931 -69.56 0.0006954944    1.576    0.365
       143  -9.5385     33.9638     49.4840   3.2882604659e+01  -4.4504644948e+01  0.009239888  0.006253196 -27.83 -0.0001399879    1.432    0.302
       144 -11.2117    133.1447     46.4650   3.1295097278e+01  -4.3914262914e+01   0.04112603   0.01350436 -34.09  0.003174115    2.758    0.637
       145 -10.5130    136.2674     43.4594   3.1219895123e+01  -4.3926677196e+01   0.01454089  0.009528885 -46.87 0.0008090201    1.603    0.376
       146 -11.3498    133.3437     40.0828   3.1235543872e+01  -4.3981758726e+01   0.01767842   0.01323458 -38.98  0.001005666    1.306    0.234
       147 -11.4055    159.1242     27.0578   3.0718705158e+01  -4.3955965023e+01   0.02034609   0.01143039  45.51   0.00197943    1.853    0.460
       148 -10.8093    163.7946     31.0652   3.0682107094e+01  -4.3882753633e+01   0.02211063   0.01568417  88.84  0.001897939    1.894    0.472
       149 -11.7347    142.5524     46.4187   3.1148320366e+01  -4.3854555877e+01   0.01860689   0.01211973  19.83  0.001808561    2.064    0.516
       150 -11.9263    172.5049     44.4340   3.0666667383e+01  -4.3682955894e+01   0.02621262   0.01868732 -18.10  0.001326271    1.473    0.321
       151 -12.4764    178.4180     38.2330   3.0520047569e+01  -4.3711111966e+01   0.02756106   0.01978366  22.46   0.00149528    1.679    0.405
       152 -12.7831    161.0229     38.6245   3.0792497634e+01  -4.3819537582e+01   0.03528884   0.02811878 -36.83  0.003024717    1.220    0.180
       153 -11.2873    155.1747     42.8735   3.0920936703e+01  -4.3811600121e+01   0.01571389   0.01281723  10.73  0.001119308    1.369    0.269
       154 -12.2386    149.9872     41.0027   3.0984802979e+01  -4.3865095893e+01    0.0284924   0.01846458 -35.21  0.002236416    1.479    0.324
       155 -11.8345     97.4113     42.7143   3.1820900843e+01  -4.4181833936e+01   0.02780395   0.01744869 -32.13  0.001263865    1.524    0.344
       156  -9.2931     94.3703     47.7415   3.1912750954e+01  -4.4146630657e+01  0.006812727  0.004718448 -54.52 0.0005222776    1.647    0.393
       157 -10.6930    214.3955     41.3495   2.9995166373e+01  -4.3442988674e+01   0.02191674   0.01413032 -59.14  0.002166391    1.974    0.493
       158  -9.6120    121.4946     45.4675   3.1467982001e+01  -4.3999328062e+01  0.006466249  0.006233333 -23.90  0.000809732    1.013    0.013
       159  -9.0403    135.9244     36.6961   3.1165310083e+01  -4.4001708162e+01   0.01085573  0.005391102  -5.23 0.0007025315    4.428    0.774
       160 -10.7574    131.8290     33.3975   3.1199901031e+01  -4.4063457645e+01   0.01323482   0.01043241  79.42 0.0005190474    1.478    0.323
       161  -9.9467    233.5829    108.9566   3.0304975443e+01  -4.2594998585e+01   0.01052444   0.00862556  -9.77 0.0004727264    1.286    0.222
       162 -10.8349    216.1457     24.6669   2.9817971481e+01  -4.3609424665e+01   0.01652859   0.01530247 -77.17  0.001293181    1.180    0.152
       163 -10.6269    196.2123    107.3888   3.0858873569e+01  -4.2853887418e+01   0.01429703   0.01116971  62.16  0.001642669    1.345    0.257
       164 -11.7911    219.5319     28.0412   2.9796628897e+01  -4.3551165017e+01    0.0279058   0.01594465  25.38  0.001609953    2.648    0.622
       165 -10.1230     71.5680    109.5590   3.2804639893e+01  -4.3617668250e+01  0.006415813  0.006197218 -30.16 -9.407773e-06    1.027    0.027
       166  -9.8062    173.2613     32.9949   3.0552848708e+01  -4.3800717829e+01   0.00893993  0.008467647 -36.26 0.0005031994    1.045    0.043
       167  -9.9639    121.8909     33.0809   3.1352326983e+01  -4.4130400509e+01  0.009346483  0.008340556 -58.66  0.000567339    1.197    0.164
       168 -10.0542    111.5549     32.8148   3.1511785478e+01  -4.4199128630e+01   0.01193055  0.009049641 -28.02 0.0009356226    1.278    0.218
       169  -8.1303    241.3892     29.9687   2.9480493138e+01  -4.3386259665e+01   0.01526148   0.01260528 -12.31  0.001057097    1.262    0.207
       170  -9.8536    237.6410     30.7055   2.9544244611e+01  -4.3403245096e+01   0.01135623  0.007344613 -33.91  0.001186594    1.483    0.326
       171 -10.9900    227.2395     30.3046   2.9699264508e+01  -4.3476243884e+01   0.01992119   0.01593207   7.74  0.001511551    1.427    0.299
       172 -10.0221    138.4064     29.8321   3.1065653953e+01  -4.4059661276e+01  0.008779709  0.005870916  45.37 0.0003689729    1.541    0.351
       173 -11.0539    152.6454    107.7634   3.1529916236e+01  -4.3128663234e+01   0.01719256  0.008775057 -27.78  0.001591243    1.930    0.482
       174 -10.2369     97.7227     21.9724   3.1633165159e+01  -4.4404065602e+01   0.01198656   0.01098027  25.80 0.0009557912    1.120    0.107
       175  -9.8421    102.0963     20.0754   3.1547548222e+01  -4.4396775164e+01   0.01333818   0.01094771  38.94 0.0008376031    1.262    0.207
       176  -9.5333    114.3917     28.2379   3.1426823760e+01  -4.4230450474e+01  0.006662914  0.004894151   8.16 0.0006919623    1.654    0.395
       177 -10.5737    203.2834     26.2036   3.0029177116e+01  -4.3677541631e+01   0.01169997   0.01008005  50.57 0.0005936739    1.185    0.156
       178  -9.6800    151.4225     20.3960   3.0778777316e+01  -4.4077240730e+01  0.006397923  0.006094798 -33.70 -0.0001541599    1.036    0.035
       179 -11.2221    153.6158     25.1266   3.0786983319e+01  -4.4012290439e+01    0.0204879   0.01391567 -50.43  0.001410951    1.605    0.377
       180 -10.0268    148.1337     25.1390   3.0872342659e+01  -4.4047530229e+01   0.01022001  0.008684053  21.61  0.001210925    1.263    0.208
       181 -10.3371    134.5507     26.5779   3.1096827404e+01  -4.4119422798e+01   0.02040523   0.01565719  29.86  0.001541492    1.436    0.304
       182 -12.3175    145.7722    103.2981   3.1597104431e+01  -4.3220550858e+01   0.03101503   0.01393002 -39.32  0.002732282    2.149    0.535
       183 -11.4160     63.4996    108.1393   3.2919028440e+01  -4.3682985075e+01   0.01153449  0.008982466 -27.45 0.0003377809    1.243    0.196
       184 -10.1684    234.2145     24.7485   2.9542484502e+01  -4.3489280114e+01   0.01807557   0.01371777  40.49  0.002049239    1.377    0.274
       185 -10.8244    210.5445    105.3754   3.0622901716e+01  -4.2782948912e+01   0.01675845   0.01364592 -58.66  0.001576256    1.361    0.265
       186 -10.8478    119.4662     21.9893   3.1291866617e+01  -4.4265428291e+01   0.01151891  0.008922791 -37.41 0.0003559419    1.256    0.204
       187 -10.4292    112.9530     23.2362   3.1405038658e+01  -4.4293562537e+01   0.02050824    0.0136337  24.39  0.002062056    1.897    0.473
       188 -10.8772    176.1167     23.8621   3.0426839253e+01  -4.3880003411e+01   0.01408577  0.009902171  58.37 0.0007669465    1.470    0.320
       189 -10.1474    180.7435     21.1140   3.0330620026e+01  -4.3879288887e+01   0.01197955  0.008637723 -32.95 0.0004234859    1.334    0.250
       190 -12.1766    160.7815    105.1413   3.1381920712e+01  -4.3105171243e+01   0.01356125   0.01214463 -70.50 0.0002802417    1.233    0.189
       191 -10.0034    193.5922     23.9800   3.0158208997e+01  -4.3764751939e+01   0.01019015  0.008462061 -26.40 0.0005013622    1.172    0.147
       192 -10.0188    186.3814     23.8215   3.0267932212e+01  -4.3813556287e+01   0.01615905  0.008433812 -64.52  0.001150639    3.976    0.748
       193 -11.2127    201.9901     21.0638   3.0002671772e+01  -4.3740887036e+01   0.01427866   0.01352293  61.88  0.000785908    1.103    0.093
       194 -10.7646    160.6549     99.7666   3.1337049674e+01  -4.3163946503e+01   0.01520171   0.01081256 -83.19  0.001561779    1.924    0.480
       195 -10.3602     15.8233    106.6499   3.3658185520e+01  -4.3990982551e+01   0.01132195  0.008718291  43.61 0.0009724007    1.333    0.250
       196 -10.2096    163.0390     20.9843   3.0603578151e+01  -4.3995761411e+01  0.009551648  0.009162436 -28.99 0.0003783761    1.022    0.022
       197  -9.6831    170.3469     19.7951   3.0479612030e+01  -4.3961072400e+01  0.009459527  0.005653434  47.70 0.0009397632    1.708    0.414
       198  -9.9969    194.5241     17.6042   3.0086347944e+01  -4.3826762894e+01   0.01239739  0.007767615 -33.38  0.000824765    1.528    0.346
       199  -9.9502    182.0991    104.8764   3.1052553403e+01  -4.2971659045e+01   0.00969321  0.008488014 -59.50 -0.0006383859    1.233    0.189
       200 -11.7099    141.5332     96.2616   3.1601431404e+01  -4.3323479275e+01   0.02200551   0.01412301 -29.13  0.001753471    1.508    0.337
       201 -12.7675    136.9861     81.6910   3.1544836497e+01  -4.3509746353e+01   0.06916356   0.03887808 -53.29  0.006377961    2.202    0.546
       202 -14.0534    126.2753     97.0416   3.1844427205e+01  -4.3411645227e+01   0.06741939    0.0419888  -8.55  0.005213206    2.018    0.504
       203 -13.5101    123.8411     87.3122   3.1797763193e+01  -4.3532306488e+01    0.0437526    0.0354999 -11.50  0.003665182    1.282    0.220
       204 -12.8360    105.1331     65.4639   3.1899041187e+01  -4.3886895631e+01   0.03222896   0.02417893  -9.09  0.003584241    1.461    0.316
       205 -11.6092    123.9533     69.3631   3.1639510223e+01  -4.3725667982e+01   0.01977247   0.01461606 -75.15  0.001196436    1.752    0.429
       206 -13.8083    117.3115     61.1706   3.1671294797e+01  -4.3856320024e+01   0.03899726   0.02906293  64.87 0.0009844394    1.434    0.303
       207 -10.4083     90.9424    104.1285   3.2455261996e+01  -4.3556464637e+01  0.009659308  0.009255587 -13.47 0.0004337339    1.013    0.013
       208 -12.0486     76.2196    103.2398   3.2677832572e+01  -4.3657674501e+01   0.02247758   0.01305984 -64.08  0.001957883    2.642    0.622
       209 -11.0297     74.5654     96.2920   3.2644260989e+01  -4.3743562066e+01   0.01613056  0.008524193  60.79  0.001521605    1.969    0.492
       210 -11.6009    169.0562     98.5208   3.1197010217e+01  -4.3123681859e+01   0.02893883   0.01703268  27.64  0.002063892    2.321    0.569
       211 -11.1919    216.0204     99.7759   3.0490369589e+01  -4.2807490657e+01   0.01419323  0.009702033  59.78  0.001524884    1.523    0.343
       212  -9.5727    168.8329     15.2190   3.0461940242e+01  -4.4019924155e+01  0.009240002  0.007543723  12.51  0.001060218    1.370    0.270
       213 -11.4662    152.3132     98.6358   3.1455676699e+01  -4.3229315421e+01   0.02090202   0.01593494 -75.63  0.001891741    1.655    0.396
       214 -11.0564     83.3550     98.3196   3.2523990097e+01  -4.3666873547e+01   0.01646764   0.01442257  13.48  0.001506623    1.204    0.169
       215 -10.3089     87.5221     97.5133   3.2451896060e+01  -4.3649684157e+01   0.01679541   0.01279508 -34.73  0.001324854    1.268    0.211
       216 -10.8546    225.3203     97.6693   3.0330554332e+01  -4.2769597985e+01   0.01741356  0.008503281  72.83  0.001373154    3.123    0.680
       217 -12.2845    199.6243     96.4582   3.0710887155e+01  -4.2949262902e+01   0.01635616   0.01437254  55.83  0.002002465    1.172    0.147
       218 -11.1351    105.2564     86.5727   3.2080602235e+01  -4.3657448130e+01   0.02194656   0.01548464  39.78  0.002388094    1.504    0.335
       219 -13.1775    102.5053     96.1757   3.2206490319e+01  -4.3570564422e+01    0.0400451   0.02345903 -24.46   0.00173381    1.722    0.419
       220 -11.8114     95.3055     90.1671   3.2266997743e+01  -4.3680861509e+01   0.02166734   0.01817445 -46.60  0.001303611    1.217    0.179
       221 -13.3166    111.7606     87.1892   3.1984581904e+01  -4.3609855288e+01   0.03688024   0.02274822  53.15  0.003697305    1.630    0.387
       222 -12.7595    114.7513     80.7456   3.1882057197e+01  -4.3660781139e+01   0.03219287   0.02406367  71.41  0.003596729    1.499    0.333
       223 -11.9836     11.0890     97.0269   3.3652143860e+01  -4.4125141746e+01   0.02532043   0.01519639  84.67  0.002299721    2.463    0.594
       224 -10.7151    250.1040     95.5650   2.9936919673e+01  -4.2630115465e+01   0.01973634  0.009357568  55.94  0.001432135    2.121    0.529
       225  -9.6576    244.5238     96.9235   3.0033223468e+01  -4.2652185796e+01  0.009402951  0.006420332  57.05 0.0005065335    1.503    0.335
       226  -9.9988     27.3825     97.1842   3.3395154079e+01  -4.4024266126e+01  0.009022563  0.006353091  76.96 0.0006076078    1.687    0.407
       227 -10.9904     36.9929    249.0011   3.4497881428e+01  -4.2299829517e+01   0.01113139  0.007677805  25.11  0.001149578    1.727    0.421
       228 -10.9123    180.8625    243.9495   3.2257928722e+01  -4.1476746666e+01   0.01216632  0.009459903 -81.76  0.001347644    1.600    0.375
       229 -14.8339     66.8915     82.9195   3.2649967004e+01  -4.3936724100e+01     0.103845   0.06501562 -17.06   0.01047309    1.742    0.426
       230  -9.7572    160.8952     13.2406   3.0567340987e+01  -4.4092668991e+01   0.01079556  0.007251365   9.52 0.0007268157    2.022    0.506
       231  -9.6911    218.5920    239.7467   3.1656225723e+01  -4.1285005029e+01  0.008649481  0.006407553  75.26 0.0006906756    1.569    0.363
       232 -12.8225      3.9697     57.2105   3.3427265483e+01  -4.4604293447e+01   0.03677248   0.03087466  25.51  0.004385407    1.267    0.211
       233 -10.3428     15.8786    238.8161   3.4743955298e+01  -4.2537451171e+01   0.01031927  0.008643121  23.51   0.00068093    1.273    0.214
       234  -9.8776    236.7181    145.9871   3.0582040080e+01  -4.2177987919e+01  0.008761575  0.008358023  45.36 0.0003823831    1.073    0.068
       235  -9.5616    147.5764    128.5155   3.1787324298e+01  -4.2936489520e+01  0.006399363  0.006236054 -32.29 0.0001500181    1.031    0.030
       236 -11.0863     83.0177     29.5957   3.1932161206e+01  -4.4414633804e+01   0.05124713   0.02221431 -13.81  0.003466158    4.096    0.756
       237  -9.6476    221.8036    121.6014   3.0594336024e+01  -4.2536028633e+01   0.01004765    0.0055187 -40.95 0.0009560401    1.797    0.443
       238  -9.7254     73.1281    119.0988   3.2861426052e+01  -4.3504063086e+01  0.008547725  0.007354162 -58.02            0    1.254    0.202
       239 -13.5742     78.9729     50.0043   3.2174712688e+01  -4.4218943959e+01   0.04338796   0.03287192 -11.90  0.001692882    1.408    0.290
       240 -13.1987     79.4173     41.3679   3.2092241230e+01  -4.4309784692e+01   0.05490823   0.02243468 -22.34   0.00428735    2.854    0.650
