#   1 NUMBER                 Running object number                                     
#   2 MAG_AUTO               Kron-like elliptical aperture magnitude                    [mag]
#   3 X_IMAGE                Object position along x                                    [pixel]
#   4 Y_IMAGE                Object position along y                                    [pixel]
#   5 X_WORLD                Barycenter position along world x axis                     [deg]
#   6 Y_WORLD                Barycenter position along world y axis                     [deg]
#   7 A_WORLD                Profile RMS along major axis (world units)                 [deg]
#   8 B_WORLD                Profile RMS along minor axis (world units)                 [deg]
#   9 THETA_WORLD            Position angle (CCW/world-x)                               [deg]
#  10 FWHM_WORLD             FWHM assuming a gaussian core                              [deg]
#  11 ELONGATION             A_IMAGE/B_IMAGE                                           
#  12 ELLIPTICITY            1 - B_IMAGE/A_IMAGE                                       
         1 -13.0414     84.5045     24.0993   3.3715966409e+01   5.8733159918e+01    0.3033504    0.2563051  80.86  0.001812594    1.700    0.412
         2 -11.9943     66.9318     15.1881   3.5545631016e+01   6.3031103610e+01      0.38935    0.1729572 -24.21  0.001565859    2.325    0.570
         3 -11.6205    100.1461     12.6669   2.5070106071e+01   5.6700772690e+01    0.1890049    0.1701016 -24.57 0.0003338101    1.263    0.208
         4 -11.5664     55.4381     11.0304   3.7712418973e+01   6.5455085835e+01    0.2336769    0.1379028  28.71  0.001342656    1.531    0.347
         5 -12.4615     82.0002      8.7456   2.8200056792e+01   6.0826099764e+01    0.3152045    0.2015869  42.48 0.0009634668    1.330    0.248
         6 -13.5911     91.2609      4.8703   2.4199088522e+01   5.9273795872e+01    0.3338377    0.3024462  68.04 0.0009546654    1.288    0.224
         7 -10.7838    103.5605      7.4409   2.2312306477e+01   5.6426208036e+01    0.1274467    0.1078892  41.00 6.453352e-05    1.006    0.006
         8 -10.9160     48.5153      7.5632   3.8700184310e+01   6.6940766132e+01    0.1191807   0.09408259  11.56 9.451592e-05    1.010    0.010
         9 -11.0136    106.6566      4.0279   2.0378425430e+01   5.6026181717e+01    0.1674602    0.1503228  26.98 0.0004394634    1.105    0.095
        10 -11.6522      5.2468      3.4366   5.6859428978e+01   7.2802002151e+01    0.1798366     0.114339 -28.15  0.000498337    1.270    0.213
        11 -11.6018    101.1729      2.2927   2.0902357874e+01   5.7365700950e+01    0.2959056    0.1429337  57.69  0.001239411    1.754    0.430
        12 -11.8101     49.8344      1.8883   3.5488492066e+01   6.7298565852e+01    0.1838889    0.1390608  24.11 0.0004161701    1.092    0.084
        13 -11.6716     89.7752    239.9719   8.1880304262e+01   1.3372356790e+01    0.3291098    0.1626208 -63.41  0.001708919    2.237    0.553
        14 -12.2080    246.7808    248.5606   5.3285921785e+01  -1.1570360861e+01    0.3793702     0.175182  21.77  0.001992893    2.166    0.538
        15 -12.3203    236.9972    249.3273   5.5089022374e+01  -1.0384464722e+01    0.2635793    0.1980437  11.56  0.001036428    1.030    0.029
        16 -10.5713    179.5361    250.5145   6.5738743085e+01  -2.2452792568e+00    0.1226527    0.1004046  26.81 0.0001111179    1.014    0.013
        17 -12.3344    139.5350    248.3542   7.3132659940e+01   4.3230582435e+00     0.258669    0.2199323 -34.63 0.0009577399    1.432    0.302
        18 -12.5255    135.0750    245.9746   7.3696717718e+01   5.4149878321e+00    0.3225028     0.148832  36.53  0.001097544    1.895    0.472
        19 -13.3449    104.4765    241.7878   7.9198124062e+01   1.0866494839e+01    0.6189339    0.2504402  31.82   0.00165241    2.865    0.651
        20 -14.2325    110.6700    234.8911   7.7155945413e+01   1.1181898498e+01    0.8345467    0.3683457  29.03   0.00343216    2.973    0.664
        21 -13.5108    115.1800    242.2446   7.7144633117e+01   9.1549009985e+00     0.537284    0.2451933 -53.55   0.00264586    2.529    0.605
        22 -13.3088    117.8031    237.6637   7.6065648277e+01   9.5666087993e+00    0.2939146    0.2382043  45.96 0.0009511159    1.055    0.052
        23 -12.5280     85.0782    250.3969   8.3825312682e+01   1.2142089532e+01    0.2471078    0.1316931  42.63 0.0007345286    1.562    0.360
        24 -11.7719     85.3359    246.0480   8.3354655375e+01   1.2889754856e+01    0.2347095    0.1630953 -73.72  0.001169707    1.566    0.361
        25 -12.4935     68.3693    225.8095   8.4665060943e+01   1.9123452069e+01    0.4869439    0.2425615 -81.63  0.002369901    2.387    0.581
        26 -13.3190     71.5637    234.2794   8.4863596203e+01   1.7018932953e+01    0.3191115    0.2197026  54.54 0.0009421239    1.220    0.180
        27 -12.9841     73.7985    229.1637   8.3917271328e+01   1.7712372756e+01     0.355896    0.2758891 -31.94  0.002138297    2.018    0.504
        28 -12.9458     70.4856    248.4998   8.6375594080e+01   1.4489837940e+01    0.3073884    0.2666949  34.92  0.002207578    1.399    0.285
        29 -12.9428     67.6837    245.2680   8.6614337930e+01   1.5458679778e+01     0.392895    0.2975583 -41.66   0.00252223    1.998    0.500
        30 -12.2639     56.1398    250.6708   8.9177086580e+01   1.5963115830e+01    0.2665994    0.0887602  38.15  0.001255592    2.630    0.620
        31 -13.8157     39.6228    245.3750   9.1745534505e+01   1.8958855065e+01    0.7418309    0.3062989 -66.41  0.004059546    2.434    0.589
        32 -13.4717     34.3218    242.8515   9.2515664958e+01   2.0047834564e+01    0.4164867    0.2560959 -71.70  0.002759459    1.637    0.389
        33 -14.5882     38.3564    226.3017   9.0577982121e+01   2.2803390919e+01     1.157601    0.8869186  27.43  0.007756506    1.710    0.415
        34 -12.9165     47.6191    218.2334   8.8100894953e+01   2.3344729208e+01    0.5853708    0.2843931  76.58  0.002766788    2.458    0.593
        35 -14.3482     29.0069    234.1543   9.2883951734e+01   2.2312720498e+01     0.684474    0.3784843  44.30  0.004297344    1.606    0.377
        36 -15.0369     18.8571    214.9215   9.3456016574e+01   2.7249056853e+01      1.06773    0.7047262  73.24  0.007120932    1.236    0.191
        37 -14.7722      3.2189    210.0617   9.6094024300e+01   2.9751759715e+01    0.9982529     0.433483 -63.56  0.005582553    2.235    0.553
        38 -14.6755     26.1346    247.9764   9.4269896956e+01   2.0011140345e+01    0.6490773    0.3021746  40.72  0.003915539    1.908    0.476
        39 -17.3053     11.4580    234.4339   9.6018657557e+01   2.4109393485e+01      1.92288     1.166014  81.61   0.01319948    1.326    0.246
        40 -14.6621     12.6487    225.7319   9.5303703360e+01   2.5689075531e+01    0.4087795     0.372894 -37.95  0.003187431    1.730    0.422
        41 -12.2336     91.6072    235.1626   8.1003675298e+01   1.4008485586e+01     0.468666    0.2423504 -87.16  0.002063481    3.130    0.681
        42 -13.3160     61.1122    232.5709   8.6735284853e+01   1.8747421336e+01     1.075597    0.5842206  79.00   0.00567986    2.090    0.521
        43 -11.2502    239.9766    239.6592   5.2986247582e+01  -9.5910814039e+00    0.1617229    0.1211846  17.97 0.0004194346    1.130    0.115
        44 -12.0602    148.8318    238.8513   7.0026296691e+01   4.4163686435e+00    0.3185678    0.1839061  20.17  0.001215811    2.327    0.570
        45 -13.3708     97.5785    249.4282   8.1362644292e+01   1.0523233686e+01    0.4505361    0.2581103  46.27  0.002600845    1.429    0.300
        46 -12.9425     52.6705    237.2494   8.8746606396e+01   1.8917457335e+01    0.2366311    0.2138017 -66.29  0.001075102    1.423    0.297
        47 -11.5436     53.5860    232.2162   8.8152618087e+01   1.9782350277e+01    0.1988413    0.1589259  79.64 0.0008189388    1.087    0.080
        48 -12.4916    114.8228    249.7280   7.8087897831e+01   7.9056425274e+00    0.3236954    0.2285504  38.52  0.001242552    1.246    0.198
        49 -10.9781     78.8562    237.4003   8.3747454658e+01   1.5411778304e+01    0.1733014    0.1016404  42.18 0.0003444829    1.496    0.331
        50 -10.8616    211.1721    236.1478   5.7566403949e+01  -5.0129012157e+00    0.1527277    0.1397929  29.23 0.0004797619    1.326    0.246
        51 -14.2084    118.3708    226.8677   7.4563655598e+01   1.1467513537e+01    0.6624096    0.3628967  62.17  0.002223833    2.374    0.579
        52 -11.7016     99.3459    223.1252   7.8030098682e+01   1.5177235599e+01    0.1792742    0.1534356 -89.85 0.0004685659    1.189    0.159
        53 -13.4089    100.3236    226.9688   7.8297651889e+01   1.4275208010e+01    0.5356476    0.1912029 -53.13  0.002246849    3.097    0.677
        54 -13.9836    113.7675    218.9257   7.4458227056e+01   1.3736667389e+01    0.4446964    0.4075309  80.82  0.002853864    1.112    0.101
        55 -13.8688    109.8411    214.4931   7.4688167708e+01   1.5250094048e+01    0.5616133    0.3520464 -39.68  0.002807638    2.096    0.523
        56 -12.6383    112.8290    227.7469   7.5821766955e+01   1.2182213211e+01    0.2706065    0.2280574  37.56 0.0007598985    1.161    0.139
        57 -14.6056    105.5073    227.1341   7.7251834923e+01   1.3445189561e+01    0.7599456    0.5083601 -39.79  0.004129059    2.011    0.503
        58 -12.4940    219.8855    230.2628   5.4978716015e+01  -5.4907046559e+00    0.2879648    0.1842216  34.72  0.000904936    1.445    0.308
        59 -12.9539    128.6044    231.0658   7.3025270838e+01   9.0436938395e+00    0.4214589     0.165532  39.30   0.00132515    2.211    0.548
        60 -11.8922    127.6998    227.0564   7.2662253715e+01   9.9253799905e+00    0.2170357    0.1682297 -42.87  0.000909337    1.518    0.341
        61 -11.5163    193.9706    229.6194   5.9735590733e+01  -1.3956841998e+00    0.2266427    0.1875402 -39.14  0.001069382    1.409    0.290
        62 -11.5333    178.0621    228.3734   6.2636253159e+01   1.3729883661e+00    0.1920056     0.163637  -6.38  0.000375833    1.210    0.173
        63 -11.5370    149.7694    229.5956   6.8503650865e+01   5.8406116198e+00    0.1902201    0.1069265  46.75 0.0006715654    1.659    0.397
        64 -10.9981     83.8940    229.3613   8.1915567969e+01   1.6248042530e+01    0.1718864    0.1409302  51.99   0.00064671    1.096    0.088
        65 -10.4839    190.4322    237.4035   6.1672875114e+01  -2.0105520182e+00    0.1245746     0.103518  22.59 0.0001294734    1.022    0.021
        66 -12.5016    232.0636    226.9329   5.2209204460e+01  -6.8165603931e+00    0.2857536     0.222991 -31.41  0.001875884    1.411    0.291
        67 -12.1212     91.3141    226.0080   8.0032894597e+01   1.5821193903e+01    0.2910795    0.2112094 -73.04 0.0009486274    1.461    0.316
        68 -10.9687    222.4010    225.7120   5.3738012908e+01  -5.2250583962e+00    0.1581639    0.1062483 -20.14 0.0005464816    1.462    0.316
        69 -12.0257     96.1544    225.6393   7.8995360527e+01   1.5168288573e+01    0.2138155    0.1643466  88.81  0.001158137    1.374    0.272
        70 -11.5642     71.3321    240.4067   8.5487511837e+01   1.5878472343e+01    0.2869131    0.2273363   2.49  0.001241278    2.149    0.535
        71 -12.2992    247.3902    221.5630   4.8589787033e+01  -8.2605123955e+00    0.2595052    0.2268826  81.96  0.001258483    2.394    0.582
        72 -10.9093    213.0299    222.5005   5.4909420955e+01  -3.3286718386e+00    0.2698753    0.1436131  -4.15  0.001053276    3.568    0.720
        73 -12.5683    159.7363    222.1493   6.5329014018e+01   5.4733943462e+00    0.3536921    0.2203886  38.43 0.0007701818    1.422    0.297
        74 -13.4394    125.0802    221.3230   7.2406571747e+01   1.1431004545e+01    0.3978481    0.2961484  34.14  0.000646454    1.288    0.223
        75 -12.3282    129.9483    217.9655   7.0896942306e+01   1.1265984476e+01     0.265936    0.2288974 -79.40  0.001061263    1.316    0.240
        76 -13.3106     87.7578    213.6082   7.9299877716e+01   1.8858135886e+01    0.5121149    0.4788898  42.29  0.002237878    1.207    0.172
        77 -14.0270     77.4347    219.0733   8.2108869967e+01   1.9232787705e+01    0.5627809    0.3385483  73.93  0.001519542    1.882    0.469
        78 -13.1634     79.3762    212.5400   8.0956646125e+01   2.0308865085e+01    0.3531146    0.2852932  54.93  0.001053905    1.109    0.099
        79 -12.6218     75.5397    212.4711   8.1762999917e+01   2.0870641166e+01    0.2707562    0.1937864  52.32 0.0009686183    1.248    0.199
        80 -12.0385    237.8567    221.1445   5.0168397153e+01  -6.8577823750e+00    0.1778755    0.1568508   4.40  0.001145975    1.212    0.175
        81 -11.3069    223.0854    220.3146   5.2668027098e+01  -4.5548339448e+00    0.1996244    0.1505981  -8.86  0.000507203    1.226    0.184
        82 -11.4429    225.2251    216.8227   5.1656243951e+01  -4.3728343325e+00    0.2339676    0.1617549  23.31 0.0006484397    1.314    0.239
        83 -12.0648    189.5587    220.2959   5.9029564760e+01   7.8368309311e-01    0.2680275    0.1919865  10.03 0.0005810991    1.494    0.331
        84 -11.2075    194.7685    220.5893   5.8061156112e+01  -1.1950440831e-01     0.179765    0.1128067  43.89 0.0003960308    1.609    0.379
        85 -12.4582    173.2144    219.0434   6.2079370267e+01   3.7285395318e+00    0.2712184    0.2459075  -9.62   0.00105695    1.140    0.123
        86 -12.6264    145.4953    215.8020   6.7284171382e+01   9.0437283730e+00    0.6358758    0.3427957 -28.61  0.002586786    3.120    0.680
        87 -13.6926    140.8814    210.4104   6.7410685063e+01   1.0858274994e+01    0.6734178    0.3741163 -69.44  0.002371093    2.987    0.665
        88 -10.8662    180.9846    232.4733   6.2717234757e+01   2.4542410410e-01    0.1942234    0.1103345  36.01  0.000542591    1.533    0.348
        89 -12.3266     63.8005    216.8405   8.4687584310e+01   2.1568945474e+01    0.3182698    0.2792228 -76.05  0.002152846    1.227    0.185
        90 -13.2510     58.0796    212.9677   8.5475650186e+01   2.3130193302e+01    0.5151284    0.3153849  43.90  0.002952717    1.511    0.338
        91 -11.3136     61.6716    204.4526   8.3824910285e+01   2.4480448135e+01    0.4661673    0.3769121  75.96  0.002254614    1.079    0.073
        92 -13.3106     69.3136    207.3914   8.2511907958e+01   2.2816925203e+01    0.5479469    0.4228762   4.39  0.003076908    2.060    0.515
        93 -13.6298     77.6906    201.8319   8.0028187973e+01   2.2837477368e+01    0.5380818    0.4604008   3.82  0.002699421    1.632    0.387
        94 -11.5662     69.1739    193.6382   8.0908175364e+01   2.5846904075e+01    0.1933429    0.1661594 -79.09 0.0007270917    1.117    0.105
        95 -14.0269     68.8044    187.1112   8.0161661841e+01   2.7368898369e+01     1.037621    0.9235387  -3.33  0.004535529    1.522    0.343
        96 -13.1201    120.2417    214.5815   7.2471140828e+01   1.3537033101e+01    0.3826428    0.2209704  49.14  0.001331843    1.624    0.384
        97 -13.8122    118.3313    206.9245   7.1761757361e+01   1.5392526728e+01    0.4992743    0.3516451 -44.85 0.0003839274    1.616    0.381
        98 -12.3821    115.6845    203.3144   7.1802579667e+01   1.6577919802e+01    0.2116417    0.1811621  66.74 0.0003376066    1.152    0.132
        99 -13.5283     65.2424    181.2118   8.0219066109e+01   2.9206809242e+01    0.7508376    0.3595113 -51.53  0.003383248    2.212    0.548
       100 -10.7235     36.8131    215.2247   8.9990323192e+01   2.5246678354e+01    0.1405102     0.123391 -79.55 0.0005698475    1.265    0.210
       101 -11.7049    156.0426    213.8449   6.4755287445e+01   7.5897906775e+00    0.3077337    0.1942121  -5.10  0.001282332    2.946    0.661
       102 -13.2827    125.7173    213.1192   7.1082729446e+01   1.2914382114e+01    0.4168245    0.2498346  35.69 0.0005579969    1.590    0.371
       103 -12.3530    247.8098    212.8794   4.6957552393e+01  -7.1412123765e+00    0.2384495    0.1592417  30.41 0.0004735677    1.458    0.314
       104 -12.0872     97.4891    212.4048   7.7062370496e+01   1.7627261643e+01    0.3258649    0.2195888 -76.67 0.0008540667    1.655    0.396
       105 -12.8210    107.1022    207.5272   7.4310632048e+01   1.7114340111e+01    0.3818843    0.2743258 -18.36  0.001873823    2.293    0.564
       106 -12.0428    102.1880    207.1109   7.5329412972e+01   1.7988533098e+01    0.4792516    0.3128238  11.14  0.002143573    2.696    0.629
       107 -10.3827     29.7774    211.8632   9.1109917200e+01   2.6734747456e+01    0.2058446    0.1095553  68.43   0.00113502    1.774    0.436
       108 -11.7936     26.1412    208.2779   9.1548829326e+01   2.7880218691e+01     0.219614    0.1436672  74.94 0.0004997372    1.307    0.235
       109 -10.6561     46.8610    211.1514   8.7610313770e+01   2.4919430196e+01    0.1624681    0.1243656 -63.66   0.00103725    1.412    0.292
       110 -12.4516    229.3237    207.2476   4.9167953305e+01  -3.5874639453e+00    0.4246269    0.2413398 -36.97  0.001816292    1.751    0.429
       111 -11.6542    225.0406    204.2609   4.9389674191e+01  -2.4633142728e+00    0.1817371    0.1523671  16.08 0.0003949608    1.101    0.092
       112 -11.5568    181.0450    207.8208   5.8558139364e+01   4.3195834655e+00    0.2592225    0.1810474  20.21  0.001358723    1.495    0.331
       113 -12.3941     54.8902    206.0750   8.5442825722e+01   2.5008067001e+01    0.2733415    0.1961127 -67.16 0.0007854783    1.383    0.277
       114 -11.5762    160.5205    206.8719   6.2644914778e+01   8.0917964053e+00    0.2087537    0.1817649  66.32  0.001206426    1.340    0.254
       115 -13.0218     80.2544    193.8120   7.8418746702e+01   2.4227823618e+01    0.6575036    0.3494105  68.63  0.001563114    2.605    0.616
       116 -13.4027     35.9988    203.4695   8.9147418406e+01   2.7832419757e+01    0.3995258    0.2519943 -50.90  0.001441541    1.960    0.490
       117 -10.5174    205.2693    206.2922   5.3480567860e+01   4.3948038635e-01    0.1305869   0.09367197   0.83 0.0001777739    1.511    0.338
       118 -12.4268     42.6770    205.6610   8.7962703698e+01   2.6591480547e+01     0.239978    0.1830936  53.48 0.0005188787    1.224    0.183
       119 -11.1979    166.4793    204.5305   6.0984330632e+01   7.4697339588e+00    0.2808643    0.1365534 -46.17  0.001226339    2.224    0.550
       120 -12.3942    145.4705    201.9045   6.5021470899e+01   1.1707923187e+01    0.4689589    0.3076039 -64.44   0.00226736    1.941    0.485
       121 -13.5666    140.3316    196.4194   6.5213312274e+01   1.3717814648e+01    0.4133822     0.363173  54.52  0.001228014    1.128    0.113
       122 -13.2159    100.2932    184.3078   7.2377231115e+01   2.3241249327e+01    0.3904363    0.3318083 -39.10  0.001265279    1.361    0.265
       123 -13.7844     89.5336    177.0221   7.3793527287e+01   2.6623877935e+01    0.5344031    0.3929558  62.56  0.001819753    1.405    0.288
       124 -12.4762    101.5746    195.7789   7.3841908883e+01   2.0500893974e+01    0.4858844    0.2561745 -50.91  0.002229392    2.020    0.505
       125 -13.4070     93.9083    183.7146   7.3792940742e+01   2.4405187670e+01    0.4926088    0.3015432 -48.39  0.002215819    1.766    0.434
       126 -13.7830     89.5043    183.4677   7.4797560941e+01   2.5154224499e+01    0.7823135    0.4496691 -78.20  0.003461393    2.173    0.540
       127 -12.8265     89.7715    202.2586   7.7408877093e+01   2.0953239852e+01    0.4473947    0.2967917 -53.16  0.001496373    1.630    0.387
       128 -13.7925     94.7442    194.5676   7.5220547317e+01   2.1854724708e+01    0.8354831    0.5785854  61.10  0.003983106    1.472    0.321
       129 -10.7400     30.0744    202.0832   9.0248563545e+01   2.8783956715e+01    0.1613795    0.1106436  72.47  0.001006977    1.261    0.207
       130 -13.0991     21.0289    198.3077   9.1793145042e+01   3.0540985041e+01    0.5692971    0.2690173  85.44  0.002867673    2.149    0.535
       131 -11.3145    212.4224    200.2078   5.0977161685e+01   2.3187146204e-01    0.1752789    0.1226675 -46.22 0.0009393654    1.664    0.399
       132 -14.1142    122.7688    197.3016   6.9282217144e+01   1.6627962980e+01    0.4841515    0.4093565  52.62  0.002767359    1.116    0.104
       133 -11.8599    225.0504    198.0594   4.8216536751e+01  -1.5027707128e+00    0.2907301    0.1625346 -49.15  0.001369047    2.354    0.575
       134 -11.5586     60.0629    198.6703   8.3532021082e+01   2.5955600503e+01    0.2940899    0.1369449 -50.28  0.001119573    2.561    0.610
       135 -10.9481     14.7237    199.4865   9.3161408518e+01   3.0904777500e+01    0.1248111    0.1138999  31.91 0.0004493366    1.474    0.321
       136 -10.9333     41.0785    198.1585   8.7587051135e+01   2.8409624091e+01    0.1630854    0.1461435 -85.94 0.0002808513    1.176    0.149
       137 -11.3570     29.3672    197.9819   9.0042602618e+01   2.9749895348e+01    0.2369238    0.1801872  -0.29  0.001430079    2.208    0.547
       138 -12.6572    113.9972    197.0357   7.1216690950e+01   1.8179840660e+01    0.2087557    0.1916346  65.62 0.0004451495    1.030    0.029
       139 -12.7543     22.4696    180.7991   8.9985351706e+01   3.4272796549e+01    0.6425183     0.263136  46.34  0.002813702    2.337    0.572
       140 -12.3446     24.9576    168.9462   8.8259306632e+01   3.6740660148e+01    0.5304962    0.2113879  29.13  0.002458701    2.861    0.650
       141 -12.1354     35.4733    189.8181   8.7985385159e+01   3.0892978950e+01    0.3691729    0.1970078 -56.73  0.001581619    1.925    0.480
       142 -12.3618     31.9245    178.6600   8.7656610544e+01   3.3800967074e+01    0.4730163    0.2727383 -48.56  0.002505601    2.050    0.512
       143 -12.2517     19.1266    188.0397   9.1348606355e+01   3.2977431298e+01    0.2469128    0.1721969  56.84 0.0005859903    1.341    0.254
       144 -12.2496     33.3965    172.6524   8.6679422282e+01   3.5028953226e+01    0.4248174    0.3171951  19.37  0.002560512    1.769    0.435
       145 -11.5173     27.1869    172.8233   8.8141733278e+01   3.5626558739e+01    0.2013734    0.1838283 -53.94     0.000377    1.321    0.243
       146 -12.5956     10.0715    194.5950   9.3740946473e+01   3.2392481139e+01    0.4475798    0.2738179  42.63  0.001903982    1.646    0.392
       147 -14.2670     10.2116    187.9206   9.3215229601e+01   3.3832631755e+01    0.5118982    0.4534568  35.42  0.003312156    1.444    0.308
       148 -11.9933     11.2973    180.4127   9.2391128327e+01   3.5397274742e+01    0.3326962    0.2167138   7.06  0.001147001    2.531    0.605
       149 -12.6385     26.4829    192.5320   9.0173000577e+01   3.1248823867e+01    0.5029795    0.2223306 -84.14  0.002412032    2.235    0.553
       150 -12.8720     29.6728    187.2938   8.9009420310e+01   3.2082042564e+01    0.5638855    0.2985254  68.92  0.002914158    1.965    0.491
       151 -11.6851      1.3344    196.5796   9.5618145411e+01   3.2738361575e+01    0.2059976     0.085043 -78.53 0.0006092973    1.982    0.495
       152 -11.5073    152.8791    195.8365   6.2352725999e+01   1.1569707535e+01    0.1940238    0.1632718  61.91 0.0005128197    1.316    0.240
       153 -11.2984     49.9272    195.3253   8.5386246073e+01   2.7981198760e+01    0.2219567    0.1497948  89.22 0.0008949653    1.396    0.284
       154 -13.0174    190.2224    193.7804   5.4104439044e+01   5.1730223998e+00     0.452014    0.3542732  38.10  0.001252355    1.245    0.197
       155 -11.1335     36.9894    195.2847   8.8185173688e+01   2.9508847552e+01    0.1632331    0.1338281  69.45   0.00019116    1.089    0.081
       156 -12.0726    217.4244    193.5318   4.8757089194e+01   4.7977880969e-01    0.2270116     0.219748 -21.94 0.0001838195    1.266    0.210
       157 -12.1910    162.8608    193.2511   5.9720994887e+01   1.0250481118e+01    0.2460496    0.2124224  29.65 0.0004566597    1.094    0.086
       158 -12.3279    243.8652    192.0099   4.3719954597e+01  -3.5443115541e+00    0.2780876    0.1992567  -2.03  0.001143177    1.369    0.270
       159 -11.2626    212.7053    192.9908   4.9542058209e+01   1.3684451530e+00    0.1886889    0.1590957 -22.33 0.0003535414    1.135    0.119
       160 -12.1673    178.6494    191.1752   5.5983759952e+01   7.7447028449e+00    0.2934333    0.2323672  84.13  0.001237097    1.938    0.484
       161 -13.8909    121.8589    187.0414   6.7786643542e+01   1.8967933966e+01    0.5020247    0.3403682 -31.95  0.001888598    1.921    0.479
       162 -14.1212    119.3138    181.0232   6.7338353506e+01   2.0729335950e+01     0.831084    0.4413802  64.60  0.001940148    3.221    0.690
       163 -11.1157    234.4807    190.4980   4.5061344995e+01  -1.8388622092e+00    0.1316157     0.111175  -5.95  0.000810369    1.006    0.006
       164 -12.5234     51.4251    189.6354   8.4431513556e+01   2.9070985976e+01    0.3189671    0.2675365  12.00  0.001740588    1.645    0.392
       165 -12.8216     51.5173    184.3367   8.3803179905e+01   3.0262916569e+01    0.5895922     0.234851  42.47  0.002636997    2.370    0.578
       166 -13.9560    134.3197    188.0096   6.5096002876e+01   1.6535623991e+01    0.5653883    0.3566621 -43.74  0.001721078    1.710    0.415
       167 -11.9951    195.1377    187.6909   5.1935023980e+01   5.3731059725e+00    0.3094411    0.1635797  49.77  0.001337271    2.189    0.543
       168 -11.6377    151.9935    187.9715   6.1117477658e+01   1.3299680249e+01     0.171879     0.167074 -29.16 0.0005310068    1.076    0.070
       169 -12.9503    110.5242    188.0320   7.0579881820e+01   2.0710578335e+01    0.2857231    0.2046335  42.03 0.0008919837    1.338    0.253
       170 -11.0920     49.3102    203.5796   8.6370839826e+01   2.6244119334e+01    0.2236849    0.1023547 -70.23  0.001088205    2.054    0.513
       171 -11.3114     42.9163    186.7096   8.6019691965e+01   3.0751537814e+01     0.328584    0.1546083  74.56  0.001363079    2.921    0.658
       172 -11.6210      2.5768    186.5533   9.4693478227e+01   3.4791536149e+01     0.178146    0.1517338 -83.91 0.0005454025    1.196    0.164
       173 -12.0599    248.0138    185.4223   4.1735833462e+01  -3.1874714110e+00    0.3513952    0.2128042   1.32  0.001734814    2.134    0.531
       174 -10.4370    241.3469    186.2673   4.3035382049e+01  -2.2752338317e+00    0.1317267   0.08947422   3.90 0.0004144549    1.613    0.380
       175 -11.5907    157.7441    194.9899   6.1143518033e+01   1.0849702399e+01    0.1761026    0.1220539 -45.68 0.0004998998    1.532    0.347
       176 -11.9598      5.0150    181.3064   9.3802702524e+01   3.5738873707e+01    0.2010837    0.1696595 -50.81 0.0006767506    1.498    0.332
       177 -11.9878    167.0040    178.0234   5.5898905717e+01   1.2461191551e+01    0.2358273     0.206746 -37.92 0.0003295247    1.167    0.143
       178 -11.5880    142.4027    180.7749   6.1930518555e+01   1.6570671459e+01    0.2677769    0.1421573 -53.23 0.0007911035    2.030    0.507
       179 -13.4727    106.4194    176.6068   6.9643574496e+01   2.3955676507e+01    0.4685474     0.272138 -60.86  0.002124845    1.789    0.441
       180 -12.0143    198.8360    179.9649   4.9656140002e+01   6.0837409764e+00    0.2179189    0.1922939  23.61 0.0003164804    1.095    0.087
       181 -13.5054     56.6831    176.3148   8.1608349869e+01   3.1466402994e+01    0.4169259    0.3496489 -51.82  0.001990885    1.326    0.246
       182 -14.3401     65.9699    162.4251   7.7364553193e+01   3.3517558020e+01     1.867189      0.59262 -68.72  0.005862697    4.005    0.750
       183 -12.8817     57.8378    157.5983   7.8712841442e+01   3.5744305764e+01    0.3497221     0.223314  52.46  0.001793135    1.646    0.393
       184 -13.1418     61.1933    169.0121   7.9528373254e+01   3.2594666294e+01    0.5672217    0.3900492  88.45  0.002993573    1.528    0.346
       185 -12.6557     57.2029    163.2275   7.9700480324e+01   3.4481793668e+01    0.4126795    0.2587836  86.49  0.002015817    1.837    0.456
       186 -12.2226     62.9936    156.9813   7.7285831878e+01   3.5219453101e+01     0.227152    0.2081058 -79.30 0.0003504881    1.038    0.036
       187 -13.7836     65.9462    153.8308   7.6011709780e+01   3.5577634052e+01    0.4579799    0.3108292 -65.56 0.0006462739    1.361    0.265
       188 -12.5171    154.4273    177.9895   5.8672407851e+01   1.4876661684e+01    0.4359167    0.2701359  24.64  0.001884283    1.981    0.495
       189 -13.7430    123.1444    206.6016   7.0658675425e+01   1.4648931438e+01    0.5849078      0.30483 -34.08  0.002313467    3.153    0.683
       190 -12.0729    192.1240    177.8732   5.0579522174e+01   7.7120052357e+00    0.2049426    0.1969728  73.54 0.0005691802    1.254    0.203
       191 -13.1875    100.6333    172.2134   7.0294030228e+01   2.5934227773e+01    0.4767949    0.2259972 -52.39  0.001977972    2.093    0.522
       192 -12.5350     96.9897    175.4589   7.1731834795e+01   2.5789845934e+01    0.2995177    0.1641715  54.34  0.001290634    2.012    0.503
       193 -13.1596    136.6609    175.9120   6.2333553525e+01   1.8680928261e+01      0.38293    0.2545323 -85.68  0.001565801    2.520    0.603
       194 -10.7871    250.6584    176.2622   3.9488140781e+01  -2.1977107423e+00    0.1759302    0.1036829 -26.46 0.0003155872    1.550    0.355
       195 -12.6119    149.2674    175.9606   5.9440162474e+01   1.6283541918e+01    0.2903377    0.2145533  31.45  0.001433072    1.383    0.277
       196 -12.8566     12.7146    175.0491   9.1628986813e+01   3.6476206914e+01    0.3066068    0.1825413 -57.53  0.001513588    1.683    0.406
       197 -12.2442      5.5395    176.0208   9.3281467356e+01   3.6869171922e+01    0.4324262    0.1158112  39.95  0.001851363    3.270    0.694
       198 -11.4465      2.5781    171.8306   9.3594772306e+01   3.8044832593e+01    0.2659639    0.1554347  77.87 0.0007943547    1.547    0.354
       199 -13.4614    126.5626    173.2579   6.4208800438e+01   2.1135299542e+01    0.4787407    0.2455964 -58.12  0.001573176    2.165    0.538
       200 -14.4064    125.5836    167.6314   6.3368447857e+01   2.2566777649e+01    0.6034105    0.5564994  84.99  0.003341068    1.127    0.113
       201 -13.0891     75.1159    169.9623   7.6224932036e+01   3.0446252675e+01    0.5465457    0.2816997  65.41  0.002124837    2.875    0.652
       202 -10.7380     40.9481    174.3762   8.5100853610e+01   3.3806012694e+01    0.1890099    0.1095678  -5.08 0.0007026682    4.664    0.786
       203 -10.8203     22.6348    174.2660   8.9329702743e+01   3.5741450051e+01    0.1747874   0.09371841 -66.19 0.0009433685    1.608    0.378
       204 -11.3508    213.8959    174.0000   4.5517632057e+01   4.3936113759e+00    0.2177341   0.07718603  42.97 0.0005287837    2.895    0.655
       205 -11.3609    235.0294    171.7812   4.1228556223e+01   1.0654872820e+00    0.2480564    0.1738607  17.58  0.001212108    1.565    0.361
       206 -13.7161     91.4200    170.0351   7.2194337311e+01   2.7944211133e+01    0.3886977    0.3855305 -69.64  0.001978831    1.123    0.109
       207 -11.9867    197.2747    170.5896   4.8037980498e+01   8.0867793142e+00    0.2550294     0.170845 -17.83  0.001187595    1.770    0.435
       208 -11.2065    140.3189    171.3265   6.0591294217e+01   1.8977911598e+01    0.1501098    0.1172506  -5.99 0.0007046314    1.679    0.405
       209 -12.9678    152.4503    166.8845   5.6888271622e+01   1.7575960734e+01    0.6184072    0.2130507 -49.52   0.00203892    3.083    0.676
       210 -11.0586     18.9932    170.0132   8.9749887440e+01   3.7057978748e+01      0.18127    0.1309498  77.82            0    1.242    0.195
       211 -10.9931     15.5719    167.5373   9.0300119592e+01   3.7934138285e+01    0.1692625     0.118891  32.46 0.0005660148    1.668    0.401
       212 -11.9368     41.0127    168.0101   8.4331505974e+01   3.5284792483e+01    0.2847467    0.1677706 -80.81  0.000969836    1.610    0.379
       213 -11.7416     54.3961    166.9485   8.0920598723e+01   3.3953000113e+01    0.2152708    0.1686863  60.26 0.0005226977    1.264    0.209
       214 -11.8341     10.2230    166.8228   9.1461816317e+01   3.8556780235e+01    0.2699893    0.1559202  49.07   0.00086209    1.753    0.429
       215 -12.3946    110.7497    164.3990   6.6385151876e+01   2.5993222092e+01    0.2666307    0.2535991 -72.51 0.0003041312    1.039    0.037
       216 -14.4540     89.6891    162.1591   7.1279258468e+01   3.0067964997e+01     0.675742    0.4595216 -44.97  0.003317193    1.576    0.365
       217 -12.4317     77.3066    159.9868   7.4075773998e+01   3.2488327745e+01    0.3566452     0.163126 -60.36  0.001482372    2.068    0.516
       218 -11.8827     72.9445    164.9364   7.5988238605e+01   3.1946146013e+01    0.2658079    0.1912716 -75.40 0.0003931973    1.363    0.266
       219 -11.6879     73.5561    161.2143   7.5239556934e+01   3.2743162593e+01     0.213183    0.1911397 -30.55 0.0004945258    1.325    0.245
       220 -15.4910     38.1081    147.1191   8.2338686334e+01   4.0560821446e+01     1.665019    0.9684491 -51.93  0.008650222    1.649    0.394
       221 -13.6660     36.8426    161.7894   8.4590188753e+01   3.7204723848e+01    0.7036712    0.4149345  27.89  0.003732965    2.010    0.502
       222 -14.4433     17.8548    150.9249   8.8036000193e+01   4.1591547653e+01    0.9387345    0.6841572 -56.56  0.005346795    1.333    0.250
       223 -13.8709      4.9697    144.9488   9.0621494357e+01   4.4000316378e+01    0.9718621    0.5688004 -86.61  0.005601926    1.501    0.334
       224 -14.8906     20.2407    127.1294   8.4401225337e+01   4.7005107892e+01     1.127693    0.7216564  57.92  0.006316059    1.819    0.450
       225 -13.2197     22.3657    161.9116   8.8132285568e+01   3.8619754633e+01    0.6413133    0.4227666 -43.81  0.003691064    1.821    0.451
       226 -15.0630     11.8346    136.3013   8.7898889241e+01   4.5509096576e+01     1.435348    0.7457696  81.45  0.006990345    2.281    0.562
       227 -12.5091      2.0996    131.5146   8.9932158504e+01   4.7309860272e+01    0.3969968    0.1922518 -76.71  0.001436538    1.702    0.413
       228 -12.9217     29.5356    139.2728   8.3534728169e+01   4.3296229529e+01    0.3224596    0.2464114  29.10 0.0001587864    1.546    0.353
       229 -14.5235     35.6745    133.2540   8.0958423110e+01   4.4134447716e+01     1.003716    0.6100447 -89.44  0.002723563    1.891    0.471
       230 -11.8375     25.9022    153.8056   8.6349773273e+01   4.0189525772e+01    0.3786961    0.2045969  56.16  0.001935489    2.033    0.508
       231 -12.9977     27.1775    149.6396   8.5519967446e+01   4.1053996593e+01    0.3657534    0.2351285  63.91  0.001364976    1.676    0.403
       232 -12.4553     16.6948    160.5967   8.9352990609e+01   3.9436283623e+01    0.3203408    0.1886348  75.45  0.001260506    1.730    0.422
       233 -11.8038     12.3312    161.0689   9.0435125427e+01   3.9699976868e+01    0.1989102    0.1850822 -83.68 0.0005222227    1.212    0.175
       234 -11.4721    205.8878    163.9576   4.4942235483e+01   7.6672154195e+00    0.2219815    0.1837812  -1.16   0.00055406    1.248    0.199
       235 -12.2554     47.5340    162.8282   8.2068822877e+01   3.5760330815e+01      0.29829    0.2258435 -69.99 0.0009359445    1.174    0.148
       236 -12.8034      4.9284    162.1798   9.2262524871e+01   4.0041564407e+01    0.3593421    0.3011786 -48.70  0.001614055    1.430    0.301
       237 -11.4655    242.8815    162.2459   3.7930443478e+01   1.2924203154e+00    0.1861149    0.1686514 -33.01 0.0005059979    1.179    0.151
       238 -12.9894    170.1514    160.2475   5.1513831422e+01   1.5424684366e+01    0.3199719    0.3006562 -49.58  0.001762863    1.114    0.103
       239 -13.4528     81.6391    157.9030   7.2603140065e+01   3.2334257051e+01    0.4971606    0.2531843 -62.69  0.001287114    1.934    0.483
       240 -10.6826    178.7924    160.6395   4.9732185634e+01   1.3608159193e+01    0.1928321    0.1378539  50.85 0.0002409317    1.499    0.333
       241 -12.0270    158.9926    160.0804   5.3964972760e+01   1.7707415393e+01    0.2210514    0.2135414  17.72 0.0003130033    1.018    0.018
       242 -11.3038     16.9552    175.5196   9.0727534948e+01   3.5989074216e+01    0.1564264    0.1162605  37.50 0.0005983613    1.525    0.344
       243 -11.2971    105.3394    158.6879   6.6657959978e+01   2.8266921056e+01    0.2670403    0.1679894  50.81 0.0006959842    1.663    0.398
       244 -11.9828    132.0228    157.3750   5.9739127136e+01   2.3640420160e+01    0.2530966      0.20922 -35.24 0.0007348355    1.286    0.222
       245 -11.5405    117.5085    157.5107   6.3355145876e+01   2.6354891428e+01    0.1461241     0.144694 -77.39 4.512891e-05    1.032    0.031
       246 -10.8400    205.0961    156.1642   4.3413340277e+01   9.2486185853e+00    0.1818733    0.1715867  87.28 0.0002873325    1.290    0.225
       247 -12.4002    121.7446    156.0092   6.1990811553e+01   2.5909982067e+01    0.2088023     0.192765 -58.81 0.0002037751    1.079    0.074
       248 -11.7820    112.2562    156.4094   6.4457433931e+01   2.7567633768e+01    0.2119339     0.135535  50.35 0.0009471443    1.628    0.386
       249 -13.0405     75.4735    155.4650   7.3787478693e+01   3.3838240547e+01    0.2954839    0.2223507  73.97  0.001536439    1.470    0.320
       250 -10.6089    155.7047    155.3369   5.3687542986e+01   1.9372869078e+01    0.1514879    0.1215741 -88.62 0.0004303636    1.649    0.394
       251 -12.1224    141.1982    154.0941   5.6823224282e+01   2.2564787196e+01    0.2893788    0.2178583 -69.66  0.001075097    1.605    0.377
       252 -12.0765      2.1959    153.3840   9.2113221419e+01   4.2256723709e+01    0.3407616    0.1807957 -89.01  0.001874517    1.686    0.407
       253 -11.5505    212.3725    153.7891   4.1512546906e+01   8.2731495076e+00    0.2041876    0.1266757 -29.53 0.0005708425    1.614    0.381
       254 -13.9284     49.4199    151.8652   8.0045595377e+01   3.8155525419e+01    0.5004459    0.3407694  50.34  0.001131822    1.546    0.353
       255 -12.4014     88.1101    152.7207   6.9983436844e+01   3.2559070959e+01    0.2547601    0.1951975 -75.12 0.0008019006    1.351    0.260
       256 -11.2082    232.4126    151.7665   3.7489983919e+01   4.8753077720e+00    0.1847107    0.1201322 -26.98 0.0002738969    1.479    0.324
       257 -10.4805    249.5123    151.5439   3.4629732199e+01   1.9068480086e+00     0.133548    0.1134344 -20.29 0.0001619867    1.031    0.030
       258 -13.9805     85.0530    148.3137   6.9967182618e+01   3.4096157903e+01    0.6179847    0.3319272 -52.71  0.001989462    1.763    0.433
       259 -12.9489     80.0343    146.9983   7.1066195263e+01   3.5188320529e+01    0.3230408    0.2491891 -27.79 0.0004245595    1.611    0.379
       260 -11.3998     79.5041    151.5220   7.2035529121e+01   3.4183562992e+01    0.1422751     0.131599 -80.55 9.404046e-05    1.010    0.010
       261 -12.4190    170.2959    150.0242   4.9224107956e+01   1.7484607783e+01    0.3847473    0.1864797  54.01  0.001407275    2.515    0.602
       262 -12.2262    147.5199    149.5803   5.4325739877e+01   2.2276170616e+01    0.3205571    0.2683189  82.24  0.001079183    1.456    0.313
       263 -12.4447    131.1096    150.3086   5.8459629127e+01   2.5403007524e+01     0.471004    0.1881786  31.70 0.0009869165    3.637    0.725
       264 -12.6519    108.5720    148.8621   6.3870576714e+01   2.9987758463e+01    0.3707902    0.2782516 -60.54   0.00083222    1.340    0.254
       265 -13.4718     97.7575    148.4962   6.6627621255e+01   3.1969954516e+01     0.395505    0.3781887 -80.02  0.001266021    1.006    0.006
       266 -11.7282    121.2262    146.7857   6.0175906964e+01   2.8117502392e+01    0.2059403    0.1796695 -11.51 0.0005449587    1.336    0.251
       267 -10.7137    229.3925    146.1371   3.6791883897e+01   6.3982401905e+00    0.1905708    0.1193565 -45.56 0.0003990818    1.587    0.370
       268 -10.5858    207.5499    146.4737   4.0802048761e+01   1.0554817355e+01    0.1458841    0.1325906 -13.81 4.487788e-05    1.054    0.051
       269 -12.8552     72.4189    145.8970   7.2921112913e+01   3.6580664106e+01    0.2455305    0.1896361  52.40 0.0007692484    1.361    0.265
       270 -12.4160    168.6133    144.9763   4.8445828406e+01   1.8873908363e+01    0.3994297    0.2220049  40.24            0    1.851    0.460
       271 -13.6310    101.3641    142.3199   6.4404363720e+01   3.2805216858e+01    0.7328441    0.3875926  53.96  0.001948714    2.306    0.566
       272 -10.4870    118.6579    143.7387   6.0169815366e+01   2.9306795305e+01    0.1488479    0.1203018  -1.47 0.0002435517    1.593    0.372
       273 -13.2678     57.1512    139.6849   7.6011462644e+01   4.0145154290e+01    0.3764595    0.2127248 -35.18  0.001642845    2.380    0.580
       274 -10.6894    230.6134    139.7864   3.5196367725e+01   7.2676114767e+00    0.1884683    0.1193936 -44.38 0.0003016084    1.514    0.339
       275 -12.0728    223.0348    139.7498   3.6486294618e+01   8.7248300233e+00    0.2485334    0.1875176 -30.29 0.0002721449    1.232    0.188
       276 -10.9171    189.2314    139.8070   4.2873078433e+01   1.5571473218e+01    0.2529898    0.1705476 -81.04 0.0009631191    2.843    0.648
       277 -11.7638    179.8231    135.0716   4.3708155452e+01   1.8503417424e+01    0.2209269    0.2140284 -32.33 0.0002582027    1.022    0.022
       278 -12.5712    118.4378    135.1719   5.8302825439e+01   3.1316300359e+01    0.3177985     0.289586 -59.41 0.0006836532    1.091    0.083
       279 -12.8444    103.0711    134.1707   6.2178200955e+01   3.4416948180e+01    0.3567382    0.2846836 -33.93 0.0008888963    1.352    0.260
       280 -12.4101     85.9944    134.7676   6.7014691764e+01   3.7184880645e+01    0.2654434    0.2169023 -64.23 0.0006654324    1.185    0.156
       281 -14.4091     81.6433    127.6104   6.6722726429e+01   3.9580192331e+01     0.554987    0.5008755 -31.64  0.001735357    1.165    0.142
       282 -13.3741     69.0649    131.1327   7.1063158363e+01   4.0613658669e+01    0.5993516    0.2771713 -31.45  0.001792996    4.827    0.793
       283 -12.7862     77.9794    133.5164   6.9006045795e+01   3.8736495582e+01    0.3935708    0.2431857  -7.18  0.001456314    3.380    0.704
       284 -11.9132    128.2473    133.8030   5.5446516636e+01   2.9689836295e+01    0.4092791     0.241638 -82.73  0.001141668    4.924    0.797
       285 -11.6718    236.9184    130.9437   3.2218536740e+01   7.5926121352e+00    0.2016785    0.1801412 -31.10 0.0003296331    1.012    0.011
       286 -11.8118     35.9874    119.7135   7.8638602415e+01   4.7334835496e+01    0.2332713    0.2121559  45.32  0.000521426    1.258    0.205
       287 -14.1305     46.4124    128.9628   7.7189700616e+01   4.4015855994e+01     0.560811    0.2721118  43.79  0.002416611    2.306    0.566
       288 -13.9243     44.3514    120.9446   7.6354965292e+01   4.6164480452e+01    0.5403054     0.351523 -38.94  0.002357157    1.631    0.387
       289 -10.4573    230.2817    130.6730   3.3234920136e+01   8.9086534760e+00    0.1379507    0.1044915 -62.03 0.0005271449    1.600    0.375
       290 -12.4372    206.5434    129.3758   3.7083419455e+01   1.3924064005e+01    0.2657303     0.246453 -51.11 0.0003196958    1.107    0.097
       291 -12.4347     64.9366    127.4617   7.1525216422e+01   4.2067026694e+01    0.2763051    0.1898136 -77.54  0.001123558    1.630    0.387
       292 -14.3875     60.3388    126.6005   7.2697123442e+01   4.2886853768e+01    0.5177922    0.4215437  71.66  0.002118311    1.390    0.281
       293 -11.2197    224.9106    128.8465   3.3720108714e+01   1.0279592030e+01    0.2028043    0.1785854 -10.08 0.0003297997    1.170    0.145
       294 -11.3928    121.8669    128.3389   5.5795486332e+01   3.2198585072e+01    0.2675863    0.2051739 -58.72 0.0006775559    1.360    0.265
       295 -10.5737    130.5114    128.4508   5.3587251346e+01   3.0426398531e+01    0.1522571    0.1499601 -25.25 6.915189e-05    1.018    0.018
       296 -13.6154     61.1164    133.5862   7.3805060372e+01   4.1105729929e+01     0.434468    0.3021317   9.93  0.002156125    1.973    0.493
       297 -13.2253     74.2287    126.2655   6.8575611254e+01   4.1031645944e+01    0.3915571    0.1989499 -58.77  0.001223003    1.870    0.465
       298 -11.1341    162.5920    127.1886   4.5558703352e+01   2.3848298626e+01     0.219718    0.1448302 -30.46 0.0008343239    1.672    0.402
       299 -12.2880    178.1150    125.0832   4.1660381768e+01   2.0863745543e+01    0.5044299    0.3262116  14.37  0.001933849    2.592    0.614
       300 -11.5443    188.9362    121.6723   3.8617044993e+01   1.9150558658e+01    0.2408686    0.2021323 -26.06 0.0002048852    1.212    0.175
       301 -11.1471    165.3422    122.0048   4.3656642349e+01   2.4306674987e+01    0.2172463    0.1938821 -44.36  0.000409693    1.104    0.094
       302 -12.1304     94.1250    117.2883   6.0754200901e+01   3.9929964605e+01    0.2708552     0.230699 -26.47  0.001418363    1.252    0.201
       303 -13.1860    104.1062    121.7017   5.8994426977e+01   3.7122206206e+01    0.5421063    0.2835973  41.11   0.00177519    1.975    0.494
       304 -12.5699     99.4513    118.0108   5.9405464885e+01   3.8818449431e+01    0.3583212    0.2661009  84.25 0.0009598534    1.910    0.476
       305 -12.9514     68.3061    122.2215   6.9457417472e+01   4.2850952671e+01    0.2814445    0.1931618  45.91  0.001082028    1.603    0.376
       306 -12.7009      9.1003     97.9885   8.3284264963e+01   5.4589402716e+01    0.3815892    0.1880943 -83.66  0.001771016    2.506    0.601
       307 -11.6342     15.1242    102.9863   8.2193431303e+01   5.3037677255e+01    0.2213044    0.1803572  -0.12  0.000712395    1.492    0.330
       308 -14.1054     11.2017    107.3533   8.4133007665e+01   5.2307670844e+01    0.9042003    0.5122936  81.02   0.00449957    2.376    0.579
       309 -13.5149      4.3453    119.3386   8.7862256166e+01   4.9986803390e+01    0.5165609    0.2951759 -75.37  0.002942741    1.455    0.313
       310 -13.5577     12.3174    117.9545   8.5375758875e+01   4.9769975079e+01    0.5908131    0.2157748  36.61  0.002703586    3.039    0.671
       311 -13.1845     19.7926    115.2077   8.2749454229e+01   4.9847552666e+01    0.5431297    0.3503673 -85.23  0.003014126    1.615    0.381
       312 -11.8776     24.0007    115.1492   8.1471881196e+01   4.9516197336e+01    0.3060804    0.2159608  63.48  0.001579097    1.705    0.413
       313 -12.7962     78.9413    120.3447   6.5902791785e+01   4.1720572065e+01    0.3230742    0.2062905 -71.08  0.001320108    1.876    0.467
       314 -11.2979    197.2742    120.6703   3.6755695919e+01   1.7520341152e+01     0.148777    0.1144387 -67.72 0.0004251559    1.591    0.371
       315 -11.1935    229.1565    119.3959   3.0882051695e+01   1.1079884135e+01     0.190371    0.1365478  68.04 0.0009556203    1.767    0.434
       316 -11.3484    224.2093    120.1266   3.1853676402e+01   1.1948762363e+01    0.2035166    0.1815552 -15.94 0.0003904315    1.146    0.127
       317 -12.4147     63.9222    118.6234   7.0002739008e+01   4.4311844023e+01    0.2421917     0.172052 -47.26 0.0004864162    1.307    0.235
       318 -12.3848     51.4184    116.3220   7.3322496257e+01   4.6452179037e+01    0.4887373    0.3016469  56.68  0.001738596    2.104    0.525
       319 -12.1698     58.7325    117.5727   7.1350612156e+01   4.5247715316e+01    0.2424567    0.1412755  23.99  0.001126984    2.068    0.516
       320 -12.0347    124.4017    114.4035   5.1642232414e+01   3.4783506440e+01    0.2652937    0.2476262 -67.38  0.001398403    1.122    0.109
       321 -11.7765    104.9278    114.1010   5.6879233504e+01   3.8698389301e+01    0.2668746    0.2160585 -52.95  0.001042278    1.216    0.177
       322 -12.8980     82.8496    112.4669   6.2897657734e+01   4.2938470848e+01     0.629684    0.1924764 -54.75  0.001985768    3.320    0.699
       323 -13.6330     64.0342    113.5123   6.8856413741e+01   4.5501792497e+01    0.5008503    0.2832691  31.14  0.002035186    1.965    0.491
       324 -13.9246     61.9218    110.3226   6.8795454959e+01   4.6533682269e+01    0.6531162    0.3937768 -38.82  0.003098932    1.715    0.417
       325 -10.9645    242.4387    112.5205   2.7307555913e+01   9.6312628823e+00    0.1366649    0.1192043 -38.61 5.929084e-05    1.007    0.007
       326 -10.6935    171.7052    112.6599   3.9907067306e+01   2.4751432350e+01    0.1558207    0.1219363   1.76 0.0007030033    1.656    0.396
       327 -13.7890    120.9011    107.0069   5.0618712780e+01   3.7107299546e+01    0.4752247    0.4173119 -14.18 0.0009796506    1.233    0.189
       328 -12.4049    109.8775    111.6345   5.4858700346e+01   3.8304912832e+01    0.2867739    0.2430556 -33.07 0.0004024267    1.191    0.160
       329 -12.9218     90.9221    109.6057   5.9784031776e+01   4.2242645081e+01    0.4381046    0.2781019 -27.94  0.001468773    1.979    0.495
       330 -11.6594     52.6979    110.7599   7.1772084761e+01   4.7608883472e+01    0.2573736    0.2129387  35.32 0.0008554839    1.353    0.261
       331 -11.8987    220.6003    109.3027   2.9939948807e+01   1.4580768464e+01    0.3267038    0.1745947  52.25  0.001447087    2.026    0.506
       332 -12.0384    209.9342    107.6347   3.1325073547e+01   1.7150763730e+01    0.2890954    0.2004412 -47.16 0.0008321669    1.386    0.278
       333 -13.0191      3.4032    106.4491   8.6390458483e+01   5.3012424144e+01    0.3097351    0.2581331 -80.96  0.001169558    1.152    0.132
       334 -10.4899    140.3246    107.6683   4.5795930954e+01   3.2814540131e+01    0.1588986    0.1242662 -83.73 0.0007050647    1.706    0.414
       335 -10.3142    105.2962    107.3015   5.5011914144e+01   4.0144576271e+01    0.1502815    0.1175807 -10.53 0.0002019248    1.577    0.366
       336 -11.0884     77.1297    107.1128   6.3322278269e+01   4.5075077405e+01    0.1879727    0.1673768  80.36            0    1.309    0.236
       337 -10.9977    230.0032    103.2365   2.7061230525e+01   1.3660836848e+01    0.1830382    0.1728698 -55.43 0.0002285771    1.062    0.059
       338 -12.7104    166.0981    100.4680   3.7922251398e+01   2.8403052599e+01     0.466906    0.1787168 -49.06  0.001491839    3.039    0.671
       339 -12.4335     78.8308    101.4348   6.1358463025e+01   4.6093002702e+01    0.2987186    0.2365288  59.20 0.0006557325    1.532    0.347
       340 -13.0482     93.2502     99.3257   5.6387449917e+01   4.4121367196e+01    0.4363182    0.3082816  53.05  0.002084837    1.641    0.391
       341 -11.7267     31.6991     98.9951   7.6061470872e+01   5.2588921894e+01    0.4296953    0.1523938 -40.35  0.001615276    3.211    0.689
       342 -12.1102    168.4349     96.7291   3.6428596446e+01   2.8569179447e+01    0.2645139    0.1887581  -2.57   0.00111805    2.072    0.517
       343 -11.1261    178.7604     97.9796   3.4653718117e+01   2.5934326688e+01    0.2031282    0.1249479 -38.18 0.0004683312    1.593    0.372
       344 -11.4791    151.4345     98.2369   4.0580793974e+01   3.2215580316e+01    0.2277431     0.141627 -51.48 0.0009525018    1.737    0.424
       345 -12.1076     23.9740     97.5741   7.8332764611e+01   5.3592846089e+01    0.3926807    0.1667901  39.71  0.001790255    2.847    0.649
       346 -12.8263     81.8528     96.6162   5.9139847338e+01   4.6672118498e+01    0.4129596    0.2462359 -33.00    0.0018222    1.858    0.462
       347 -11.9438     58.5644     96.7321   6.6653057926e+01   5.0095798394e+01    0.3349463    0.1926508 -28.95  0.001483242    2.164    0.538
       348 -11.9578     98.8442     94.9614   5.3511078673e+01   4.4036200216e+01    0.2984286    0.1929505 -51.81 0.0008783969    1.585    0.369
       349 -11.7803     97.3187     90.6579   5.2735800475e+01   4.5226629848e+01    0.3054255    0.2086406 -71.50  0.001304408    2.233    0.552
       350 -13.0298    208.1792     99.6675   2.9696321344e+01   1.8938383112e+01    0.2966962    0.2824364 -37.33 0.0004825849    1.046    0.044
       351 -12.1314     78.8245     92.4599   5.8957647576e+01   4.8071087856e+01    0.2433614    0.1628682 -41.97 0.0008556865    1.399    0.285
       352 -12.1459     62.5144     92.5240   6.4276315740e+01   5.0501821894e+01    0.2680491    0.1301214 -56.36 0.0008255687    2.033    0.508
       353 -11.2775     59.4737     91.4639   6.5011516949e+01   5.1148904226e+01    0.2077128    0.1944954 -35.55 5.487664e-05    1.058    0.055
       354 -12.5683    207.3506     90.8488   2.7675381109e+01   2.0643389773e+01    0.3452995     0.239579 -34.96  0.001556001    1.402    0.287
       355 -11.7423    184.7010     91.9898   3.1941610843e+01   2.5639887763e+01    0.2628799    0.1592174 -84.29 0.0009004199    3.325    0.699
       356 -11.2461    244.9187     91.2012   2.2246656680e+01   1.2600732263e+01    0.1927001    0.1596226 -58.20 0.0003294074    1.146    0.128
       357 -12.8577    230.2372     89.5967   2.3887474953e+01   1.5864219828e+01    0.2744208    0.2463304 -49.56 0.0004670911    1.006    0.006
       358 -11.1768    220.2276     89.8342   2.5407266211e+01   1.7966888606e+01    0.2064992    0.1743515 -60.63 0.0003820191    1.159    0.137
       359 -12.8402     70.7973     89.9091   6.0844611436e+01   4.9877022206e+01    0.2857991    0.1939401  41.69  0.001439181    1.628    0.386
       360 -11.7630     28.7007     90.4110   7.5258051557e+01   5.4806797088e+01    0.2223262    0.1185808  29.69  0.001139513    2.143    0.533
       361 -11.5928     11.4194     87.0294   8.0537138577e+01   5.6899543022e+01     0.284598    0.1696423  19.17  0.001528378    2.016    0.504
       362 -11.8817      5.2495     87.2107   8.2694594050e+01   5.7242695847e+01    0.3259592    0.1879481 -40.92   0.00147316    1.571    0.364
       363 -12.5633    149.5421     86.2291   3.7658694782e+01   3.4939254755e+01    0.5531704    0.2091816 -33.56    0.0017943    3.032    0.670
       364 -11.7809    162.6126     87.1980   3.5060894232e+01   3.1696070849e+01    0.2104724    0.1449711 -26.17 0.0004171647    1.629    0.386
       365 -12.2016     54.4034     85.8256   6.5244636283e+01   5.3043745755e+01    0.4718835    0.3695663  -5.49  0.002675964    1.419    0.295
       366 -12.4761     60.7456     85.4807   6.2980444839e+01   5.2279018201e+01    0.4016677    0.1723854 -42.87  0.001658982    2.164    0.538
       367 -12.8154     65.2881     82.6670   6.0648438393e+01   5.2237117922e+01    0.3327346    0.2199333  48.63 0.0008428563    1.869    0.465
       368 -11.1973    178.5125     86.5335   3.1678036440e+01   2.8058542239e+01    0.1483368    0.1432753 -68.96   1.8506e-05    1.016    0.016
       369 -11.3889    125.2212     85.3529   4.3346410877e+01   4.0610937990e+01    0.3075448    0.2420478  -4.96  0.001476727    1.541    0.351
       370 -12.9834     77.3805     83.1056   5.6754734976e+01   5.0286516821e+01    0.4903517    0.3332064 -44.40  0.002475005    1.381    0.276
       371 -10.6495     35.4500     86.3911   7.1992517688e+01   5.5065694829e+01    0.1288081      0.10918 -41.78 0.0001799564    1.027    0.027
       372 -12.8316    110.9523     83.6694   4.6712076348e+01   4.3963148636e+01    0.4289818    0.2603203  47.49  0.001463955    1.698    0.411
       373 -10.3661    216.3271     83.2583   2.4421836998e+01   1.9902252554e+01    0.1330501    0.1093169  23.03 0.0001730238    1.558    0.358
       374 -11.9992    171.1663     83.1971   3.2208954055e+01   3.0384710286e+01    0.2248286    0.2050047  14.66 0.0006082091    1.225    0.183
       375 -12.4339    182.2463     80.3337   2.9326121745e+01   2.8247050422e+01    0.3887289     0.209728 -31.44 0.0008468986    1.980    0.495
       376 -11.2406    206.5087     80.5458   2.5264941581e+01   2.2553427640e+01    0.1415408     0.133426 -60.15 6.048151e-05    1.016    0.016
       377 -11.5410    153.8567     80.1160   3.4949255660e+01   3.5035444653e+01    0.2049641    0.1782934  10.20 0.0003711113    1.311    0.237
       378 -11.8920     87.9197     79.1292   5.2183763967e+01   4.9294465686e+01    0.3017074     0.247023  53.74 0.0009009127    1.425    0.298
       379 -11.5386     29.1933     79.7205   7.2620361287e+01   5.7116674064e+01    0.2232129    0.1876926  56.60  0.001409208    1.546    0.353
       380 -12.2204    112.0804     75.6087   4.3926888101e+01   4.5266332069e+01    0.4922283    0.2567024 -47.40 0.0004344363    2.068    0.517
       381 -11.3760    115.5542     74.4949   4.2624397813e+01   4.4737394450e+01    0.2446444    0.1911108  36.08 0.0006792075    1.283    0.221
       382 -11.2062     51.6703     79.0225   6.4340280785e+01   5.4843042124e+01    0.1898133     0.154757 -45.82 0.0004958849    1.120    0.107
       383 -12.7665    215.0729     75.8558   2.2821264130e+01   2.1370285135e+01    0.3704565     0.220874 -33.39 0.0008899344    1.667    0.400
       384 -12.3085    188.1704     77.8364   2.7608262235e+01   2.7263755347e+01    0.2716108    0.2308917  13.27 0.0007411613    1.450    0.310
       385 -11.0455      8.3377     78.2945   7.9890705181e+01   5.9011871500e+01    0.1278773   0.07072717 -37.98 0.0007028611    1.649    0.394
       386 -12.5576    169.5592     74.8477   3.0224491751e+01   3.2201180630e+01    0.3171366    0.2548925 -50.61 0.0006059403    1.262    0.207
       387 -12.0409    160.6703     75.5400   3.2196940451e+01   3.4212673431e+01    0.3508987    0.2088904 -65.91  0.001330424    2.619    0.618
       388 -11.8399     75.0597     75.5303   5.5236472651e+01   5.2202140241e+01    0.2758237    0.1980904 -43.80 0.0005972548    1.325    0.246
       389 -10.7985     19.1392     76.3283   7.5500052053e+01   5.8689358131e+01    0.2282092    0.1132499   5.99  0.001065006    2.718    0.632
       390 -11.3462     85.7096     75.1063   5.1635102516e+01   5.0479213404e+01    0.1978805    0.1742226 -23.40 0.0004939442    1.067    0.063
       391 -12.9543     51.1745     71.8757   6.2458300166e+01   5.6385454749e+01    0.4673747    0.2683322 -40.66  0.001416686    1.551    0.355
       392 -11.4394     47.9829     67.5151   6.2320938592e+01   5.7661277749e+01    0.2586369    0.1867969  15.28 0.0009225093    1.492    0.330
       393 -12.4372      3.0190     73.5944   8.0876207680e+01   6.0332904779e+01     0.310026    0.1418073 -47.61  0.001421606    1.679    0.404
       394 -11.5095      1.7795     68.2563   8.0224175123e+01   6.1530523859e+01    0.2676379    0.1577975 -74.20  0.001533244    1.800    0.445
       395 -11.2244    105.3269     72.9709   4.5007686848e+01   4.7146863927e+01    0.2082847    0.1836378 -24.02 0.0006807707    1.111    0.100
       396 -11.4489    181.7509     70.6863   2.6832969583e+01   2.9960841810e+01    0.2967589    0.1765283  84.35  0.001161735    2.544    0.607
       397 -10.6928    247.0177     69.0761   1.7132402885e+01   1.5564336258e+01    0.1606418    0.1292086 -47.85 0.0005825417    1.083    0.076
       398 -10.8815    101.0523     69.7843   4.5232104469e+01   4.8589853351e+01    0.1838514    0.1152706  44.74 0.0003165965    1.609    0.379
       399 -11.2410     94.0872     68.7625   4.6989367498e+01   5.0134785212e+01    0.1983477    0.1951828 -88.80 0.0007129571    1.196    0.164
       400 -11.4870    203.0509     66.5603   2.2301829907e+01   2.5569932894e+01    0.2048373     0.181101 -48.32 0.0003068753    1.090    0.083
       401 -10.9699     88.9966     66.9840   4.7984247754e+01   5.1416386927e+01    0.2035526    0.1744833 -77.18 0.0003728933    1.598    0.374
       402 -11.9462    199.1355     65.6061   2.2651572071e+01   2.6631300685e+01    0.2370825    0.1815919 -51.47 0.0004944889    1.260    0.206
       403 -11.7637     60.1491     67.1509   5.7761107690e+01   5.6119706233e+01    0.2002973    0.1616476 -19.64 0.0003301332    1.160    0.138
       404 -12.0032    178.6760     64.2373   2.5624732824e+01   3.1719331824e+01    0.2451682    0.2366904  39.60 0.0003209315    1.113    0.102
       405 -11.7540    110.0439     64.0418   4.0795638915e+01   4.7755735600e+01     0.211967    0.1996823   5.22 0.0003268304    1.013    0.013
       406 -11.9106    109.0054     60.0230   3.9756499428e+01   4.8650128621e+01    0.2574312    0.2159043 -51.05 0.0007189664    1.352    0.260
       407 -12.1449     44.7469     62.6154   6.2024981598e+01   5.9019044969e+01    0.2532856    0.2051558  32.24  0.001435957    1.414    0.293
       408 -10.7167     63.3090     61.6775   5.4846171283e+01   5.6699682784e+01    0.1234387    0.1090373 -85.78 0.0004110039    1.647    0.393
       409 -11.5543     13.8771     60.6645   7.3648380067e+01   6.2346385891e+01    0.2362542    0.1274989 -47.32  0.001340353    1.440    0.306
       410 -11.7058     98.6985     59.4335   4.2500989427e+01   5.0870925248e+01    0.2468734    0.1668879 -13.52  0.001165492    1.778    0.438
       411 -11.6843     33.8135     57.8703   6.4806950748e+01   6.1159335776e+01    0.2010399    0.1748643   0.91 0.0007175173    1.189    0.159
       412 -13.5376     30.6442     50.6648   6.3782337151e+01   6.2849871079e+01    0.4826048    0.2863738 -32.99  0.002734636    1.473    0.321
       413 -10.8471     18.0000     57.9280   7.1226331878e+01   6.2586086460e+01     0.198486    0.0579236 -56.08  0.000795317    2.893    0.654
       414 -11.8324    192.8475     57.2004   2.1445217863e+01   2.9379041309e+01    0.2213755    0.1844875 -75.45  0.000960975    1.205    0.170
       415 -11.5428    160.1706     57.4101   2.7076531568e+01   3.7244928222e+01     0.201014    0.1366003  72.69  0.000543986    1.623    0.384
       416 -12.1120     52.2379     55.4880   5.6831833661e+01   5.9412249056e+01    0.3929835    0.2978874  81.47  0.001954746    2.761    0.638
       417 -11.0930    120.6911     56.7035   3.5568376284e+01   4.6640673482e+01    0.1465854    0.1078897  18.68  0.000241246    1.592    0.372
       418 -12.1538    105.9143     56.0266   3.9272166236e+01   4.9951489880e+01    0.2082951    0.1959081   9.61  0.000286452    1.020    0.019
       419 -11.1573    126.4201     54.1697   3.3328608555e+01   4.5736630304e+01      0.20359    0.1304379 -45.56 0.0009449943    1.719    0.418
       420 -11.1169    115.6071     53.7884   3.5905407139e+01   4.8220954965e+01    0.1879087    0.1317536 -42.88  0.000368872    1.534    0.348
       421 -10.6192    217.5297     55.4906   1.7594108068e+01   2.3884024987e+01    0.1345932    0.1218078 -68.07 8.897459e-05    1.019    0.019
       422 -10.8800     99.6346     54.2991   4.0469434637e+01   5.1524064260e+01    0.1364953    0.1137128 -86.61 4.809473e-05    1.727    0.421
       423 -12.4608    142.1366     52.4680   2.9229152570e+01   4.2317922807e+01    0.2446346    0.2336842 -25.14 0.0002752975    1.094    0.086
       424 -12.5940     37.1846     51.6427   6.1429122016e+01   6.1971945514e+01    0.2431159    0.1851167 -39.27 0.0006562096    1.182    0.154
       425 -11.0810    100.7604     50.7443   3.8909588607e+01   5.1852141640e+01    0.2143407     0.104245 -45.32 0.0005210881    2.404    0.584
       426 -11.1766      1.4356     51.2965   7.6333328140e+01   6.5000442067e+01    0.1460627   0.09670781 -63.55 0.0006238659    1.485    0.327
       427 -10.8187    222.9579     49.9863   1.5635843781e+01   2.3437821409e+01    0.1578611    0.1393356 -76.03 0.0003526016    1.035    0.034
       428 -11.6966     19.0350     48.4035   6.7948204926e+01   6.4344509528e+01    0.2305129    0.1568064 -51.24    0.0008344    1.372    0.271
       429 -10.7895    113.6865     47.3394   3.4220572812e+01   4.9607466306e+01    0.1386945    0.1113196 -72.51 0.0007046853    1.697    0.411
       430 -14.3684     36.8390     40.7737   5.7720213722e+01   6.3933039429e+01    0.4550239     0.370838 -43.88  0.001616073    1.375    0.273
       431 -11.7788    142.9401     45.5156   2.6898629696e+01   4.3111739433e+01    0.2642807    0.2017334   2.54 0.0009220284    1.622    0.383
       432 -10.9808    175.3336     44.6699   2.0805319787e+01   3.5365073345e+01    0.1490154    0.1015245 -69.75 0.0007052078    1.724    0.420
       433 -11.1701    226.9570     43.4956   1.3689937212e+01   2.3429973826e+01    0.1834213    0.1216013  72.93 0.0004171655    1.504    0.335
       434 -10.5621    203.2742     43.6848   1.6546054404e+01   2.8801474779e+01    0.1394026   0.09315199 -64.77 0.0002365637    1.562    0.360
       435 -10.6628    159.3167     43.3292   2.3114961008e+01   3.9447519916e+01    0.1452494     0.104497  29.51   0.00069544    1.681    0.405
       436 -11.9338    118.3919     41.1356   3.0925128702e+01   4.9426293913e+01    0.3453107    0.2392319  33.26  0.001759755    1.475    0.322
       437 -13.5510    135.7765     38.8279   2.6256894313e+01   4.5705235958e+01    0.3214264    0.3072519  32.71 0.0007768284    1.050    0.048
       438 -12.5596     25.4810     37.4414   6.1380579365e+01   6.5727116653e+01    0.2082993    0.1555405  -3.31 0.0007675578    1.243    0.195
       439 -10.4219    241.6906     40.2749   1.1463388001e+01   2.0677833376e+01    0.1296446   0.08112779 -66.25 0.0002200505    1.552    0.356
       440 -11.0849    130.9900     40.9792   2.7975136740e+01   4.6551590758e+01    0.2042637     0.187497  73.98 0.0004412444    1.147    0.128
       441 -11.3454    103.1295     39.8840   3.4397258423e+01   5.2934785318e+01    0.1995145    0.1930364  81.95  0.001226684    1.234    0.190
       442 -11.9011     53.3623     38.0701   5.0014332262e+01   6.2203933901e+01    0.2081115    0.1712624  23.05  0.000381347    1.224    0.183
       443 -10.3754     78.2808     37.2679   4.0822382660e+01   5.8216760901e+01     0.129966   0.09202936  11.64 0.0002409672    1.489    0.328
       444 -13.1881    105.9002     32.8979   3.1145712979e+01   5.3252461117e+01    0.6448473    0.3004315  35.22  0.002656896    2.440    0.590
       445 -11.5226    230.2074     34.7961   1.1395757211e+01   2.3843679289e+01    0.1887388      0.14906 -68.21 0.0004563042    1.110    0.099
       446 -12.7371     44.0411     33.8071   5.2034044434e+01   6.4162203778e+01    0.3077823    0.2528602  35.41 0.0005324116    1.470    0.320
       447 -12.7852     31.8648     32.1099   5.6520244169e+01   6.5928732187e+01    0.3630343    0.2411921 -34.55  0.002267083    1.320    0.242
       448 -11.1859     14.3106     33.6753   6.5077095910e+01   6.7388512429e+01    0.0974199   0.09239029 -83.66 0.0004717323    1.656    0.396
       449 -11.3884    134.9069     31.4178   2.4041823550e+01   4.6825281984e+01    0.3368352    0.1563203 -23.48  0.001410009    2.511    0.602
       450 -12.9014     78.2949     30.8330   3.8304411974e+01   5.9089013910e+01    0.2661023    0.2486753 -55.75   0.00111216    1.436    0.304
       451 -11.0411      8.7301     31.9519   6.7083931328e+01   6.8122188652e+01    0.1577747    0.1158467 -33.60 0.0002913326    1.072    0.067
       452 -11.9843    207.9536     29.5112   1.2523386629e+01   2.9509340371e+01    0.2891907    0.2036654 -69.58  0.001155985    1.384    0.278
       453 -10.6835    211.3176     28.3191   1.1871204206e+01   2.8877386596e+01    0.1839961    0.1192897  56.07 0.0003240868    1.619    0.382
       454 -11.8897     19.2192     29.8784   6.1364300115e+01   6.7595996890e+01    0.1958449    0.1489203 -21.07 0.0005976158    1.017    0.017
       455 -11.9691    159.5203     31.0325   1.9473853285e+01   4.0940917611e+01    0.2481355    0.1846661  64.50 0.0003275441    1.233    0.189
       456 -12.6042     46.3863     26.1184   4.7901420648e+01   6.4972901541e+01    0.2784654    0.2289375  23.28  0.000940914    1.249    0.199
       457 -10.9107    221.0202     25.3025   1.0177124964e+01   2.7037257555e+01    0.1736141    0.1449102 -87.84 0.0003549828    1.078    0.072
       458 -11.7763    162.1261    247.1129   6.8582393093e+01   9.6960366268e-01    0.2074356    0.1721011  16.27 0.0005330078    1.191    0.161
       459 -12.4576     67.7124     23.5146   3.8827763358e+01   6.1927489434e+01    0.3880299    0.1441556 -37.29   0.00166023    2.884    0.653
       460 -11.7296    238.0391     22.8699   8.0892500310e+00   2.3610954951e+01    0.1854687    0.1507278 -72.48 0.0003951655    1.024    0.024
       461 -12.0296    166.2239     22.2631   1.5924343868e+01   4.0300863171e+01     0.228743    0.2009071 -85.60 0.0002373846    1.104    0.094
       462 -11.1957     37.2610     23.6420   5.0654399252e+01   6.6553899199e+01    0.1038259    0.0921293 -45.01 0.0006977475    1.625    0.385
       463 -12.0655     92.0886     16.4918   2.8579185482e+01   5.8030685677e+01     0.218191    0.1792137  -9.04 0.0003696486    1.251    0.201
       464 -11.2456     80.2919    246.2839   8.4335451415e+01   1.3554746304e+01    0.1586657    0.1087802  62.55 0.0003355581    1.281    0.219
       465 -10.7328     31.4920     16.0151   4.9806084588e+01   6.8332143551e+01    0.1633529   0.09820268 -29.19 0.0003476967    1.484    0.326
       466 -10.3764    147.2862    245.6407   7.1264502101e+01   3.5453071136e+00    0.1215949   0.09059457  66.95 0.0005137619    1.681    0.405
       467 -10.8323    180.7639    243.9848   6.4539425222e+01  -1.4783068467e+00    0.1821111    0.1206134  48.87  0.001034596    1.635    0.388
       468 -10.3607     44.5774    248.3827   9.1075851882e+01   1.7810665649e+01     0.105631   0.08975507  66.78            0    1.184    0.156
       469 -11.6829    124.9722    249.5748   7.6109749843e+01   6.3821657382e+00    0.1919387    0.1677282 -27.68 0.0004263434    1.468    0.319
       470 -10.9753     52.6384    243.3264   8.9240475068e+01   1.7763977901e+01    0.1265342   0.09754856 -77.00 0.0001306755    1.353    0.261
       471 -11.2098    135.0189    241.4760   7.3124333950e+01   6.1832813463e+00    0.1754309    0.1662031  51.03 0.0004653774    1.124    0.110
       472 -11.3695     60.3751    241.8687   8.7687821907e+01   1.7054347036e+01    0.1503436    0.1207996  84.61 0.0003775697    1.159    0.137
       473 -10.7303     47.4503    241.7672   9.0070683947e+01   1.8699555412e+01    0.1407899   0.09796275 -66.53  0.000931371    1.585    0.369
       474 -10.4789    198.9814    242.0000   6.0780925242e+01  -3.9970816856e+00    0.2013031   0.06017241  38.19 0.0006728288    2.894    0.655
