#   1 NUMBER                 Running object number                                     
#   2 MAG_AUTO               Kron-like elliptical aperture magnitude                    [mag]
#   3 X_IMAGE                Object position along x                                    [pixel]
#   4 Y_IMAGE                Object position along y                                    [pixel]
#   5 X_WORLD                Barycenter position along world x axis                     [deg]
#   6 Y_WORLD                Barycenter position along world y axis                     [deg]
#   7 A_WORLD                Profile RMS along major axis (world units)                 [deg]
#   8 B_WORLD                Profile RMS along minor axis (world units)                 [deg]
#   9 THETA_WORLD            Position angle (CCW/world-x)                               [deg]
#  10 FWHM_WORLD             FWHM assuming a gaussian core                              [deg]
#  11 ELONGATION             A_IMAGE/B_IMAGE                                           
#  12 ELLIPTICITY            1 - B_IMAGE/A_IMAGE                                       
         1 -12.9830    209.0220     11.5314   5.3483642045e+01   3.0909727395e+01     1.764293    0.9287276 -44.91  0.008117046    1.852    0.460
         2 -13.1078    175.9025     42.4159   6.7271119368e+01   3.5784317962e+01    0.9845623    0.9101967 -30.06  0.001701818    1.095    0.086
         3 -13.6470    193.6520     22.8609   5.8558737886e+01   3.3622705606e+01     1.735287    0.9600297 -15.44  0.001339515    2.139    0.532
         4 -13.2233    186.4479     33.0422   6.2650251556e+01   3.4276667851e+01     1.138274      1.04825 -17.49  0.003113811    1.136    0.119
         5 -12.5869    224.9853     19.1411   5.3890925657e+01   2.6115037272e+01    0.7602138    0.4957483  87.37  0.003385457    1.612    0.379
         6 -10.4677     57.3595      3.8836   8.2145038207e+01   6.7097600244e+01    0.3560227    0.1052797 -29.08  0.001403307    3.170    0.685
         7 -11.9694    182.3753    233.4677   1.0942851825e+02   2.9957980230e+00    0.3904867    0.2980131  52.58  0.002663385    1.355    0.262
         8 -19.4796     15.6532    137.8704   1.3168582351e+02   4.4514267378e+01     17.15813      2.63948 -74.24   0.05208122    5.869    0.830
         9 -11.4698    209.2551    182.3468   9.6311100374e+01   5.3650528787e+00    0.6471034    0.4151838  -7.66  0.003266018    2.001    0.500
        10 -10.0116     99.5097    180.5487   1.1800795648e+02   2.5297393768e+01    0.2198877    0.1904778  65.31 0.0006482555    1.028    0.028
        11 -11.1793    197.4912    174.0002   9.6909051214e+01   8.8162784695e+00    0.7067117    0.3454264 -47.87  0.003063136    2.598    0.615
        12  -9.5595    228.6342    171.3244   9.0713083448e+01   3.3892602826e+00    0.1221192    0.1074432 -87.50 0.0001284761    1.796    0.443
        13 -10.2437    145.8520    168.8417   1.0632729008e+02   1.9588814375e+01    0.2067696     0.188396  15.98 0.0007526413    1.222    0.182
        14  -9.3441    111.4393    168.4656   1.1368827620e+02   2.5790979902e+01    0.2470425    0.1068807  50.97  0.001030545    2.313    0.568
        15 -11.3487    136.5968    171.4865   1.0875201354e+02   2.0795456748e+01    0.4508552    0.2464653  43.93  0.002144572    1.678    0.404
        16 -16.5136     53.0235    232.5084   1.3181571647e+02   2.2092320076e+01     5.432016     2.646967  44.20   0.01772473    1.709    0.415
        17 -11.9294     97.1087    156.9766   1.1508492459e+02   3.0513726942e+01    0.6058375    0.4393192 -30.66   0.00315597    2.027    0.507
        18  -9.6841    141.3852    158.1754   1.0533047775e+02   2.2478021092e+01    0.2442373    0.2015111  63.69 0.0003187352    1.239    0.193
        19  -8.8039    151.6478    151.3240   1.0174686075e+02   2.1815492265e+01    0.1477365    0.1115989  80.84 0.0007047751    1.757    0.431
        20 -10.7020    133.6564    144.0388   1.0430206284e+02   2.6793971221e+01     1.064039    0.2622295 -54.02  0.002716525    5.824    0.828
        21  -9.4828    174.6269    149.1801   9.6409274753e+01   1.7553652348e+01    0.1984525    0.1349815 -28.54 0.0003788256    1.665    0.400
        22 -10.2755    144.5912    146.4086   1.0230490379e+02   2.4179802520e+01    0.4618348    0.2624326 -72.93  0.001606732    3.617    0.724
        23 -11.2113    108.1112    141.2375   1.0976868394e+02   3.2064874463e+01    0.5148053    0.3446411 -28.57  0.002370736    2.242    0.554
        24 -11.6436     96.3000    141.9211   1.1274760752e+02   3.3891335918e+01    0.2670399    0.2628407 -12.01 0.0004452272    1.215    0.177
        25 -10.2908    116.1226    211.9371   1.1867819163e+02   1.6911555024e+01     0.294239     0.196891  81.65 0.0009617501    1.811    0.448
        26 -10.1688    120.4119    129.7971   1.0447457797e+02   3.2309362099e+01    0.2860823    0.1842416 -46.20  0.001350445    1.577    0.366
        27 -10.7674    115.1952    131.2145   1.0605384866e+02   3.2971929029e+01    0.3160664      0.26035 -32.96 0.0008258659    1.398    0.285
        28 -11.1542    119.6021    125.4863   1.0373594404e+02   3.3387806280e+01    0.5459744    0.3198366 -23.72  0.001966098    3.341    0.701
        29 -10.9308    104.3592    128.9796   1.0828878905e+02   3.5387844329e+01    0.5923424    0.3886132  87.04  0.001121678    2.241    0.554
        30  -9.4829    161.4401    128.1396   9.4523277298e+01   2.4295479482e+01    0.2830506    0.2010101  87.42  0.001195737    2.248    0.555
        31  -9.8972    125.1484    127.2086   1.0275352063e+02   3.1958644705e+01    0.2770694    0.1905756 -79.78  0.001224641    2.033    0.508
        32 -10.3141    136.6340    124.2693   9.9314646322e+01   3.0294410866e+01    0.4215247    0.3530162 -28.32   0.00171671    1.325    0.245
        33  -9.7042    110.6777    119.9797   1.0476142371e+02   3.6240906709e+01    0.2353002     0.203547  47.11 0.0009506798    1.183    0.154
        34 -11.1079     66.5627    115.3879   1.1556423158e+02   4.4239685448e+01     0.417601    0.2099877 -73.68  0.001788436    2.359    0.576
        35  -9.4130    167.7660    112.6767   8.9344773725e+01   2.5872314014e+01    0.3671038    0.2505479 -88.13  0.001428943    2.601    0.615
        36  -9.4006    205.5629    110.2088   8.1130524576e+01   1.7672553559e+01    0.2672446    0.2071498  48.73 0.0005864177    1.314    0.239
        37 -10.1838    140.4826    218.9628   1.1500115551e+02   1.1869895615e+01    0.3343785    0.1760554 -74.26   0.00141985    4.066    0.754
        38  -8.5497    134.5002    102.4997   9.4431088694e+01   3.5249046087e+01     0.148964    0.1470166 -41.55 4.438336e-06    1.004    0.004
        39  -9.5400    105.6230    201.7813   1.1947581234e+02   2.0326595129e+01    0.3962126    0.1459294  38.75  0.001727474    2.597    0.615
        40 -11.9572    194.6069    194.0034   1.0111506744e+02   6.3249764900e+00    0.7140942    0.5999232  69.96  0.004167782    1.593    0.372
        41  -9.7720    113.0324    195.9883   1.1729081651e+02   2.0220642231e+01    0.3240159    0.2193831   6.60  0.001470685    3.371    0.703
        42 -11.2464    170.3546     69.8850   7.6827636629e+01   3.3002735287e+01    0.5110035    0.3482074 -79.75  0.001337985    2.254    0.556
        43 -10.9809    177.8152    217.7365   1.0800222163e+02   5.8458513532e+00    0.3830509    0.1378276  49.30  0.001599342    2.780    0.640
        44  -9.9573    168.2533    248.0167   1.1371706849e+02   3.3846791822e+00    0.1478183    0.1236397  40.17 0.0003146248    1.108    0.098
        45 -10.3265    173.7397    246.7244   1.1263405973e+02   2.6974691438e+00    0.1675725    0.1552528  30.51 0.0007494674    1.231    0.187
        46 -10.9935    183.3847    215.3016   1.0663260182e+02   5.2454350433e+00    0.2407302     0.210884 -59.23  0.001639504    1.513    0.339
        47 -10.5749    177.8817    237.8566   1.1079454118e+02   3.1549592358e+00    0.1749953    0.1326298  26.10 0.0005258404    1.240    0.194
        48 -11.2530    197.8823    235.2578   1.0701385198e+02   3.0577926536e-01    0.4648986    0.2380341  31.05  0.002040216    1.759    0.431
