#   1 NUMBER                 Running object number                                     
#   2 MAG_AUTO               Kron-like elliptical aperture magnitude                    [mag]
#   3 X_IMAGE                Object position along x                                    [pixel]
#   4 Y_IMAGE                Object position along y                                    [pixel]
#   5 X_WORLD                Barycenter position along world x axis                     [deg]
#   6 Y_WORLD                Barycenter position along world y axis                     [deg]
#   7 A_WORLD                Profile RMS along major axis (world units)                 [deg]
#   8 B_WORLD                Profile RMS along minor axis (world units)                 [deg]
#   9 THETA_WORLD            Position angle (CCW/world-x)                               [deg]
#  10 FWHM_WORLD             FWHM assuming a gaussian core                              [deg]
#  11 ELONGATION             A_IMAGE/B_IMAGE                                           
#  12 ELLIPTICITY            1 - B_IMAGE/A_IMAGE                                       
         1 -12.3386    185.7010     29.8883   6.7583289098e+01   3.4989155108e+01    0.8487552    0.7588581 -88.04  0.003102158    1.062    0.058
         2 -12.2925    193.5777     18.1237   6.3598493788e+01   3.4423288274e+01    0.6828324    0.6302566  78.05  0.001620093    1.154    0.134
         3  -9.0366     59.8442      2.8265   8.6654811806e+01   6.5252573860e+01    0.1442171    0.1303478   7.99 0.0006074549    1.323    0.244
         4 -10.4838     71.3048    246.1098   1.3896324706e+02   1.4719191810e+01    0.4481774    0.3259931  63.41  0.002617767    1.079    0.074
         5 -13.6177    112.5296    228.6291   1.2892397385e+02   1.1660773913e+01     3.320581    0.5863158  41.65   0.00966951    4.633    0.784
         6 -11.6874     96.7721    243.7348   1.3390061589e+02   1.1312346087e+01    0.5826164    0.2809913  49.08  0.002229268    1.715    0.417
         7 -13.6649    136.5522    248.9069   1.2673022029e+02   3.7598017287e+00     3.369076    0.8205805  41.99   0.01176015    3.338    0.700
         8 -10.7260     62.7493    249.9417   1.4085929131e+02   1.5198938084e+01    0.3659629    0.1796985  62.16 0.0005929358    1.818    0.450
         9 -19.3156     15.1323    127.9712   1.3818988826e+02   4.7461490115e+01     17.96652     1.423921 -68.43   0.03546205   11.769    0.915
        10  -9.7607     96.6388    237.3226   1.3320676218e+02   1.2569486900e+01    0.2073595    0.1268163  68.39 0.0008006315    1.674    0.403
        11  -8.9808     71.5745    236.4121   1.3798929810e+02   1.6577134278e+01    0.2210357    0.1580677  88.99 0.0009178343    1.292    0.226
        12  -8.9985     40.4468    232.5499   1.4345777417e+02   2.1540666948e+01    0.2349251    0.1423585 -78.39 0.0007311412    1.486    0.327
        13  -8.1218    191.6632    232.3380   1.1317476465e+02  -3.1255692469e+00    0.1295339    0.1028528  68.55 0.0007051378    1.754    0.430
        14 -10.5797     82.5931    230.6263   1.3524162309e+02   1.6101607082e+01    0.3255335    0.2314691  79.90  0.001313783    1.324    0.245
        15 -11.3159     98.3140    249.8506   1.3426966139e+02   9.9220918863e+00     1.105515    0.2704939  43.54  0.004152508    3.188    0.686
        16 -10.8411     86.5453    224.0808   1.3370536651e+02   1.6835318282e+01    0.4577296    0.2228516  43.73  0.002215002    1.828    0.453
        17 -11.7484     80.7546    220.8583   1.3451704447e+02   1.8401865465e+01    0.9256034    0.4068355  48.71    0.0042906    1.999    0.500
        18  -9.2526     41.2725    220.1541   1.4227791952e+02   2.3988630212e+01    0.3903359    0.1580008  37.91    0.0013647    2.491    0.599
        19  -9.4006     48.3107    217.3239   1.4066291922e+02   2.3704094039e+01    0.2590949    0.2114398  17.48  0.001384174    1.920    0.479
        20  -9.7733     44.9918    215.6853   1.4116108069e+02   2.4472675060e+01    0.2482628    0.1731364  86.14 0.0003739714    1.204    0.170
        21  -8.9191     41.7194    214.2977   1.4167455969e+02   2.5173680643e+01    0.1930422    0.1502168  70.36 0.0005049125    1.081    0.075
        22  -8.8518     83.5082    212.9004   1.3299707218e+02   1.9676817090e+01    0.1850823    0.1229372 -67.94 0.0004320512    1.502    0.334
        23 -10.0627     43.0425    209.4164   1.4096336869e+02   2.6061826506e+01    0.6678597     0.172271  53.42   0.00233011    4.294    0.767
        24  -9.7210    114.6879    203.1805   1.2484004644e+02   1.6589656677e+01    0.2788807    0.1297653 -65.55  0.001089675    2.624    0.619
        25  -8.6027     82.6944    194.3569   1.3075903154e+02   2.3926124683e+01    0.1477574   0.09470516  74.77   0.00070406    1.722    0.419
        26  -8.8581    189.6841    188.0834   1.0542460970e+02   5.1535366685e+00    0.3474767    0.1299884 -46.13  0.001221389    2.861    0.650
        27 -10.2327     60.4235    190.0355   1.3519786306e+02   2.8156300855e+01    0.4703889    0.2320851 -74.01   0.00198562    1.987    0.497
        28 -10.6349     80.8644    183.1269   1.2958097870e+02   2.6805176182e+01    0.4446323    0.2836734 -44.19  0.001440176    1.930    0.482
        29 -10.2880     84.3090    177.3733   1.2789068958e+02   2.7621310931e+01    0.3598657    0.2462173 -50.55 0.0008519336    1.559    0.359
        30  -8.0284     90.6265    184.2449   1.2745122551e+02   2.4995338496e+01    0.1478455   0.09721141  65.68 0.0005349931    1.628    0.386
        31  -8.3798    199.6903    180.3289   1.0173439994e+02   4.6464826881e+00    0.1436814    0.1192531 -89.46  0.000704077    1.664    0.399
        32  -8.6734     92.2249    177.0606   1.2593118627e+02   2.6417442346e+01    0.2472777    0.1554763  83.03  0.001071207    2.086    0.521
        33  -8.3625     72.7810    175.5783   1.3038733996e+02   2.9796738087e+01    0.1919068    0.1180804  51.85 0.0006160963    1.622    0.383
        34  -9.2462    108.7876    171.6233   1.2094722478e+02   2.4830563563e+01     0.215503    0.1302134  50.59 0.0009471867    1.651    0.394
        35 -10.2817     91.4008    167.2160   1.2448134968e+02   2.8893006476e+01    0.2842712    0.2672612  55.11   0.00042525    1.127    0.113
        36  -9.6382     73.8625    161.7542   1.2797311562e+02   3.2941733652e+01    0.4511791   0.07307769 -58.42  0.001201237    4.978    0.799
        37 -10.7155     96.7235    159.6647   1.2177782434e+02   2.9807310784e+01    0.6043507    0.3510619 -36.38  0.001875386    2.368    0.578
        38 -10.7953     59.3745    155.3484   1.3063206847e+02   3.6485838380e+01    0.4477595    0.1556933 -64.95  0.001671655    2.698    0.629
        39 -10.5605     96.3342    143.6077   1.1873230550e+02   3.3735549326e+01    0.2801359    0.2591883 -36.21 0.0005545144    1.171    0.146
        40  -9.3041    107.4506    144.0590   1.1585244085e+02   3.1636124575e+01    0.3583078    0.2296724 -33.76  0.001512312    1.972    0.493
        41  -9.4532    115.1658    132.4300   1.1118431300e+02   3.2914207360e+01    0.2929319    0.2390796 -23.50 0.0006630145    1.450    0.310
        42  -9.9967    103.8530    129.5001   1.1359517073e+02   3.5750972409e+01    0.4846447    0.3375945  61.54 0.0009001343    1.720    0.419
        43  -9.3506     58.0004    240.4957   1.4091014110e+02   1.7675415625e+01    0.2794318    0.1840235  79.66  0.001748291    1.324    0.245
        44 -11.5550    120.6103    248.9433   1.2986481404e+02   6.4542716064e+00     1.057053    0.3221044  38.74  0.003499603    3.070    0.674
        45 -10.4048     72.6992    250.5272   1.3911186685e+02   1.3678505463e+01     0.531733    0.1539186  42.31  0.002263619    2.828    0.646
        46  -8.7326    110.4847    120.9016   1.0970217497e+02   3.6496687037e+01    0.2274131     0.147971 -50.24  0.000561133    1.505    0.335
        47 -10.9217    103.2609    236.4784   1.3179122319e+02   1.1662847193e+01    0.2881453    0.2417306  70.56 0.0005515387    1.066    0.062
        48 -11.5060    176.3594     38.4731   7.1263927713e+01   3.6230253746e+01    0.4851392    0.3414449  47.52  0.001838739    1.447    0.309
        49 -11.1106     82.7529    246.3278   1.3684987894e+02   1.2988902174e+01    0.4109798    0.3441551  88.23  0.002255169    1.195    0.163
        50 -10.7422     88.6417    243.9892   1.3549342889e+02   1.2536820648e+01    0.3858892    0.1871752 -54.59 0.0008409864    2.467    0.595
