#   1 NUMBER                 Running object number                                     
#   2 MAG_AUTO               Kron-like elliptical aperture magnitude                    [mag]
#   3 X_IMAGE                Object position along x                                    [pixel]
#   4 Y_IMAGE                Object position along y                                    [pixel]
#   5 X_WORLD                Barycenter position along world x axis                     [deg]
#   6 Y_WORLD                Barycenter position along world y axis                     [deg]
#   7 A_WORLD                Profile RMS along major axis (world units)                 [deg]
#   8 B_WORLD                Profile RMS along minor axis (world units)                 [deg]
#   9 THETA_WORLD            Position angle (CCW/world-x)                               [deg]
#  10 FWHM_WORLD             FWHM assuming a gaussian core                              [deg]
#  11 ELONGATION             A_IMAGE/B_IMAGE                                           
#  12 ELLIPTICITY            1 - B_IMAGE/A_IMAGE                                       
         1 -12.3125     89.8575     59.4681   1.0830352159e+02   5.3063187367e+01    0.9538432    0.8879138 -85.36  0.005392938    1.203    0.169
         2 -12.6864     60.5770     44.1834   1.1382566166e+02   6.1246891142e+01     2.236018    0.4915151 -48.56   0.00675748    4.064    0.754
         3 -12.8160     43.1682     46.7930   1.2227014224e+02   6.3027627242e+01    0.8552973    0.6129701  77.78  0.001360348    2.049    0.512
         4 -12.5080    105.0398     12.9718   8.4534163558e+01   5.7522642711e+01    0.8598604    0.5828917 -32.05  0.004244647    1.488    0.328
         5 -12.4921    124.3567     27.0612   8.5829026743e+01   5.0928425334e+01     1.055335    0.8215194 -17.37  0.001417561    1.325    0.245
         6 -12.9494    112.6513     24.8222   8.7811776526e+01   5.4129943890e+01     1.582635    0.6329935  48.93  0.005897037    2.376    0.579
         7 -12.1932    145.2456     47.3748   8.8695294933e+01   4.2692389111e+01     1.197518    0.6073943 -25.45  0.004381042    2.139    0.532
         8 -11.9785     26.3856     27.6660   1.2393043322e+02   6.8944210696e+01    0.6747341    0.5675902 -78.34  0.004329351    1.397    0.284
         9 -11.3520     19.5795     22.1818   1.2569799388e+02   7.0704633356e+01      0.46139    0.2606865 -34.91  0.001747976    1.700    0.412
        10 -11.3503     14.9310     22.8543   1.2866393791e+02   7.0920796596e+01    0.5195698     0.435566  66.26  0.002238648    1.552    0.356
        11 -11.4823     14.5513      9.2375   1.2340643846e+02   7.3769163436e+01    0.3906552    0.2229549  13.56  0.001645269    2.037    0.509
        12 -12.2640     17.1691     13.6268   1.2367968408e+02   7.2672796348e+01    0.8597078    0.4503864  -5.96  0.001834198    2.757    0.637
        13 -11.6162     22.8328     11.0790   1.1892001384e+02   7.2660210842e+01    0.4989048    0.3231356 -15.65  0.002657235    1.718    0.418
        14  -9.3927    148.0096     16.8073   7.7005456493e+01   4.6043621110e+01     1.450754    0.8164046  87.73  0.005726231    2.393    0.582
        15 -11.3871    141.8908     21.7984   8.0014498830e+01   4.7085158094e+01     1.079524    0.6750466 -76.09  0.004416111    2.312    0.567
        16 -10.1836    191.9254     16.6497   7.0779165594e+01   3.4442919861e+01    0.3028259    0.2886242   6.74  0.001056371    1.110    0.099
        17 -11.8323    178.4602     20.8972   7.3809915078e+01   3.7502383370e+01    0.6863601    0.3930615  35.34  0.002907699    2.092    0.522
        18 -11.7994    192.3784      6.7402   6.7656564003e+01   3.5293636383e+01    0.9661262     0.543113  59.40  0.004034226    1.736    0.424
        19 -10.6073     88.1288      7.3531   8.6581493915e+01   6.2167894083e+01    0.4720425    0.2816758  37.96  0.001452644    1.671    0.401
        20  -9.5949     83.1580      5.8379   8.7353115501e+01   6.3462785205e+01    0.2787808    0.2154155  55.90 0.0007731653    1.359    0.264
        21 -11.4387     90.5330     20.6246   9.2365753459e+01   5.9858795751e+01    0.6399831    0.4590085 -23.61  0.002580211    1.377    0.274
        22 -11.4313     85.9802     14.4613   9.0869524136e+01   6.1730398328e+01     0.647912    0.3651862 -14.50  0.001870944    2.093    0.522
        23 -10.9159     42.2020      4.0857   1.0363118093e+02   7.1453727051e+01    0.6422085    0.3465323 -15.31  0.002847941    2.589    0.614
        24 -10.9581     47.5293     18.8297   1.0893905377e+02   6.8149962173e+01    0.3993237    0.3746572 -23.81  0.001906537    1.138    0.121
        25 -12.8407     38.0526     18.8467   1.1384879668e+02   6.9443955521e+01    0.4538447    0.3805771 -19.13  0.002889097    1.104    0.094
        26 -12.1386     49.3559     12.9824   1.0501474178e+02   6.8897193967e+01    0.6840872    0.3516951  43.24  0.003298081    2.164    0.538
        27 -11.5275     40.7771     14.2569   1.1010495604e+02   6.9936830403e+01    0.5819886    0.2092276  36.23  0.002420136    3.036    0.671
        28 -11.8248     68.4596     18.1744   9.9169260924e+01   6.4747010593e+01    0.8596615    0.6528261  54.93  0.004697496    1.566    0.361
        29 -10.3416     71.6221      3.2111   8.9885135159e+01   6.6253176018e+01    0.4646977    0.3980313  50.86  0.002772306    1.273    0.215
        30 -10.7619     66.5103     10.3651   9.5864191210e+01   6.6309471315e+01    0.6921822    0.2969894  39.75  0.002678297    2.445    0.591
        31 -10.6541     77.0101      6.3147   8.9678090499e+01   6.4736121469e+01       0.3459    0.2575934 -30.17  0.001077138    1.335    0.251
        32 -10.5405     77.5316      2.5198   8.7408175574e+01   6.5086885875e+01    0.2513973    0.2085883  31.82 0.0008339352    1.131    0.116
        33 -12.3751    239.2199     15.9625   6.6109428656e+01   2.3052162104e+01     1.072024     0.604878  68.48   0.00552409    1.884    0.469
        34 -11.6087    239.4044      7.5016   6.3928977737e+01   2.3812473946e+01    0.4716633    0.2998787 -77.76  0.001928349    1.708    0.415
        35 -11.6456    245.6953      8.1526   6.3662738440e+01   2.2358447603e+01    0.4779006    0.3504773 -19.29  0.001660921    1.330    0.248
        36 -11.1821    241.9096      4.1432   6.2908548499e+01   2.3558677245e+01    0.3832028    0.2528487  87.76  0.001990429    1.618    0.382
        37 -11.0443    164.9875     17.3849   7.4516995827e+01   4.1452972830e+01    0.5076201    0.2817451  41.40  0.001564467    1.959    0.490
        38 -12.2171    131.0897     13.9210   7.8995846247e+01   5.0830858036e+01      1.90186    0.7674128  68.97  0.006736625    2.735    0.634
        39  -9.8503    219.0078     12.8529   6.6949054073e+01   2.8053262728e+01    0.3599421    0.1968262  48.72  0.001685163    2.029    0.507
        40  -9.7301     95.1263     12.2967   8.6960010007e+01   5.9955692268e+01    0.3265077    0.2073904  17.24  0.001476072    1.922    0.480
        41 -11.7079    211.5112      9.7568   6.6740052935e+01   3.0176134209e+01    0.5672464    0.3660063  10.17  0.002728187    2.005    0.501
        42 -10.2870     63.0342      6.2632   9.5005465416e+01   6.7556416672e+01    0.4501081    0.2383932 -19.97  0.001933219    2.059    0.514
        43 -10.1063     31.5061     11.9502   1.1410020190e+02   7.1547547931e+01    0.2057452    0.1695367  47.19 0.0007060703    1.597    0.374
        44  -9.8810      4.2560     10.4422   1.3090522219e+02   7.4221849690e+01    0.3933764    0.1587888 -33.54  0.001885658    2.520    0.603
        45 -10.5732    169.9292      9.4267   7.1083390452e+01   4.0948364554e+01    0.5049803    0.1950666  56.05  0.001911932    2.361    0.576
        46 -11.1692    162.8934      5.1727   7.0504763567e+01   4.3232884991e+01    0.7037423    0.2776363 -20.89  0.002187031    2.575    0.612
        47  -9.7563    157.5158      2.5055   7.0247600604e+01   4.4918238147e+01    0.3557664     0.254648  55.12  0.001420069    1.334    0.250
        48 -10.7787    187.3204     14.3387   7.0584931089e+01   3.5871810551e+01    0.5858227    0.2695335  43.80  0.001798146    2.477    0.596
        49 -10.2986    151.1254      7.0581   7.2831398868e+01   4.6217340639e+01    0.4540963     0.322281  62.64  0.001285684    1.334    0.250
        50  -9.7747      1.2691      7.3703   1.3182235496e+02   7.5016931183e+01    0.1847997   0.08421944 -62.86 0.0001858079    1.813    0.448
        51 -10.5360    218.7832      2.9538   6.4228138207e+01   2.9028108991e+01    0.2850871    0.2688806 -21.58  0.001089457    1.113    0.102
        52 -10.5413    228.3886      4.1880   6.3848107808e+01   2.6637138545e+01     0.315011    0.2351705 -31.61  0.001153654    1.228    0.186
        53 -11.0096    223.9966      2.0008   6.3580270576e+01   2.7866059586e+01     0.420498    0.2664461  84.91  0.001477421    1.642    0.391
        54  -9.2864      5.3225      4.8940   1.2787135026e+02   7.5298557471e+01    0.1806741   0.07669624 -51.09 0.0009389518    1.760    0.432
        55  -9.1215    170.6711      4.0760   6.9159248371e+01   4.1250032041e+01    0.2456594    0.1863021 -86.55  0.001256056    1.366    0.268
        56 -10.4253    141.6900      3.4611   7.2891293449e+01   4.9083329720e+01    0.3948928    0.2911167  72.54  0.001750832    1.334    0.251
        57 -12.3297    133.7344      2.6681   7.3872119622e+01   5.1275704439e+01    0.4116509    0.2911287  62.12 0.0005467532    1.329    0.247
        58 -10.9664    108.1302      2.1619   7.8690413151e+01   5.7947466850e+01     1.418664    0.2717992  64.37  0.003754671    5.131    0.805
        59  -9.2721    122.5577      1.3092   7.5299944137e+01   5.4339673500e+01    0.4037023    0.1231123  66.19  0.001337775    3.084    0.676
        60  -9.1335     55.9505      4.4102   9.7012815445e+01   6.9124504233e+01    0.1866141    0.1240027  43.27  0.001007489    1.568    0.362
        61 -10.2623     22.9002      2.5952   1.1433862196e+02   7.4236068091e+01    0.2932726    0.1968882 -29.11  0.001351904    1.306    0.234
        62 -10.1680    206.4497      2.5588   6.5105734641e+01   3.2092693825e+01    0.4091856    0.2165641 -76.65   0.00179153    2.210    0.547
        63 -10.9485      2.8159      1.8320   1.2835659441e+02   7.6063552638e+01    0.3654382    0.1913196  -2.79  0.002028705    2.311    0.567
        64  -9.0564     33.9932      1.5123   1.0669419758e+02   7.3053031370e+01    0.1607963    0.0981115   4.67 0.0003930925    2.165    0.538
        65  -9.3976     16.2476      1.3431   1.1818567627e+02   7.5139172424e+01    0.2052904    0.1094579  17.55  0.001060459    2.170    0.539
        66  -9.6047     71.4518    151.4944   1.3360999738e+02   3.5672231364e+01    0.2719658    0.1140809  35.47  0.001234772    2.250    0.556
        67  -9.4022     47.3210    151.5194   1.3959136515e+02   3.8585273238e+01    0.3325773    0.1676584  45.09  0.001541981    1.754    0.430
        68  -9.3808     85.9641    150.0042   1.2981835952e+02   3.3972125688e+01    0.1988823     0.161929 -18.80  0.001148326    1.736    0.424
        69 -10.8682    249.4887    142.6272   9.5036323272e+01   6.2257511728e+00    0.4761984    0.2045801 -29.42  0.002329192    2.144    0.534
        70 -10.3976    133.3947    139.8981   1.1660542490e+02   2.8144965185e+01    0.3492166    0.3088685  31.58  0.001495314    1.100    0.091
        71  -9.2633     69.4869    140.5164   1.3267966430e+02   3.8274529727e+01     0.125548    0.1160242  76.14 6.591877e-05    1.068    0.064
        72 -11.6119     81.8224    134.6600   1.2858128624e+02   3.7833132125e+01    0.7538196    0.4285097  24.83  0.003505002    2.235    0.552
        73 -11.2737     92.3572    128.7597   1.2479103009e+02   3.7511659285e+01    0.9379377    0.4687576 -71.78  0.003780509    2.767    0.639
        74 -10.8994     93.5577    123.9375   1.2358752298e+02   3.8365990371e+01    0.2577147     0.229864  86.06 0.0001540639    1.117    0.104
        75 -10.7526     47.5533    134.8912   1.3777337199e+02   4.2171088665e+01    0.3569418    0.1741324 -58.23   0.00139767    2.036    0.509
        76 -10.6961     78.4362    128.7469   1.2854204226e+02   3.9618517530e+01    0.5200244    0.2366708 -46.47  0.002129158    2.616    0.618
        77 -10.8450     72.0117    133.7666   1.3105684019e+02   3.9410680425e+01    0.4468748     0.339852 -16.82  0.002038027    1.989    0.497
        78  -8.8135    216.6738    134.7140   9.8605436973e+01   1.2996945828e+01    0.1372553   0.09175967  14.43 0.0004522149    1.607    0.378
        79  -9.7919     62.3869    132.4048   1.3345765248e+02   4.0972983699e+01    0.4207076    0.1709652 -58.89  0.001868544    2.347    0.574
        80  -8.7794    106.9616    131.0409   1.2138746956e+02   3.4622660319e+01    0.1592157    0.1512925  71.74 0.0003858747    1.027    0.027
        81 -10.7865     45.6808    120.4276   1.3652704047e+02   4.5638581677e+01    0.5318028    0.2449006  51.19  0.002489197    2.227    0.551
        82  -9.5032     53.3928    125.1735   1.3495729395e+02   4.3689540733e+01    0.3156089    0.1892228 -86.43  0.001628902    1.756    0.430
        83 -10.3513     56.4804    122.4492   1.3370254677e+02   4.3941832190e+01    0.3270987     0.249377  53.38  0.001122764    1.265    0.209
        84 -10.8113      3.1408    123.6817   1.4879159532e+02   4.8518982180e+01    0.4089209    0.2805284 -48.86  0.002678112    1.750    0.429
        85  -8.9994     66.1653    125.4378   1.3140785322e+02   4.2045658460e+01    0.1877952    0.1073646  49.11 0.0009317229    1.715    0.417
        86 -10.0941     18.7079    123.7731   1.4453994496e+02   4.7390830440e+01    0.2555107    0.1653349 -80.16 0.0007703519    1.327    0.247
        87  -9.7555    239.7757    146.6095   9.7319946770e+01   7.3747205998e+00    0.1596969    0.1146789  48.32 0.0009459598    1.644    0.392
        88 -11.9454    105.0308    120.6913   1.1986581614e+02   3.7141850667e+01    0.5884349    0.5223116  66.69  0.003398003    1.126    0.112
        89 -11.4783    105.4382    110.8300   1.1765767055e+02   3.9183589987e+01    0.8654736    0.6025037  68.33  0.004113533    1.804    0.446
        90 -11.6205     47.8857     89.4719   1.3095759059e+02   5.2623791763e+01     1.473472    0.7256349 -87.68  0.005670042    3.196    0.687
        91 -12.6097     35.8161     88.7683   1.3499776177e+02   5.4046158470e+01     1.904417    0.8663182 -70.76  0.008835799    1.989    0.497
        92 -10.4195     24.4777     85.6182   1.3847482060e+02   5.5782845838e+01    0.3351526    0.2919863 -83.86  0.001318811    1.037    0.036
        93 -12.1021      9.8929     97.5060   1.4481537171e+02   5.4025964854e+01    0.6725447    0.4691665  58.89  0.002764449    1.409    0.290
        94 -12.3005      7.4117     88.4166   1.4473906798e+02   5.6289911387e+01    0.5805315    0.4109302 -67.24   0.00121437    1.227    0.185
        95 -12.4787     19.1072     93.4414   1.4136206655e+02   5.4347668612e+01     1.299083     0.394798 -74.85  0.005235562    2.858    0.650
        96 -11.5545     23.8064     99.1228   1.4050910362e+02   5.2654281334e+01    0.4982994    0.2334964 -72.74  0.001227126    1.818    0.450
        97 -12.6439     23.9532    109.7080   1.4167810929e+02   5.0177306828e+01      1.21279    0.5460526 -42.81  0.005449836    3.028    0.670
        98 -11.5373     28.9680    113.0290   1.4053646269e+02   4.8983237121e+01    0.5141608    0.3534241  10.65  0.002017078    1.947    0.486
        99  -9.3018    221.2352    120.4351   9.4689387908e+01   1.4076733015e+01    0.1685099     0.130133  56.20 0.0004725627    1.555    0.357
       100  -9.6419    148.8727    119.2158   1.0860778327e+02   2.9055019773e+01    0.2608131    0.2198354 -17.37  0.001358348    1.303    0.233
       101  -8.9567     71.7538    120.4181   1.2902688916e+02   4.2423765604e+01    0.1712939    0.1298541  22.55 0.0007952049    1.572    0.364
       102 -10.9139     34.8447    120.0224   1.3960453963e+02   4.6835551874e+01    0.4698154    0.2475436  57.79  0.002417982    1.937    0.484
       103 -10.7501     88.6285    114.6973   1.2317344065e+02   4.1190337043e+01    0.2764051    0.2154987  55.15 0.0002373734    1.283    0.220
       104 -10.5500     67.0559    112.3937   1.2901902415e+02   4.4893421040e+01    0.4600753    0.3297295 -87.35  0.002426262    1.488    0.328
       105  -9.4801    126.8671    113.9285   1.1270119122e+02   3.4501406084e+01    0.2194159    0.1973182  -0.13 0.0006288489    1.246    0.197
       106 -11.8294      3.0170    111.7070   1.4806071632e+02   5.1197606042e+01    0.4385535    0.3679595  88.11  0.001637839    1.066    0.062
       107 -11.7771      3.4642    104.8075   1.4743517164e+02   5.2735397964e+01    0.3542233    0.3444197   8.72  0.001234511    1.326    0.246
       108 -10.0705     49.3837    112.0212   1.3426282492e+02   4.7167538114e+01    0.3240683    0.2318352 -36.37  0.001797095    1.768    0.435
       109 -11.1977    170.9188    109.9751   1.0154634137e+02   2.6073057266e+01    0.5080144    0.4157397  28.19  0.001794579    1.215    0.177
       110 -10.8022     86.0911    105.4433   1.2200422348e+02   4.3665838616e+01    0.3545734      0.30879 -14.00  0.001322496    1.409    0.290
       111  -9.8309     83.2568    111.1208   1.2400681757e+02   4.2835509267e+01    0.3461928    0.2160846  50.91  0.001689121    1.651    0.394
       112 -10.4836     79.4643    107.7361   1.2444675435e+02   4.4181573479e+01    0.4122709     0.335225  20.19  0.001512749    1.457    0.314
       113 -10.1020     14.6677    108.9062   1.4440084432e+02   5.1073079251e+01    0.3385428    0.1485422  55.11  0.001669415    2.315    0.568
       114  -9.9750    119.8517    108.9279   1.1334402118e+02   3.6892041737e+01     0.220726    0.2001976  -7.78 0.0006272299    1.239    0.193
       115  -9.4404    130.8410    107.4123   1.1014944413e+02   3.5017942918e+01    0.2449354    0.1809431 -38.62  0.001208869    1.414    0.293
       116 -10.7325    158.3776    104.6675   1.0292300159e+02   2.9721076070e+01    0.5075276    0.3294881 -13.52  0.001395331    2.161    0.537
       117 -10.3609    143.1122    105.6974   1.0670800280e+02   3.2808012730e+01    0.3237713    0.3180895  88.73  0.001386144    1.082    0.076
       118 -11.6554    146.3314    100.2236   1.0454312373e+02   3.3157752320e+01    0.7089389    0.3982047 -30.29  0.002922757    2.074    0.518
       119 -10.1138    247.3654    104.1861   8.7039419972e+01   1.1200831400e+01    0.2787293    0.1289529 -45.98  0.001156992    2.931    0.659
       120 -10.2204    119.3090    103.8604   1.1226895082e+02   3.8047205629e+01    0.3920805    0.2500518 -27.11  0.001687564    2.109    0.526
       121 -10.4943     57.8382     98.3372   1.2932234551e+02   4.9353826297e+01    0.5750106    0.2858573 -63.04  0.002658647    1.856    0.461
       122 -11.3476     67.0369     97.6714   1.2623640777e+02   4.8295333502e+01    0.6837743    0.4480547 -39.38  0.001989524    1.776    0.437
       123  -9.6438    136.6072    100.4233   1.0695042727e+02   3.5203238855e+01     0.341741     0.229973   8.12  0.001387808    2.430    0.588
       124  -8.4546     78.6047    100.6935   1.2324520102e+02   4.5914772786e+01    0.1421885    0.1078991 -17.74 0.0007005409    1.829    0.453
       125 -10.2143    211.2720     97.2777   9.0827516451e+01   1.9342289223e+01    0.4404569    0.2971947  16.50  0.002127718    1.756    0.431
       126 -10.1058    143.6034    249.0343   1.2968428480e+02   9.6031125382e+00    0.2497973    0.1376638  22.32  0.001524808    2.117    0.528
       127  -9.9005     77.9117     96.9520   1.2264405298e+02   4.6874402855e+01    0.2022056    0.1910917 -80.24 0.0003874857    1.004    0.004
       128 -11.2049     82.0389     92.9389   1.2043010807e+02   4.7138933413e+01    0.5934309    0.4256994  63.01  0.001947846    1.620    0.383
       129 -10.0641     76.7069     92.9493   1.2212136276e+02   4.7973227794e+01    0.2428629    0.1934125  48.66 0.0004502978    1.294    0.227
       130 -12.3602     75.3021     50.1368   1.1019173841e+02   5.7622090673e+01     1.000671    0.8631193 -58.89  0.005634793    1.227    0.185
       131 -10.8025     93.7483     76.2180   1.1230306326e+02   4.8816516819e+01    0.5569976       0.4032  22.84  0.001654746    1.683    0.406
       132 -11.3835     80.4724     82.4580   1.1832843477e+02   4.9756875754e+01    0.5668026    0.5056953 -87.08  0.002257673    1.186    0.157
       133 -12.1952     70.5955     79.6133   1.2091645709e+02   5.1946559744e+01     1.126516     0.884106  -9.88  0.005943997    1.665    0.399
       134 -11.8651     85.7629     73.5144   1.1410370796e+02   5.0841203934e+01    0.6775604     0.598421  67.29  0.002891366    1.247    0.198
       135 -11.8127     78.8026     67.1008   1.1455930255e+02   5.3435340403e+01    0.7726394    0.5559642 -83.75  0.003598181    1.982    0.496
       136  -8.8690    190.6559     96.3104   9.4187501782e+01   2.3982814870e+01    0.1441135    0.1155589 -71.87 0.0007045354    1.702    0.412
       137  -9.4335    140.3760     96.1519   1.0490172927e+02   3.5222704980e+01    0.2875389    0.1978908  22.65   0.00117168    1.849    0.459
       138  -9.7250    138.2932     93.1962   1.0461821060e+02   3.6243011594e+01    0.3954981    0.2386445  29.33  0.001620495    2.093    0.522
       139 -10.7014    125.2411     93.6779   1.0808304996e+02   3.8930414598e+01    0.5996796     0.312878  41.02  0.002456221    1.950    0.487
       140 -10.5493    120.1848     85.1725   1.0709624360e+02   4.1705223334e+01    0.5515523    0.2762716  51.32  0.001567655    2.117    0.528
       141 -10.6618    117.0741     92.9666   1.1009116732e+02   4.0749517982e+01    0.4432062    0.3260549  18.82  0.002078344    1.738    0.425
       142 -10.7120    122.2581     89.0188   1.0761081793e+02   4.0493652333e+01    0.4333882    0.2617611  23.64  0.001692637    2.471    0.595
       143  -9.7470    160.3545     93.4905   9.9555726677e+01   3.1278649886e+01    0.3210194    0.2427974 -89.42  0.001460214    1.945    0.486
       144  -9.4997    104.8657     93.5998   1.1369799626e+02   4.2998812970e+01    0.2601883    0.2051874 -85.10 0.0007706612    1.572    0.364
       145 -10.7092    102.2632     89.9119   1.1349720594e+02   4.4281201274e+01    0.6829007    0.4185569  19.60  0.002732489    2.579    0.612
       146 -10.5281    152.7346     91.7233   1.0078073342e+02   3.3315457829e+01    0.3513671    0.3378155 -25.49  0.001629691    1.050    0.047
       147 -10.1064    211.9123     87.0481   8.8132417298e+01   2.0654718124e+01    0.3766606    0.2758984  -3.90  0.001262741    1.471    0.320
       148 -11.0392    113.8293     87.1260   1.0940750863e+02   4.2613952641e+01     0.461948    0.3642418  30.93  0.000826576    1.364    0.267
       149 -10.9394    113.5136     83.4923   1.0847521814e+02   4.3428507123e+01    0.7330769    0.3271164 -36.99  0.002664831    2.568    0.611
       150 -10.3954    183.6515     85.5096   9.2627556824e+01   2.7268811543e+01    0.6552484    0.2360851 -40.43  0.002269574    2.789    0.641
       151  -8.9530    135.2866     86.3596   1.0347000549e+02   3.8217401252e+01    0.1544544    0.1188315   1.25 0.0007022654    1.682    0.406
       152 -10.8118    164.5412     83.0539   9.5759137854e+01   3.2126264666e+01    0.4857969    0.4166759 -57.00  0.001705967    1.303    0.233
       153 -11.5497    143.4087     83.0859   1.0053297246e+02   3.7013384860e+01    0.5357236    0.3997113 -22.42  0.001604883    1.488    0.328
       154 -10.6091    127.7667     83.5168   1.0458974116e+02   4.0416482096e+01     0.381878    0.2909201  45.88  0.001497978    1.307    0.235
       155 -11.0248    120.6883     80.0257   1.0546899070e+02   4.2631895856e+01    0.5890952     0.246261  51.79  0.002087368    2.612    0.617
       156 -11.2574     58.3331     78.1110   1.2485563065e+02   5.4015544468e+01    0.5102624    0.3549379 -83.33 0.0009613277    1.687    0.407
       157  -9.1287    109.1492     80.3826   1.0883411559e+02   4.4956122081e+01    0.2426376    0.2064586  80.21 0.0009161578    1.382    0.277
       158 -10.0837    105.3566     75.8294   1.0860924311e+02   4.6660952178e+01    0.4041188    0.3729254  68.38  0.002223271    1.158    0.136
       159 -10.4003     22.9395     72.1631   1.3690716508e+02   5.9086494149e+01    0.3825142    0.2231811  35.53  0.001377838    1.891    0.471
       160 -10.1628      6.0403     75.7101   1.4384027616e+02   5.9336695416e+01    0.5246218     0.103192 -57.68  0.001538362    3.498    0.714
       161 -11.9554     13.6158     74.8554   1.4089553687e+02   5.9099278446e+01    0.4646476    0.3720322 -74.14  0.001532625    1.035    0.033
       162 -10.6171     14.4258     67.4544   1.3947882972e+02   6.0791700375e+01    0.3343683    0.2700244 -79.32  0.001452956    1.076    0.071
       163  -8.6153    156.6733     78.3054   9.6083525634e+01   3.4790669001e+01    0.1524353    0.1207808 -75.86  0.000703533    1.649    0.394
       164 -10.2907    134.4771     77.3270   1.0103239781e+02   4.0117021244e+01     0.326496    0.2661032  65.18 0.0009488106    1.361    0.265
       165 -10.8208     22.1589     36.1535   1.2901898210e+02   6.7467781876e+01    0.6689294    0.3217759  47.93  0.003066686    2.967    0.663
       166 -10.5796     22.7765     48.0105   1.3197180587e+02   6.4741058561e+01    0.7103984    0.3480773  12.94  0.003439603    2.644    0.622
       167 -11.4331     25.7280     56.3726   1.3263179020e+02   6.2574201351e+01    0.9963646    0.7562649  10.15  0.006122302    1.584    0.369
       168 -11.0618     32.2882     41.6284   1.2567484893e+02   6.5344520138e+01    0.5046881     0.374135  70.92  0.002397352    1.833    0.454
       169 -11.7530     47.8263     30.5451   1.1413385850e+02   6.5869074179e+01    0.6560156    0.3520677  25.28  0.002344024    2.243    0.554
       170  -9.6741    198.7123    244.4250   1.1999499791e+02   2.7241129991e+00    0.2051497   0.07589998  40.41  0.001132722    2.094    0.522
       171 -11.4683     58.1478     30.3518   1.0931301189e+02   6.4385191910e+01    0.5073909    0.3740889  -2.92  0.001664909    1.620    0.383
       172 -10.6980     60.2233     23.4713   1.0525754180e+02   6.5317065797e+01    0.4264769    0.2211078 -35.32  0.001221549    1.836    0.455
       173 -10.7642    127.6806    242.9961   1.3184769865e+02   1.2458185909e+01    0.2272917    0.1777195 -82.56  0.001773937    1.810    0.447
       174 -11.1569     51.2793     45.9342   1.1840821663e+02   6.2200295024e+01    0.4515841    0.2959257 -67.26            0    1.779    0.438
       175 -12.2860     53.9066     61.5956   1.2221795175e+02   5.8386789103e+01    0.8059983    0.4044786  34.64  0.003711786    2.159    0.537
       176 -11.3261     45.9074     58.1060   1.2447513375e+02   6.0167880021e+01     0.521961    0.3536886 -60.14  0.002076034    1.338    0.252
       177 -11.3405     40.1208     55.5449   1.2620131710e+02   6.1402517533e+01    0.6026044    0.4092188  82.81  0.002460322    2.042    0.510
       178 -12.2987      2.2745     70.1960   1.4461866447e+02   6.0813424261e+01    0.7026869    0.1775225 -71.80  0.002868897    2.855    0.650
       179 -12.3938      8.4776     60.9460   1.4088839424e+02   6.2667088855e+01    0.9234703    0.4729607 -52.22  0.005038807    1.708    0.414
       180 -11.5615     52.8945     76.6451   1.2648035366e+02   5.5047955511e+01    0.6357611     0.399817 -71.55  0.002620422    1.627    0.385
       181  -9.2169     46.3547     77.4116   1.2905610244e+02   5.5638098629e+01    0.1719757    0.1197805  45.15 0.0009340671    1.560    0.359
       182 -10.2094    241.7931     76.0081   8.1095492147e+01   1.5761251841e+01    0.2252445     0.182262  89.49  0.001291398    1.648    0.393
       183 -12.2684    186.1699     70.3319   8.7910410266e+01   2.9013273502e+01    0.9551008    0.6903948 -28.56  0.003514207    1.349    0.259
       184  -9.5495    192.2221     65.6958   8.5539870556e+01   2.8237575127e+01    0.2842802    0.2296441 -69.95  0.001051058    1.498    0.332
       185 -11.0647     33.3130     71.9340   1.3284156545e+02   5.8265456908e+01     0.437788    0.2940414  28.41  0.002486656    1.687    0.407
       186 -11.5691     40.6352     71.8825   1.3000338317e+02   5.7557230413e+01    0.7176337    0.3722976 -40.75  0.003338835    2.152    0.535
       187  -9.7885     46.3702     72.5965   1.2797285485e+02   5.6765390518e+01    0.2966803    0.1833715 -73.58  0.001489149    1.665    0.400
       188  -9.1802    230.9826     73.5114   8.1875376884e+01   1.8332361099e+01    0.1818431    0.1194595 -80.07 0.0008096152    2.540    0.606
       189  -9.1474    151.4599     73.5067   9.5813160982e+01   3.6858210739e+01    0.1524157    0.1453286  10.71 5.514291e-05    1.044    0.042
       190  -9.5640     61.2562     73.0133   1.2252546881e+02   5.4799146867e+01    0.2468916    0.1892252  47.11   0.00059637    1.416    0.294
       191 -10.1717    162.2072     70.3718   9.2529646907e+01   3.4806819582e+01    0.3520651    0.3087586  80.22   0.00175303    1.297    0.229
       192 -11.6160    122.9034     67.9286   1.0113276154e+02   4.4501286208e+01    0.7528098    0.3932478  43.81  0.002098104    1.947    0.486
       193 -11.7386    219.3839     66.0502   8.1512950453e+01   2.1840042902e+01    0.7118058    0.4250856  56.34  0.002633991    1.762    0.433
       194 -10.2202    207.0072     68.5524   8.3986401276e+01   2.4338863273e+01    0.4479105    0.2011368  46.75  0.001404015    2.306    0.566
       195 -10.6459    172.4754     67.7698   8.9687305982e+01   3.2724690417e+01    0.4390091    0.3514107 -48.09  0.001489827    1.320    0.243
       196 -10.5184    129.1898     65.1396   9.8563074023e+01   4.3589253500e+01    0.6839717    0.3426369 -55.49  0.002367443    2.922    0.658
       197 -10.5962     21.0487     65.1874   1.3641542568e+02   6.0873344380e+01    0.2055463    0.1976373  87.40 0.0007256697    1.152    0.132
       198  -9.5185    205.4480     63.2175   8.2749181600e+01   2.5430829820e+01    0.3365467    0.1825016  34.69  0.001377866    2.289    0.563
       199  -9.1989    167.9025     63.1458   8.9171369542e+01   3.4569941911e+01    0.2273725    0.2019701 -81.96  0.001031939    1.286    0.222
       200 -10.7577    159.4180     61.7959   9.0458332077e+01   3.6881615557e+01    0.4920996    0.3041542  40.27  0.002122561    1.717    0.418
       201 -11.6113    156.7740     53.2931   8.8261607744e+01   3.8875335978e+01    0.9999814    0.4303665 -37.14  0.003707138    2.249    0.555
       202 -10.3851    161.8180     43.4543   8.4004879920e+01   3.9037586426e+01    0.4357967    0.2628713  63.36  0.001887119    1.708    0.415
       203 -11.8440    156.2166     41.7294   8.4484521983e+01   4.0725052444e+01    0.4295528    0.4103713  62.08 0.0007838947    1.058    0.055
       204 -11.0652    153.2099     36.0637   8.3092184262e+01   4.2289531263e+01    0.3123547    0.2985705 -30.86 0.0004087232    1.055    0.052
       205  -9.6453    167.7543    238.0018   1.2437959938e+02   7.6135420990e+00    0.1120812   0.09259231 -31.79 0.0005952492    1.591    0.371
       206  -9.4934    174.8697    246.8011   1.2418560418e+02   5.6701315211e+00    0.2340978   0.09787328  25.80  0.001181086    2.738    0.635
       207 -11.0415    116.4514     57.4168   9.9396517366e+01   4.7913362293e+01     1.113207    0.6997634   0.38  0.003241776    2.972    0.664
       208 -11.7070    112.9074     51.3217   9.8234769655e+01   4.9818385661e+01     1.431491    0.6152747 -41.30  0.005342023    2.299    0.565
       209 -11.9746    105.9292     32.5005   9.2912736699e+01   5.4585171096e+01    0.6024241     0.385087  -3.58   0.00158631    2.178    0.541
       210  -9.9147    199.9435    235.0000   1.1860495565e+02   3.5006373960e+00    0.1776841   0.04632144  38.93 0.0006732459    2.882    0.653
       211 -12.5333    117.2634     42.9347   9.3892735984e+01   5.0258738545e+01    0.9283894    0.6258261  88.42  0.003212041    2.480    0.597
       212 -13.0097    120.4431     38.8146   9.1463575945e+01   5.0164639444e+01    0.8370292    0.6150997 -73.52  0.002719754    1.901    0.474
       213 -10.4977    105.9777     61.9565   1.0400737045e+02   4.9332656161e+01    0.4265967    0.3077812 -60.72   0.00199758    1.651    0.394
       214 -10.4967     98.7277     62.5806   1.0645940740e+02   5.0698112860e+01     0.273337    0.2556457 -15.31  0.000217439    1.083    0.077
       215  -9.8586    147.9362     60.5523   9.2534912554e+01   3.9913283376e+01    0.4626477    0.1539721  56.55  0.001444613    3.161    0.684
       216  -9.9900    138.8461     43.8128   8.8859748849e+01   4.4849075407e+01    0.3536277    0.1912725  46.66  0.001177991    1.841    0.457
       217 -11.3870    136.3740     56.1057   9.3746047329e+01   4.3477123609e+01    0.7197722    0.4617956 -26.08  0.002293435    1.663    0.399
       218  -9.4169     15.4401    233.3043   1.5084222666e+02   2.6723828767e+01    0.1536154   0.07910211 -80.33  0.001126096    2.041    0.510
       219  -9.2724    219.8729     57.1468   7.9061643485e+01   2.2868438509e+01    0.2162517    0.1788769 -52.88 0.0007140032    1.277    0.217
       220  -9.6913      2.0756     56.1429   1.4288684068e+02   6.4097956879e+01    0.2060928    0.1403299 -71.21 0.0005824792    1.170    0.145
       221  -9.6741    187.4103     55.2858   8.3282823811e+01   3.0886935650e+01    0.3220013    0.1804854  51.26  0.001389439    1.779    0.438
       222  -9.8780     67.0352     54.8738   1.1498629295e+02   5.7993439877e+01    0.2365631    0.1926631 -49.29 0.0006235614    1.145    0.127
       223 -10.5673    230.6817     39.2523   7.2987333846e+01   2.2534298802e+01    0.6062654    0.3104066 -69.07  0.001814342    3.121    0.680
       224 -10.1262    249.3882     52.9147   7.4519666873e+01   1.6926379406e+01    0.3462446    0.2265751 -69.74  0.001283146    2.054    0.513
       225 -10.7049    233.4751     45.3154   7.4283787585e+01   2.1215557840e+01    0.4550317    0.2590111  62.79  0.002232783    1.898    0.473
       226 -10.1305    244.4913     50.4983   7.4430336236e+01   1.8226601759e+01    0.2531571    0.2073089  -6.86  0.000852041    1.221    0.181
       227 -10.1572    211.0661     53.2087   7.9154818665e+01   2.5418351624e+01    0.4639305    0.1877375  59.39  0.001814193    2.502    0.600
       228 -11.1983    202.4445     49.5593   7.9311990502e+01   2.7955244521e+01    0.6928328    0.3925729 -44.39  0.003076812    1.794    0.442
       229 -11.1862     89.9928     89.1300   1.1700860948e+02   4.6666503374e+01    0.7070156    0.4184577 -32.95   0.00300937    2.207    0.547
       230  -9.8131    216.2369     52.0586   7.8149809030e+01   2.4347026730e+01    0.2157566       0.1839  12.94 0.0005542666    1.255    0.203
       231 -11.2559    173.8473     48.0481   8.3337197904e+01   3.5308867438e+01    0.7011136    0.4329298  67.40  0.002355327    1.756    0.431
       232 -10.3707    176.9952     43.4906   8.1353107008e+01   3.5127716947e+01    0.4639267    0.3378176 -63.65  0.002191221    1.622    0.384
       233 -11.1879    239.8530     50.2251   7.4857626503e+01   1.9250405841e+01    0.3976959    0.3530259  84.42  0.001171034    1.287    0.223
       234  -9.7008     90.8518     48.2609   1.0396285528e+02   5.5087695478e+01    0.2589673    0.2299771 -47.93  0.001424269    1.148    0.129
       235  -9.4709      3.7843     48.9002   1.4099302695e+02   6.5701086719e+01    0.1943649    0.1679146  29.63  0.001054239    1.406    0.289
       236  -9.0204    101.2142     48.0627   1.0052400597e+02   5.2980884796e+01    0.1890319    0.1608751 -49.97 0.0009866154    1.231    0.187
       237  -9.5137     94.1814     36.3987   9.8158444880e+01   5.6554990381e+01    0.1986837    0.1746877 -64.65 0.0008642917    1.344    0.256
       238 -10.1695    100.7317     43.7508   9.9024139474e+01   5.3863345846e+01    0.5431213    0.3632444 -73.70  0.002187921    2.649    0.623
       239 -11.2749     93.7825     41.2207   1.0025354779e+02   5.5793252717e+01    0.5228778    0.3766689  43.32  0.001568777    1.415    0.293
       240 -10.1975    193.6207     46.1343   7.9577490187e+01   3.0571526182e+01    0.5010115    0.2603258  85.78   0.00176764    3.237    0.691
       241  -9.5953     14.2853     46.3755   1.3558169596e+02   6.5716420014e+01    0.2711717   0.09919949 -56.51  0.001252442    2.060    0.515
       242  -9.3571    132.1718     45.2176   9.0928454394e+01   4.6290617655e+01    0.2311752    0.1964501  25.47 0.0004532915    1.234    0.189
       243  -9.9447      4.3432     44.2788   1.3990618843e+02   6.6740450452e+01    0.3643575    0.2189315 -36.39  0.001458561    1.706    0.414
       244  -8.9257     11.3340     32.2999   1.3361519087e+02   6.9089671156e+01    0.1620026    0.1359593 -39.71 0.0007419645    1.140    0.123
       245 -10.8379      4.9632     35.8401   1.3787412308e+02   6.8636550545e+01    0.4057616    0.2887229 -62.81  0.001896966    1.119    0.107
       246  99.0000      6.7589     30.7473   1.3569690397e+02   6.9692850404e+01     0.382313    0.2017271   1.11  0.002065194    2.402    0.584
       247 -10.6475    189.2263     40.0948   7.8391595510e+01   3.2448380527e+01    0.5399416    0.2610715 -21.91  0.002144272    2.159    0.537
       248 -10.9234    176.9751     37.5646   7.9457360000e+01   3.5909100561e+01    0.4686034    0.3152227 -11.35  0.002002281    1.670    0.401
       249  -9.6259     18.2906     41.6831   1.3251639540e+02   6.6519724085e+01     0.280418    0.1677203 -12.14  0.001191692    2.173    0.540
       250 -11.2439     69.9317     33.0859   1.0553821788e+02   6.1895982849e+01     0.597827    0.3631934  41.28  0.001086587    1.738    0.425
       251 -10.5897     82.0452     31.7431   1.0033955056e+02   5.9857973839e+01    0.4235013     0.323228 -54.87  0.002187018    1.538    0.350
       252 -11.3601     81.6157     39.2039   1.0364793872e+02   5.8602615362e+01    0.4623377    0.3637627  76.09  0.001238617    1.791    0.442
       253 -10.5890     78.0683     34.5046   1.0299546850e+02   6.0141551935e+01    0.3471639    0.2360221  35.43  0.001158368    1.548    0.354
       254  -9.6575    218.0195     38.7924   7.4264619065e+01   2.5523677691e+01    0.2481526    0.1929642 -28.98 0.0007979569    1.195    0.163
       255 -10.2142    134.5973     37.2278   8.7409387795e+01   4.6906252373e+01    0.6742142    0.3529109  59.30  0.002732924    1.931    0.482
       256 -10.2785    139.8882     32.4381   8.4453845519e+01   4.6235845312e+01    0.6308873    0.3966241 -14.88  0.002739887    1.811    0.448
       257 -10.4675    206.8143     37.1019   7.5129110323e+01   2.8422230102e+01     0.339818    0.2677617 -52.39 0.0008024536    1.289    0.224
       258 -11.1887    171.8494     33.6401   7.8991342998e+01   3.7738838715e+01    0.5125431    0.2814201  52.13  0.002187428    1.782    0.439
       259 -10.4443    175.8554     29.3336   7.6950574533e+01   3.7219698988e+01    0.3566128    0.3348297  16.94   0.00113331    1.105    0.095
       260 -10.4398    217.1583     32.0363   7.2480762511e+01   2.6497031546e+01    0.3106762    0.2444782  19.57  0.000459071    1.465    0.318
       261 -11.5298    163.5629     28.2578   7.8518167610e+01   4.0580916668e+01    0.5995722     0.511493  16.21  0.001162374    1.265    0.210
       262 -10.8033    240.7120     31.1010   6.9872153559e+01   2.1180674975e+01    0.5210929     0.326955 -16.41  0.002586582    1.589    0.371
       263 -11.1066    198.1099     29.0561   7.3835172211e+01   3.1520128103e+01    0.4547989     0.377968  -2.36  0.001470044    1.297    0.229
       264  -9.0130    182.4095     32.2136   7.6917892339e+01   3.5168183144e+01      0.20228    0.1295974 -37.05 0.0002921039    1.512    0.339
       265  -9.4097     35.8973     31.7442   1.2047850167e+02   6.7105450017e+01    0.2337805    0.1649068 -82.68  0.001215373    2.083    0.520
       266 -10.9123    230.4465     29.9550   7.0540267083e+01   2.3610755348e+01    0.4344946    0.2882183 -37.07  0.001387138    1.352    0.260
       267 -10.5840    189.4740     32.5293   7.6021617050e+01   3.3312163390e+01    0.3564164    0.2985395  71.36 0.0006824969    1.225    0.184
       268 -10.5828    199.8420     24.8079   7.2350815724e+01   3.1556362844e+01    0.2778042     0.251801  35.61 0.0005438659    1.175    0.149
       269  -9.4729    134.3041     30.9174   8.5080653891e+01   4.7877718087e+01    0.2683979    0.2082557 -80.61 0.0008387523    1.611    0.379
       270 -10.6023    242.6579    231.1831   1.1133953060e+02  -1.7972190512e+00    0.2239105    0.1919683  48.76  0.001756772    2.110    0.526
       271  -9.1401     23.2472    231.6105   1.4945740335e+02   2.6267207968e+01    0.1238388   0.07846303  33.40 0.0007639968    1.583    0.368
       272  -9.1396    189.9770    229.9595   1.1961064607e+02   5.4127253451e+00    0.1684683     0.104729  17.04 0.0005315475    1.578    0.366
       273  -9.6486    180.7092    228.3305   1.2097977182e+02   6.9034773104e+00     0.100281   0.07733763  53.03 0.0006862725    1.626    0.385
       274  -9.5651      9.0303    227.2749   1.5175198235e+02   2.8238987684e+01    0.1362864   0.09101494  52.48 0.0003470227    1.099    0.090
       275 -10.1027    247.5993    231.2153   1.1060235637e+02  -2.4235829624e+00    0.1906975   0.08751874 -20.85     0.001205    2.318    0.569
       276  -8.7131     86.4760     30.4986   9.8226343524e+01   5.9172483440e+01    0.1433056    0.1329252  -5.59 0.0008101705    1.013    0.013
       277 -10.6724    197.8455    231.7067   1.1852209574e+02   4.1292637084e+00    0.1846869    0.1040349  25.54   0.00119067    1.464    0.317
       278 -10.1516      9.7260    217.6941   1.5135120050e+02   2.9729560257e+01    0.1551357    0.1278473  65.67 0.0007011374    1.231    0.188
       279  -9.8508    133.6431     24.3254   8.2657373866e+01   4.8922141953e+01    0.4029008    0.3242307 -89.32  0.002017824    1.453    0.312
       280 -10.5967    153.3291     25.5292   7.9301033863e+01   4.3616719773e+01    0.5313047    0.2939284 -14.82  0.002126639    2.078    0.519
       281 -10.5470    156.8172     25.1613   7.8562209429e+01   4.2738788594e+01    0.4653533    0.3248453  -8.61   0.00157268    1.608    0.378
       282 -10.0982    250.3741     25.3004   6.7581408086e+01   1.9687142163e+01    0.2266656    0.1533789 -23.03 0.0004798161    1.346    0.257
       283  -8.5699    182.3139    216.3013   1.1911057930e+02   8.0791513994e+00    0.1148144   0.07385735  15.96 0.0007019168    1.612    0.380
       284 -11.2182    183.3363     24.6564   7.4372750360e+01   3.5809106517e+01    0.5184223    0.3278583  58.17  0.002174379    1.551    0.355
       285  -9.4072    166.7212    213.3200   1.2149802136e+02   1.0771753560e+01    0.2058256    0.1396821  89.78 0.0009645175    4.289    0.767
       286  -8.9859    160.9970    208.7469   1.2193874341e+02   1.2239740669e+01    0.1575295   0.08135194  38.37 0.0005578682    1.531    0.347
       287 -10.9017      4.5205    203.2113   1.5185524765e+02   3.2625232675e+01    0.4483734    0.1197106 -71.69  0.002299303    3.645    0.726
       288 -12.3090      5.5265    185.5542   1.5108473029e+02   3.5716958322e+01    0.7207221    0.4070809  71.03  0.005036886    1.391    0.281
       289 -10.4518    238.9957    204.5714   1.0789676667e+02   1.1418236092e+00    0.1670846    0.1464221 -25.32  0.001281846    1.659    0.397
       290  -9.9081     81.1158     19.3313   9.4936747962e+01   6.2064067979e+01    0.3508802     0.234357  39.12  0.001334154    1.504    0.335
       291 -10.6513    245.4706    200.9973   1.0631883158e+02   5.9151615154e-01    0.1735881     0.117637  24.29 0.0005777982    1.162    0.139
       292 -10.5235    234.2349    196.9640   1.0741773316e+02   2.5867976303e+00    0.3217243    0.2089518  11.51  0.001398302    1.341    0.254
       293 -10.0859     16.8808    192.6116   1.4910291518e+02   3.3456258484e+01    0.1844985    0.1387177  74.64  0.000495278    1.116    0.104
       294  -9.5335    170.2176    191.1262   1.1767358446e+02   1.3227376698e+01    0.3265101    0.1381401  28.09  0.001350638    2.948    0.661
       295  -9.2224    168.4955    188.4403   1.1758788984e+02   1.3888244114e+01    0.1250047    0.1014041  29.10 0.0002458247    1.025    0.024
       296 -10.2552    213.4193    181.9270   1.0832295291e+02   7.4432912688e+00    0.2622896    0.1904948 -23.78  0.001691859    1.450    0.310
       297 -10.0505    222.9167     22.6539   6.9294021831e+01   2.6136026261e+01    0.2478988    0.2393134  58.07 0.0007476688    1.120    0.107
       298 -10.2308    220.9545     19.1038   6.8502894469e+01   2.6966573141e+01      0.23303    0.2153614  29.23 0.0004724764    1.195    0.163
       299 -10.2394    214.7421     21.6667   6.9819292851e+01   2.8199039642e+01    0.3664677    0.2394274  28.36  0.001768552    1.920    0.479
       300  -9.3477    250.4184    180.3090   1.0205369119e+02   1.9566973990e+00    0.2110863   0.09756234 -20.92  0.001139823    2.133    0.531
       301  -8.9891     57.2894    175.0745   1.3944142941e+02   3.2646158033e+01    0.1596723    0.1305423  72.29 0.0004986281    1.071    0.066
       302 -10.2504     51.5964    173.7688   1.4060048245e+02   3.3556714425e+01    0.3191763    0.1580522 -83.15  0.001661855    2.148    0.534
       303 -10.0339    248.0660    173.5459   1.0120033084e+02   3.0114895582e+00    0.3738078    0.1312285  30.26  0.001591484    3.160    0.684
       304  -9.8370     39.5855    172.7966   1.4320367479e+02   3.5047978023e+01    0.2053512   0.09584443 -70.93  0.001042209    2.098    0.523
       305 -10.9985     35.0786    170.3607   1.4403506254e+02   3.5989837742e+01    0.2452869    0.1990431 -85.88  0.001291529    1.218    0.179
       306 -11.6179      9.0769    166.9465   1.4959721227e+02   3.9002607309e+01    0.4360731    0.3184648  67.24  0.002281058    1.050    0.047
       307 -12.0293     13.8795    159.4682   1.4815619089e+02   4.0117602308e+01     0.593949    0.3164612  74.14  0.002382165    1.618    0.382
       308  -9.1144    148.9989    168.2767   1.1825203650e+02   2.0285244823e+01    0.1752739    0.1018776  40.34 0.0008922193    1.499    0.333
       309 -10.0897    206.6747     18.9873   6.9873999992e+01   3.0461437872e+01    0.4424005    0.2268125 -49.33  0.001927625    2.002    0.500
       310  -9.3696      1.6744     20.4090   1.3586004263e+02   7.2219294431e+01    0.1461592    0.1013816 -20.70 0.0007549862    1.543    0.352
       311 -10.3470     39.6987    166.6116   1.4271452963e+02   3.6271866867e+01    0.2385081    0.1760682 -29.68    0.0014792    2.183    0.542
       312 -10.0327    225.4972     16.5406   6.7393312875e+01   2.6147101129e+01    0.2636855    0.2153017 -48.37  0.001091173    1.137    0.120
       313 -10.3812     28.6334    164.0626   1.4506129236e+02   3.7882588706e+01    0.4460586    0.1745059 -87.63  0.002157679    2.645    0.622
       314 -10.2951    189.1262     27.9772   7.4652393096e+01   3.3933094245e+01    0.4353194    0.3140524   8.81   0.00210664    1.664    0.399
       315  -9.9132    188.7864    164.3027   1.0960068528e+02   1.3917287975e+01     0.249273    0.1709893 -17.61  0.001112073    1.626    0.385
       316  -9.5464    205.0864    163.1536   1.0638778756e+02   1.1225556320e+01    0.2565699    0.1502378  28.72 0.0006793962    1.612    0.380
       317  -9.6775    208.5094    161.2375   1.0541499995e+02   1.0888047346e+01    0.2980479    0.1492538 -39.85  0.001343538    2.291    0.563
       318 -10.7867    246.6318    158.9575   9.8694442052e+01   4.8266516687e+00    0.2974457    0.1658576 -27.14  0.001563207    1.710    0.415
       319 -10.1119     80.8660    159.7169   1.3235338325e+02   3.2703839807e+01    0.3188157    0.2138676  38.56  0.001839673    1.396    0.283
       320  -9.5509    215.4695    158.0124   1.0357752260e+02   1.0106442953e+01    0.1869283    0.1170641 -24.74  0.001031714    1.607    0.378
       321  -8.9315    224.2968    156.3606   1.0175758115e+02   8.8023387079e+00    0.1336366   0.08439744   8.59 0.0004463551    1.709    0.415
       322 -10.6574    104.6848    153.5253   1.2579424593e+02   3.0408441870e+01    0.3767669    0.2715386 -63.72  0.002130658    1.510    0.338
       323 -12.0728      4.8706    147.2702   1.4963116564e+02   4.3329946966e+01    0.6651734    0.3630717 -68.22   0.00413377    1.774    0.436
       324 -10.9870      2.5506    141.6437   1.4991511414e+02   4.4675815814e+01    0.3340726    0.2807119  82.00  0.001963503    1.117    0.104
       325 -12.0660      3.7448    136.2704   1.4934479509e+02   4.5739164390e+01    0.2124372    0.1880543  80.51 0.0002938446    1.167    0.143
       326 -10.1283     32.1313    154.8656   1.4358176950e+02   3.9444805729e+01    0.3717342     0.170243  44.46  0.002032097    1.871    0.466
       327 -12.2629     23.4161    136.6955   1.4433359732e+02   4.4135353754e+01    0.8480498    0.4905314  47.52  0.005084391    1.578    0.366
       328 -11.6038     29.7957    132.7620   1.4231271417e+02   4.4436037831e+01    0.4908083     0.303371  88.25 0.0008248722    1.475    0.322
       329 -10.8635     30.5313    148.7713   1.4349420271e+02   4.0884073551e+01    0.3642121    0.2150784 -87.33  0.001032237    1.542    0.352
       330 -10.7578     33.2051    144.3068   1.4245612550e+02   4.1586518941e+01    0.3172312    0.2413861  81.84 0.0007653928    1.126    0.112
       331 -11.3019     13.7668    140.0003   1.4704072596e+02   4.4207206714e+01    0.7218432    0.2691213  65.87  0.003335486    2.750    0.636
       332 -10.6378     14.0998    132.5819   1.4645769436e+02   4.5793212602e+01    0.2853526    0.2259843  87.59 0.0004418969    1.063    0.059
       333 -10.9327     10.5652    127.2037   1.4702190678e+02   4.7238884408e+01    0.6675659     0.149863 -65.61  0.002709671    3.474    0.712
       334 -11.8852     22.1750    149.8580   1.4561890708e+02   4.1411397476e+01    0.5213915    0.3666506 -51.57  0.003400753    1.761    0.432
       335 -10.4566     15.7306    147.8342   1.4705021541e+02   4.2380779369e+01    0.3937584    0.1826178  44.89  0.001254656    1.859    0.462
       336 -10.3453    214.8945    150.4493   1.0218303945e+02   1.1200886739e+01    0.3557971    0.2012223 -18.53  0.001783252    1.932    0.482
       337 -11.1849     63.0242    150.9624   1.3563782803e+02   3.6864571231e+01    0.4479433    0.3165617   4.17  0.002195301    2.272    0.560
       338 -10.5065     60.9229    147.4867   1.3575849743e+02   3.7863531331e+01    0.2595458    0.2377038  60.09 0.0008632251    1.120    0.107
       339 -11.1576     47.8533    147.1855   1.3902616287e+02   3.9451852185e+01    0.4627693    0.2510459  70.28  0.001704486    1.964    0.491
       340  -9.4054     44.1781    148.3776   1.4006776834e+02   3.9595456183e+01    0.2777342    0.1288925  45.13  0.001436351    1.906    0.475
