#   1 NUMBER                 Running object number                                     
#   2 MAG_AUTO               Kron-like elliptical aperture magnitude                    [mag]
#   3 X_IMAGE                Object position along x                                    [pixel]
#   4 Y_IMAGE                Object position along y                                    [pixel]
#   5 X_WORLD                Barycenter position along world x axis                     [deg]
#   6 Y_WORLD                Barycenter position along world y axis                     [deg]
#   7 A_WORLD                Profile RMS along major axis (world units)                 [deg]
#   8 B_WORLD                Profile RMS along minor axis (world units)                 [deg]
#   9 THETA_WORLD            Position angle (CCW/world-x)                               [deg]
#  10 FWHM_WORLD             FWHM assuming a gaussian core                              [deg]
#  11 ELONGATION             A_IMAGE/B_IMAGE                                           
#  12 ELLIPTICITY            1 - B_IMAGE/A_IMAGE                                       
         1 -14.5798     68.3748    144.6539   9.0124994231e+01   3.7151260970e+01      4.84243     2.528372  78.70  0.002945205    3.778    0.735
         2 -13.6690    233.4205     27.2858   2.3825990436e+01   2.3765042949e+01    0.9084182    0.8474555  44.85  0.002635912    1.362    0.266
         3 -13.8189    215.3722     41.8477   2.9153536598e+01   2.6011574586e+01     1.827395     1.409591  -8.16  0.006521915    1.723    0.420
         4 -11.8020     10.0486     13.2985   7.8949299717e+01   7.2191151273e+01    0.2212452    0.1779612 -12.20  0.001196394    1.137    0.121
         5 -11.4675      2.4293      3.6087   7.9194334119e+01   7.4322112274e+01    0.3744075    0.1724345 -44.04  0.002198997    1.785    0.440
         6  -9.9914    250.6076      5.9383   1.7922732976e+01   2.2535987349e+01    0.3550549    0.1029807 -30.65  0.001481682    3.373    0.704
         7 -12.0187     14.9882      6.1834   7.2572717508e+01   7.2900969784e+01    0.3161395    0.1989348   0.09  0.002026079    1.451    0.311
         8  -9.2331     58.3240      2.6711   4.8973669907e+01   6.7307104173e+01    0.1084792    0.1003627 -63.04 0.0007049757    1.697    0.411
         9 -10.1410     25.6372    213.8312   1.0781297628e+02   2.6363726271e+01    0.2507682   0.09503516 -77.93  0.001232991    2.480    0.597
        10 -13.1862     58.4974    170.0940   9.6432324157e+01   3.2302458088e+01     1.381428    0.7836401 -20.67  0.004308704    4.690    0.787
        11 -16.1284     31.8305    183.9440   1.0429953965e+02   3.2142415847e+01     9.041616      3.42205  78.76   0.03163249    4.315    0.768
        12 -10.7229     28.5705    218.5337   1.0752924211e+02   2.5105704463e+01    0.3669419    0.2002212  42.14   0.00117083    1.601    0.375
        13 -13.4871     25.0401    197.2986   1.0683224845e+02   2.9890446376e+01     0.578617    0.4671504  70.97 0.0009689173    1.040    0.039
        14 -16.4107     20.1066    241.7955   1.1040108015e+02   2.1518867436e+01     7.492302     2.430367  24.63   0.02548072    7.339    0.864
        15  -9.5856     99.2566    181.0314   8.7743828620e+01   2.3884866819e+01    0.2374668    0.1905084  42.27 0.0005464926    1.176    0.150
        16 -11.0052    225.8871    178.1694   5.9062445597e+01   1.7289210340e+00    0.4710187    0.2256116 -46.97  0.002002333    2.661    0.624
        17 -12.9997    238.9107    172.1755   5.5522624780e+01   5.1818301094e-01    0.9655715    0.6827824   8.73   0.00421469    1.447    0.309
        18  -8.3949    180.6087    176.3014   6.7753249938e+01   1.0154539342e+01    0.1431383    0.1150059  72.27  0.000701129    1.802    0.445
        19 -13.6422     58.7285    154.3440   9.4283630796e+01   3.6047592349e+01    0.6475207    0.4689955 -47.03  0.001530408    1.503    0.335
        20 -12.0656     71.7831    158.9837   9.1448706334e+01   3.3191150992e+01    0.4266953    0.3489432 -64.79 0.0003731736    1.187    0.158
        21 -12.9169     79.6630    152.7933   8.8331726615e+01   3.3550532712e+01    0.9827803    0.6290573 -42.20  0.001932795    1.790    0.441
        22 -15.0711      8.4555    209.8969   1.1096550386e+02   2.8827209074e+01     2.191713    0.8216431 -74.07  0.009033129    2.349    0.574
        23  -9.5726     72.3566    204.4875   9.7110047295e+01   2.2738116455e+01    0.2632875    0.1652154  74.22 0.0007153806    1.725    0.420
        24  -8.3123    120.6892    142.3779   7.5102004391e+01   2.9013049631e+01    0.1610938    0.1212353  82.32  0.000702785    1.791    0.442
        25 -10.6025     95.2952    140.0120   8.1618544731e+01   3.4168321435e+01     0.398858    0.3034458 -32.25  0.001071935    1.530    0.346
        26  -9.7400     98.3264    137.0152   8.0146275426e+01   3.4373258605e+01    0.3465174    0.2287609 -32.95  0.001511576    1.867    0.464
        27 -12.3356     82.9966    138.0940   8.4763875127e+01   3.6627237625e+01    0.3001273    0.2763036 -54.63 0.0004598554    1.081    0.075
        28 -10.9615    106.6041    130.3834   7.6353157673e+01   3.4482434523e+01    0.4276918    0.3530794  -2.61  0.001180687    1.480    0.324
        29 -10.2604    110.8113    167.7582   8.2666609936e+01   2.4958242717e+01     0.278199    0.2221806 -75.88 0.0005595532    1.384    0.277
        30 -10.0040    123.9737    202.5568   8.5140710305e+01   1.5227152609e+01    0.1982144    0.1821752 -69.96 0.0004987711    1.213    0.175
        31  -9.7860    238.3313    126.3187   4.5881115212e+01   7.9876828602e+00    0.1401868     0.101697   1.94 0.0003348079    1.690    0.408
        32  -9.1433    114.7636    124.3842   7.2644205432e+01   3.4348299348e+01    0.2182747      0.14746  28.11 0.0006453374    1.658    0.397
        33 -11.8029     36.5707    161.0428   1.0095643527e+02   3.6961158958e+01    0.5705441    0.2741324  63.87  0.002532796    2.446    0.591
        34  -9.3650    174.8776    149.2040   6.3277947813e+01   1.6536306801e+01    0.2228326    0.2110893  81.66  0.000576821    1.238    0.192
        35  -9.8520    105.1502    118.5431   7.4011819161e+01   3.7553176580e+01    0.2439533    0.2054566 -49.10 0.0002958031    1.170    0.145
        36 -12.2933    244.4862    112.4733   4.1857012235e+01   9.0743293326e+00    0.5720478    0.2243095 -48.06  0.002153488    2.903    0.656
        37 -10.2473    133.7522    145.1507   7.2273030970e+01   2.5822837338e+01    0.9775671    0.2097191 -53.91  0.001863774    8.750    0.886
        38 -10.1853    205.1618    110.4587   4.7858808567e+01   1.7463421225e+01    0.3487134     0.266261  35.52  0.001078327    1.420    0.296
        39  -9.7948     68.3048    104.7790   8.2302514082e+01   4.6943868256e+01     0.256604     0.227844 -12.74  0.000576959    1.213    0.175
        40 -10.4966    231.2169    114.0792   4.4256501642e+01   1.1388799607e+01    0.2887196     0.251718 -22.72 0.0008034769    1.082    0.075
        41  -9.0097     62.9980    100.4405   8.3081050492e+01   4.8716461579e+01    0.1967586     0.141263  28.65 0.0003063958    1.507    0.336
        42 -11.2031     53.2298     91.4831   8.4381617267e+01   5.2088677432e+01    0.5194187    0.1880532 -53.63  0.001943881    2.354    0.575
        43 -10.2120     43.2815     89.4923   8.7529643108e+01   5.3680610742e+01    0.2422128     0.214647  57.06 0.0006895182    1.326    0.246
        44  -9.7653    162.7007     84.9603   4.9663353984e+01   3.2017563416e+01     0.217372    0.2045493 -33.18 0.0005148374    1.071    0.067
        45  -9.9971     63.3400     81.1804   7.8011739247e+01   5.3144293348e+01    0.4955598    0.3270636 -82.76  0.002097561    2.644    0.622
        46 -10.6852     58.1891     77.3797   7.8862638926e+01   5.4695987163e+01    0.4571134    0.2987917 -30.95  0.002263092    1.576    0.366
        47 -10.0090     53.4848     74.1719   7.9752327773e+01   5.6014620826e+01    0.3600864    0.2190776  56.90  0.001388178    2.658    0.624
        48  -8.9375    184.5666     77.2205   4.3070416575e+01   2.8074635630e+01    0.2009237    0.1457264 -20.80 0.0004291685    1.587    0.370
        49  -8.8813     41.4725     66.5754   8.2376655604e+01   5.9077029035e+01    0.1312921    0.1162263 -35.35 0.0001665218    1.049    0.046
        50 -11.8201    115.6458    248.6600   9.2777160031e+01   8.0976984716e+00    0.4318588    0.1798115  45.28  0.002111629    1.955    0.488
        51 -13.7876    207.2004     47.5637   3.1611427887e+01   2.7161366491e+01     1.707868    0.9436356  42.69  0.002404179    2.299    0.565
        52  -8.8037    224.0455    206.9812   6.4894035645e+01  -2.3567176438e+00    0.1502008    0.1220448  -0.44 0.0009483853    1.046    0.044
        53 -12.4067    223.6513     35.3616   2.6656728424e+01   2.4948608942e+01    0.4740613    0.3693109  42.65  0.001175148    1.604    0.376
        54 -11.3151     13.4702     60.1778   9.2573473994e+01   6.2812710270e+01    0.2702985    0.1994822 -66.67 0.0004019906    1.321    0.243
        55 -11.2337      2.6325     61.1046   9.7432810816e+01   6.3172135125e+01    0.2903179    0.1537831 -33.04  0.001625484    1.777    0.437
        56  -9.5426     27.5985     52.0939   8.4090272744e+01   6.3496799074e+01     0.178188    0.1626272   4.06 0.0003841728    1.230    0.187
        57 -11.0289      2.1127     50.1806   9.5289029365e+01   6.5555201899e+01    0.4270299   0.06998889 -66.49  0.001249118    5.902    0.831
        58 -11.6725     10.5453     25.5268   8.3659830712e+01   7.0008949415e+01    0.4246882   0.07571568 -45.55  0.001630892    3.454    0.710
        59 -10.0828    197.9473     24.0708   2.6721777553e+01   3.2388776509e+01    0.2660548    0.1959035 -22.26  0.001005038    1.587    0.370
        60 -11.2709      3.0290     22.0727   8.6606245049e+01   7.1108634154e+01    0.3101942    0.1010747 -44.78  0.001531555    2.155    0.536
        61  -9.1258    189.4904     15.1068   2.5347512789e+01   3.5457820951e+01    0.1852059    0.1308043 -30.89 0.0005894207    1.534    0.348
        62  -9.4858     87.1132    205.7883   9.3945838596e+01   2.0374351715e+01    0.2104636    0.1651801  84.50 0.0004145881    1.308    0.235
        63 -11.7525     95.6072    242.6881   9.6140292166e+01   1.2026550098e+01    0.3592966    0.2402347  88.84  0.001838752    1.832    0.454
        64 -10.8567    192.8050    194.7362   6.8742538282e+01   4.6723365876e+00     1.097915    0.5391205 -60.24   0.00292442    7.773    0.871
        65 -10.1557     31.9831    222.9800   1.0714332626e+02   2.3853616385e+01    0.3293563    0.2012968 -66.42   0.00207851    1.754    0.430
