#   1 NUMBER                 Running object number                                     
#   2 MAG_AUTO               Kron-like elliptical aperture magnitude                    [mag]
#   3 X_IMAGE                Object position along x                                    [pixel]
#   4 Y_IMAGE                Object position along y                                    [pixel]
#   5 X_WORLD                Barycenter position along world x axis                     [deg]
#   6 Y_WORLD                Barycenter position along world y axis                     [deg]
#   7 A_WORLD                Profile RMS along major axis (world units)                 [deg]
#   8 B_WORLD                Profile RMS along minor axis (world units)                 [deg]
#   9 THETA_WORLD            Position angle (CCW/world-x)                               [deg]
#  10 FWHM_WORLD             FWHM assuming a gaussian core                              [deg]
#  11 ELONGATION             A_IMAGE/B_IMAGE                                           
#  12 ELLIPTICITY            1 - B_IMAGE/A_IMAGE                                       
         1 -13.7167    244.9084    157.8552   9.0911495134e+01   1.8605599746e-01     2.407698    0.8783373 -46.94  0.008592622    3.070    0.674
         2 -14.1964    202.8241     17.1310   6.4246323175e+01   3.2633713132e+01      2.38335     1.485193  33.66   0.01032983    2.443    0.591
         3 -13.6688    207.5810     10.6622   6.2178648446e+01   3.2206380988e+01     1.301003    0.7061271  47.81  0.001483625    2.189    0.543
         4 -12.6262     12.4249      3.6775   1.0845749767e+02   7.1111838588e+01    0.8386936    0.2624374  28.63  0.004381911    3.242    0.692
         5 -11.9618      1.8835      4.5573   1.1393379874e+02   7.1831101002e+01    0.4556856    0.1892903 -44.00  0.002758685    2.170    0.539
         6 -10.2071    200.0340    245.8029   1.1599102559e+02  -6.0856019476e+00    0.1843065    0.1523295  48.11 0.0005371983    1.286    0.222
         7  -9.1864    205.3114    250.3463   1.1571937594e+02  -7.5950328292e+00    0.1261865   0.08515307  10.57            0    1.710    0.415
         8  -9.9389    184.0086    250.3889   1.1970161064e+02  -4.0650435494e+00    0.1796749    0.1362491  35.95  0.000458213    1.090    0.083
         9 -10.5358    169.7833    248.6234   1.2213170774e+02  -1.3746039629e+00    0.3207737    0.2207254   9.79 0.0007950137    2.129    0.530
        10 -11.6960    150.1634    248.4283   1.2583234174e+02   2.0284657426e+00    0.4268958    0.3118131  58.28  0.002584093    1.298    0.229
        11 -11.1774    133.7311    249.2418   1.2904789964e+02   4.6906498682e+00     0.547066    0.2274093  50.64  0.002500681    2.115    0.527
        12 -11.3321    121.6382    244.8698   1.3079594655e+02   7.4821522110e+00    0.5376078    0.2511725  45.91  0.002656241    1.765    0.433
        13 -11.7926    126.2508    240.6986   1.2940005500e+02   7.4532196154e+00    0.4279871    0.3729531 -68.70  0.001807462    1.314    0.239
        14  -9.6724    122.9670    249.9514   1.3115298344e+02   6.3681503456e+00    0.2700076    0.1868011  61.60  0.001625994    1.297    0.229
        15 -10.1445    126.9459    248.9878   1.3029290580e+02   5.8733161702e+00    0.3091775    0.2371194 -83.78   0.00125239    1.478    0.323
        16 -11.0555    115.3285    250.2720   1.3261054580e+02   7.5670308907e+00    0.5745132     0.296813  40.23  0.002998245    1.771    0.435
        17 -11.7510    109.5604    246.6988   1.3327837381e+02   9.1391159366e+00    0.5504559    0.4263122 -84.36  0.002851317    1.354    0.261
        18  -9.0096     92.4474    232.5292   1.3492558899e+02   1.4530467642e+01     0.188562   0.09830122  51.91 3.192241e-05    1.632    0.387
        19 -11.2338     96.4964    239.0846   1.3487988650e+02   1.2633652204e+01    0.4688176    0.2934196  89.91  0.002020672    1.779    0.438
        20 -11.7718     99.7070    246.7858   1.3511316812e+02   1.0696084993e+01    0.6416695    0.3962863  44.54  0.003393953    1.438    0.305
        21 -10.4077    101.3587    240.1698   1.3408388479e+02   1.1658149058e+01    0.2404818    0.1447123 -74.90 0.0006033663    1.847    0.459
        22 -10.5256    104.4694    237.8378   1.3322942693e+02   1.1596957473e+01    0.2351931    0.1918523  47.44 0.0007699536    1.228    0.186
        23  -9.8151     88.2280    250.6279   1.3758903697e+02   1.1767170167e+01    0.4133135    0.1008706  41.56  0.001570163    3.528    0.717
        24 -10.5481     88.9941    247.3877   1.3713231070e+02   1.2243617808e+01    0.3891902    0.2028219  44.49  0.001641597    1.666    0.400
        25  -8.6934     74.7576    250.5748   1.3997037377e+02   1.3765036587e+01    0.2202823    0.1006669  41.03  0.001145951    2.070    0.517
        26 -12.0991     62.4758    245.6317   1.4168846354e+02   1.6412990043e+01     1.260225    0.5946293  46.48  0.005697657    1.795    0.443
        27 -12.2930     13.2742    185.9466   1.4578043223e+02   3.4500407776e+01    0.8920443    0.2398809  32.26  0.001217316    4.143    0.759
        28 -14.4554      6.4045    211.6307   1.4892208877e+02   2.9749027500e+01     2.546178     1.269747 -80.48   0.01581711    1.574    0.365
        29 -14.0536     27.4238    247.0757   1.4767107622e+02   2.0580857077e+01     1.918521     1.128088  39.22   0.01261626    1.954    0.488
        30 -12.9980     38.1491    244.9431   1.4577745021e+02   1.9702513437e+01     1.156115    0.4759012 -72.14  0.006433348    2.243    0.554
        31 -14.1205      5.9265    245.7061   1.5096299332e+02   2.3187210219e+01      1.07601    0.5938324  77.04  0.007585629    1.323    0.244
        32 -12.8832     13.9836    238.8831   1.4932913838e+02   2.3618020129e+01    0.4836232     0.343988  61.03  0.003698491    1.250    0.200
        33 -12.7920     41.3514    228.5098   1.4400046876e+02   2.2500759144e+01    0.3239106    0.2900309 -71.21 0.0008032447    1.514    0.340
        34 -14.6658     47.4035    219.3218   1.4212723782e+02   2.3612232704e+01     1.737966     1.476363  40.95   0.01216004    1.530    0.347
        35 -11.2836    135.6885    241.0609   1.2762727627e+02   5.7751369188e+00    0.2748371    0.2238469  66.15 0.0004033825    1.163    0.140
        36 -12.4062    135.4644    236.3780   1.2704753811e+02   6.6490910481e+00    0.4959167    0.4521859 -25.54  0.001739544    1.447    0.309
        37  -9.1934     83.7970    242.1821   1.3756061503e+02   1.4000117953e+01    0.1505517    0.1347635  59.12 0.0008517861    1.299    0.230
        38 -10.6775    172.9262    239.7377   1.2022184776e+02  -5.1059687932e-01    0.3641911     0.185997 -52.42  0.001760327    2.467    0.595
        39  -8.6390    158.2850    241.3734   1.2329733507e+02   1.7892137819e+00     0.124029   0.09781379   5.79 0.0007016945    1.712    0.416
        40 -10.7723    144.6316    240.4827   1.2581879253e+02   4.3272064123e+00    0.2775888    0.1538832  62.77  0.001293598    2.237    0.553
        41 -10.6370    115.8059    239.8892   1.3130508595e+02   9.3551488633e+00     0.231553    0.2001346  72.44 0.0006446176    1.096    0.088
        42 -10.3943    165.1191    242.1366   1.2208672968e+02   4.6740655226e-01    0.2226034    0.1907334  22.51  0.000630598    1.238    0.192
        43 -10.9361     89.9618    237.6298   1.3595063816e+02   1.3929214920e+01    0.3319157    0.2073125 -73.26  0.001287479    1.662    0.398
        44  -9.2794     83.5159    238.4270   1.3723501568e+02   1.4757885026e+01    0.2068008   0.09864967  44.63 8.930871e-05    1.826    0.452
        45  -9.5456     86.3057    237.3001   1.3660018267e+02   1.4552567385e+01    0.1723483   0.09490872  52.68 0.0002677714    1.514    0.340
        46 -11.1098    143.3147    249.2885   1.2724425187e+02   3.0573612227e+00    0.3821011    0.2493618 -85.78  0.001242451    2.318    0.569
        47  -8.9690    182.5855    236.5088   1.1785328643e+02  -1.6883208576e+00    0.1289277    0.1113847  36.44 0.0001555052    1.021    0.021
        48 -11.4071    164.4686    234.4819   1.2107686010e+02   1.8556068725e+00    0.5122021     0.272133  58.89  0.002080708    2.392    0.582
        49 -11.3951    128.9550    234.3197   1.2804866336e+02   8.1526794813e+00    0.4585106    0.2622168  55.58  0.002342698    1.622    0.384
        50 -11.2954    122.4472    232.5222   1.2909207224e+02   9.6061365151e+00    0.3953016    0.3333538 -67.81  0.001520029    1.320    0.242
        51 -11.1132     98.4041    231.6526   1.3368019389e+02   1.3759379125e+01    0.3852766    0.2641804  89.00  0.000647826    1.515    0.340
        52 -10.9382    112.7299    230.0977   1.3069531625e+02   1.1713928107e+01    0.3745679    0.3181567  31.25   0.00148306    1.435    0.303
        53 -11.4373    105.8839    229.2210   1.3193327589e+02   1.3020851193e+01     0.606146    0.3150276  55.05  0.002096237    1.747    0.427
        54 -10.0550     77.7451    232.9860   1.3775813371e+02   1.6675918863e+01    0.3535472    0.1811926  86.16  0.001678657    2.464    0.594
        55 -11.2355    156.5453    231.7304   1.2222779062e+02   3.7476092347e+00    0.2500396    0.2345593  15.87 0.0007269746    1.209    0.173
        56 -10.4558    222.5135    244.9669   1.1169229516e+02  -9.6236227576e+00    0.2462864    0.1445572  25.18  0.001013906    1.605    0.377
        57 -11.4372    142.0012    230.3208   1.2491485981e+02   6.5996325068e+00    0.4025092    0.2724394 -37.67  0.001882608    1.967    0.492
        58 -11.6403    142.0103    221.7714   1.2366142155e+02   8.1903281270e+00    0.3879982    0.3225511  36.87 0.0003653352    1.211    0.174
        59 -11.3409    138.3265    214.0704   1.2325053268e+02   1.0351570415e+01    0.5345186    0.3241099  34.72  0.002571617    1.738    0.424
        60 -10.6538     84.7409    229.4726   1.3606595626e+02   1.6322764212e+01    0.2849972     0.242699  25.35 2.406665e-05    1.681    0.405
        61 -10.5513     77.3625    220.9628   1.3656937830e+02   1.9154509592e+01    0.2622755    0.1838203  63.44 0.0004346714    1.213    0.175
        62 -10.8280     80.6332    227.2486   1.3661421268e+02   1.7387962872e+01    0.2985233    0.2654274 -24.22 0.0009479425    1.842    0.457
        63 -10.2408     78.6944    224.6927   1.3671374543e+02   1.8193931321e+01    0.2536037    0.2136308 -42.35  0.000928549    1.760    0.432
        64 -10.6573    165.5861    226.5187   1.1962470779e+02   3.0281510090e+00    0.3977422    0.2465935 -66.72  0.001897905    2.366    0.577
        65 -11.2423    160.6163    223.7702   1.2018999178e+02   4.4243913338e+00    0.4629917    0.2509246  40.65 0.0006896344    1.642    0.391
        66  -9.4307    164.6082    220.5754   1.1887074404e+02   4.2657146726e+00    0.2892182    0.1785403 -32.26  0.001055064    2.166    0.538
        67  -9.5969    190.7137    228.0404   1.1489886997e+02  -1.7648420680e+00    0.1734526    0.1616877  10.87 0.0003834541    1.107    0.097
        68  -9.1057    179.3388    227.7189   1.1708122070e+02   3.2752176419e-01     0.192636    0.1484814  75.23 0.0005755209    1.770    0.435
        69  -9.7768    197.5521    226.7021   1.1334196329e+02  -2.7625958374e+00    0.2642803    0.2079075  81.22  0.001387091    1.996    0.499
        70 -11.5237    132.2930    224.3733   1.2601688426e+02   9.4372386075e+00    0.2701941    0.2463425 -71.81  0.001291458    1.215    0.177
        71  -9.4536    129.5912    220.8037   1.2605656649e+02   1.0606618108e+01    0.2774559    0.1688487 -70.16  0.001355928    2.008    0.502
        72  -9.4832     93.9535    217.0012   1.3281065679e+02   1.7417989677e+01    0.3393319    0.1772775  84.04  0.001388117    2.969    0.663
        73 -10.2752     92.6038    226.0066   1.3415546244e+02   1.5796892761e+01    0.2772589    0.1623952  52.10 0.0009045529    1.469    0.319
        74 -11.4854     99.1553    223.5764   1.3257398301e+02   1.5238461997e+01     0.480766    0.2894724  46.78  0.001174155    1.475    0.322
        75 -10.2877    148.0057    224.2640   1.2281752376e+02   6.6355125065e+00    0.4258064    0.2855348   0.57  0.001730336    3.234    0.691
        76 -10.9286    117.3704    224.3129   1.2902197880e+02   1.2053142874e+01     0.237104    0.2077326  62.33 0.0002627604    1.061    0.057
        77 -10.3856    110.7413    221.4232   1.2997737695e+02   1.3754204638e+01    0.3603578    0.2117497 -57.52  0.001391366    1.847    0.459
        78 -10.6085    105.3346    219.3015   1.3079601068e+02   1.5088829850e+01    0.3715534    0.2267682  80.19  0.000564712    2.016    0.504
        79 -10.8091     72.8561    209.8711   1.3623113843e+02   2.2144967471e+01    0.4479237    0.2753232  29.53  0.002001953    2.217    0.549
        80 -11.0954     70.8414    220.3069   1.3776765333e+02   2.0241244195e+01    0.4824831    0.2650436 -74.11  0.002411731    1.770    0.435
        81 -10.5031     68.0843    214.7095   1.3771486777e+02   2.1802593478e+01    0.2705937    0.1614545 -76.33 0.0008915859    1.584    0.369
        82 -10.1346    246.0269    218.9830   1.0289792719e+02  -9.7448075862e+00    0.2077354    0.1351045   3.06 0.0009990532    1.702    0.412
        83  -9.1815     56.9308    230.6353   1.4137862402e+02   2.0073276944e+01     0.292134    0.1207211  51.09  0.001479195    2.037    0.509
        84  -8.4368     89.6622    218.3121   1.3383353786e+02   1.7826021216e+01    0.1397264   0.08473897  70.02  0.000473329    1.690    0.408
        85 -10.1082     23.1726    215.6859   1.4625160964e+02   2.7208227241e+01    0.4362916    0.1814327 -74.58  0.002357964    2.019    0.505
        86  -8.7684    190.6476    215.2767   1.1272282743e+02   3.7563621217e-01    0.1333094    0.1037825  66.95 0.0007007252    1.644    0.392
        87  -9.2788    182.7733    214.0022   1.1407987230e+02   2.0597749053e+00    0.1686901    0.1149835 -43.73 0.0004383775    1.625    0.385
        88  -9.8359     88.1399    213.1063   1.3351217134e+02   1.9150920972e+01    0.2307917    0.1651506  88.70 0.0006638283    1.350    0.259
        89 -11.9974    245.4008    240.9465   1.0690163334e+02  -1.2600988366e+01    0.3234267     0.226756  -2.40  0.002056317    1.369    0.270
        90  -9.9971    102.2328    212.1168   1.3048968734e+02   1.7086577074e+01    0.3646172    0.1922854  60.97  0.001664725    2.021    0.505
        91  -8.9151    152.5604    212.2055   1.1998588633e+02   8.0740315308e+00    0.1755687    0.1347478 -38.04 0.0006274351    1.546    0.353
        92  -9.4852     33.5765    211.3886   1.4401751389e+02   2.6935974694e+01    0.1593981    0.1040084  44.12 0.0003326634    1.605    0.377
        93 -10.2570    109.0529    207.6581   1.2845115794e+02   1.6874234434e+01    0.3460157    0.1910245 -68.16  0.001295901    1.999    0.500
        94  -9.2896    119.9584    208.7384   1.2630251778e+02   1.4747569400e+01    0.1941022    0.1619254  56.10 0.0003204334    1.076    0.071
        95  -9.2886    134.9077    208.0301   1.2302790307e+02   1.2188812845e+01    0.2130248    0.1749194   0.62 0.0009259667    1.764    0.433
        96 -12.4237     93.6068    202.6341   1.3102981829e+02   2.0523790603e+01    0.5547793    0.4505816 -74.18  0.003301274    1.206    0.171
        97 -10.5382    102.6614    202.6053   1.2909525109e+02   1.9037753207e+01    0.4554098    0.2422201  59.82   0.00188511    2.008    0.502
        98 -10.7071     98.6921    196.7201   1.2911273121e+02   2.0985320239e+01     0.598466    0.2814491  42.53  0.002131762    2.027    0.507
        99  -9.0453     28.9324    208.1709   1.4461635549e+02   2.8137260291e+01    0.1951787   0.09116181  61.24  0.001037913    1.981    0.495
       100  -9.5797    178.3018    204.7078   1.1334130322e+02   4.5907868618e+00    0.2017037    0.1737074 -71.07 0.0002562018    1.391    0.281
       101 -10.5451    175.1750    205.3851   1.1410964662e+02   5.0656397870e+00    0.3232951    0.2614779   1.00  0.001515514    1.520    0.342
       102 -11.2055    246.4110    205.6765   1.0033911054e+02  -7.8683105111e+00    0.3285923    0.2148999   7.09  0.001744017    1.749    0.428
       103  -9.5857    125.8625    205.5951   1.2457328197e+02   1.4342796058e+01    0.2230313    0.1786991  77.38 0.0006269909    1.265    0.210
       104  -9.6908    166.9216    203.2556   1.1545099900e+02   7.0609675455e+00    0.1961161    0.1651971  42.16  0.001085631    1.091    0.084
       105  -9.5009    133.0909    202.8758   1.2259502710e+02   1.3582650056e+01    0.2166767    0.1780855  75.79 0.0004580321    1.236    0.191
       106  -9.6570    138.0658    201.6426   1.2132283132e+02   1.2909118015e+01    0.2143979    0.1872316 -87.86 0.0003314359    1.187    0.157
       107  -9.7736     64.3296    202.1019   1.3708692211e+02   2.5035918774e+01    0.1926524    0.1691112  53.44 0.0005469309    1.289    0.224
       108 -10.5715     32.8870    201.9436   1.4333656114e+02   2.9017860107e+01    0.1770424     0.140732  78.91 0.0002986164    1.080    0.074
       109 -10.0499    197.3269    200.7479   1.0872739745e+02   1.6660917343e+00    0.2875529    0.1787724  33.80  0.001219923    1.577    0.366
       110 -10.3481    112.9985    193.8842   1.2554761022e+02   1.9154444016e+01    0.5150266    0.2647036 -63.80  0.001222881    2.103    0.524
       111 -10.7167    115.2151    200.2250   1.2604146833e+02   1.7385405503e+01    0.2502543    0.2338619 -69.25 0.0002589632    1.186    0.157
       112 -10.1884    119.9778    199.1023   1.2483377398e+02   1.6776696621e+01    0.3593456    0.2289357  66.18  0.001536124    1.749    0.428
       113  -9.3623    169.6675    200.1092   1.1430862485e+02   7.1345552898e+00    0.1869874    0.1810639 -32.47 0.0004247859    1.119    0.107
       114  -9.8642     44.2054    199.1658   1.4085355846e+02   2.8293152581e+01    0.2737122    0.1862253  50.34  0.001076656    1.434    0.302
       115  -8.5274     86.2549    199.3066   1.3215127138e+02   2.2420049233e+01    0.1906261    0.1499814 -65.58 0.0002016083    1.294    0.227
       116  -9.5860     86.0432    195.8410   1.3173389516e+02   2.3219932513e+01    0.2046588    0.1713081  75.77 0.0003633988    1.034    0.033
       117 -10.9523     53.5776    198.0974   1.3884825643e+02   2.7353150519e+01    0.5715274    0.1965978  44.08  0.002518215    2.653    0.623
       118 -10.3462     56.3813    194.2056   1.3784129542e+02   2.7849675823e+01    0.3004037     0.211998 -81.42 0.0008737437    1.228    0.186
       119  -8.4212    149.6939    198.7314   1.1832205870e+02   1.1290818332e+01    0.1353318    0.1123119  10.68 0.0001778297    1.535    0.348
       120  -9.8821    134.1209    197.8578   1.2155081036e+02   1.4439230359e+01    0.2605136    0.1926745 -79.79 0.0004071786    1.567    0.362
       121  -9.1414    133.5110    194.4362   1.2111057618e+02   1.5278551837e+01    0.2259756    0.1711793  23.68 0.0006496037    1.664    0.399
       122 -11.6143     66.4711    195.1271   1.3582899942e+02   2.6277910898e+01    0.4298795    0.2996675 -51.61  0.001260025    1.700    0.412
       123 -10.4987     76.6608    187.1593   1.3260983319e+02   2.6604085309e+01    0.3887858    0.1930127 -72.96  0.001741066    2.090    0.522
       124 -11.9100     72.1468    187.4213   1.3363841672e+02   2.7205697087e+01    0.3726302    0.2893957 -44.61 0.0006623268    1.652    0.395
       125  -8.8822    107.4948    196.4696   1.2715464006e+02   1.9549325027e+01    0.1420085    0.1220909  73.69 0.0001034225    1.039    0.038
       126 -10.5794    249.3256    194.5030   9.7658158869e+01  -6.6445876326e+00    0.2665304    0.2316379  35.61  0.001679371    1.274    0.215
       127  -9.1416     31.2292    195.3409   1.4306645516e+02   3.0629888316e+01      0.21296    0.1220705  52.83 0.0009575795    1.637    0.389
       128  -9.7123    159.4475    194.0375   1.1538090433e+02   1.0340977346e+01    0.3298553    0.1920366  56.58  0.001213931    1.893    0.472
       129 -10.9507    119.0211    191.4951   1.2382997670e+02   1.8599363088e+01    0.5258141     0.344283 -84.16 0.0007022789    1.929    0.482
       130  -8.7345     81.8942    194.3871   1.3243588162e+02   2.4185405815e+01    0.1833546    0.1247074  45.99  0.000138781    1.442    0.306
       131  -8.8110     84.6774    192.3173   1.3155132955e+02   2.4219944189e+01    0.1397401     0.123223  84.02 0.0003854556    1.059    0.056
       132 -10.4959     38.7077    192.3769   1.4128732159e+02   3.0435140210e+01    0.2301111    0.1669928 -65.92 0.0001466743    1.368    0.269
       133  -9.3241     41.3525    188.1631   1.4031454326e+02   3.1062439176e+01    0.2988209    0.1621664  89.29  0.001335008    1.813    0.449
       134  -9.2069     26.0497    192.8201   1.4386000541e+02   3.1736693154e+01    0.1677711    0.1241364 -88.45 0.0008923022    1.053    0.051
       135  -9.7851     20.2821    191.9651   1.4491487238e+02   3.2516269051e+01    0.2653434    0.1544337  78.65  0.001589303    1.507    0.336
       136 -10.2583    191.4847    191.4774   1.0813334484e+02   4.4923828686e+00    0.2761014    0.2596021  23.70 0.0006320378    1.010    0.010
       137  -9.4809    173.1538    192.0760   1.1208059079e+02   8.0143250584e+00    0.2337505    0.1649076 -15.04 0.0009345944    2.052    0.513
       138  -9.7625     72.9466    193.0654   1.3419367126e+02   2.5815725739e+01    0.1955641    0.1652151  83.39  0.001208037    1.019    0.018
       139  -9.2755    135.2844    190.0826   1.1997060116e+02   1.5873636719e+01    0.1957293    0.1787705 -86.93 0.0003851401    1.093    0.085
       140 -10.0006     32.1795    189.6915   1.4234823693e+02   3.1763024213e+01    0.3125133    0.2114454  37.19  0.001949301    1.738    0.424
       141 -11.2249    249.6089    187.4508   9.6211166093e+01  -5.5861634513e+00    0.3840505    0.2614274 -26.90    0.0021189    1.378    0.274
       142  -9.9626    140.1420    183.1736   1.1764570921e+02   1.6426943354e+01    0.2443696    0.2008851  48.73 0.0003196117    1.155    0.135
       143 -10.1832    143.2976    181.3701   1.1659970947e+02   1.6196621678e+01    0.2785952    0.2129313 -50.11 0.0008631885    1.372    0.271
       144  -9.9634     29.8089    183.5305   1.4223526105e+02   3.3383669697e+01    0.3272799    0.2100672  84.29  0.001600382    1.352    0.261
       145 -10.2622     25.1336    184.2874   1.4326583286e+02   3.3703292315e+01    0.2057997    0.1617974 -86.08 0.0006802159    1.071    0.066
       146  -9.2366     37.1389    184.0224   1.4076110701e+02   3.2472360996e+01    0.2105879    0.1590899  51.88 0.0009053887    1.368    0.269
       147  -9.3504     86.4634    183.1828   1.2985685346e+02   2.6013285665e+01    0.2433678    0.1747484  11.09  0.001151648    2.423    0.587
       148  -9.0107     53.3380    182.5020   1.3713222231e+02   3.0878352471e+01     0.272854    0.1893763 -20.28  0.001323348    2.984    0.665
       149 -10.5305    236.4225    145.9534   8.9807482271e+01   3.9411225089e+00    0.3753896    0.2284143  41.34 0.0009806219    1.777    0.437
       150 -12.5543    248.2650    171.7816   9.3257800708e+01  -2.8005578068e+00    0.8722399    0.4920492 -34.80  0.004253773    1.648    0.393
       151 -10.4279    193.7028    246.3360   1.1726370632e+02  -5.1027104000e+00    0.4183493    0.1826834 -37.10  0.001948598    2.804    0.643
       152 -11.6632    247.9282    142.5723   8.7104289279e+01   2.2834805503e+00    0.6921974    0.4809836 -22.02  0.002890346    1.553    0.356
       153 -12.2550    248.6542    133.1106   8.4916889633e+01   3.8074391214e+00     1.186093    0.5326291 -30.89  0.004638323    2.450    0.592
       154 -10.4917    129.7928    180.1844   1.1945055529e+02   1.9090481456e+01    0.4725405    0.2026238  59.92  0.001411742    4.045    0.753
       155  -9.1634     48.0490    179.7346   1.3795598923e+02   3.2165791950e+01    0.1664528    0.1401407  65.20  0.000437811    1.185    0.156
       156 -12.7146    248.2254    101.5163   7.7964244155e+01   9.4312786443e+00    0.8577065    0.5373632 -38.24  0.004229786    1.472    0.321
       157  -9.8086    174.8590    179.6944   1.0929749362e+02   1.0144499193e+01    0.3275818    0.1278615  38.49  0.001118418    2.733    0.634
       158  -9.9176    109.1558    178.2730   1.2387315007e+02   2.3337467428e+01    0.2354082     0.211765 -80.94 0.0004282465    1.067    0.062
       159 -11.3793     81.0426    175.5967   1.2996948922e+02   2.8606087656e+01    0.4784462    0.3451366  38.88   0.00162074    1.512    0.339
       160  -9.7396     77.4565    175.5166   1.3078659216e+02   2.9165587472e+01    0.2145993    0.1725787 -82.17 0.0005076231    1.115    0.103
       161 -11.7483     68.6522    173.2617   1.3249289746e+02   3.0965484801e+01    0.5430532    0.2710465 -52.30  0.001342118    2.068    0.516
       162 -10.8397     68.9188    166.7900   1.3149109647e+02   3.2443927798e+01    0.2773517    0.2058125 -64.62 0.0003441302    1.237    0.192
       163  -9.3318    114.8493    176.0924   1.2217265326e+02   2.2811429271e+01    0.2394962    0.1575792 -88.01 0.0006004309    1.980    0.495
       164  -8.6798    170.0287    180.0081   1.1040558181e+02   1.1072649423e+01     0.169528      0.16853  75.41 0.0009543468    1.043    0.041
       165 -10.1931     95.4846    172.8595   1.2616281044e+02   2.6940611547e+01    0.2497204    0.1775959  64.74 0.0005817921    1.442    0.307
       166 -10.8216     95.8872    157.1405   1.2332984670e+02   3.0572212141e+01    0.4449203    0.2197317 -60.26  0.001085498    1.969    0.492
       167 -12.0081    100.4313    150.3902   1.2091264321e+02   3.1396398600e+01      1.41288    0.9261021  -2.58  0.005143889    3.590    0.721
       168 -10.4890     93.3836    169.2630   1.2606307291e+02   2.8128944339e+01    0.2333163    0.1924652   8.49  0.001223173    1.738    0.424
       169 -12.4912     87.6216    166.8636   1.2704193700e+02   2.9626166359e+01    0.7133087    0.5527047  48.22  0.003900318    1.312    0.238
       170  -8.7457    167.2268    170.0779   1.0900059114e+02   1.3721973225e+01    0.1977975    0.1256538 -44.91 0.0008663312    1.627    0.386
       171  -9.1287    100.5237    170.5061   1.2457437155e+02   2.6638482235e+01     0.145115    0.1303401  86.37 -5.381991e-05    1.011    0.011
       172 -10.5806     43.6201    169.1008   1.3766498752e+02   3.5131144674e+01    0.3482344    0.2863232 -73.31  0.001512961    1.129    0.114
       173  -9.7663     48.1758    168.6595   1.3657561867e+02   3.4698507408e+01    0.2854996    0.1641464  48.00   0.00152045    1.778    0.437
       174  -9.4857    126.3628    167.6617   1.1791163852e+02   2.2576382974e+01    0.2352675    0.1716828  79.47  0.001087068    1.651    0.394
       175  -9.6761    107.5874    167.9700   1.2244408532e+02   2.5995850817e+01    0.2623759    0.2122333  23.18 0.0009903627    1.560    0.359
       176  -9.1095     58.4893    167.4777   1.3403989208e+02   3.3689274717e+01    0.1339969    0.1123052 -86.77 0.0004603715    1.009    0.009
       177  -8.8476    136.4334    165.4752   1.1510317246e+02   2.1089538469e+01    0.1525862    0.1410295  81.61 1.103406e-05    1.054    0.052
       178 -11.1135     28.7514    171.1251   1.4119081284e+02   3.6280768830e+01    0.3953453    0.2724486 -70.02  0.001532341    1.237    0.192
       179  -9.2607     53.9429    164.7260   1.3472380358e+02   3.4910991302e+01    0.1772826    0.1487952 -89.26 0.0002657529    1.032    0.031
       180  -9.1996    154.7449    161.7706   1.1007449327e+02   1.8141699329e+01    0.2059117     0.174271  89.80 0.0003798633    1.329    0.248
       181  -8.9788     36.9468    162.5200   1.3837976660e+02   3.7393553522e+01    0.1639415    0.1208373  42.86 0.0006201912    1.519    0.341
       182 -11.0030     73.5973    159.7603   1.2927879973e+02   3.3438666653e+01    0.4245902    0.2547596 -50.41  0.001604039    1.705    0.413
       183 -10.0457     72.0256    156.3237   1.2910811483e+02   3.4480442751e+01    0.3288698    0.2393089  13.18  0.001431862    2.061    0.515
       184  -9.4465     79.0996    158.8469   1.2778056031e+02   3.2843540519e+01    0.2113744    0.1719481  86.19 0.0004940198    1.189    0.159
       185 -12.7626      2.4408    127.8330   1.4245709213e+02   4.8254721478e+01     1.127393    0.2370998 -72.98  0.003913209    4.204    0.762
       186 -13.6663      5.6976    142.7926   1.4334800256e+02   4.4694454998e+01     1.392032    0.7620277  88.07  0.007925992    1.749    0.428
       187 -11.9932     33.4138    147.5215   1.3730307765e+02   4.1235817687e+01    0.4546375     0.274003  71.98  0.002421745    1.894    0.472
       188 -11.1663     18.9310    148.0405   1.4083610111e+02   4.2461406468e+01    0.2846595     0.200032 -41.87 0.0005379264    1.723    0.420
       189 -12.3406     31.2199    156.3142   1.3894662953e+02   3.9420028174e+01    0.4963157    0.4571366 -84.52  0.003506101    1.198    0.165
       190  -9.1088     52.4850    158.4657   1.3419841999e+02   3.6559146348e+01    0.1323251     0.111471 -79.98 0.0001022268    1.019    0.018
       191 -13.5252     21.4661    154.8791   1.4103291400e+02   4.0678422558e+01    0.9713947     0.497889 -59.91  0.005352654    1.668    0.400
       192  -9.3124    134.3203    155.5853   1.1357726736e+02   2.3765669676e+01    0.2518176    0.1849134 -31.45 0.0006375569    1.678    0.404
       193  -9.3181    228.4377    155.1198   9.3255006482e+01   3.8713868665e+00    0.2214894    0.1343628 -38.01 0.0005530822    1.569    0.363
       194  -8.6331    124.7063    154.3260   1.1565130388e+02   2.5972468094e+01    0.1556962    0.1166309  84.97 0.0002684972    1.622    0.383
       195 -11.4580     56.0648    149.7873   1.3203509764e+02   3.8165496568e+01    0.7165436    0.3871045  62.85  0.003244947    2.362    0.577
       196 -10.5230    114.0117    150.8542   1.1758596480e+02   2.8833311234e+01    0.3907954    0.2594153 -59.44 0.0005835379    1.491    0.329
       197 -11.3650     60.6203    137.6112   1.2885562931e+02   4.0475547217e+01    0.2975761    0.2458306  88.32 0.0008624308    1.208    0.172
       198 -13.0955     67.4861    144.2385   1.2821963527e+02   3.7991577886e+01    0.7577633    0.5577698  78.96  0.004066056    1.496    0.332
       199  -9.9746    138.8121    138.8150   1.0878313145e+02   2.6665469798e+01    0.3235588    0.2116279  39.46  0.001151974    1.601    0.375
       200 -10.6410    134.0000    144.9955   1.1136678728e+02   2.6258915671e+01    0.5852613    0.1930164 -50.53   0.00183126    3.053    0.672
       201 -10.4468    133.1697    140.4333   1.1054731824e+02   2.7476452874e+01    0.4193637     0.307608 -52.76  0.001239992    1.350    0.259
       202  -8.7571    122.0227    148.0214   1.1499335008e+02   2.7963386605e+01    0.1780549    0.1687656 -82.88 0.0009550087    1.007    0.007
       203 -12.8005     32.3233    139.6797   1.3649974657e+02   4.3163188910e+01    0.5868331    0.3854954 -69.59  0.002364787    1.242    0.195
       204  -9.7751    158.9935    145.0751   1.0540825554e+02   2.0900771370e+01    0.2252166    0.2186667  83.78            0    1.013    0.013
       205 -10.5539     89.7607    160.6087   1.2546189516e+02   3.0760879906e+01    0.3597047      0.25135 -76.16 0.0006504365    1.454    0.312
       206 -12.0469     13.5282    153.4875   1.4268877361e+02   4.1682209665e+01    0.3832075    0.2548193 -61.20   0.00170272    1.353    0.261
       207 -10.6309     42.2052    140.3457   1.3409003956e+02   4.1998524365e+01    0.2307996    0.1855087  84.34  0.001362517    1.221    0.181
       208 -12.2595     17.5309    139.7212   1.4017340147e+02   4.4475079250e+01    0.3655213    0.2599451  55.51  0.002355321    1.553    0.356
       209 -11.1812     47.2088    138.4804   1.3251246900e+02   4.1885196589e+01    0.4067836    0.1821215  21.76  0.001684574    3.429    0.708
       210 -10.3419    111.3175    136.3681   1.1519410242e+02   3.2740162844e+01    0.3786689    0.2984694  10.53  0.001296238    1.724    0.420
       211 -12.5352     19.2433    132.8739   1.3887173846e+02   4.5895392546e+01    0.4196323     0.291399  75.80  0.001608921    1.534    0.348
       212 -11.9768     73.7709    140.0966   1.2583715350e+02   3.8095319314e+01    0.6062796    0.4827742 -86.04  0.002615567    1.272    0.214
       213 -12.0511     67.5660    128.3299   1.2526317290e+02   4.1752337067e+01    0.4400468      0.40125  64.68 0.0009112825    1.179    0.152
       214  -9.7614    117.3348    128.6695   1.1186820068e+02   3.3377103679e+01    0.3080094    0.1760667 -31.66  0.001141505    2.445    0.591
       215 -12.1051     45.2485    131.5934   1.3190824948e+02   4.3718062300e+01    0.4910892    0.3831695  87.23  0.002105195    1.314    0.239
       216  -8.7264    122.7091    128.2843   1.1037764983e+02   3.2399567796e+01    0.1514447    0.1197366  86.29 0.0001646637    1.534    0.348
       217 -11.8534     31.4657    127.1261   1.3486801816e+02   4.6148133118e+01    0.3694659    0.2201404  43.25  0.001328502    1.931    0.482
       218 -11.1585      9.1415    127.6416   1.4075259424e+02   4.7846304274e+01    0.2170258     0.133938 -80.19  0.001316215    1.377    0.274
       219 -10.5176    209.7563    125.8678   9.0076788963e+01   1.3407550675e+01    0.3125464    0.2581778 -35.24 0.0004710781    1.200    0.166
       220 -11.5029     36.6945    124.6888   1.3306959856e+02   4.6210743704e+01      0.45671    0.2270278  68.81  0.001715708    3.810    0.738
       221 -12.1611     38.4413    121.5170   1.3205654918e+02   4.6769537251e+01    0.7269077    0.3245224 -80.43  0.002731469    3.466    0.711
       222 -12.2742     24.0121    121.1316   1.3594648472e+02   4.8177172459e+01    0.4435641     0.237967 -64.17  0.001582892    1.469    0.319
       223 -13.2997     20.5756    121.2016   1.3688411673e+02   4.8441765304e+01    0.8527979    0.3818683 -43.44  0.004138694    2.397    0.583
       224  -9.6025     65.9207    181.9993   1.3430214470e+02   2.9324779962e+01    0.1968499    0.1649854  86.49 0.0003171818    1.008    0.008
       225 -10.0591     58.8023    125.0162   1.2704218136e+02   4.3673251171e+01    0.3423539    0.1772811  22.02  0.001500718    2.717    0.632
       226  -8.9720     85.2588    126.6408   1.2004564466e+02   3.9546244712e+01    0.1776625    0.1390131  26.02 0.0004899966    1.500    0.333
       227 -10.6795     54.8019    120.8579   1.2736261153e+02   4.5131460885e+01    0.2617646     0.206371  24.06  0.001197295    1.522    0.343
       228 -11.7973     15.2425    114.9124   1.3739385790e+02   5.0263961414e+01    0.3735837     0.165547 -64.36 0.0008317377    1.714    0.417
       229 -12.7392     10.1279    119.0916   1.3937268921e+02   4.9691535946e+01    0.4618743    0.3493165 -51.51  0.003172294    1.254    0.203
       230  -9.7109     86.3724    116.3944   1.1744294122e+02   4.1750654243e+01    0.3082705     0.175921 -61.99 0.0009912857    1.842    0.457
       231 -11.5322     31.6540    116.9981   1.3317514327e+02   4.8452064787e+01    0.3880305    0.1808279 -54.27  0.001943849    1.740    0.425
       232 -13.4072    247.7130    115.3565   8.1133319191e+01   7.1266894121e+00     2.032523     0.981878 -26.15  0.007603654    2.873    0.652
       233 -10.9440    168.0580    113.2324   9.5551804874e+01   2.5670367544e+01    0.3631507    0.3011376 -85.44 0.0008054737    1.396    0.284
       234  -9.8080     50.1686    112.8587   1.2711817507e+02   4.7513887737e+01    0.1890491    0.1628046 -77.52 0.0003513791    1.165    0.142
       235 -10.9920    249.4394    150.9485   8.8661903701e+01   5.3415348226e-01    0.5269397     0.307518 -43.83  0.002008957    1.627    0.385
       236  -8.8369     83.6169    111.1973   1.1700968690e+02   4.3376758814e+01    0.1937342    0.1226343 -44.38 0.0001721831    1.502    0.334
       237  -9.5202     69.9520    111.2327   1.2099187521e+02   4.5395131312e+01    0.1628356    0.1166624  35.79  0.000279059    1.551    0.355
       238 -11.2548     57.1032    110.2360   1.2454675373e+02   4.7298347868e+01     0.412535     0.241058  12.01  0.001885801    2.621    0.619
       239 -10.8014     31.4540    110.8824   1.3216901109e+02   4.9856866376e+01    0.2256998    0.2047787  63.01 0.0005843063    1.286    0.223
       240 -11.0877     27.2324    106.4202   1.3259707084e+02   5.1224873297e+01     0.258302    0.2034535  65.16  0.001653909    1.537    0.349
       241 -11.7208     18.9774    104.1343   1.3461134554e+02   5.2385734909e+01    0.3582324     0.220623 -39.97  0.002126409    1.617    0.381
       242  -9.0720    203.4961    111.5253   8.7797555929e+01   1.7623420601e+01     0.151296    0.1477087 -52.75 9.154822e-05    1.040    0.039
       243  -8.9344     85.9573     97.0221   1.1276607798e+02   4.6146820284e+01    0.1640521    0.1516243 -39.90            0    1.004    0.004
       244  -9.5623     72.0939     90.1643   1.1518422787e+02   4.9740944392e+01    0.1983798    0.1662591 -24.92 0.0002622245    1.188    0.158
       245  -9.7471     30.9947     90.4656   1.2832079874e+02   5.4401994905e+01    0.1574987    0.1225832  20.56 0.0004261706    1.535    0.348
       246  -9.3772     24.1849     88.1815   1.3001176079e+02   5.5454062641e+01    0.1519323     0.131923 -81.03 0.0003799484    1.292    0.226
       247 -10.8638    246.1952     83.3445   7.4179214796e+01   1.2943299368e+01     0.197221    0.1716436 -44.98   0.00114549    1.124    0.110
       248 -10.0729     81.5436    247.0670   1.3844412466e+02   1.3421235425e+01    0.3208901    0.2489188 -76.61  0.002182937    1.360    0.265
       249  -9.4332     79.1651    243.1685   1.3850012857e+02   1.4502379399e+01    0.1904111    0.1115627  69.74            0    1.594    0.373
       250 -13.9391     14.9263    169.0279   1.4394378034e+02   3.8073369208e+01     1.512501     1.434416 -81.15   0.01163078    1.346    0.257
