#   1 NUMBER                 Running object number                                     
#   2 MAG_AUTO               Kron-like elliptical aperture magnitude                    [mag]
#   3 X_IMAGE                Object position along x                                    [pixel]
#   4 Y_IMAGE                Object position along y                                    [pixel]
#   5 X_WORLD                Barycenter position along world x axis                     [deg]
#   6 Y_WORLD                Barycenter position along world y axis                     [deg]
#   7 A_WORLD                Profile RMS along major axis (world units)                 [deg]
#   8 B_WORLD                Profile RMS along minor axis (world units)                 [deg]
#   9 THETA_WORLD            Position angle (CCW/world-x)                               [deg]
#  10 FWHM_WORLD             FWHM assuming a gaussian core                              [deg]
#  11 ELONGATION             A_IMAGE/B_IMAGE                                           
#  12 ELLIPTICITY            1 - B_IMAGE/A_IMAGE                                       
         1 -11.6721     39.4546     19.6687   7.7304961012e+01   6.7971700508e+01     0.367786     0.327917  24.32  0.002568726    1.408    0.290
         2 -11.5456      2.0826     22.3960   9.7886035083e+01   7.1216230747e+01    0.3939645    0.1594955 -49.21  0.001017622    1.934    0.483
         3 -10.3700     20.6575     16.9901   8.5384046412e+01   7.0594156728e+01    0.2689819     0.149977 -13.64  0.001511843    1.837    0.456
         4  -9.6112     11.3638      7.2213   8.5749908994e+01   7.2940707006e+01    0.1801604   0.09849933 -48.28 0.0008506185    2.281    0.562
         5 -10.9631     14.0615     16.1023   8.8542018225e+01   7.1362096654e+01    0.2676919    0.2310079  23.37  0.001196194    1.554    0.357
         6 -10.5074     15.1032      9.1887   8.4612581536e+01   7.2302259849e+01    0.3729931    0.1614814 -18.42  0.001194982    3.091    0.676
         7  -9.5587     22.4237      9.9377   8.0978328782e+01   7.1429097847e+01    0.3829457    0.2281091  12.30   0.00235266    1.606    0.377
         8 -11.5269     34.8236     12.8662   7.6173977375e+01   6.9519273815e+01    0.3991026    0.2743075  -5.92  0.002550454    1.268    0.211
         9 -11.5056     37.0558      8.1129   7.2678561241e+01   6.9814728033e+01    0.4478901    0.2808823  23.98  0.002119473    1.427    0.299
        10 -10.0948    154.8515     15.1285   4.3203715050e+01   4.4284526816e+01    0.2111821     0.171257 -83.80 0.0009228903    1.248    0.199
        11 -10.6906    208.1758     12.9991   3.6321497386e+01   3.1514605900e+01    0.2069872     0.163317  89.14 0.0003124185    1.114    0.102
        12 -11.6236     30.4016      7.3900   7.5525225404e+01   7.0802195806e+01    0.4031684    0.2626258  19.45  0.002596926    1.366    0.268
        13 -10.5649    134.9423     11.4751   4.5223611625e+01   4.9545318255e+01    0.2192649    0.1918717   9.59  0.001338408    1.283    0.221
        14 -10.2005     85.9542     11.4773   5.6164173089e+01   6.0785641303e+01    0.2411938    0.1784538 -13.25  0.001429066    1.404    0.288
        15 -10.6258    126.0234     11.0143   4.6670647520e+01   5.1747907677e+01    0.1974608    0.1716086  51.96            0    1.021    0.021
        16  -9.6428    104.2867      9.9845   5.0825093471e+01   5.6926205989e+01    0.1724819    0.1582757  14.24 0.0005022558    1.126    0.112
        17  -9.5948     93.0031     10.0073   5.3614827857e+01   5.9425040203e+01    0.2040057    0.1272564  29.48  0.001078176    1.569    0.363
        18  -8.7976     93.2753      6.7212   5.2174298438e+01   5.9659236198e+01    0.1820919    0.1095374 -31.40 0.0002298992    1.864    0.463
        19 -10.4118     57.5717      8.2448   6.4042288939e+01   6.6562847877e+01    0.2776238    0.1941991 -16.88  0.001720508    1.385    0.278
        20 -11.4538     57.4689      2.7256   6.1331989503e+01   6.7129347188e+01    0.4499909    0.2825415  19.39 0.0009775171    1.474    0.322
        21  -9.4069    211.2881      7.3692   3.4712336770e+01   3.1386703769e+01    0.1188159   0.09279092  39.41 0.0007022125    1.709    0.415
        22 -11.0617    188.4423      6.5680   3.6649021786e+01   3.6860054594e+01    0.2789434    0.1586346  40.34 0.0008615356    2.337    0.572
        23 -10.2012     71.1742      6.7865   5.8556672897e+01   6.4206473494e+01    0.2593177    0.2410707  82.75  0.001743655    1.516    0.340
        24  -9.4608     74.5073      4.5782   5.6478679542e+01   6.3755200013e+01    0.1635837    0.1089901   3.81 0.0001123348    1.537    0.349
        25  -9.8750     65.7070      6.8735   6.0427316237e+01   6.5235742565e+01    0.2391318    0.1388101  38.34  0.001329629    1.478    0.323
        26 -11.2922     66.4654     13.6388   6.3357940175e+01   6.4395398476e+01    0.3749607     0.304132  66.27  0.001641149    1.766    0.434
        27  -9.6283      2.7207      6.5471   9.0568324885e+01   7.3764712703e+01    0.1828465   0.09378601  12.06 0.0007318836    1.946    0.486
        28  -9.8739    136.5288      4.9904   4.2799020901e+01   4.9726762246e+01    0.1837299     0.131767 -20.48   0.00103498    1.601    0.375
        29  -8.9018      8.2869      5.2837   8.6563805333e+01   7.3496319029e+01    0.1129751   0.06507391 -14.99 0.0006943233    1.526    0.345
        30  -9.7052    120.7907      4.3847   4.5289959043e+01   5.3566247841e+01    0.1903895   0.09922919  54.36 0.0004128069    1.591    0.372
        31 -10.6791    102.2686      2.3636   4.8268841218e+01   5.8021582616e+01    0.3401052    0.2466351  66.66   0.00156915    1.357    0.263
        32  -9.9703     23.8812      3.2606   7.6661081489e+01   7.2132204358e+01    0.2691848    0.1264131 -20.55   0.00136054    2.144    0.533
        33 -10.8349     18.9933      1.7237   7.8463496382e+01   7.2896507054e+01    0.2461334    0.1454327  38.39  0.001512245    2.117    0.528
        34 -10.0022    230.3659      2.8491   3.2217377692e+01   2.7575962493e+01    0.1548673    0.1134383 -21.21 0.0009534695    1.766    0.434
        35  -9.8861    176.2337      2.6891   3.6903994845e+01   4.0182313269e+01    0.1915907    0.1874814 -72.37 0.0008900132    1.187    0.158
        36  -9.9645    129.9681      3.3134   4.3303333771e+01   5.1454809953e+01    0.1873333    0.1472589  62.36 0.0004528502    1.096    0.088
        37 -11.0468     80.3759      1.6367   5.3414446884e+01   6.2816952811e+01    0.2766548    0.1472592  54.09 0.0007337265    1.657    0.396
        38 -10.6455     11.7841      1.9075   8.2688857419e+01   7.3637350534e+01    0.1766261    0.1367224  11.88 0.0004421771    1.311    0.237
        39  -9.6487      1.4162      2.2454   8.9197779151e+01   7.4500991140e+01    0.1378179   0.08995506 -42.57 0.0008851952    1.584    0.369
        40  -9.1546     67.2728      1.2989   5.7223205537e+01   6.5449595321e+01    0.1257186   0.07671218  23.88 0.0003057562    1.529    0.346
        41  -9.1283     15.0000    183.9542   1.2143570486e+02   3.3904333446e+01    0.1893262   0.05753686 -75.69 0.0003725717    2.778    0.640
        42 -10.7365     28.3312    250.4336   1.2315262572e+02   1.8762732192e+01    0.3537311   0.03203987  40.39  0.001354503    4.321    0.769
        43 -11.9829     17.7129    249.1590   1.2491343150e+02   2.0143952369e+01    0.2947086    0.2429922  24.74  0.002245186    1.809    0.447
        44 -12.3029     10.0629    246.1723   1.2606959743e+02   2.1482302850e+01    0.5162767    0.2336661  60.19  0.003193546    1.684    0.406
        45 -12.1536      4.8515    240.8529   1.2671367824e+02   2.2991948390e+01    0.4883524    0.1689959  47.20  0.002768319    2.122    0.529
        46  -9.6541     22.3150    179.9910   1.1948575053e+02   3.4127909899e+01     0.174533    0.1344041 -88.43 0.0004854655    1.063    0.059
        47  -9.4757     13.3434    180.6630   1.2154913823e+02   3.4803958689e+01     0.133414   0.07086897  66.77 0.0006054696    1.769    0.435
        48 -11.0847      5.0826    167.3860   1.2239658667e+02   3.8553084945e+01     0.255975    0.1764531  69.84  0.001133801    1.293    0.227
        49  -9.4146    226.4568    164.0414   6.9592697039e+01   3.5797985675e+00     0.210413    0.1244508 -34.14  0.001012265    1.549    0.354
        50  -9.0338    247.4931    155.4540   6.4163043077e+01   1.3868509817e+00    0.1347528    0.1136044 -20.04 0.0002804798    1.007    0.007
        51 -11.0413      3.7194    153.6078   1.2161511461e+02   4.1881696649e+01    0.3417565    0.1571806  33.92  0.001810922    2.343    0.573
        52 -10.4730     16.0200    150.4674   1.1824233961e+02   4.1687607345e+01    0.1628043    0.1251399  30.46 0.0005849951    1.558    0.358
        53  -9.0072    237.7079    149.6818   6.4552089670e+01   4.0356990923e+00    0.1387498    0.0993036  -5.30 0.0003010104    1.602    0.376
        54  -8.9299     37.2961    146.2517   1.1210817927e+02   4.0753714970e+01    0.1240844   0.09410846 -42.64 0.0001978685    1.490    0.329
        55  -9.1447     23.6622    146.6877   1.1583634855e+02   4.1953578819e+01    0.1304985   0.08582413 -45.52  0.000704586    1.691    0.409
        56 -10.3514      1.7580    145.9871   1.2144733921e+02   4.3821916933e+01    0.1644323   0.08265746 -76.62 0.0004149597    1.562    0.360
        57  -9.6171    236.5098    138.9938   6.2419984545e+01   6.0782517531e+00    0.2033094    0.1130281 -16.80 0.0008105059    2.568    0.611
        58 -10.1680    212.6201    133.8591   6.5421764693e+01   1.1631598822e+01    0.2566431    0.2169977  61.19 0.0009178086    1.387    0.279
        59  -9.3456     96.1632    133.8082   9.3158371051e+01   3.5726353732e+01    0.2043113    0.1767986 -27.06 0.0004762004    1.288    0.224
        60 -10.0401      1.8173    132.4126   1.2016275327e+02   4.7053806032e+01    0.2220359    0.1495813  79.36 0.0008122278    1.409    0.290
        61 -10.6345    248.6080    129.7884   5.8486428214e+01   5.4309121050e+00    0.2012465    0.1097299 -43.25 0.0009551352    1.653    0.395
        62 -10.6420     11.9344    129.7802   1.1707823390e+02   4.7014580213e+01    0.2202069    0.1546175  59.18  0.001108641    1.540    0.351
        63 -10.3453     28.8011    128.1322   1.1199167268e+02   4.6061875252e+01    0.1940631     0.156484  89.63 0.0003619069    1.187    0.157
        64 -11.2402      8.1754    121.4031   1.1715891649e+02   4.9298586452e+01    0.2930404    0.1833443  67.70 0.0008026893    1.787    0.440
        65 -11.2579     24.0724    121.5556   1.1244319282e+02   4.8090667142e+01    0.3488782    0.2255602  68.26  0.001502075    1.811    0.448
        66  -9.2583     75.9805    120.9268   9.6295787640e+01   4.2191956489e+01    0.1751235    0.1580316 -57.24 0.0003226332    1.025    0.025
        67 -10.2162     69.1186    117.0907   9.7578600963e+01   4.4147562131e+01     0.222293    0.1829528 -40.18   0.00118414    1.209    0.173
        68  -8.9085    139.2852    112.2855   7.5980295413e+01   3.2148936552e+01    0.1549785     0.125889  -0.62  0.000165905    1.526    0.345
        69 -10.7241     65.6433    110.6927   9.7250090088e+01   4.6203530548e+01    0.3050451    0.2456848  88.78 0.0008883465    1.465    0.317
        70  -9.0142     44.2962    110.6566   1.0419120549e+02   4.8848904076e+01    0.1380873    0.1013054  79.10  0.000257862    1.666    0.400
        71 -10.9297      2.6317    109.1317   1.1730009887e+02   5.2573764424e+01    0.2883566    0.1629666  28.42  0.001448834    2.127    0.530
        72 -11.2608      6.3625    106.6969   1.1580856091e+02   5.2942484169e+01    0.4158936    0.1977554  75.98  0.001761085    3.155    0.683
        73 -11.5666     57.7019    107.4817   9.9115848146e+01   4.8043729683e+01    0.3608052    0.2313724 -32.13    0.0010333    1.788    0.441
        74 -10.0465     28.4936    106.2929   1.0856264176e+02   5.1447908835e+01     0.260409    0.1478354 -45.50            0    1.635    0.388
        75  -9.8006     88.8521    104.8528   8.8389087858e+01   4.3974116499e+01    0.2080876    0.1827091 -86.41 0.0009077993    1.318    0.241
        76 -10.2371     17.1849    104.6526   1.1200972980e+02   5.2732267631e+01    0.1575495    0.1165453 -11.19 0.0003599573    1.675    0.403
        77  -9.8426    186.8878    103.0120   6.2728527500e+01   2.3084348025e+01    0.2286675    0.2179372 -46.69 0.0005698915    1.007    0.007
        78  -9.3056    113.6630    102.7006   8.0318160804e+01   3.9758697357e+01    0.1591237    0.1234743  -2.55 0.0004599897    1.659    0.397
        79 -10.0548    246.5043    101.5331   5.2540976026e+01   1.0500956699e+01    0.1362885    0.1183425 -37.20 2.510498e-05    1.048    0.046
        80  -9.9106     56.0384     97.1741   9.7267036164e+01   5.0728227389e+01    0.2203756    0.1717751 -33.50 0.0006490973    1.272    0.214
        81 -10.7087     10.8837     92.1114   1.1205497400e+02   5.6127962721e+01    0.3149316    0.1554217 -84.50  0.001376173    2.456    0.593
        82 -10.4602      3.3728     95.5520   1.1518397042e+02   5.5745904931e+01      0.24904     0.163169 -49.07 0.0007352739    1.325    0.245
        83 -10.7336     77.9577     94.1402   8.9019926987e+01   4.8279117198e+01    0.4718042    0.2356262  23.79  0.001524138    2.737    0.635
        84 -12.1423     20.7302     92.8336   1.0872459253e+02   5.5292124669e+01    0.3706614    0.2380721 -39.52 0.0004783251    1.484    0.326
        85 -11.0740     24.5701     87.8223   1.0634193668e+02   5.6172160636e+01    0.4199934    0.2171775 -52.84  0.001327174    1.542    0.351
        86 -10.2160     19.3265     87.3434   1.0815577511e+02   5.6681565615e+01    0.2988045    0.1792296 -60.22  0.001478793    1.346    0.257
        87 -11.9504    125.1981     93.3132   7.4380975126e+01   3.9337413441e+01    0.2750587    0.2702903  32.43 0.0002274767    1.033    0.032
        88 -11.5739     57.8233     91.6674   9.5260823700e+01   5.1789331977e+01    0.3492817      0.27179  -8.39 0.0006932609    1.477    0.323
        89 -12.2767     55.4397     85.8284   9.4567455701e+01   5.3438977956e+01    0.2557223     0.249052 -62.45 0.0002711269    1.155    0.134
        90 -10.6255     44.0832     90.2552   9.9803203427e+01   5.3764814398e+01    0.4155635    0.2866597 -87.13  0.001682435    2.007    0.502
        91  -9.9784     28.9595     92.1448   1.0566231080e+02   5.4795051970e+01    0.2342799    0.1678005  27.03 0.0008507193    1.627    0.385
        92  -9.4102     84.8127     87.9183   8.4967872105e+01   4.8528290936e+01    0.1912653    0.1720927 -79.27            0    1.318    0.242
        93 -10.0927     64.3137     87.9218   9.1972620970e+01   5.1765109013e+01    0.2387668    0.2007964  49.99  0.001316121    1.398    0.284
        94 -11.4860     10.8842     86.1610   1.1099759722e+02   5.7514955041e+01    0.3769883    0.2361383  78.37  0.001712602    2.169    0.539
        95  -9.5695    124.2225     86.5729   7.2635320343e+01   4.0941212936e+01    0.2164185    0.1457234  35.01 0.0007495204    1.598    0.374
        96  -9.6392     72.4464     85.5477   8.8457480435e+01   5.1088660163e+01    0.1437058    0.1321744 -35.07 0.0001135657    1.026    0.025
        97  -9.1179     76.6686     82.7287   8.6166149298e+01   5.1034994583e+01    0.1460031    0.1086544 -10.62  0.000320497    1.589    0.371
        98 -10.9092     64.2892     80.4743   8.9856268382e+01   5.3430706873e+01    0.3781039    0.2213424 -45.03  0.000929779    1.542    0.351
        99 -10.3733      2.6820     82.1652   1.1327140264e+02   5.8883428224e+01     0.194069    0.1341011 -80.18  0.001183927    1.415    0.293
       100  -9.9189    250.3838     80.8025   4.7424956870e+01   1.3041828874e+01     0.182332    0.1150104 -29.99 0.0004690136    1.582    0.368
       101 -10.0337     89.1730     80.3032   8.1217167032e+01   4.9386967477e+01    0.3823736    0.2604145  81.35   0.00136308    3.071    0.674
       102 -10.0893     24.3079     79.5344   1.0462070430e+02   5.8102370461e+01    0.2742696    0.1606869 -37.67 0.0008744522    1.589    0.371
       103  -9.7444     28.0500     77.2449   1.0263748317e+02   5.8311375620e+01    0.1887461    0.1454616 -35.00 0.0003691511    1.179    0.152
       104  -9.6302    124.5043     79.1920   7.0285625155e+01   4.2339715653e+01    0.2185247    0.1502952 -39.53 0.0006795404    1.450    0.310
       105 -11.0749     10.7433     78.4171   1.0956152774e+02   5.9299891676e+01    0.2731608    0.1241718  10.30  0.001326529    2.784    0.641
       106  -9.7260    176.6167     76.7726   5.7636910501e+01   3.0318804757e+01    0.2066174    0.1943561  52.03 0.0009686734    1.096    0.088
       107 -10.4434     55.4905     75.8244   9.1719822024e+01   5.5657026134e+01    0.3302435    0.2543609   4.82  0.001448259    1.428    0.300
       108  -9.7525     41.1536     74.8618   9.6924546702e+01   5.7578685922e+01    0.1981641    0.1604938 -45.60  0.000613826    1.073    0.068
       109 -10.6459     37.1069     74.9429   9.8521963569e+01   5.7982083097e+01    0.4321139    0.2094404 -57.87  0.001360395    1.873    0.466
       110 -10.0000     33.1940     73.3612   9.9635548578e+01   5.8714264934e+01    0.2498113    0.1985717  11.08 0.0007663207    1.397    0.284
       111 -11.3212     14.8992     75.1664   1.0727700160e+02   5.9773986832e+01    0.3026571    0.1908136  41.65  0.001707324    2.039    0.510
       112 -10.3670     20.8868     72.0445   1.0419252543e+02   6.0050053306e+01    0.3572381    0.1191433 -54.67  0.001341936    2.216    0.549
       113 -11.3746    106.4876     71.4616   7.2922666480e+01   4.7749400103e+01    0.4024442    0.3263503  73.68  0.001453858    1.609    0.378
       114  -9.4794     81.3627     73.2842   8.1595795737e+01   5.2232478178e+01    0.2012236    0.1315081 -50.72 0.0007003342    1.596    0.374
       115  -9.3513    216.9888     72.0398   4.9737012100e+01   2.1529806095e+01    0.1702965    0.1454939 -48.36 0.0003515997    1.073    0.068
       116 -10.6668      1.3613     66.5921   1.1083563842e+02   6.2436233810e+01    0.2107445   0.09386136 -64.97  0.001075971    1.806    0.446
       117 -11.2473     10.2306     69.1525   1.0779873582e+02   6.1405216242e+01    0.3882667    0.1344682 -54.94  0.001495682    2.045    0.511
       118 -10.5997      5.5075     68.7422   1.0961215372e+02   6.1758876457e+01    0.2796264       0.1908  58.15  0.001142111    2.087    0.521
       119 -10.1962     46.1799     69.4527   9.3397650015e+01   5.8186043560e+01    0.2552977    0.1540217  21.87   0.00106713    1.846    0.458
       120 -10.3954     80.5273     66.9974   7.9795511506e+01   5.3632834710e+01      0.24435    0.1757305 -20.53  0.001212748    1.483    0.326
       121  -9.5709     76.9666     65.4513   8.0515080678e+01   5.4551638293e+01    0.3727456    0.1899402 -58.26  0.001371167    3.123    0.680
       122 -11.0892     15.2932     64.4994   1.0461822125e+02   6.2101980169e+01    0.4319761    0.3161944 -77.45  0.002553908    1.604    0.376
       123  -9.2008    166.9774     65.5593   5.6288774072e+01   3.4578914703e+01    0.2114969     0.144655  60.13 0.0003330749    1.451    0.311
       124  -9.5094     97.1263     64.1411   7.3323117878e+01   5.1041087350e+01    0.1869069    0.1751521  78.78  0.001035671    1.296    0.229
       125  -9.3979     34.4281     64.2428   9.6581313088e+01   6.0565752239e+01    0.1826552    0.1165097 -62.59 0.0009562412    1.699    0.412
       126 -10.4817      6.4825     63.2337   1.0799510934e+02   6.2910823692e+01    0.2763389    0.1937344  53.11  0.001668449    2.028    0.507
       127 -10.2902     62.8568     62.3318   8.4623594505e+01   5.7423133666e+01    0.2803253    0.1780339 -36.61  0.001003809    1.450    0.310
       128 -10.1408     38.6557     61.9397   9.4135070329e+01   6.0610587028e+01    0.2140317    0.1689782 -10.75  0.001291498    1.254    0.202
       129  -9.7181     41.0818     58.5321   9.2040071539e+01   6.1039702082e+01    0.1848797    0.1576469 -15.89 0.0005518877    1.085    0.078
       130 -13.2148     20.4339     58.1750   1.0074079205e+02   6.3076112080e+01    0.3722761      0.25518 -62.02  0.001043011    1.466    0.318
       131 -10.4254      1.4058     59.8049   1.0935233207e+02   6.3904991733e+01    0.2231275    0.1031974 -58.60 0.0004398325    1.620    0.383
       132 -10.0005     10.4202     59.1646   1.0533895864e+02   6.3557757336e+01    0.3349367    0.1778011 -43.15   0.00143722    1.493    0.330
       133 -11.0016      4.5226     57.5243   1.0748129235e+02   6.4237405826e+01    0.2404409    0.1458025 -34.06   0.00077767    1.450    0.310
       134 -10.9318     84.0389     56.8372   7.5022960011e+01   5.4895572711e+01    0.3744624    0.2643355 -57.37  0.001814539    1.890    0.471
       135 -11.2155     88.1150     53.0132   7.2258575439e+01   5.4787191150e+01    0.4467617    0.3444512   3.83  0.001566381    1.396    0.284
       136  -9.9393     48.3450     58.4762   8.9026803417e+01   6.0182876253e+01    0.2364233    0.2043922 -58.48  0.000830505    1.384    0.277
       137 -10.5406     33.2615     56.0546   9.4549388633e+01   6.2374292243e+01    0.5446024    0.2179145 -41.58  0.002436626    2.138    0.532
       138 -11.2951    114.4658     53.8046   6.4614499400e+01   4.9114467665e+01    0.3091287    0.2856918 -23.87 0.0005967731    1.104    0.094
       139  -9.1758     77.7274     58.2510   7.7722957665e+01   5.5781331268e+01    0.1215365    0.1126004  89.00 0.0001772025    1.450    0.310
       140 -10.0223     71.7022     56.8414   7.9384292723e+01   5.7071913761e+01    0.2349328    0.1471525 -37.68  0.001159362    1.510    0.338
       141 -10.0613     26.8016     56.9077   9.7606618028e+01   6.2810610364e+01    0.2432804    0.1590399  -6.47  0.001374576    1.687    0.407
       142 -10.0598    104.3221     56.3161   6.8383940500e+01   5.0926490618e+01    0.2312084    0.1470223 -29.94 0.0006048559    1.619    0.382
       143 -10.9103    105.6524     52.6299   6.6679855887e+01   5.1249268029e+01    0.2687382    0.2398883  10.37  0.000327422    1.090    0.083
       144 -12.1794     65.6605     52.5984   8.0087368222e+01   5.8829970926e+01    0.4818452    0.2384017  37.47  0.001802026    2.080    0.519
       145  -9.9774    149.6279     52.0816   5.5674363340e+01   4.0997600000e+01    0.2479864    0.1957961  69.99  0.000614829    1.294    0.227
       146  -9.8297    121.8455     51.4061   6.1832987748e+01   4.7803425614e+01    0.2316211    0.1936492 -42.09  0.000458734    1.273    0.214
       147 -11.2843     16.1365     42.9193   9.8011139102e+01   6.6476679856e+01    0.4659239    0.3827792  62.08   0.00286424    1.947    0.486
       148 -10.1687      4.4449     50.5123   1.0573696652e+02   6.5706258998e+01    0.1880834    0.1354834 -25.46 0.0007775692    1.280    0.219
       149 -11.7703      9.4533     46.8998   1.0241331555e+02   6.6152182524e+01    0.5297965    0.2289466 -42.60  0.002772765    1.779    0.438
       150 -11.4311     77.8003     46.6969   7.3393134939e+01   5.7779099780e+01    0.5106468    0.3254115   1.80  0.001436712    2.107    0.525
       151  -9.9730     82.5109     47.4083   7.2033889064e+01   5.6791143144e+01    0.2263874    0.1879446  25.58 4.788617e-05    1.144    0.126
       152 -10.1574     38.5708     48.5878   8.9710344927e+01   6.3270297263e+01    0.2071252    0.1656857  -5.56  0.001293797    1.177    0.150
       153  -9.8170    119.3752     47.6845   6.1171258505e+01   4.8941823272e+01    0.1985956    0.1378012 -18.21 0.0007609653    1.622    0.383
       154 -10.4356    102.1859     47.8422   6.5954666519e+01   5.2754090588e+01    0.3395858    0.2182504  24.18 0.0005921494    1.826    0.452
       155  -9.6195     58.1713     48.2206   8.1362315093e+01   6.0766713593e+01    0.1663807    0.1527284 -44.70 0.0003660775    1.325    0.245
       156  -9.9424     53.7228     47.4770   8.2877710817e+01   6.1544397070e+01     0.288166    0.1739364 -20.77  0.001427321    1.803    0.445
       157  -9.6185    154.5396     47.4878   5.3262974219e+01   4.0448056509e+01    0.2168978    0.1914579 -18.39 0.0005273127    1.243    0.195
       158  -9.5251    152.3874     44.6034   5.2780491119e+01   4.1390982100e+01    0.1997222    0.1831902 -30.49 7.062546e-05    1.157    0.136
       159  -9.5201    135.9861     46.9262   5.6934238365e+01   4.5105742677e+01    0.2294339    0.1747199 -74.58  0.001113417    1.680    0.405
       160 -10.0446     30.7593     45.9178   9.2236353527e+01   6.4613184237e+01    0.2151503    0.1639125 -57.59 0.0008280795    1.542    0.351
       161 -10.6375     25.8879     44.3653   9.3921744984e+01   6.5379143871e+01    0.3091287    0.1915531 -61.97  0.001546073    2.033    0.508
       162 -11.0357      3.5375     43.4586   1.0420274904e+02   6.7182503420e+01    0.3676294    0.1395945 -55.92  0.001846837    2.008    0.502
       163 -12.0995    141.4233     41.8484   5.4090700978e+01   4.4487793691e+01    0.3481745    0.2632345 -73.31 0.0003701544    1.633    0.388
       164 -10.6142     69.2690     42.0944   7.4678415807e+01   6.0031651038e+01    0.2280175    0.1862937  36.71 0.0007439305    1.292    0.226
       165 -10.2113     59.4631     41.8495   7.8361861124e+01   6.1668185847e+01    0.2218001    0.1747391  44.44 0.0006536836    1.540    0.351
       166 -10.3620     35.9069     41.1319   8.8137756835e+01   6.4949812658e+01    0.2782829    0.1965039 -34.33  0.001123184    1.206    0.171
       167  -8.7149    183.0000     41.0411   4.6564803868e+01   3.4232258654e+01    0.2245706   0.07925276 -31.02 0.0008011928    2.934    0.659
       168  -9.9643     43.0198     40.5368   8.4730847942e+01   6.4204630747e+01    0.1869972    0.1516531 -19.35 0.0008176772    1.029    0.028
       169 -10.9252     90.4418     35.2803   6.4702655072e+01   5.7058341113e+01    0.5530759    0.3131674  -6.85  0.002332766    2.554    0.608
       170  -9.7379    152.3121     39.0369   5.1052259499e+01   4.2162387504e+01    0.1947915    0.1859264 -72.36 0.0004889418    1.078    0.072
       171  -9.9074    128.1131     38.7650   5.5946419271e+01   4.8140668031e+01    0.2008423    0.1861329  89.09 0.0004820065    1.184    0.155
       172 -11.7038    121.4340     37.3114   5.6996455142e+01   4.9921180613e+01    0.3926651    0.3479764  40.84  0.001168679    1.046    0.044
       173  -9.6520     96.9711     37.9565   6.3769257116e+01   5.5325573316e+01    0.1623813    0.1468245   5.87            0    1.052    0.049
       174  -9.9386     22.0059     38.0619   9.3495180454e+01   6.6911645246e+01    0.1829437     0.152557 -25.61 0.0006283569    1.094    0.086
       175  -9.1667    223.7305     36.3461   4.0306066384e+01   2.5152835942e+01    0.1400353   0.08382143 -60.70 0.0002059441    1.616    0.381
       176  -9.9866     36.7471     34.5906   8.5161768747e+01   6.5995578224e+01    0.2680481    0.2375562 -36.30   0.00141015    1.337    0.252
       177 -11.6250     39.8225     31.9061   8.2631486983e+01   6.6064277746e+01    0.3234321    0.2500616 -51.81 0.0005516687    1.723    0.420
       178 -10.6854     18.8670     32.7762   9.3049227885e+01   6.8144707837e+01    0.4991608    0.2737166  17.50  0.002867026    1.928    0.481
       179 -11.2327      8.2513     34.6365   9.9085171096e+01   6.8608837456e+01    0.3813313    0.2051025  41.04  0.001913959    2.906    0.656
       180 -10.7984     73.4373     33.7655   6.9753492296e+01   6.0566424691e+01    0.3663122    0.2809915 -46.88  0.001562046    1.642    0.391
       181 -10.8831      2.4118     34.5025   1.0200942335e+02   6.8985703882e+01    0.2565236    0.1901966 -67.08  0.001713352    1.615    0.381
       182  -9.5551    133.9411     34.5433   5.3223693390e+01   4.7278941607e+01    0.2038965   0.09914543  39.62 0.0008043326    2.301    0.565
       183 -10.6879    128.0175     30.9597   5.3259375741e+01   4.9156690405e+01    0.3859556    0.2733399 -75.40  0.001846445    1.951    0.487
       184  -8.9108     85.3078     32.7233   6.5296910456e+01   5.8446323491e+01    0.1210029    0.1093268 -82.51 0.0001912392    1.552    0.356
       185 -11.7136     10.0185     29.6491   9.6382016885e+01   6.9403133613e+01    0.4453869    0.2726801  46.80  0.001209402    2.950    0.661
       186  -9.3631    188.2067     31.0226   4.3113952749e+01   3.4232546860e+01    0.1721332    0.1079916 -31.95 0.0003460397    1.674    0.403
       187  -9.2577    166.3917     31.1994   4.6269755525e+01   3.9627474109e+01    0.1932975    0.1531394 -80.26 0.0002637115    1.309    0.236
       188  -9.1341    163.2621     31.2894   4.6790034587e+01   4.0399918230e+01    0.1336067     0.102886  34.04 0.0002007892    1.494    0.331
       189 -10.6588     35.0440     22.8078   8.0845436665e+01   6.8086806218e+01    0.2905811    0.1801564 -25.14 0.0008197604    1.417    0.294
       190 -10.9319     44.3532     27.1404   7.8513870800e+01   6.6212470079e+01    0.4093149    0.3819611  11.24   0.00283665    1.354    0.262
       191 -10.0083    229.7684    247.8945   8.4605964201e+01  -9.4778209742e+00    0.1736564    0.1252548   4.10 0.0004984665    1.143    0.125
       192 -10.7599     27.0618     34.8178   8.9819936471e+01   6.7017652279e+01    0.3109272     0.181703 -14.02  0.001125964    1.831    0.454
       193 -10.2762    113.9141     26.0439   5.4699578534e+01   5.3072305755e+01    0.2491929    0.1894377 -27.94  0.001079536    1.413    0.292
       194  -9.9235     77.2016     26.7424   6.5478214219e+01   6.0821056838e+01     0.285709    0.1826718  -3.62  0.001451576    1.793    0.442
       195  -9.6732     80.8736     23.3873   6.2831594289e+01   6.0525178839e+01    0.2337121    0.1587086  14.70 0.0003635722    1.546    0.353
       196  -9.5514     84.4772     21.4775   6.0882019176e+01   6.0028086504e+01    0.2172587    0.1172927  48.11 0.0008090278    1.690    0.408
       197 -10.0777    100.9724     25.9646   5.7955472620e+01   5.6008622190e+01    0.2286913    0.1483433  23.60  0.001134682    1.694    0.410
       198 -10.6565     59.3795     22.8399   7.0261052428e+01   6.4525167707e+01    0.4083427    0.1854156 -32.20  0.001948005    2.158    0.537
       199 -10.3487     58.6753     19.5374   6.9020325167e+01   6.5069466271e+01    0.2255798    0.2001894  22.15  0.001503503    1.217    0.178
       200  -8.2814     19.0545     24.7241   8.9692462497e+01   6.9517001658e+01    0.3701376    0.1038402 -40.68  0.001572725    2.883    0.653
       201 -10.8442     14.1660     21.6845   9.0975536162e+01   7.0454580037e+01    0.3165699     0.201015  17.36  0.001574784    1.612    0.380
       202 -10.1480    225.0948    247.6369   8.5400892647e+01  -8.8154329222e+00    0.2193294    0.1489202 -16.61  0.001424761    1.421    0.296
       203 -10.2211      7.1671     20.6795   9.4374450353e+01   7.1173066938e+01    0.2257768    0.1279186 -41.10  0.001212738    1.400    0.286
       204  -9.6299     53.4145     24.2784   7.3324524881e+01   6.5293678337e+01    0.2349367    0.1108387 -29.20  0.001128407    2.065    0.516
       205 -10.5511     90.7106     22.4886   5.9434957270e+01   5.8622506850e+01     0.356288    0.2134534  57.00  0.001614476    1.726    0.421
       206 -10.1355    165.0037     21.4444   4.3607698871e+01   4.1097445030e+01    0.1980047    0.1803839 -41.88 0.0004977636    1.188    0.158
       207 -10.3860     75.1639     21.8427   6.4048964356e+01   6.1821838626e+01    0.2552447    0.1823596  23.76 0.0006029402    1.295    0.228
       208 -10.0717     74.6990     18.6684   6.2805789409e+01   6.2284891688e+01    0.3211908    0.1841245  24.10  0.001595764    1.867    0.464
       209 -10.7088     30.2716     21.1885   8.2417889838e+01   6.8906491047e+01    0.2533378    0.1691966  21.64  0.001291692    1.458    0.314
       210  -9.7794    181.4292     20.7955   4.1214262223e+01   3.7093646634e+01    0.1695139    0.1336373  -8.31 0.0006507638    1.623    0.384
       211 -11.2127     68.5869     26.5337   6.8418800614e+01   6.2443407811e+01    0.3063228    0.2562111 -51.64  0.001836976    1.671    0.401
       212  -9.6252    119.1929     19.6381   5.1138928662e+01   5.2538009689e+01     0.196468    0.1566059  76.98 0.0003521483    1.367    0.268
       213 -10.3716    204.5107     18.9585   3.8125563064e+01   3.1719037887e+01     0.187778    0.1229369 -35.31 0.0006117457    1.563    0.360
       214  -9.4385    141.5202     18.5211   4.6420573643e+01   4.7245738603e+01    0.1359259    0.1229666  74.58 -1.796422e-05    1.062    0.058
       215 -10.1131    114.9421     17.3218   5.1216742750e+01   5.3774275675e+01    0.2016509    0.1827769 -79.21 0.0003539473    1.294    0.227
       216  -9.6176     57.9886    248.0060   1.1765691585e+02   1.5680234515e+01    0.1432329    0.1100069  63.40 0.0004683749    1.010    0.010
       217  -9.2498    125.4351     17.4415   4.9050900691e+01   5.1275068181e+01    0.1345939    0.1203327  52.64 3.150823e-05    1.009    0.009
       218  -9.2521    170.6973    246.6927   9.5501605342e+01  -7.1408888000e-01    0.1229994   0.08659715   8.52 0.0004536335    1.601    0.376
       219  -9.0562    116.2742    246.3591   1.0623508845e+02   7.7750859705e+00    0.1133201   0.09434494  -3.35 0.0002116621    1.654    0.395
       220 -11.3017      3.0587    249.0193   1.2736089474e+02   2.1648983986e+01    0.4608009    0.2395555  54.62  0.003165285    1.424    0.298
       221 -10.0234     82.8944     16.0256   5.9030488384e+01   6.0955007358e+01     0.191588    0.1670181  22.70 0.0003152095    1.039    0.037
       222  -9.3814     74.0185    243.7430   1.1426945387e+02   1.4365225540e+01    0.1516296   0.08650863  42.30 0.0004472034    1.480    0.324
       223  -9.4154    202.3808    240.2384   8.8415365122e+01  -4.5952579116e+00    0.1442619    0.1151533 -38.32 0.0006494285    1.533    0.348
       224  -9.0257     60.9637    241.0000   1.1654724562e+02   1.6615992351e+01    0.1888865     0.057635  36.61 0.0007968654    2.904    0.656
       225 -10.4811    234.8349     15.0409   3.4501325668e+01   2.5281223497e+01    0.1984353    0.1539244 -85.39 0.0003147524    1.139    0.122
       226  -9.9116     35.9524    240.4880   1.2119734743e+02   1.9771065493e+01    0.1646598   0.09444566  42.19 0.0005705385    1.555    0.357
       227  -9.2142      7.3380     14.3018   9.1504124917e+01   7.2208317536e+01    0.1207283   0.06541489 -20.17 0.0007037189    1.667    0.400
       228  -9.1593    148.5982    238.7882   9.8781915663e+01   4.0175850438e+00    0.1559465    0.1248707 -69.04 0.0008649458    1.634    0.388
       229  -9.9465    117.5150    239.4741   1.0517913248e+02   8.8004388380e+00    0.1270412    0.1063983  46.45 0.0001251515    1.015    0.014
       230 -11.5351     14.0419    238.6052   1.2501947755e+02   2.2506961289e+01    0.2102211     0.130784  86.84 0.0006097737    1.334    0.250
       231  -9.8815     91.0986    237.3138   1.1028044364e+02   1.3171644209e+01    0.1830513    0.1627109 -65.61 0.0004456412    1.332    0.249
       232 -11.6646     25.6842    235.9768   1.2279368890e+02   2.1790803024e+01    0.2322358    0.1917252  50.02 0.0008512962    1.320    0.242
       233  -9.2845    100.0071     11.4877   5.2444789708e+01   5.7749747420e+01    0.1970289    0.1153318  55.69  0.000619415    1.517    0.341
       234  -9.7278    249.3607    233.9539   7.8869698368e+01  -1.0330638954e+01    0.1610503    0.1183629  -8.08 0.0004014642    1.118    0.106
       235 -13.0173      9.7775    227.2950   1.2520031340e+02   2.5140235001e+01    0.5706034    0.3364768  69.12  0.001720651    1.317    0.241
       236 -11.0073      1.5259    225.1793   1.2657979664e+02   2.6342500487e+01    0.3020425     0.115974 -88.76 0.0008391025    2.288    0.563
       237 -11.0487      2.5372    220.4341   1.2616969139e+02   2.7200395106e+01    0.2915698    0.1391929  81.05  0.001499306    1.757    0.431
       238  -8.8317    243.3200    230.3035   7.9288253141e+01  -9.0739596045e+00      0.12405   0.07544116   2.67 0.0007010084    1.630    0.386
       239  -9.5455      3.7621     10.6576   9.1913797704e+01   7.3054560375e+01    0.1267204    0.0908884  14.44 0.0003274277    1.476    0.322
       240  -9.4247     47.8526    229.8792   1.1819625438e+02   2.0443212369e+01    0.1659743    0.1083069  66.09 0.0004192571    1.287    0.223
       241  -9.0792    191.2958     13.6836   3.8183226827e+01   3.5452675683e+01    0.1373707   0.08640219 -65.55 0.0002715416    1.606    0.377
       242 -12.0739      4.0397    232.5871   1.2648014829e+02   2.4652194113e+01    0.2808746    0.1605574  62.74  0.001902924    1.325    0.245
       243  -9.4315    209.4901    229.5152   8.5313634102e+01  -4.1331509721e+00    0.1273638    0.1029308  11.28 -5.276047e-05    1.013    0.013
       244 -10.7193    140.1880    228.0180   9.8998715126e+01   7.2468137670e+00    0.3623032    0.2274489 -76.09  0.001713387    2.635    0.621
       245 -10.0799    223.2699    226.6087   8.2244001625e+01  -5.7684188880e+00    0.2135216    0.1312987 -10.93 0.0006653578    1.746    0.427
       246  -9.4615     41.3069    222.3263   1.1889917623e+02   2.2763883223e+01    0.1059567   0.09009913 -48.10  0.000703658    1.651    0.394
       247  -9.1346    126.5222    220.5832   1.0084124348e+02   1.0874599461e+01    0.1338563    0.1159097  45.09  0.000289502    1.013    0.013
       248 -10.7641      8.7720    218.0181   1.2489305570e+02   2.7110293489e+01    0.2276884    0.1959138  53.47  0.001752349    1.342    0.255
       249  -9.9730    205.7310    212.5197   8.3080459834e+01  -9.7469461952e-01    0.2287725    0.1702265 -26.67  0.000783316    1.338    0.253
       250  -9.9959     15.4726    213.4792   1.2335478940e+02   2.7401752118e+01    0.1183052   0.08702144  74.24 -1.453272e-05    1.035    0.033
       251  -9.3292    249.3184    211.3344   7.4877868285e+01  -7.3655698685e+00    0.1298172   0.07947119  -1.30 0.0005627596    1.697    0.411
       252 -10.1016     20.1970    209.8503   1.2219536733e+02   2.7695426799e+01    0.1910117    0.1202014  66.72 0.0007022195    1.312    0.238
       253 -10.9225      3.1495    206.1294   1.2531226453e+02   3.0101787987e+01    0.2070143    0.1124614 -74.42   0.00126708    1.613    0.380
       254  -9.9598     10.4831    203.4803   1.2371917307e+02   3.0001054976e+01    0.1192255   0.08777684  76.39 0.0001058915    1.041    0.039
       255  -9.1493    193.2825    202.0170   8.3634297370e+01   2.8321921530e+00    0.1620688    0.1173718 -34.40 0.0004199387    1.415    0.293
       256 -10.1289     23.6648    196.6556   1.2054074047e+02   3.0213422108e+01    0.2374309    0.1785878 -48.81  0.001506018    1.739    0.425
       257 -11.2347     13.6687    192.4989   1.2234472127e+02   3.2105545414e+01     0.257874    0.1509543  63.22 0.0006911145    1.497    0.332
       258 -11.1571      6.0808    192.0649   1.2389656031e+02   3.2881078037e+01    0.2501402      0.20498 -31.66  0.001720995    1.862    0.463
       259 -10.2576      1.3665    191.0493   1.2480285177e+02   3.3503894547e+01     0.208727   0.08998724 -87.60 0.0005305467    1.961    0.490
