#   1 NUMBER                 Running object number                                     
#   2 MAG_AUTO               Kron-like elliptical aperture magnitude                    [mag]
#   3 X_IMAGE                Object position along x                                    [pixel]
#   4 Y_IMAGE                Object position along y                                    [pixel]
#   5 X_WORLD                Barycenter position along world x axis                     [deg]
#   6 Y_WORLD                Barycenter position along world y axis                     [deg]
#   7 A_WORLD                Profile RMS along major axis (world units)                 [deg]
#   8 B_WORLD                Profile RMS along minor axis (world units)                 [deg]
#   9 THETA_WORLD            Position angle (CCW/world-x)                               [deg]
#  10 FWHM_WORLD             FWHM assuming a gaussian core                              [deg]
#  11 ELONGATION             A_IMAGE/B_IMAGE                                           
#  12 ELLIPTICITY            1 - B_IMAGE/A_IMAGE                                       
         1 -12.8343    181.5694     44.9726   6.7671418039e+01   3.4477905323e+01     1.182203    0.6763384 -68.57  0.005360023    2.192    0.544
         2 -13.4504    193.7493     29.9109   6.2396430783e+01   3.3564054677e+01    0.9445264    0.7440243  52.06  0.005188627    1.437    0.304
         3 -13.1923    205.1238     15.6150   5.7937662203e+01   3.2635204432e+01    0.8311177     0.689693  28.67  0.005346894    1.837    0.455
         4 -12.1482     42.8404     15.9465   9.2614602536e+01   6.6372360609e+01    0.3809145    0.2151447  12.78  0.002204202    1.853    0.460
         5 -12.0471    185.4045      4.8714   5.7629047424e+01   3.8209663068e+01    0.4586593    0.3703152   0.09  0.002978995    1.876    0.467
         6 -11.5597     40.5617      7.1063   8.9733302617e+01   6.7622368008e+01    0.2415217    0.1149149  25.98  0.001346988    1.980    0.495
         7 -16.0001      9.1635    241.5741   1.4590766779e+02   2.2378333450e+01      2.26575     1.398358  85.68   0.01500571    1.267    0.211
         8 -11.7859    120.9435    249.0197   1.2488631723e+02   5.3761679857e+00    0.5068187    0.2703463  34.84   0.00169608    1.816    0.449
         9 -13.6830    140.9912    249.5427   1.2081505324e+02   1.9567688524e+00     2.120662    0.5003775  34.88  0.005931732    5.226    0.809
        10 -11.3593     97.0399    248.9748   1.2977442626e+02   9.2242442892e+00    0.5473465    0.2065898  53.16  0.002189081    2.729    0.634
        11 -11.5677     71.0054    249.0649   1.3497779170e+02   1.3120342556e+01    0.4867368    0.2692477  35.57  0.001046653    1.892    0.472
        12  -9.5168     62.8820    250.3372   1.3667426906e+02   1.4010990596e+01    0.2051683    0.1196514  57.20 0.0009239896    1.453    0.312
        13 -10.7562     50.5229    249.5617   1.3895747282e+02   1.5842383687e+01    0.2765704    0.1688601  51.09  0.001652449    1.383    0.277
        14 -14.7076     54.4418    148.2572   1.2580848837e+02   3.9041118542e+01      14.0828     6.099208 -63.68   0.05792489    2.084    0.520
        15 -13.1739    105.1806    228.4166   1.2550511168e+02   1.2161324775e+01     1.405424    0.2680188  42.87   0.00415765    4.277    0.766
        16 -12.3462    125.9896    229.6263   1.2114314935e+02   8.3912631781e+00    0.4645054    0.3932063  70.13   0.00261954    1.190    0.160
        17 -10.5927     52.9516    228.1470   1.3654321181e+02   2.0053606733e+01    0.3023234    0.1771852  77.24 0.0003467445    1.706    0.414
        18 -10.3731     53.7247    222.7292   1.3584437977e+02   2.1151858467e+01    0.2817388    0.2345048 -40.90 0.0009636928    1.697    0.411
        19  -9.1057     82.7691    230.2144   1.3055160995e+02   1.5337379593e+01     0.161135     0.157336 -68.05 0.0005131745    1.297    0.229
        20  -9.4138     45.1144    228.6592   1.3817697525e+02   2.0960249041e+01    0.2116835    0.1299556  59.21  0.001199529    1.427    0.299
        21  -9.3402     32.3930    227.4562   1.4059317864e+02   2.2782673477e+01    0.2151704   0.08263776  47.96  0.001019692    2.260    0.558
        22  -9.1430     77.1923    224.7657   1.3109922639e+02   1.7376177980e+01    0.1630429    0.1537504 -63.42 0.0004097492    1.298    0.229
        23 -12.2354     83.7174    223.2020   1.2950083507e+02   1.6732577626e+01     1.022868     0.258891  48.57  0.003236726    3.993    0.750
        24 -11.1542     37.4534    222.6488   1.3917404933e+02   2.3236305612e+01    0.5468686    0.3604443  39.86  0.002957796    1.599    0.375
        25  -9.4899     59.8081    219.2774   1.3419892465e+02   2.1105640525e+01    0.2185874    0.1699206 -83.21  0.000678417    1.167    0.143
        26 -11.2174     69.4709    217.5224   1.3191718889e+02   2.0141068268e+01    0.5503767    0.2796557  53.44 0.0007382744    1.879    0.468
        27 -11.9919     47.1487    198.6319   1.3468450808e+02   2.7569165297e+01    0.8787538    0.4966446  46.60  0.003827957    1.719    0.418
        28 -12.3147     50.1893    212.6693   1.3555068296e+02   2.3898515797e+01    0.8911558    0.3238668 -65.14   0.00185993    2.474    0.596
        29 -13.1189     59.6085    203.3110   1.3241759585e+02   2.4828987997e+01     1.274938    0.6982406 -65.11  0.004895112    1.694    0.410
        30 -10.2651     73.7547    213.5135   1.3049161294e+02   2.0431989130e+01    0.2433665    0.1695643 -73.32 0.0005521569    1.376    0.273
        31 -12.5842     73.5865    163.9578   1.2330647618e+02   3.2492087923e+01    0.5373816    0.3508903 -44.77  0.001163839    1.655    0.396
        32 -13.1986    116.6525    228.9497   1.2308032884e+02   1.0128326429e+01    0.9589633    0.4997428  49.07  0.004369405    1.788    0.441
        33 -10.1730    199.5077    198.9184   9.9875763794e+01   1.3392627502e+00    0.3084905    0.1994091 -28.65  0.001464903    1.676    0.403
        34 -10.5246     71.9796    193.9984   1.2834291627e+02   2.5304634494e+01     0.329872    0.3212963  19.92  0.002017179    1.282    0.220
        35 -10.7684     66.2178    189.6977   1.2912399949e+02   2.7179528728e+01    0.3635304    0.3140638  22.11  0.001675395    1.455    0.313
        36 -11.8720     91.4455    160.4032   1.1791356568e+02   3.0562352510e+01    0.7078014    0.4242535 -32.51  0.001723279    2.411    0.585
        37 -13.7717     96.2205    177.3242   1.1976018522e+02   2.5554491339e+01     1.744169     1.363892  49.29  0.007393393    1.274    0.215
        38 -11.2685     85.7601    167.6031   1.2073955938e+02   2.9697711582e+01    0.3505389    0.3159777 -34.69 0.0005167689    1.274    0.215
        39 -10.8397     73.3565    183.6905   1.2652393299e+02   2.7617141655e+01    0.4242681    0.2483118 -41.79  0.001477819    2.182    0.542
        40 -10.7302     77.5770    177.9085   1.2457759201e+02   2.8412211661e+01    0.3435297    0.2374159 -47.32 0.0008697941    1.563    0.360
        41 -14.7745     34.6859    116.1235   1.2580090055e+02   4.9028204425e+01       4.0894     3.178093 -12.87   0.02414034    1.510    0.338
        42 -15.1634      2.6459    102.4984   1.3347608771e+02   5.4582858873e+01     11.53744          nan -62.41    0.0216294   13.176    0.924
        43 -14.6632      1.9566     32.4199   1.1706073706e+02   6.8264942555e+01     5.169726    0.2618276 -51.12   0.01467243    8.264    0.879
        44 -11.0064     29.9238    160.7310   1.3421974784e+02   3.8714702338e+01    0.4933475    0.2209502 -55.82  0.001852214    1.960    0.490
        45 -14.1492     12.3133    207.1201   1.4293546138e+02   2.9479254554e+01     1.320296    0.8143401  54.41  0.007121726    1.510    0.338
        46 -11.2146     22.2188    156.7582   1.3567796607e+02   4.0420284901e+01    0.7319881     0.272067 -60.39  0.003240658    2.125    0.529
        47 -10.0806     27.9537    154.1757   1.3386384357e+02   4.0510041167e+01    0.3887489    0.2299919 -42.04  0.001910523    1.932    0.482
        48 -12.2972     92.8014    143.8461   1.1421667565e+02   3.4446726704e+01    0.6938146    0.5101184 -69.52 0.0009574587    1.422    0.297
        49 -12.1816    105.5220    142.0765   1.1031228355e+02   3.2615726833e+01    0.8369803    0.5331561 -27.06  0.003153838    2.264    0.558
        50 -13.2847     24.3013    219.1086   1.4150119937e+02   2.5544113327e+01     1.157299    0.4989285  87.73  0.004506012    2.507    0.601
        51 -11.8408    107.0341    131.4882   1.0746929628e+02   3.4886285119e+01    0.5680976    0.4087916  30.45  0.002339863    1.544    0.352
        52 -12.8723    118.6672    128.7913   1.0362431043e+02   3.3254702633e+01     1.721613    0.9332733  24.94  0.005968168    2.894    0.654
        53 -10.3016    100.5678    128.9456   1.0868901941e+02   3.6692484163e+01    0.3589709    0.2460449 -30.21  0.001118566    1.759    0.432
        54 -13.1395    104.6153    118.0809   1.0488260974e+02   3.8481906644e+01     1.234633     1.091422  -4.01  0.006430184    1.274    0.215
        55 -13.1415    117.3760    114.5861   1.0040862661e+02   3.6764082002e+01     1.213395    0.7341871 -47.08  0.004056429    1.625    0.385
        56 -12.9011    125.9623    108.4210   9.6468992981e+01   3.6326518834e+01     1.396834    0.7928687 -22.13  0.004710095    3.213    0.689
        57  -9.4401    167.9396    112.6599   8.7430329950e+01   2.6022642174e+01    0.2798868    0.2084023 -72.43 0.0007257597    1.601    0.375
        58 -11.2968     83.8827    107.8250   1.0842446505e+02   4.4498720552e+01     1.050369    0.3941532 -45.09  0.003779771    2.556    0.609
        59 -10.7695     95.7087    106.7568   1.0456272666e+02   4.2684255221e+01    0.5120885     0.286103 -58.41   0.00209743    2.061    0.515
        60 -13.1511    127.3578     80.2902   8.8278604992e+01   4.1627036499e+01      1.14005    0.6805429 -26.83   0.00484512    2.081    0.519
        61 -13.4806     37.3728    244.7676   1.4103101088e+02   1.8503698082e+01    0.6591899    0.4615817  82.68 0.0006688888    1.174    0.148
        62 -12.5631    114.5689     71.1005   8.8911260974e+01   4.6016040333e+01    0.5913034     0.406816 -33.79  0.002937233    1.523    0.344
        63 -13.5643    131.4671    246.9427   1.2242976418e+02   4.0304132959e+00     1.418746     0.659983  25.61  0.005248501    3.430    0.708
        64 -10.5209     87.6318    240.8519   1.3076819845e+02   1.2333898587e+01    0.2441646    0.1729298  62.75 0.0005376601    1.269    0.212
        65 -11.3531     56.0906    239.9888   1.3704100536e+02   1.7082296650e+01    0.3805581    0.2494106  75.86  0.001418128    1.382    0.276
        66 -11.2545    193.3405    237.5280   1.0816784597e+02  -4.6287440001e+00     0.348305    0.2284285 -55.02  0.001733696    1.998    0.499
        67  -9.5513    101.5820    233.6919   1.2697406585e+02   1.1629156672e+01    0.1730259    0.1244201 -81.97 0.0006723133    1.506    0.336
        68 -12.2402    185.0494     36.1407   6.5008106551e+01   3.4817886612e+01    0.4212474    0.3683217 -71.04   0.00134365    1.119    0.107
        69 -13.0307    132.6817    229.9552   1.1973598332e+02   7.1665288907e+00    0.8256537    0.3496234  32.90  0.003178211    2.596    0.615
