#   1 NUMBER                 Running object number                                     
#   2 MAG_AUTO               Kron-like elliptical aperture magnitude                    [mag]
#   3 X_IMAGE                Object position along x                                    [pixel]
#   4 Y_IMAGE                Object position along y                                    [pixel]
#   5 X_WORLD                Barycenter position along world x axis                     [deg]
#   6 Y_WORLD                Barycenter position along world y axis                     [deg]
#   7 A_WORLD                Profile RMS along major axis (world units)                 [deg]
#   8 B_WORLD                Profile RMS along minor axis (world units)                 [deg]
#   9 THETA_WORLD            Position angle (CCW/world-x)                               [deg]
#  10 FWHM_WORLD             FWHM assuming a gaussian core                              [deg]
#  11 ELONGATION             A_IMAGE/B_IMAGE                                           
#  12 ELLIPTICITY            1 - B_IMAGE/A_IMAGE                                       
         1 -17.0165     27.9209    118.4745   1.1837023845e+02   4.7712906677e+01     3.356317     1.905849 -52.69   0.01883107    1.616    0.381
         2 -16.5429     47.6213    125.4023   1.1416346873e+02   4.4169301567e+01     2.175148     1.310749 -38.99   0.01112943    2.069    0.517
         3 -17.2434     99.8517    125.1659   1.0016954238e+02   3.6903644563e+01     2.768892     1.652396 -51.45     0.012751    1.574    0.364
         4 -16.6121      9.4637     14.3953   9.9400340042e+01   7.1113927426e+01      2.53362     1.017842 -40.98   0.01391105    1.803    0.445
         5 -13.9874     88.4373     30.1029   7.3720698422e+01   5.8078592093e+01    0.4141606    0.2562635 -33.39  0.002088197    1.566    0.362
         6 -14.4331     58.9806    244.3779   1.2429297602e+02   1.8310799696e+01    0.8701968    0.7217413 -41.14  0.006420908    2.148    0.534
         7 -14.6585     46.8779    242.3484   1.2610742425e+02   2.0107820759e+01    0.7652248    0.4279125  49.46  0.004118548    1.439    0.305
         8 -15.0421     41.9507    229.0353   1.2605418503e+02   2.2980545888e+01     1.023198    0.6013982  51.90  0.005502522    1.387    0.279
         9 -14.6717     33.3821    218.0284   1.2677727240e+02   2.5935241378e+01    0.8804188    0.7225356  15.79  0.005110045    2.127    0.530
        10 -14.7420     79.1762    183.9517   1.1491097598e+02   2.6982438156e+01     1.121998    0.8736014  33.60  0.005742712    1.519    0.342
        11 -14.9808    109.1068    226.0854   1.1395796769e+02   1.4496557430e+01     1.045295    0.9062371  56.41  0.007484956    1.113    0.102
        12 -13.3309     61.8178    207.0261   1.2082520132e+02   2.4664362254e+01     0.421752    0.3753403 -60.94  0.002225976    1.482    0.325
        13 -17.1559     85.7097    211.1026   1.1671005938e+02   2.0652878933e+01     2.539947     1.660115  44.99   0.01000226    1.398    0.285
        14 -15.1912     66.5617    218.2327   1.2095506324e+02   2.1933160560e+01    0.8608384    0.5961109  54.91  0.003531757    1.209    0.173
        15 -14.7937    166.0035    220.5781   1.0259823537e+02   6.1139538385e+00     1.191767    0.4272483  41.76  0.005139364    2.338    0.572
        16 -15.2301    174.0457    210.1750   9.9464558407e+01   6.3260222174e+00    0.9702826    0.8163378 -74.38   0.00598248    1.619    0.382
        17 -15.3605    182.5546    200.9256   9.6280198549e+01   6.2609413750e+00    0.9760047    0.8247275 -30.66  0.006036071    1.314    0.239
        18 -14.3537    129.7106    216.5558   1.0893118161e+02   1.2871720296e+01    0.6637896    0.4169742  19.81  0.003243109    2.590    0.614
        19 -15.3474    244.8598    198.5459   8.4424980688e+01  -4.2488690232e+00     1.223926    0.5050223 -26.29  0.005567554    2.545    0.607
        20 -14.3204    148.0652    209.8306   1.0443890447e+02   1.0926071933e+01    0.6494759     0.356933  48.13    0.0033267    1.617    0.382
        21 -14.2235    136.7066    206.4898   1.0618151084e+02   1.3455013053e+01    0.6169931    0.3546526  65.23  0.002886447    2.350    0.574
        22 -11.9355     56.9983    199.5552   1.2105146607e+02   2.6736955995e+01    0.2375227    0.2137081  44.62  0.001546301    1.408    0.290
        23 -14.0656    159.0291    197.7336   1.0037375176e+02   1.1057534535e+01    0.6262271    0.3381336  43.30  0.003046299    1.640    0.390
        24 -15.4879    134.6389    190.4138   1.0416600985e+02   1.6760705761e+01    0.9292765    0.6786778  66.32  0.004257265    1.496    0.332
        25 -14.8355    124.0586    184.9721   1.0552904914e+02   1.9667444294e+01     1.056271    0.5127084  33.96  0.004268868    2.344    0.573
        26 -14.9786    182.8750    175.9577   9.1592150962e+01   1.0355363383e+01     1.884559    0.9776002  57.53  0.007448673    2.688    0.628
        27 -14.8456    150.0556    180.7192   9.9297498535e+01   1.5794724408e+01    0.8127491     0.506577  33.34  0.002880234    1.669    0.401
        28 -15.3259    160.2557    172.9631   9.5700372231e+01   1.5315959756e+01     0.996519    0.7629961 -45.35  0.005324045    1.397    0.284
        29 -15.5295    164.1169    161.6594   9.2621438240e+01   1.6710810032e+01     1.075854    0.7561312 -41.01  0.004452292    1.489    0.328
        30 -15.6830    174.4181    161.0779   9.0302373886e+01   1.4732838212e+01     1.206408    0.8951954 -38.50  0.005141474    1.401    0.286
        31 -13.4588    115.3714    179.7525   1.0657194787e+02   2.2208063600e+01    0.3384841    0.2874215 -74.10  0.002021214    1.198    0.165
        32 -11.6020    138.4854    248.5063   1.1121464305e+02   6.4438285691e+00    0.2428148    0.1677114  11.40  0.001398888    2.459    0.593
        33  99.0000     24.3373    153.7773   1.2340750507e+02   4.0003604594e+01     2.346366     2.119346 -31.73   0.01721818    1.572    0.364
        34 -15.9458     48.3084    138.8976   1.1600878507e+02   4.0951885895e+01     2.653734     1.410362 -28.78   0.01002638    4.563    0.781
        35 -12.2811     30.7119    247.9396   1.2894735566e+02   2.1004936778e+01     0.286077    0.1274381  49.51  0.001571388    1.689    0.408
        36 -14.7946    106.7340    159.0227   1.0508359809e+02   2.8073780096e+01     1.121554    0.6688514  26.22  0.004964603    2.316    0.568
        37 -12.6834     51.3641    150.3467   1.1682629457e+02   3.7975556992e+01    0.5111682    0.2482392 -48.21  0.002405815    2.396    0.583
        38 -13.1681    237.6443    245.5259   9.3745234345e+01  -8.5227261477e+00    0.2523944    0.1578342  11.83  0.001635195    1.478    0.323
        39 -15.8828     85.3596    118.0069   1.0251086856e+02   4.0929238399e+01     2.695984    0.8614482 -45.58  0.008883224    3.314    0.698
        40 -14.1252    247.2059    123.4395   6.7884181545e+01   6.1030151328e+00    0.5262333    0.4516996 -65.49  0.002949515    1.529    0.346
        41 -15.1648    130.7806    111.2710   8.8720091747e+01   3.4136689654e+01     0.593459    0.4827084  14.80   0.00288028    1.471    0.320
        42 -14.1940    139.2236    131.8642   9.1736917596e+01   2.7925944943e+01    0.3968386    0.3096316 -13.71    0.0018737    1.638    0.390
        43 -13.1018     72.3805    168.1386   1.1435640012e+02   3.1321846516e+01    0.5249361     0.327748 -55.78  0.002225676    1.631    0.387
        44 -14.7206    110.1615     80.6547   8.5549091694e+01   4.4863755511e+01    0.6515731    0.3860342 -39.58  0.002849274    1.599    0.375
        45 -16.0521     10.1426     71.8103   1.1600825985e+02   5.9619142967e+01     1.083624    0.3656009 -55.89  0.005254042    2.014    0.503
        46 -14.8949     32.3266     63.9202   1.0626638829e+02   5.9715712902e+01    0.5833669    0.2744707 -61.92  0.002810877    1.979    0.495
        47 -13.6615    238.9022    236.8272   9.2158998046e+01  -7.7960057312e+00    0.2449932    0.1727527  -2.31  0.001669275    1.334    0.250
