#   1 NUMBER                 Running object number                                     
#   2 MAG_AUTO               Kron-like elliptical aperture magnitude                    [mag]
#   3 X_IMAGE                Object position along x                                    [pixel]
#   4 Y_IMAGE                Object position along y                                    [pixel]
#   5 X_WORLD                Barycenter position along world x axis                     [deg]
#   6 Y_WORLD                Barycenter position along world y axis                     [deg]
#   7 A_WORLD                Profile RMS along major axis (world units)                 [deg]
#   8 B_WORLD                Profile RMS along minor axis (world units)                 [deg]
#   9 THETA_WORLD            Position angle (CCW/world-x)                               [deg]
#  10 FWHM_WORLD             FWHM assuming a gaussian core                              [deg]
#  11 ELONGATION             A_IMAGE/B_IMAGE                                           
#  12 ELLIPTICITY            1 - B_IMAGE/A_IMAGE                                       
         1 -15.8985    247.3768    153.8944   5.0319444638e+01   6.8554174068e+00     9.541911     1.058459 -32.26   0.02667586    7.566    0.868
         2 -13.5318    248.4118    102.3289   3.9936938657e+01   1.2812427117e+01      2.91446    0.4715518 -27.98  0.007654559    7.218    0.861
         3 -15.5081     86.2243     90.9056   7.2638621749e+01   4.7516031036e+01     5.076093     2.782149 -29.88   0.01815541    2.819    0.645
         4 -10.9709     12.5929     28.0500   9.2384855633e+01   7.2331376867e+01    0.6809918    0.1965652 -66.55  0.002533984    3.003    0.667
         5 -10.9997      3.5278     25.1689   9.8749803987e+01   7.3413219232e+01    0.5410989    0.1283822 -60.27  0.002069544    2.842    0.648
         6 -10.0675     40.8712     14.1444   6.4578966538e+01   7.2180095890e+01    0.2271945    0.1842047 -15.40 0.0002544378    1.211    0.174
         7  -9.8438     48.7549     18.6677   6.2243085654e+01   6.9996307507e+01    0.5301282    0.2259339 -27.91  0.001748948    3.778    0.735
         8  -9.7532     17.5979     12.1618   8.1889249105e+01   7.5594020229e+01    0.1970687    0.1004932 -45.55 0.0009500438    1.739    0.425
         9  -9.7363    185.5898    213.2717   7.0828776979e+01   7.9548806328e+00    0.2371783    0.1050237 -34.84  0.001266001    2.520    0.603
        10 -13.2359    162.9498    247.1749   7.9508743719e+01   6.6331995896e+00    0.7048751    0.4744278  11.71  0.005070412    1.240    0.193
        11 -10.3303     57.9676    206.0038   9.8082050377e+01   2.5688326213e+01     0.300847    0.0912611  44.38  0.001305862    2.530    0.605
        12 -10.0278    217.3688    208.8228   6.4466564382e+01   4.4460796583e+00    0.1558136   0.08602545 -17.27 0.0009549068    1.754    0.430
        13  -9.4034    211.6482    201.3168   6.4278675310e+01   6.0274463248e+00   0.09949603     0.087498  36.28    0.0007047    1.737    0.424
        14  -9.9235     89.7527    199.5770   8.9865048499e+01   2.3100841681e+01    0.3077577    0.0724539  37.16  0.001142033    2.957    0.662
        15  -9.3459     36.5101    196.5119   1.0267901539e+02   2.9721234784e+01    0.1228971   0.09416059  46.83 0.0005217303    1.034    0.033
        16  -9.3708    172.7668    195.5538   7.0661701705e+01   1.2081398627e+01    0.1680173   0.09978051  38.55 0.0009346509    1.599    0.375
        17 -10.0463     67.2260    195.1498   9.4973840580e+01   2.6716336191e+01     0.266527    0.1117285  47.39  0.001239119    2.109    0.526
        18 -11.8300    225.3146    191.4062   6.0355631852e+01   5.4282558697e+00    0.3922174    0.1675496 -22.63  0.002022944    2.429    0.588
        19 -12.9890    230.4380    185.3761   5.8510759395e+01   5.4636635325e+00    0.6210498    0.2854959 -27.60  0.003498056    2.026    0.506
        20  -8.8172    209.2986    194.3398   6.3568887166e+01   7.1720738700e+00    0.1228411   0.07325062   2.70 0.0004213907    1.663    0.399
        21  -8.9159    215.3029    193.6518   6.2411770795e+01   6.4620546450e+00   0.09626116   0.09172818  15.37 0.0005776295    1.693    0.409
        22 -10.5452     88.8383    189.6414   8.9020485471e+01   2.5089055236e+01    0.3534938    0.1381308  29.06  0.001511084    2.199    0.545
        23 -10.7943     97.2707    187.5852   8.6672562253e+01   2.4346665229e+01    0.5697379    0.1588144  37.55  0.002155426    2.725    0.633
        24 -11.0987     92.6678    183.0656   8.7288442597e+01   2.5851157225e+01    0.3047961    0.2454814 -64.61  0.001189009    1.482    0.325
        25 -10.8378     55.8638    187.4266   9.7206909643e+01   2.9551248754e+01    0.3874586     0.144629  49.90  0.001675192    2.484    0.597
        26  -9.9414     34.8316    187.5665   1.0260260768e+02   3.1682557382e+01    0.2479658    0.1031954  55.04  0.001186072    2.178    0.541
        27 -10.1180    110.8077    185.3010   8.3028804553e+01   2.2867089300e+01    0.2445367    0.2052979 -11.18 0.0007883385    1.362    0.266
        28  -9.9004     66.7610    185.1819   9.4197158603e+01   2.8754362659e+01    0.2282373   0.09650597  55.89 0.0009447747    2.747    0.636
        29 -10.0654     75.1402    184.3862   9.1947627506e+01   2.7890082147e+01    0.2824419    0.1200135  41.24  0.001288525    1.922    0.480
        30  -9.5252     12.3184    184.6518   1.0815385586e+02   3.4207791753e+01    0.1328601   0.06137425  52.90 0.0007048436    1.732    0.423
        31  -9.1888      6.2978    184.6560   1.0964882540e+02   3.4653410540e+01     0.128927   0.06075934  53.35 0.0005103735    1.671    0.402
        32 -10.0049     78.8147    193.8061   9.1962551864e+01   2.5574392626e+01     0.189003    0.1241068  49.36 0.0009657276    1.387    0.279
        33 -10.6403     98.9768    225.3631   9.0277411434e+01   1.7513089529e+01    0.2992822    0.1722343  28.44  0.001464669    1.351    0.260
        34 -10.1793     44.8293    182.2056   9.9679229484e+01   3.1808231112e+01    0.2096888    0.1407905  49.68  0.001239675    1.260    0.206
        35 -10.2350     44.3221    193.6974   1.0058169784e+02   2.9510732758e+01    0.2828471    0.1442089  53.04  0.001352409    1.729    0.422
        36 -11.4145     79.3249    176.7116   9.0019325113e+01   2.8919296971e+01    0.4429154    0.1516792  43.91  0.001738761    2.580    0.612
        37  -8.8689    205.2848    176.3422   6.1229281543e+01   1.0012855623e+01    0.1269426    0.0792811   1.47 0.0003652121    1.639    0.390
        38 -10.6878    101.0077    175.9949   8.4241352447e+01   2.6068056060e+01    0.1932855    0.1638172  33.07  0.001163934    1.003    0.003
        39  -9.6698     34.8215    173.5961   1.0176483412e+02   3.4629653307e+01    0.1914596   0.08757388  38.02 0.0009448305    1.736    0.424
        40 -10.0285     45.0065    172.0136   9.8874504348e+01   3.3965183165e+01    0.2249119    0.1206094  55.03  0.001135399    1.743    0.426
        41 -10.6634     60.4766    177.0202   9.5096892901e+01   3.1187085026e+01    0.2799275    0.1388884  42.71  0.001373567    1.677    0.404
        42 -11.1091     55.6407    169.3972   9.5710395813e+01   3.3381597044e+01    0.3717779    0.2088136  55.12  0.001686247    1.729    0.422
        43  -9.1227    206.4699    168.9913   5.9698445568e+01   1.0813856036e+01    0.1502752    0.1058138 -53.19 0.0008088123    2.486    0.598
        44 -10.3499     99.7810    166.2754   8.3201483657e+01   2.8205202671e+01    0.4481661    0.1336967  42.91  0.001537495    3.102    0.678
        45 -11.2193     80.7066    164.2472   8.8137596956e+01   3.1364222103e+01    0.5090693    0.2535242  62.88  0.001983558    3.030    0.670
        46 -10.0442     38.0171    164.3577   1.0024277237e+02   3.6358499568e+01    0.2475288    0.1466436  60.53  0.001073384    1.606    0.378
        47 -11.1284     70.5785    163.5632   9.0900347635e+01   3.2855117434e+01    0.3066708    0.1877454  54.69  0.001198568    1.644    0.392
        48  -9.9147     47.6915    164.1004   9.7470631723e+01   3.5428980998e+01    0.2158437    0.1433479  66.71  0.001175444    1.512    0.339
        49 -10.0522    213.5421    162.7070   5.7298314020e+01   1.0593556474e+01    0.2310205     0.107072 -27.98    0.0011479    2.095    0.523
        50 -10.8285     94.3607    160.9430   8.3895792105e+01   3.0123273162e+01    0.4413608    0.1787349  42.70  0.001767481    2.231    0.552
        51 -10.8448     62.6235    160.8390   9.2863863914e+01   3.4453832862e+01    0.2809628    0.1737538  58.93  0.001152097    1.668    0.401
        52  -9.5624     40.0061    225.3256   1.0331004141e+02   2.4036416982e+01    0.2041492          nan  41.25 0.0007046231    4.265    0.766
        53 -10.1767    107.1486    159.0818   8.0128567694e+01   2.8553504544e+01    0.3772052    0.1405212  45.31  0.001371238    2.733    0.634
        54  -9.2344     23.3268    159.6314   1.0412057052e+02   3.8745495765e+01    0.1444011   0.07113805  55.09 0.0007034471    1.812    0.448
        55 -11.5342     50.4622    155.2676   9.5842512672e+01   3.7132606514e+01    0.5721315    0.2283794  53.01  0.002282034    2.635    0.621
        56 -11.7679     82.6775    155.0427   8.6341041986e+01   3.3099789897e+01    0.5101778    0.2509327  45.53  0.001867173    1.913    0.477
        57 -12.1788     69.7510    153.8175   8.9952047560e+01   3.5138074588e+01    0.6026217    0.2725188  34.84  0.002624308    1.884    0.469
        58 -10.4865     92.0839    151.8783   8.3168566198e+01   3.2415536314e+01     0.281023    0.2135967  49.22  0.001273845    1.267    0.210
        59 -10.3251     99.6871    151.1768   8.0898880745e+01   3.1392821056e+01    0.2665566    0.1746902  42.01  0.001078607    1.385    0.278
        60 -10.0527     29.0078    149.9930   1.0183654936e+02   4.0484698357e+01    0.3149508    0.1329331  68.40   0.00130075    2.691    0.628
        61 -12.0767     56.7798    145.8727   9.2905655487e+01   3.8597650154e+01    0.7326389    0.3461947  57.63   0.00266875    2.458    0.593
        62 -10.9805     40.0292    147.5987   9.8274790065e+01   4.0019182480e+01    0.5659915    0.2208412  54.08  0.002250627    2.672    0.626
        63  -9.1903    189.0000    148.0324   5.8934616569e+01   1.6583091501e+01    0.2082172   0.07138628 -36.99 0.0007567776    2.941    0.660
        64 -11.6711    108.6259    146.0833   7.7523786522e+01   3.1031605754e+01    0.6810539    0.3207692  54.71  0.002406603    3.132    0.681
        65 -11.6485     78.7640    146.8045   8.6305777978e+01   3.5507124116e+01    0.3653423    0.2369701  57.73  0.001415775    1.674    0.402
        66 -12.4274     89.5122    144.1508   8.2685992684e+01   3.4520628900e+01    0.6032897    0.2849457  39.81  0.002360834    1.881    0.468
        67  -9.3326     13.3170    145.6853   1.0633048001e+02   4.2724318647e+01    0.1386592   0.07408185  54.12 0.0003083051    1.648    0.393
        68  -9.8467    126.9799    144.1949   7.2219128057e+01   2.8259516520e+01    0.2441048    0.1555278  57.29  0.001079706    2.027    0.507
        69 -12.6213     49.2257     83.3977   8.5634405003e+01   5.5121038659e+01     1.065422    0.6425996 -81.18  0.004621688    2.012    0.503
        70 -13.4829    101.0064    128.5253   7.6411495016e+01   3.6163563958e+01      1.03277    0.6602048  59.87  0.004013004    1.969    0.492
        71 -14.3240     60.3055    123.0036   8.8641238208e+01   4.3695478709e+01     2.777033     1.401554  78.24  0.009618001    3.497    0.714
        72 -13.4226    110.6252    115.2411   7.0659937309e+01   3.7371450535e+01     1.057393     0.777489  83.30  0.004429222    2.026    0.506
        73 -14.1431     85.2162    131.9289   8.1916216722e+01   3.7981946673e+01     1.826831     0.678201  44.14    0.0064904    2.631    0.620
        74 -14.5298     64.1654     94.3625   8.1850026516e+01   5.0324757085e+01     1.846342     1.190119 -54.28  0.008568999    1.550    0.355
        75 -14.1633     83.2048     71.5290   6.8124502937e+01   5.2557283000e+01     1.329102     1.070483 -45.97  0.006094581    1.271    0.213
        76 -14.4954     95.0512    112.7814   7.4944938394e+01   4.0803300702e+01     1.243607     1.161555  57.75  0.004903847    1.087    0.080
        77 -14.1455     79.9645    111.9433   7.9811222509e+01   4.3561899502e+01     1.739433    0.9864684 -87.25  0.006081428    3.301    0.697
        78 -14.4385    111.7307     99.4311   6.6425336573e+01   4.0611647389e+01     2.590297     1.149773  50.69  0.009040924    2.541    0.607
        79  -9.8629    226.3952    131.4529   4.9051609518e+01   1.2708974116e+01    0.2996644   0.09820974 -36.08  0.001248272    2.806    0.644
        80  -9.7776     12.8498    129.1585   1.0560628169e+02   4.6713441184e+01    0.3389085    0.1082422  65.91  0.001193261    3.594    0.722
        81 -12.0360    120.1673    126.4863   7.0425489903e+01   3.3143827295e+01    0.7793124    0.3160827  51.36  0.002506005    3.323    0.699
        82 -12.2859     44.2023    121.5999   9.4086749434e+01   4.5941604573e+01     1.185263    0.5412172  76.14  0.004180769    3.396    0.706
        83 -11.1348     28.5266    121.9799   9.9685499080e+01   4.7335631025e+01    0.7601202    0.2703894  64.68  0.002471975    4.050    0.753
        84 -10.2689     61.5796    223.9004   9.8459595438e+01   2.2082456209e+01    0.2639857   0.09325489  40.52  0.001320295    1.993    0.498
        85 -10.1614    143.1078    120.3963   6.2992755676e+01   2.9906813750e+01    0.2901224    0.1827721  54.21  0.001151325    1.829    0.453
        86 -10.6173    133.0022    119.8233   6.5444703960e+01   3.2035645655e+01     0.475836     0.222116  51.80   0.00172944    2.558    0.609
        87 -12.1653    123.7452    113.3162   6.6413730601e+01   3.5217224093e+01    0.5341069     0.290206  47.86  0.002167655    1.859    0.462
        88 -10.2153     14.1893    109.9743   1.0387108395e+02   5.1408810190e+01    0.3417149    0.1792252  74.51  0.001601913    1.934    0.483
        89 -15.4019    106.2325     83.9666   6.3834302930e+01   4.5102274954e+01     2.206303     1.445326  38.09  0.009722364    1.501    0.334
        90 -12.6017     45.8306    102.0603   9.0626401965e+01   5.0734602915e+01      1.11974    0.5881089  71.14  0.004308884    2.723    0.633
        91 -10.7511     43.4995     92.4915   8.9921831170e+01   5.3455904254e+01    0.4863006    0.2682106   7.71  0.001865665    2.350    0.574
        92  -8.9607     13.6041    250.5056   1.0956510438e+02   2.2235719878e+01    0.1031947   0.06919734  44.93 0.0001255679    1.031    0.030
        93 -10.9200     22.2219    100.2250   9.9856940482e+01   5.3373153246e+01      1.05182    0.4285765  78.12  0.003794968    3.245    0.692
        94  -9.4475     88.6674    222.3225   9.2285101859e+01   1.9258916533e+01    0.1257417   0.07058028  49.92 0.0007050099    1.703    0.413
        95 -13.4601    126.3654     92.3367   6.0227241094e+01   3.8990175181e+01     1.060813     0.551311  42.58   0.00408165    1.861    0.463
        96 -11.3806    140.6518     93.2551   5.6711041188e+01   3.5643590764e+01    0.5148185    0.2396566  54.47  0.001867872    2.427    0.588
        97 -11.0467     35.0223     87.3922   9.2680782838e+01   5.5643486434e+01    0.8999761    0.3043314 -70.78  0.003188216    2.903    0.655
        98 -11.3633    142.0766     83.8991   5.3713368343e+01   3.7068593930e+01     0.383959    0.2198456  60.40  0.001530055    2.068    0.516
        99 -10.9313     25.5027     76.2791   9.5200090512e+01   5.9347209120e+01     1.231626     0.349658 -56.39  0.004399517    2.891    0.654
       100 -12.8215     63.5004     71.9728   7.6409962120e+01   5.5949581135e+01     1.561677    0.4629689 -54.98  0.004913742    3.293    0.696
       101 -13.1056    129.7952     76.0979   5.4510109277e+01   4.1386100778e+01    0.7036763    0.4855478  71.94  0.002867212    1.928    0.481
       102  -9.9733    191.9925    226.0579   7.1452180882e+01   5.5994272812e+00    0.1780169    0.1238099  14.20 0.0008607237    1.043    0.041
       103 -10.7929     42.7429     71.7917   8.5954990329e+01   5.8849958428e+01     0.444175    0.2052868 -69.95  0.001730972    2.363    0.577
       104 -12.5529    237.3871    229.5365   6.4269541680e+01   1.3453153035e-02    0.4089013    0.1763531  26.67  0.002109208    1.834    0.455
       105 -11.9477     51.5386     67.5085   8.0613519403e+01   5.8812900819e+01    0.9426784    0.3813885 -66.00  0.003256625    2.985    0.665
       106  -9.7648     16.5019     69.5427   9.8596213756e+01   6.1700927385e+01    0.2851922    0.1256944 -76.69   0.00120179    2.145    0.534
       107 -10.1045     17.7738     63.4046   9.6970312041e+01   6.3209224388e+01    0.4619333   0.08640984 -61.78  0.001496905    3.510    0.715
       108 -13.3193     96.2688     97.0196   7.0745655831e+01   4.4214694560e+01     1.018617    0.9106943  72.30  0.004437177    1.233    0.189
       109 -12.5554    122.6889     66.5788   5.3393744515e+01   4.4857455038e+01    0.4929758    0.3702672  74.12  0.002237328    1.636    0.389
       110 -10.8936    125.9432    220.5237   8.3903999105e+01   1.4847954999e+01    0.2048696     0.171353  37.30 0.0006465168    1.217    0.178
       111 -11.2760    114.2167    134.0312   7.3669804334e+01   3.2633027903e+01    0.4847819    0.2467342  49.43  0.001932978    2.152    0.535
       112 -10.9920     37.6592     61.9994   8.6074809510e+01   6.1890522895e+01    0.7103901     0.283313 -56.92  0.002796649    2.237    0.553
       113 -12.7266     73.9773     57.0333   6.6934398520e+01   5.7561394368e+01      1.02966     0.430531 -47.78  0.003748369    2.436    0.590
       114 -11.7215     89.3600     59.5029   6.1676046767e+01   5.3902780049e+01    0.4307746    0.2887135 -55.91  0.001755175    1.722    0.419
       115 -10.0218     25.0170     57.5936   9.1867595515e+01   6.4189791050e+01     0.393687    0.1615537 -58.80    0.0016334    2.092    0.522
       116  -9.9191    230.5280    141.5050   5.0443919829e+01   1.0771372916e+01    0.2476529    0.1447149 -12.82  0.001283334    1.709    0.415
       117 -11.9416    120.4316     56.8464   5.0686596958e+01   4.7172280216e+01    0.4618897    0.3235908  88.22  0.001911261    2.117    0.528
       118 -10.6863     88.0016    227.4256   9.2868616376e+01   1.8501634587e+01    0.2433204    0.1336038  14.55   0.00129228    2.105    0.525
       119 -10.7665      7.7356     53.6473   1.0103670128e+02   6.6203240498e+01    0.8007509   0.09806757 -65.93  0.002454715    4.173    0.760
       120 -11.2763     63.2028     52.2136   7.0014482799e+01   6.0602079902e+01    0.8550155    0.2670438 -50.69  0.002740998    3.244    0.692
       121 -11.1310     54.1802     52.0109   7.4383587492e+01   6.2137163095e+01    0.9168456    0.2767827 -58.22   0.00269769    4.079    0.755
       122 -10.3356     44.1820     54.7968   8.0553122291e+01   6.2896074738e+01    0.3602895    0.2187031 -63.98  0.001499054    1.727    0.421
       123 -10.8358     45.1888     49.3230   7.8198090966e+01   6.4069900810e+01    0.3774399    0.2507008 -36.10 0.0003765128    1.567    0.362
       124  -9.8023    229.7464    138.0159   4.9869373946e+01   1.1334614296e+01    0.2362692    0.1063896 -32.71 0.0008625521    2.002    0.500
       125 -12.1918     92.5323     49.8012   5.6841292195e+01   5.5133318132e+01    0.7572544    0.3213977 -47.61  0.002645626    2.672    0.626
       126 -10.7585     30.9995     49.0838   8.6241861068e+01   6.5788217506e+01    0.7251366    0.2324512 -66.22  0.002470812    3.251    0.692
       127 -10.0296     20.2936     50.4819   9.3004237931e+01   6.6337582705e+01    0.4294347    0.1434759 -66.88  0.001626047    2.627    0.619
       128 -11.7989     81.8089    139.5081   8.4256644385e+01   3.6741025980e+01    0.3769147    0.2560119  57.44  0.001745073    1.591    0.371
       129 -11.3487     81.9998     46.1357   5.9360111863e+01   5.8181877758e+01    0.5321253    0.2547082 -40.67  0.002057706    2.167    0.539
       130 -10.5070     23.2517    137.6855   1.0275726285e+02   4.3893338073e+01      0.47662    0.1761658  59.61  0.001860403    2.895    0.655
       131 -10.4937     45.3953     43.0075   7.5777041729e+01   6.5505396261e+01     0.576628    0.1948903 -47.28  0.002035122    2.814    0.645
       132 -10.5791     17.0371     41.8717   9.2998865728e+01   6.8701941811e+01    0.5996558    0.1189945 -60.67  0.002012748    3.373    0.704
       133 -10.5449     58.0902     41.6469   6.8346174341e+01   6.3797305672e+01    0.4827582    0.2441682 -57.12  0.001892915    2.416    0.586
       134 -11.0232      5.2053     39.0581   1.0029980363e+02   6.9962114114e+01    0.7275046    0.1820037 -73.43  0.002563667    3.351    0.702
       135 -10.6348     69.1208     40.3091   6.2405223654e+01   6.2009614451e+01     0.455073     0.240569 -54.25  0.001789771    2.354    0.575
       136  -9.5677    113.9722     41.3047   4.6674406344e+01   5.1413598507e+01    0.2161371    0.1881799  50.83 0.0003118147    1.091    0.083
       137 -11.2325     39.2742    135.1392   9.7320356091e+01   4.3089629800e+01    0.4350969    0.2375844 -86.97  0.002026042    1.976    0.494
       138 -10.3990     36.9941     38.7863   7.9154577954e+01   6.7585020072e+01     0.526714    0.1971507 -52.51  0.002034077    2.427    0.588
       139 -14.2082     67.2189    109.7501   8.3885870715e+01   4.6042504816e+01     1.769973     0.911621 -85.37  0.006069184    3.387    0.705
       140 -10.8011     27.7576     29.4179   8.1601467373e+01   7.0783981842e+01    0.7295577    0.1569551 -48.19  0.002310509    3.814    0.738
       141 -10.0358     60.5104     32.0219   6.2764176486e+01   6.5315212900e+01    0.2871417     0.139734 -39.19  0.001160762    2.127    0.530
       142 -10.0029     50.0639     30.0817   6.7490523815e+01   6.7575642434e+01     0.525937     0.152822 -40.32  0.001601139    3.949    0.747
       143 -11.0675    159.3288    230.8616   7.8266485795e+01   9.0894370365e+00    0.2249679     0.211275 -44.40  0.001763347    1.630    0.387
       144 -11.3122    162.5365    225.4507   7.6952987113e+01   9.3837789898e+00    0.4671626    0.2269981  24.86  0.002068782    1.662    0.398
       145  -9.4078     40.8409     21.2115   6.8653114822e+01   7.0840876009e+01    0.1875571    0.1479167  -9.32  0.000237146    1.312    0.238
       146  -9.6321     19.5729     19.6522   8.3732754528e+01   7.3776151128e+01    0.2681585    0.1067499 -54.53  0.001146526    2.183    0.542
       147  -9.7679    171.1304    225.6449   7.5303318045e+01   8.2597150305e+00    0.1616217    0.1363034  13.55 0.0003228115    1.237    0.192
       148 -10.3146      2.0000     15.0241   9.7484620769e+01   7.5864539715e+01    0.2088487   0.06492802 -72.85 0.0008053933    2.963    0.663
       149  -9.5866     75.2298    219.6215   9.5084594533e+01   2.1297485267e+01    0.1699305   0.09489737  22.77 0.0009477185    1.633    0.388
