#   1 NUMBER                 Running object number                                     
#   2 MAG_AUTO               Kron-like elliptical aperture magnitude                    [mag]
#   3 X_IMAGE                Object position along x                                    [pixel]
#   4 Y_IMAGE                Object position along y                                    [pixel]
#   5 X_WORLD                Barycenter position along world x axis                     [deg]
#   6 Y_WORLD                Barycenter position along world y axis                     [deg]
#   7 A_WORLD                Profile RMS along major axis (world units)                 [deg]
#   8 B_WORLD                Profile RMS along minor axis (world units)                 [deg]
#   9 THETA_WORLD            Position angle (CCW/world-x)                               [deg]
#  10 FWHM_WORLD             FWHM assuming a gaussian core                              [deg]
#  11 ELONGATION             A_IMAGE/B_IMAGE                                           
#  12 ELLIPTICITY            1 - B_IMAGE/A_IMAGE                                       
         1 -10.3431    201.7122     30.5729   5.1487993814e+01   3.0780904302e+01    0.9053029    0.4424941 -23.16  0.003678247    2.116    0.527
         2  -9.9354    209.9824     22.1649   4.8024000100e+01   2.9656285381e+01    0.5383903      0.31514  38.21  0.001263539    2.135    0.532
         3 -10.5026    215.6261     12.1941   4.4601453197e+01   2.9319777045e+01    0.8254584    0.4044516 -36.38  0.003711293    1.841    0.457
         4 -10.1053    220.1342     11.8531   4.4082777398e+01   2.8231393137e+01    0.5735067     0.338489 -35.86  0.002830125    1.550    0.355
         5  -7.6177    179.5550      5.2698   4.6353824737e+01   3.9357603457e+01    0.1830887    0.1378772   2.14 0.0008083938    1.548    0.354
         6  -8.1726    171.3594      5.0474   4.7283928747e+01   4.1552803772e+01    0.2313677    0.1787391  57.17 0.0003981868    1.240    0.194
         7  -8.5871    138.0876      4.1247   5.1860843526e+01   5.0405317934e+01    0.2199331    0.1981439 -11.37 0.0003165888    1.153    0.133
         8  -7.1273    158.2763      1.6758   4.7839798875e+01   4.5329571248e+01    0.1451541    0.1011797 -56.76 0.0003735051    1.584    0.369
         9  -7.1206    192.3319    234.7066   9.9674879665e+01   1.7200362627e+00    0.1065339   0.07944977  54.94 0.0003910653    1.634    0.388
        10  -8.2403     97.8726    250.1486   1.1752236402e+02   1.3468752196e+01    0.1364988    0.1052499  39.65 0.0004372989    1.324    0.245
        11  -8.4155     27.5628    250.0655   1.2881068360e+02   2.1841498258e+01    0.1978182   0.08280655  54.37 0.0009643044    1.610    0.379
        12 -10.5773     13.9275    238.9417   1.3048531123e+02   2.4959833099e+01    0.4019445    0.2928738  55.08 0.0003380385    1.257    0.205
        13 -10.4109     14.5985    249.6487   1.3075613796e+02   2.3203591586e+01    0.6160501    0.3655236  37.25  0.004820397    1.810    0.447
        14 -11.4318      3.7110    247.0142   1.3229249643e+02   2.4641152579e+01     1.067749    0.4263525 -78.89  0.003511773    2.384    0.580
        15  -8.2223     51.0396    227.5399   1.2385924838e+02   2.2919557182e+01    0.1987599    0.1097147  72.79 0.0008575355    1.597    0.374
        16  -7.7429    245.4857    226.9892   8.9781013674e+01  -5.2654291453e+00    0.1214375   0.09534153 -48.91  0.000381616    2.405    0.584
        17  -8.8268     95.0210    226.5305   1.1601279542e+02   1.7485011480e+01     0.176122   0.08945458  42.87  0.001029843    1.586    0.370
        18  -8.5831     35.4570    224.8717   1.2636941695e+02   2.5113049831e+01    0.2354594    0.1153672  67.26 0.0008768147    1.669    0.401
        19  -8.9045      2.2760    222.6768   1.3176315349e+02   2.8743617159e+01    0.2579818    0.1182157  73.84  0.001089307    1.650    0.394
        20  -7.7735    131.9926    222.9073   1.0889389904e+02   1.2651176544e+01    0.1717155    0.1372559  33.86 0.0006184967    1.243    0.196
        21  -8.3862     99.3812    230.1460   1.1555986194e+02   1.6297820790e+01    0.1441048   0.09571592  89.66  0.000543875    1.737    0.424
        22  -8.5277     31.9256    219.2962   1.2667849678e+02   2.6455330100e+01    0.1813124    0.1260513 -88.16  0.000635635    1.330    0.248
        23  -8.0122     10.7040    217.9783   1.3021451767e+02   2.8788775666e+01     0.142967   0.09521623  75.15 0.0007012592    1.100    0.091
        24 -10.5644     23.1923    176.0536   1.2576722641e+02   3.5549502754e+01    0.4994003    0.3099441  83.35  0.003319622    1.300    0.231
        25 -10.3243     40.8177    213.7043   1.2479987253e+02   2.6489442349e+01    0.2904719    0.2562175 -80.16 0.0008805098    1.447    0.309
        26 -11.8004     50.3643    202.9065   1.2232001474e+02   2.7387942954e+01    0.9143171    0.6142091  62.39  0.004178511    1.168    0.144
        27  -8.7155    240.4704    210.5010   8.7922076395e+01  -2.8363086344e+00    0.1959805    0.1477766  20.09 1.314784e-05    1.049    0.047
        28 -11.0213     10.6870    207.0662   1.2976965762e+02   3.0735975901e+01    0.5735458    0.2185754  37.88  0.001932378    2.338    0.572
        29 -10.8268      9.1051    171.2502   1.2832627853e+02   3.7790505799e+01    0.4815376    0.2618391 -68.47  0.002828273    1.753    0.430
        30 -10.0846      2.1641    196.5132   1.3083147372e+02   3.3435859836e+01    0.6962231    0.1311532 -76.29  0.003040141    4.119    0.757
        31 -11.3392      5.8548    183.4874   1.2958728723e+02   3.5618034448e+01    0.8019189    0.3470662 -72.06  0.004828318    2.062    0.515
        32  -7.5675     68.4758    208.4984   1.1933605816e+02   2.4143258898e+01    0.1158585   0.08831721  65.08 -7.073424e-05    1.020    0.019
        33  -8.5178    196.7159    196.9698   9.3188887463e+01   5.8602167018e+00     0.275408     0.203358  10.78   0.00165973    1.410    0.291
        34  -8.0964     10.3043    196.8047   1.2938352681e+02   3.2670498780e+01     0.176006     0.103703  56.31 0.0005214143    1.327    0.247
        35  -6.9635    121.7314    196.2650   1.0757997095e+02   1.8672665076e+01    0.1201143   0.08491005  65.84  0.000684749    1.464    0.317
        36  -9.4650    238.5164    192.5734   8.5133567187e+01  -4.9565335283e-01    0.2732716    0.2477986  74.48 0.0006781752    1.897    0.473
        37  -8.8933      2.4631    213.2646   1.3141037859e+02   3.0362327388e+01    0.2051801    0.1448968  89.25   0.00168661    1.281    0.219
        38  -8.9722    226.6662    187.3350   8.6180962063e+01   2.0801643870e+00    0.2862108    0.1830621  43.08  0.001638926    1.546    0.353
        39  -9.2379     66.4087    184.3361   1.1754810640e+02   2.9027378705e+01    0.2720523     0.244423 -36.80  0.001374413    1.620    0.383
        40  -8.9955    227.6309    182.5837   8.5137062438e+01   2.5302525274e+00    0.2645467    0.1846917  22.64  0.001570848    1.277    0.217
        41  -7.0033    109.6712    182.2586   1.0819349996e+02   2.3197744826e+01     0.130751   0.08650988  64.50 0.0002938163    1.561    0.360
        42  -9.1906     71.4121    178.4252   1.1588322982e+02   2.9569287304e+01    0.2262285    0.2007722 -71.44 0.0006962297    1.283    0.221
        43  -7.5158    237.6757    178.0346   8.2574773238e+01   1.4262867937e+00    0.1737389    0.1392372  -0.07 0.0005054475    1.086    0.079
        44  -8.9725    227.7648    177.6702   8.4186026025e+01   3.1511879046e+00    0.2148702     0.187306  15.90 0.0002560334    1.110    0.099
        45  -8.5012    148.2940    176.3453   9.9154427311e+01   1.7725644201e+01    0.2056933    0.1926596  26.84 0.0002755569    1.106    0.096
        46 -10.0381    195.7437    174.5417   8.9376172881e+01   9.3069465207e+00    0.2504841    0.2301443  20.80 0.0004618149    1.083    0.076
        47  -9.3271     81.6013    175.2427   1.1332342407e+02   2.8824818520e+01    0.2094408    0.1840011  68.77  0.000284049    1.077    0.071
        48 -11.7319     35.5764    192.8329   1.2443440134e+02   3.0958365657e+01     1.658227    0.5369944  68.46  0.006363158    4.416    0.774
        49  -8.6343     80.4320    168.1222   1.1270623723e+02   3.0469128848e+01    0.2181032    0.1857458  55.32  0.000431603    1.139    0.122
        50  -7.8493     93.0391    168.5124   1.0993524260e+02   2.8540865160e+01    0.2891466    0.1273162  32.41   0.00120999    2.721    0.633
        51 -10.6887     67.9373    164.5861   1.1508736666e+02   3.2923087482e+01    0.3921834    0.2511975 -47.92  0.001503065    1.971    0.493
        52 -10.5443      7.0743    148.6099   1.2739698734e+02   4.2704298257e+01    0.5632137    0.1929309  79.28  0.002407242    3.264    0.694
        53  -9.5500     86.8112    161.0494   1.1031824361e+02   3.1046545408e+01     0.489928    0.3417923 -18.01  0.001521612    2.881    0.653
        54  -8.6475     81.1363    160.0266   1.1148905854e+02   3.2092555336e+01    0.2013938    0.1714551  56.34 0.0002861507    1.132    0.117
        55  -8.8403    215.9023    157.9632   8.2356092416e+01   8.0534730037e+00    0.2078918    0.1754413  28.64 0.0002989964    1.113    0.102
        56  -7.7838    201.5553    156.2786   8.4655979673e+01   1.1055838804e+01    0.2416754    0.1292627 -41.99  0.000791479    2.030    0.507
        57  -7.0384    126.2928    157.3145   1.0065332032e+02   2.5339725087e+01    0.1311546    0.1101194  -5.97 0.0001887787    1.596    0.373
        58  -9.9573     14.5429    152.3691   1.2598651646e+02   4.1297792481e+01    0.4045006    0.1460563  73.64  0.001732219    3.239    0.691
        59  -9.9794     68.1757    144.6781   1.1247603347e+02   3.7272522293e+01    0.5964414    0.3567189  67.80  0.002415028    1.841    0.457
        60  -7.1934    243.3538    146.2391   7.5171004734e+01   4.6403601851e+00    0.1341019   0.08929521  16.66 0.0001138156    1.579    0.367
        61  -7.5996    100.6883    145.6882   1.0463966014e+02   3.2213618143e+01    0.1305528     0.109605 -19.73 0.0007029269    1.630    0.386
        62  -7.6743     88.2144    144.7895   1.0754395844e+02   3.4388497052e+01    0.1739426    0.1575228 -36.24 0.0004844642    1.361    0.265
        63 -11.0933     12.5076    161.9516   1.2707269890e+02   3.9428890468e+01    0.5448205    0.2443664 -87.65  0.003042098    1.870    0.465
        64  -6.9340     80.7051    136.3418   1.0805048296e+02   3.7417143754e+01    0.1415637   0.09625932  77.66 0.0004527717    1.660    0.397
        65  -8.9703      4.0309    135.2172   1.2718983250e+02   4.5845786879e+01    0.1834408   0.09596475  78.06  0.001065393    1.654    0.395
        66  -7.5058    111.4683    133.5262   9.9721094466e+01   3.3044379355e+01    0.1393082    0.1356035 -86.18 0.0005600741    1.066    0.062
        67  -9.0989      7.9878    133.0438   1.2607887058e+02   4.6046187175e+01    0.1765743    0.1240689  79.05 0.0004415296    1.166    0.143
        68  -8.6463      9.4923    129.5856   1.2543463225e+02   4.6709561518e+01    0.1849476    0.1217757 -75.18 7.534183e-05    1.238    0.192
        69  -7.4208    159.9509    108.2932   8.2089120927e+01   2.8480016196e+01    0.2113251    0.1908091  44.34  0.000320876    1.110    0.099
        70  -9.6900    216.1961    103.3054   6.9644524801e+01   1.6550248791e+01    0.2673987    0.2311601 -15.97 0.0002368737    1.097    0.089
        71  -8.0877    220.8644     99.7774   6.7961100617e+01   1.6071272420e+01     0.219824    0.1874547  10.02 0.0004297015    1.212    0.175
        72  -7.6322     97.8654     90.7046   9.3483360655e+01   4.5113512287e+01    0.1901647    0.1802183  48.08 0.0003465436    1.122    0.109
        73  -7.6906    103.8045     86.8015   9.0657120980e+01   4.4879878664e+01    0.1925617    0.1675924 -79.43            0    1.275    0.216
        74  -7.5507     81.3336     69.0005   9.2366545653e+01   5.2764199318e+01    0.1989736    0.1677134 -48.50 0.0003783186    1.092    0.084
        75  -9.0586    118.2908     65.4978   7.9858055804e+01   4.6340275321e+01    0.2735995    0.2469381  -8.60 0.0002684044    1.147    0.128
        76  -7.4046     95.9771     62.0349   8.5311017217e+01   5.1606425757e+01    0.1725992    0.1599851 -31.75 0.0003361369    1.003    0.003
        77  -7.5632     82.9050     58.5298   8.8390912766e+01   5.4701231994e+01    0.1889277    0.1422999  38.94 0.0002798667    1.443    0.307
        78  -9.0723    214.4564     55.0208   5.6871788867e+01   2.4325996821e+01    0.3771017    0.2633951 -26.29  0.001458218    1.387    0.279
        79  -8.3180    188.5341     46.5099   5.8250419556e+01   3.2094838037e+01    0.2835759    0.1490891  62.82 0.0006073657    1.941    0.485
        80 -10.2056    194.3811     36.6508   5.4323382141e+01   3.1912169265e+01    0.6443753    0.4549182  67.05  0.002664441    1.439    0.305
        81  -9.8886    207.4610     31.0566   5.0905708920e+01   2.9247646141e+01    0.6517993    0.3706371 -30.00  0.002941136    1.669    0.401
        82  -8.6024     67.0320    246.4386   1.2236013802e+02   1.7964007478e+01    0.1723926    0.1204023  75.98  0.000427832    1.279    0.218
        83  -8.7531     39.8722    245.9294   1.2671172909e+02   2.1179183128e+01    0.1817763    0.1200687  83.38  0.001000706    1.349    0.259
        84  -7.9887     50.0211     33.0388   9.1329779388e+01   6.4751572757e+01    0.1924334    0.1601117 -27.32  0.001197891    1.027    0.026
        85  -7.4991     57.9075     20.0333   8.2081943201e+01   6.5904530074e+01    0.1538193    0.1310706 -13.27 0.0004089105    1.020    0.019
        86  -8.4460     48.9478    244.9271   1.2521135057e+02   2.0326354585e+01     0.164792    0.1166152  84.36   0.00047619    1.318    0.241
        87  -8.0926     93.8694    244.0891   1.1771191164e+02   1.4895154857e+01     0.177946    0.1414295 -24.71   0.00124449    2.362    0.577
        88 -10.1351    130.0455    237.4495   1.1084398850e+02   1.0785860292e+01    0.1860238    0.1628942  60.57 6.492494e-05    1.176    0.150
        89  -7.8234     39.9439    235.9384   1.2620023330e+02   2.2771745052e+01    0.1755778   0.08039009  61.79 0.0009039064    1.702    0.412
        90  -8.6148     48.7814    234.4726   1.2465633163e+02   2.2023621847e+01    0.1902273      0.13329  68.01 0.0005573868    1.079    0.073
