#   1 NUMBER                 Running object number                                     
#   2 MAG_AUTO               Kron-like elliptical aperture magnitude                    [mag]
#   3 X_IMAGE                Object position along x                                    [pixel]
#   4 Y_IMAGE                Object position along y                                    [pixel]
#   5 X_WORLD                Barycenter position along world x axis                     [deg]
#   6 Y_WORLD                Barycenter position along world y axis                     [deg]
#   7 A_WORLD                Profile RMS along major axis (world units)                 [deg]
#   8 B_WORLD                Profile RMS along minor axis (world units)                 [deg]
#   9 THETA_WORLD            Position angle (CCW/world-x)                               [deg]
#  10 FWHM_WORLD             FWHM assuming a gaussian core                              [deg]
#  11 ELONGATION             A_IMAGE/B_IMAGE                                           
#  12 ELLIPTICITY            1 - B_IMAGE/A_IMAGE                                       
         1 -13.2315    225.5043      2.4719   3.9000081143e+01   2.7746363281e+01     1.995454    0.5880344  62.71  0.006299845    3.174    0.685
         2 -13.7933    183.2381     44.9604   5.6167254044e+01   3.3455906482e+01     1.258042    0.9820787   1.08  0.001054761    1.518    0.341
         3 -14.1008    193.3452     36.4450   5.2025438664e+01   3.1986481320e+01     1.515175     1.160215 -23.61  0.003769134    1.323    0.244
         4 -14.7190    202.4904     25.9094   4.7697627607e+01   3.0941759409e+01     2.007075     1.447066  23.15  0.001631526    1.786    0.440
         5 -11.9288     53.3265      3.0115   7.0914720422e+01   6.9146711835e+01    0.3015934     0.259834 -81.85  0.001841702    2.008    0.502
         6 -11.2692     63.4720      1.7484   6.6224168021e+01   6.7473049092e+01    0.3417845    0.1046018  52.51  0.001311996    3.360    0.702
         7 -10.8535     59.1672    228.1885   1.2100913801e+02   2.1208495675e+01    0.1943785    0.1314325  65.75 0.0003806802    1.149    0.130
         8 -13.8443     61.5865    191.6617   1.1758256323e+02   2.7753684473e+01     0.782369    0.6749105 -61.51  0.002579807    1.448    0.309
         9 -16.1865     71.8220    148.9125   1.1024460878e+02   3.5654107886e+01     12.58785     5.924615  78.48   0.03843923    4.735    0.789
        10 -10.2816     61.8334    220.3296   1.1995773758e+02   2.2262902509e+01    0.2017665    0.1548734 -66.26  0.001456234    1.567    0.362
        11 -10.3810     99.4870    180.6851   1.0832898296e+02   2.4611066845e+01    0.2354297    0.2048926  60.32 0.0005237932    1.054    0.051
        12 -12.2227     74.8772    176.3807   1.1314918840e+02   2.9146851248e+01    0.3817225    0.2605621 -39.33   0.00205274    2.201    0.546
        13 -12.2407     78.5077    171.7452   1.1177628451e+02   2.9624414321e+01    0.3567079    0.2660612 -50.52 0.0009037685    1.596    0.373
        14 -10.3223     57.0508    175.5411   1.1695505794e+02   3.1677317545e+01    0.4142707    0.1732009  49.81  0.001994749    2.159    0.537
        15 -10.9723    142.3076    173.3641   9.7949852800e+01   1.8779479345e+01    0.4317169     0.200827 -38.51  0.001749651    2.793    0.642
        16  -9.4201    217.5219    174.4987   8.3391389986e+01   4.7458628211e+00    0.1330344    0.1121861   9.39 1.219973e-05    1.031    0.030
        17 -11.3856     45.7081    172.6143   1.1913711338e+02   3.3667372980e+01    0.3691808    0.2732092  54.75   0.00167188    1.248    0.199
        18  -9.7691    201.5316    169.4836   8.5308402575e+01   8.3945686239e+00    0.2291716    0.2062114 -28.47 0.0009112036    1.201    0.167
        19 -10.2277    204.9233    166.5602   8.4090734702e+01   8.2205043964e+00    0.3770092    0.2181213 -39.58  0.001779145    1.817    0.450
        20  -9.9900    163.4296    169.1986   9.2756973484e+01   1.5627308795e+01    0.2424516    0.1997646 -84.20  0.001310111    1.600    0.375
        21 -10.6906    111.5999    217.6729   1.1042201971e+02   1.5844738389e+01    0.2101147    0.1686425  55.12 0.0003084104    1.015    0.015
        22 -10.8998    230.0821    165.8623   7.9475612662e+01   3.7596180350e+00    0.1902566    0.1796194 -14.95  0.001023458    1.267    0.211
        23 -10.5971    193.1569    165.5730   8.6111162326e+01   1.0592372234e+01    0.2870254    0.2444947  41.71 0.0009440542    1.181    0.154
        24  -9.9362    157.8813    161.3588   9.2413149506e+01   1.8135399913e+01    0.2298321    0.1971599 -63.00 0.0007746319    1.316    0.240
        25 -12.6519     92.7827    155.3130   1.0613003703e+02   3.1077322876e+01    0.6608032    0.4621834 -27.79  0.003184736    2.305    0.566
        26 -11.1929    209.1062    198.2576   8.9291844844e+01   2.8702914801e+00    0.2292897    0.2119444  60.58  0.000906824    1.490    0.329
        27 -10.6851    189.0957    154.8609   8.4685100602e+01   1.3176755089e+01     0.455215    0.2276331  44.83  0.001970309    1.944    0.486
        28 -11.3892    133.8055    144.9009   9.4472819884e+01   2.6101579968e+01     1.199096    0.2962618 -54.23  0.002992514    5.825    0.828
        29 -10.5639    174.3653    148.7527   8.6347902340e+01   1.7219315724e+01    0.3379008    0.2701721 -66.93  0.001625312    1.593    0.372
        30 -10.7439    144.6267    147.0166   9.2425371095e+01   2.3545409100e+01    0.3786834    0.2514096 -75.09  0.001622125    2.265    0.559
        31  -9.4377    110.3013    139.6893   9.9079259037e+01   3.1625976023e+01    0.3177112      0.19619  57.47  0.001443108    1.778    0.438
        32 -11.0475    104.4798    141.5128   1.0087657704e+02   3.2239511235e+01    0.3324943     0.316618 -57.25  0.001146018    1.136    0.120
        33 -10.2973    106.6745    138.0329   9.9657988182e+01   3.2642997453e+01    0.2940046    0.1989554 -41.97 0.0008496248    1.659    0.397
        34 -12.3766     92.9462    140.4883   1.0358103362e+02   3.4407436775e+01    0.2761586    0.2414612 -60.96 0.0003735829    1.149    0.129
        35 -15.5328     53.7837    204.9089   1.2026815222e+02   2.6116667216e+01       4.4154     1.756221  57.28   0.02220635    2.275    0.560
        36 -10.7505    113.4579    130.5447   9.6410664893e+01   3.3109504956e+01    0.3093894    0.2720333  27.42 0.0006405591    1.293    0.227
        37 -10.7522    105.9797    130.7327   9.8360590245e+01   3.4427637556e+01    0.3583125    0.2909817 -72.03  0.001231454    1.229    0.187
        38 -11.0779    135.9549    127.8843   9.0246129824e+01   2.9301638665e+01    0.4936426    0.2414343 -49.23  0.001944005    2.053    0.513
        39 -10.3187    160.8298    127.8756   8.4490966760e+01   2.4066062114e+01    0.4322858    0.2851939  70.21  0.001787728    2.201    0.546
        40 -11.0978    100.8328    126.7654   9.8871608128e+01   3.6249751021e+01    0.2853619    0.2471556 -12.62 0.0007169961    1.492    0.330
        41 -11.1321    119.3202    124.1514   9.3505239543e+01   3.3436434581e+01    0.6042094    0.3652691 -21.86  0.002152789    3.238    0.691
        42  -9.8182    135.0000    119.9158   8.8580460286e+01   3.1214669852e+01    0.2538621   0.08526136 -46.14 0.0008008532    2.931    0.659
        43 -10.1689    109.1812    119.4002   9.5046367858e+01   3.6440471168e+01    0.2389002    0.1950387 -53.34 0.0002885175    1.179    0.152
        44 -16.2502     65.2435    247.8768   1.2129934862e+02   1.7207439771e+01     8.013053     2.443188  31.59   0.01043963    7.548    0.868
        45 -10.1711    167.9189    112.6799   7.9127026089e+01   2.5497251997e+01    0.3859421    0.2687285 -72.58  0.001589329    2.157    0.536
        46 -11.5643    118.5962    110.0516   9.0292867029e+01   3.6741540619e+01    0.6349905    0.4921533  86.82  0.003004739    1.625    0.385
        47 -10.2831    205.4503    110.1687   7.1050080259e+01   1.7456288393e+01    0.3085077     0.211276  39.72 0.0008940058    1.542    0.351
        48  -9.9576    134.6564    106.1553   8.5144225751e+01   3.4251188750e+01    0.3191416     0.136047 -51.28  0.001085222    2.541    0.606
        49 -10.4410    198.8298    222.7286   9.5078894971e+01   1.3361968836e+00    0.1890771    0.1571043  30.61 0.0003522456    1.117    0.104
        50 -18.6144      8.3926    184.9207   1.2771051834e+02   3.4868782937e+01     15.47951     2.048579 -80.08   0.04488615    7.711    0.870
        51  -9.8639     82.1856    194.9525   1.1370634591e+02   2.4327758985e+01    0.2250268    0.1557553  49.48  0.001378288    1.263    0.208
        52  -9.8263     31.9918     96.1232   1.1299697715e+02   5.2959867566e+01     0.190875    0.1566688 -69.40 0.0002607393    1.023    0.023
        53 -11.8712     42.1895     91.4084   1.0878580388e+02   5.3088085493e+01      0.39907    0.3028019  67.13  0.001253218    1.506    0.336
        54 -10.9460     53.1176     90.3363   1.0494599386e+02   5.2103464122e+01    0.2564506    0.1625372 -50.43  0.001316809    1.411    0.291
        55  -8.9388    123.3082     89.6834   8.3444826496e+01   4.0229210370e+01    0.1566119    0.1226486 -80.62 0.0007030327    1.633    0.387
        56  -8.9417    182.3070     82.3374   6.7745370240e+01   2.7729770605e+01    0.1607314    0.1214383  11.80 0.0007041786    1.677    0.404
        57  -9.0753    156.4328     80.5014   7.2533522216e+01   3.4414300744e+01    0.1576265    0.1506089 -41.63   9.2227e-05    1.024    0.023
        58  -9.1926    184.8868     77.1203   6.5731973512e+01   2.7992537954e+01    0.2177785    0.1819943  25.61 0.0008915751    1.335    0.251
        59  -9.3918     64.0783     70.2308   9.5878656450e+01   5.5345795810e+01    0.1860105    0.1766024 -30.70 0.0008937773    1.105    0.095
        60 -10.7355    157.0844     59.2558   6.5596001795e+01   3.8025346394e+01    0.3302248    0.2642617 -84.92 0.0005535302    1.514    0.339
        61 -10.7084     96.7715    200.5836   1.1137936619e+02   2.1127119630e+01    0.3071035    0.2480849 -22.95  0.001135658    1.989    0.497
        62 -10.6281    171.9588    238.5835   1.0197531581e+02   3.4646648620e+00    0.2281813    0.1998894  57.54  0.001715813    1.350    0.259
        63  -8.8065    175.3004    235.3218   1.0096890864e+02   3.3742797421e+00    0.1132271   0.07837466  15.24 0.0003853111    1.627    0.385
        64  -9.0973     75.3853    232.2286   1.1844668338e+02   1.8466843404e+01    0.1512809    0.1146235  64.06 0.0004318519    1.041    0.040
        65 -10.4861    159.2390     52.9542   6.3051222722e+01   3.8496311134e+01    0.2706548    0.2416752 -80.94 0.0005167064    1.221    0.181
        66 -10.0144    130.2192    212.6749   1.0627278528e+02   1.3804638576e+01    0.1871872     0.155512  89.69 0.0006601434    1.377    0.274
        67  -9.0244    247.5704     38.4299   4.6387084369e+01   1.8567556436e+01    0.1361353    0.1154084 -45.96 0.0002324882    1.017    0.017
        68 -11.6316    149.5086    188.9156   9.9051225911e+01   1.4649749807e+01     0.486333    0.3026148 -74.72  0.001826104    2.789    0.641
        69 -10.4192    107.0878    210.2635   1.1045083305e+02   1.7810000822e+01    0.3210719    0.1271579  48.14  0.001407655    2.155    0.536
        70 -10.2143     96.8244    192.5285   1.1041508492e+02   2.2662264183e+01    0.2759129    0.2191772   2.18  0.001293993    2.064    0.515
        71 -10.0980    189.6568     14.9407   4.5862666800e+01   3.5494222423e+01    0.2021817    0.1771879 -38.79 0.0005698351    1.123    0.110
        72 -10.2265     72.2537    230.2949   1.1885007362e+02   1.9199247589e+01    0.2172089    0.1201393  57.46 0.0009661799    1.453    0.312
