#   1 NUMBER                 Running object number                                     
#   2 MAG_AUTO               Kron-like elliptical aperture magnitude                    [mag]
#   3 X_IMAGE                Object position along x                                    [pixel]
#   4 Y_IMAGE                Object position along y                                    [pixel]
#   5 X_WORLD                Barycenter position along world x axis                     [deg]
#   6 Y_WORLD                Barycenter position along world y axis                     [deg]
#   7 A_WORLD                Profile RMS along major axis (world units)                 [deg]
#   8 B_WORLD                Profile RMS along minor axis (world units)                 [deg]
#   9 THETA_WORLD            Position angle (CCW/world-x)                               [deg]
#  10 FWHM_WORLD             FWHM assuming a gaussian core                              [deg]
#  11 ELONGATION             A_IMAGE/B_IMAGE                                           
#  12 ELLIPTICITY            1 - B_IMAGE/A_IMAGE                                       
         1 -12.3681    154.4891     40.9333   4.0966921262e+01   4.1221403012e+01     1.019498    0.3466405 -46.39  0.003867328    3.239    0.691
         2 -13.1986    125.4187     28.4690   4.2577302182e+01   4.9396835321e+01      1.24653    0.5167971  62.06  0.005270867    2.149    0.535
         3 -13.0668    112.0509     26.5376   4.4728036583e+01   5.2639405325e+01     1.247353    0.5422829  31.03  0.004303395    4.321    0.769
         4 -12.6380    105.8568     22.8220   4.4870964588e+01   5.4414706532e+01    0.4976844    0.3876411  38.77   0.00167081    1.215    0.177
         5 -12.3353    164.2599     28.3164   3.6206083083e+01   4.0512197517e+01    0.6342026    0.3071328 -43.72  0.001940795    2.083    0.520
         6 -12.9532    160.2606     29.7452   3.7128331768e+01   4.1256779740e+01    0.5013862     0.492767  -4.76 0.0004160959    1.257    0.204
         7 -13.2165    163.9224     18.9950   3.3897660090e+01   4.1602741064e+01    0.3667457    0.2449969  48.30  0.001179985    1.659    0.397
         8 -12.5156    104.7489     12.9385   4.1754328652e+01   5.5610993738e+01    0.4741126    0.3263178 -15.34  0.001723164    1.759    0.432
         9 -12.5900    106.8673      2.6933   3.7881612768e+01   5.5983003025e+01     1.085357     0.363645  68.03  0.004483422    2.775    0.640
        10 -12.2465    153.9856     24.6977   3.6702656293e+01   4.3252262349e+01    0.9257507    0.4151084  81.10  0.003830531    2.814    0.645
        11 -12.0613    155.6772     19.7292   3.5157376415e+01   4.3392577927e+01      1.22587    0.4276146  79.40  0.004047523    4.481    0.777
        12 -12.9365    133.2969     24.0543   3.9798241626e+01   4.8068064559e+01     1.466004    0.6980256 -69.89  0.004827331    5.139    0.805
        13 -13.4802    128.1329     13.5549   3.7561916376e+01   5.0284101957e+01    0.9409415    0.7254596 -79.69  0.005848281    1.403    0.287
        14 -12.5858    139.3421     20.9760   3.7899863294e+01   4.6999843495e+01    0.6619949    0.3509499  64.13  0.002688316    1.612    0.380
        15 -11.3899    214.1043     25.2956   3.0059574969e+01   3.0128786000e+01     0.359472    0.2340266 -84.19  0.001806857    1.378    0.274
        16 -11.9592     26.7402     27.9592   7.5368219121e+01   6.8175463374e+01    0.4703217    0.3490945  -9.20  0.002067149    1.124    0.110
        17 -12.3336     35.7741     18.6121   6.6705234985e+01   6.8257411713e+01    0.8002785    0.4402742 -16.60  0.004331746    1.990    0.498
        18 -11.8854     29.0660      3.0185   6.2325426700e+01   7.1016621421e+01    0.2917847     0.261836  58.91   0.00166977    1.922    0.480
        19 -11.7387    232.9121      6.7288   2.5095417751e+01   2.8525863105e+01    0.4619088    0.2260451 -54.96  0.002875983    1.642    0.391
        20 -12.9876    246.8904      5.5287   2.4047900645e+01   2.6095887416e+01    0.8026256    0.5148753  70.43   0.00299651    1.676    0.403
        21 -11.7301    237.8571      5.4231   2.4557098575e+01   2.7744221248e+01    0.4276047    0.2279813 -39.31  0.002778861    1.826    0.452
        22 -11.8066    230.1847     26.0298   2.8864383957e+01   2.6886485618e+01    0.7736703    0.5874974   1.28  0.002039309    2.702    0.630
        23 -11.8465    233.3545     19.7469   2.7446513478e+01   2.7015789621e+01    0.3856449    0.3525771  89.43   0.00239649    1.369    0.269
        24 -12.6226    223.5434     11.4098   2.6590290588e+01   2.9815658531e+01    0.4179303    0.2211999 -65.43   0.00122607    1.640    0.390
        25 -12.2566    245.9925     22.4591   2.7050182812e+01   2.4373906572e+01    0.4385182    0.2066106 -71.20  0.001609328    2.069    0.517
        26 -11.6781    245.2505     18.0050   2.6312167635e+01   2.5020632021e+01    0.2762305    0.1395002 -51.95  0.001229104    1.550    0.355
        27 -11.8309    248.2370     16.2365   2.5810783353e+01   2.4685396952e+01    0.3488244    0.1746169 -61.38  0.001645929    1.607    0.378
        28 -12.5125     20.0673     22.2192   7.6382409249e+01   6.9803878161e+01    0.5831608    0.2510666 -37.37   0.00275399    2.196    0.545
        29 -11.1937     13.8318      8.6979   7.3474421119e+01   7.2357052946e+01    0.2774599    0.1800972   1.34  0.001217866    1.289    0.224
        30 -12.5642     16.3340     13.9901   7.4641561154e+01   7.1379631837e+01    0.6237608    0.3224565 -10.34  0.003116805    2.252    0.556
        31 -12.2031     22.8343     11.5739   6.9870286638e+01   7.0908856615e+01    0.4703112     0.278588   3.87  0.002093794    1.673    0.402
        32 -12.5577     89.7361     19.5816   4.7671566958e+01   5.8247449162e+01     1.126809    0.5656802 -44.70  0.005348686    2.676    0.626
        33 -11.3168     85.9539     13.5658   4.6417059313e+01   5.9624647779e+01     0.343892    0.2549932  -0.54  0.001290162    1.544    0.352
        34 -11.3893     90.7823     11.3915   4.4381335644e+01   5.8794096542e+01    0.3581777    0.1858247  64.40  0.001268093    1.869    0.465
        35 -11.4902     88.5195      7.9368   4.3651353283e+01   5.9571935487e+01    0.3612066    0.2860297  23.35  0.002069987    1.291    0.226
        36 -11.3492     46.7348     19.8213   6.2328493242e+01   6.6415309848e+01     0.356578    0.2133081 -15.21  0.001998172    1.800    0.445
        37 -12.7104     68.7055     17.9555   5.3253570381e+01   6.2689685800e+01    0.5398993     0.391018  31.16  0.002071018    1.183    0.154
        38 -13.3593    121.3179      8.7371   3.7244239612e+01   5.2257329984e+01    0.7861788    0.5262104 -31.37  0.004448882    1.740    0.425
        39 -10.8413    206.8323     17.8215   2.9168966641e+01   3.2454620729e+01    0.3155272    0.1585976 -55.15  0.001775703    1.786    0.440
        40 -11.2066    176.5880      5.7692   2.9319057572e+01   4.0097526427e+01    0.3407642     0.163835  84.58 0.0009707044    1.971    0.493
        41 -11.4982    201.7964      2.6905   2.6481569413e+01   3.5051523732e+01     0.244563    0.1895456  65.57  0.001307347    1.417    0.294
        42 -13.5150    185.1767      8.2550   2.9064756645e+01   3.8001651738e+01    0.8085342    0.3825488 -63.53   0.00276458    2.224    0.550
        43 -12.2130    195.1765      5.2598   2.7539599249e+01   3.6173827069e+01     0.519605    0.3193996  50.70  0.002528354    2.039    0.510
        44 -10.6159    114.6659     16.0389   4.0764350769e+01   5.3110154935e+01    0.3170151    0.1658622 -35.32  0.001636751    2.159    0.537
        45 -12.5868     35.5307      8.8825   6.2187724599e+01   6.9429211111e+01    0.6524187    0.2622763  50.12  0.001920882    3.523    0.716
        46 -11.6528    211.4830     11.1842   2.7444484447e+01   3.2223559229e+01     0.382376    0.3217982   0.38  0.002482676    1.967    0.492
        47 -11.0513    139.9521     10.7157   3.4913808343e+01   4.7846921852e+01    0.4284481    0.1917528 -43.83  0.002098546    2.451    0.592
        48 -11.0191    157.5426     11.4258   3.2770836537e+01   4.3791216859e+01    0.2085947    0.1973469  78.78 0.0009726523    1.187    0.157
        49 -10.5338      5.5679     12.5217   8.0338070255e+01   7.2683045105e+01    0.2796241    0.1212025  23.59  0.001538679    2.104    0.525
        50  -9.8657      5.3035      9.3349   7.8963865849e+01   7.3155534395e+01    0.1177455    0.0861303  -5.72  0.000651025    1.011    0.011
        51 -10.8566    176.8608     10.7221   3.0435992233e+01   3.9563212010e+01    0.1946001    0.1651717  79.28 0.0005935208    1.127    0.113
        52 -10.1361    162.2079     11.1636   3.2146270004e+01   4.2767786266e+01    0.2054124     0.107971  37.40  0.000957976    2.963    0.662
        53 -10.9233     65.4913     10.2486   5.1081317737e+01   6.4065865799e+01    0.3161042    0.1715012  54.10  0.001708992    1.704    0.413
        54 -10.7839     62.4931      6.4897   5.0447143676e+01   6.4978261179e+01    0.3037872    0.1664386  26.14  0.001640433    1.868    0.465
        55 -10.1835    145.5677      9.3043   3.3746757026e+01   4.6696730082e+01    0.1384973    0.1199048   7.40 0.0005740413    1.514    0.339
        56 -10.8866    153.5275      7.1282   3.2156036028e+01   4.5091001211e+01    0.2233022    0.1462229  74.47 0.0007825712    1.280    0.219
        57 -12.4388     75.0977      4.4879   4.5793246088e+01   6.2651604053e+01    0.4624221    0.4021039 -86.39  0.002593163    1.536    0.349
        58 -10.7783     68.5428      3.6156   4.7317614114e+01   6.4039277841e+01    0.3139861    0.1895386 -13.24  0.001704313    1.911    0.477
        59 -12.4206    157.8540      3.7501   3.0790234825e+01   4.4417702352e+01     0.366738     0.262182 -67.34  0.001475965    1.379    0.275
        60 -11.2554    137.7647      4.4169   3.3460330405e+01   4.8888333000e+01    0.2321793    0.1852001  70.41 0.0005891038    1.042    0.041
        61 -11.6583    133.7780      2.5333   3.3480870581e+01   4.9943951820e+01    0.3818625    0.1879506  64.78  0.002037409    1.627    0.385
        62 -10.7774     55.7867      5.5854   5.2343329783e+01   6.6316280614e+01    0.2367066     0.183689  80.58 0.0009892053    2.155    0.536
        63 -12.7221     47.9480     12.6192   5.8554717508e+01   6.7023779314e+01    0.6430137     0.275437  49.23  0.003087263    2.361    0.577
        64 -11.7945    224.7230      2.0459   2.4760198224e+01   3.0561036028e+01    0.4581555    0.1470343  78.61  0.001798666    2.903    0.655
        65 -10.2379    218.6049      3.2120   2.5379013779e+01   3.1629381500e+01    0.1958133    0.1030764 -31.83  0.001170056    2.205    0.547
        66  -9.8550    207.4698      3.4351   2.6206599101e+01   3.3823095998e+01    0.1123645   0.08686678 -80.25 0.0006915656    1.018    0.018
        67 -11.7192      3.1745      1.8284   7.6479183231e+01   7.4353721301e+01    0.4163395     0.156615  20.20   0.00210389    2.577    0.612
        68 -10.4812     13.4480      1.7685   7.0081784201e+01   7.3243973038e+01     0.251092    0.1071348  28.97   0.00137769    2.020    0.505
        69 -11.2382    142.1248      4.8870   3.3003581509e+01   4.7861533128e+01    0.3079214    0.2305407 -61.09  0.001329668    1.418    0.295
        70 -11.1031    145.5147    100.4040   5.8876790085e+01   3.3488311695e+01    0.4806448    0.2753542 -26.43  0.001483626    2.387    0.581
        71 -10.2255    118.6678    106.2788   6.7377925850e+01   3.7986539530e+01    0.1526836     0.123931  81.36 0.0002058058    1.605    0.377
        72 -12.1565    240.9859    102.5307   4.2723549052e+01   1.3889999039e+01    0.4172858    0.1799182 -48.79  0.001956303    1.980    0.495
        73 -11.4733    236.6187    100.6159   4.2897242261e+01   1.4961970278e+01    0.3276063    0.2367306 -37.51  0.001763704    1.298    0.230
        74 -12.3276    180.8957    102.7916   5.2043251335e+01   2.5392485944e+01    0.6706459    0.5047738  80.86  0.003369786    1.627    0.385
        75 -10.4085    189.9507    103.5915   5.0586924902e+01   2.3360400946e+01    0.3007647    0.1713575 -26.23 0.0009913178    2.392    0.582
        76 -10.8256     35.0960    103.6707   9.5160766737e+01   5.1921556500e+01    0.3167784    0.1708597  10.11  0.001388149    2.212    0.548
        77 -10.6941    194.6307    101.8946   4.9384540750e+01   2.2713820677e+01    0.2479854    0.2075438  74.96 0.0008242284    1.304    0.233
        78 -10.9755     51.3232     99.7331   8.8049843292e+01   5.1049546418e+01    0.7622505     0.128102 -46.90  0.001976096    4.913    0.796
        79 -12.3538     17.6730    100.6736   1.0125145697e+02   5.4140674670e+01    0.2832181    0.2184983 -48.78 0.0004062206    1.088    0.081
        80 -11.7266    226.1064     99.3721   4.4033987346e+01   1.7053195088e+01    0.6122233    0.3616309 -88.22  0.002687261    2.995    0.666
        81 -10.6533    220.5408    101.0935   4.5170913596e+01   1.7790100514e+01    0.2036159    0.1134571 -43.77  0.001010731    1.541    0.351
        82 -11.7939      9.6311     97.4807   1.0378105346e+02   5.5445372854e+01     0.425204    0.3363478  51.69 0.0005808742    1.584    0.369
        83 -11.2861    210.6961     97.1877   4.5768728600e+01   2.0342865923e+01     0.448641    0.2907113  32.25  0.002158904    2.366    0.577
        84 -10.6721     80.6788     98.2813   7.7013452551e+01   4.7002756946e+01    0.2429681    0.2061375  16.71 0.0005870929    1.190    0.160
        85 -10.3751    190.6478     96.5383   4.8823789113e+01   2.4499938806e+01    0.2821291    0.1590718 -44.62  0.001239032    1.629    0.386
        86  -9.8258    183.6301     96.1833   4.9965509842e+01   2.6035209997e+01    0.1943783    0.1293193 -33.54 0.0004575707    1.582    0.368
        87 -11.6590     69.0496     95.5532   8.0357053872e+01   4.9521621308e+01       0.2949    0.2552954   9.92  0.000509852    1.150    0.130
        88 -11.0854     19.7995     82.7465   9.6576376242e+01   5.8242075153e+01    0.3165392    0.1899975 -60.45 0.0008536461    1.559    0.359
        89 -11.5189     22.8306     94.6680   9.8004683348e+01   5.5205628009e+01     0.330603     0.226545 -17.52  0.001125287    1.519    0.342
        90 -12.3394     18.1145     90.5992   9.9039259208e+01   5.6537044571e+01    0.4879256     0.264276 -56.67 0.0004973211    1.552    0.356
        91 -10.8929    199.5325     94.8740   4.6976188327e+01   2.2968843597e+01    0.3972103    0.1717032  45.75  0.001603427    2.784    0.641
        92 -11.0996    115.1871     93.9235   6.4935890067e+01   4.1319469684e+01    0.9196668    0.5123019  18.46  0.002938478    3.715    0.731
        93 -11.1980    125.9196     94.0670   6.2041080541e+01   3.9013199352e+01    0.3464771    0.3124154  -5.85 0.0009358483    1.200    0.167
        94 -11.3694    121.5991     94.1937   6.3233805902e+01   3.9912138532e+01    0.3075671    0.2800448 -20.98  0.001226819    1.133    0.117
        95 -10.9457     43.0299     94.2677   8.9877578306e+01   5.3339350403e+01    0.2887955    0.2493645 -11.87  0.001651695    1.120    0.107
        96 -11.3793     35.3800     92.9386   9.2583972516e+01   5.4477271873e+01    0.3854103    0.2586607 -62.52  0.001267777    1.517    0.341
        97 -12.9565    236.2148     91.3628   4.1092825910e+01   1.6546095224e+01     0.538444    0.3667768 -51.18  0.002274966    1.217    0.178
        98 -11.0514     82.5258     93.4770   7.5020352284e+01   4.7749091055e+01    0.4090071    0.1464802  36.29  0.001349235    2.835    0.647
        99 -11.6752    217.4452     91.6298   4.3596063966e+01   1.9980387611e+01      0.31466     0.181619 -63.01   0.00150935    1.985    0.496
       100 -11.2974    151.8981     92.1691   5.5252866436e+01   3.3683606668e+01    0.3468387    0.2157769  43.62  0.001020274    1.683    0.406
       101 -12.5729     89.0469     89.9527   7.1800143452e+01   4.7328462226e+01    0.3475233    0.2956408 -30.46 0.0004566232    1.156    0.135
       102 -10.7485     98.5849     91.0809   6.9061283548e+01   4.5272589879e+01    0.2687352    0.2113851  31.62 0.0003954448    1.269    0.212
       103 -12.1636      7.0625     89.0247   1.0323210634e+02   5.7619650348e+01    0.5110688    0.3367866   4.44  0.001915087    1.675    0.403
       104 -11.2577    184.2429     87.4640   4.7775079307e+01   2.7453952036e+01    0.5064275    0.2605553 -46.54  0.002251842    1.832    0.454
       105 -10.5821     24.6232     86.2071   9.5363939502e+01   5.7053332080e+01    0.4181153    0.2177734 -68.06  0.001869017    2.169    0.539
       106 -11.1444     28.9016     84.1261   9.3066945261e+01   5.7152391853e+01    0.5548542    0.2287214 -47.90  0.002274654    2.013    0.503
       107 -12.3887    247.1098     85.7961   3.8731844418e+01   1.5519876265e+01    0.3697928    0.2922837  63.63  0.001874602    1.502    0.334
       108 -10.5227    212.5225     87.5257   4.3400141670e+01   2.1621304946e+01    0.2734307     0.203404   7.34  0.001370205    2.408    0.585
       109 -10.5994     49.4940     91.2596   8.6562105764e+01   5.3262288186e+01     0.305323     0.158229  40.74  0.001301496    2.232    0.552
       110 -11.3417     80.1900     84.0509   7.3042631735e+01   5.0168114193e+01    0.4113085    0.3146789 -37.90   0.00210427    1.285    0.222
       111 -11.5552     76.8537     79.4053   7.2789993552e+01   5.1704440962e+01    0.3866065    0.2642364 -43.47  0.001894659    1.467    0.318
       112 -11.2434     44.5280     84.9902   8.6842194422e+01   5.5295148510e+01    0.4498445    0.2984361  -7.17  0.002202202    1.711    0.415
       113 -10.6026     37.3197     85.7766   8.9995010620e+01   5.5935095429e+01    0.2399412    0.1571169  32.48  0.000962842    1.670    0.401
       114 -11.0957    142.7931     84.6081   5.5260369486e+01   3.7116872900e+01    0.4346718    0.2597931  40.68 0.0007307414    1.803    0.445
       115 -10.9538    113.5218     83.0132   6.2239990036e+01   4.3832579381e+01    0.3837348    0.2817959 -63.60  0.001759586    1.729    0.422
       116 -11.0028    217.9565     83.2730   4.1745774048e+01   2.1254799084e+01    0.2671075    0.1944932 -72.91 0.0007838169    1.421    0.296
       117 -10.6956    165.6369     83.7078   5.0223987800e+01   3.2172565375e+01    0.2818381    0.2397229 -68.46  0.001105252    1.193    0.162
       118 -12.3231    234.8294     60.8896   3.5191852096e+01   2.1444585358e+01    0.4752231    0.3046955 -54.41    0.0023507    1.289    0.224
       119 -12.1873    237.6933     69.0239   3.6491730917e+01   1.9733673239e+01    0.5464351    0.4919555  -6.62  0.003744103    1.631    0.387
       120 -13.5740    242.8419     77.2551   3.7547629759e+01   1.7574648678e+01      0.63183    0.4954072 -62.98  0.001879732    1.081    0.075
       121 -12.2242    234.6731     78.0028   3.8601954272e+01   1.8931478484e+01     0.481066    0.3005111 -66.31  0.002214117    1.636    0.389
       122 -10.4164     66.7897     82.2302   7.7332810543e+01   5.2795301254e+01    0.2801477    0.2245658 -14.24  0.001485666    1.249    0.199
       123 -10.2037      1.3687     80.9265   1.0403417751e+02   5.9802473406e+01    0.1855503    0.1011996 -60.73 0.0009687551    1.515    0.340
       124 -11.6135     53.1265     76.3510   8.0853336992e+01   5.6058407674e+01    0.6111792    0.3326633 -55.84   0.00271179    2.085    0.520
       125 -11.0651     58.2847     77.6860   7.9210020584e+01   5.5044243991e+01     0.269619    0.2167711 -17.89 0.0007755871    1.186    0.157
       126  -9.9593    140.5449     77.5206   5.3810075714e+01   3.8891746492e+01    0.1433715    0.1385288  82.49 6.847224e-05    1.023    0.022
       127  -9.7621    135.0023     77.5070   5.5087967934e+01   4.0140191174e+01    0.2090292    0.1290242  76.76 0.0008105533    2.572    0.611
       128 -10.8312     95.0344     76.5267   6.5777375795e+01   4.8870947576e+01    0.5276423    0.2405153  45.67   0.00202752    2.184    0.542
       129 -12.3140     87.1642     73.1838   6.7271077148e+01   5.1033605749e+01    0.7016492    0.4198674  38.76  0.002541144    1.617    0.382
       130 -11.7304     13.4964     74.6041   9.7373263749e+01   6.0541277570e+01    0.4790106    0.2481803 -65.58  0.001972424    1.999    0.500
       131 -10.4230     13.9988     67.4948   9.5351475650e+01   6.2062062711e+01    0.2692967    0.1772219  20.09  0.001534539    1.633    0.388
       132 -11.1238    199.5682     64.5039   4.0086189512e+01   2.7914478965e+01     0.354764    0.2674972 -72.72  0.002076558    1.283    0.221
       133 -13.4383    185.3070     68.2489   4.3003215460e+01   3.0393507131e+01     1.305168    0.5459312 -50.54  0.005327388    2.474    0.596
       134 -11.8492    192.7594     66.1802   4.1413445774e+01   2.9104273890e+01    0.4599355    0.2822198 -85.32  0.001712235    2.098    0.523
       135 -13.5914    217.3779     67.0131   3.8371542053e+01   2.3901267492e+01     1.444109    0.4338612  52.25  0.005490175    3.922    0.745
       136 -11.1993    200.6424     69.9007   4.1156893935e+01   2.6865812639e+01     0.289717    0.2419577  85.81 0.0002841312    1.172    0.146
       137 -10.1612    112.1255     75.3606   6.0334168809e+01   4.5555616088e+01    0.2102307    0.1339437  57.02 0.0009378875    1.723    0.420
       138 -10.3325    104.0086     74.9644   6.2544474751e+01   4.7339738817e+01    0.2331911    0.2132269  22.32   0.00129583    1.056    0.053
       139 -10.0167     24.5063     74.0692   9.2349790635e+01   5.9798776302e+01    0.2007247    0.1185315 -54.63  0.001022177    1.562    0.360
       140 -11.8897    162.1887     71.2031   4.7648592023e+01   3.5060742558e+01    0.4312019    0.3361354 -84.27  0.001641562    1.425    0.298
       141 -11.4960     41.0364     72.1937   8.4607900353e+01   5.8487002785e+01    0.4354538    0.2688932 -52.51  0.001448535    1.634    0.388
       142 -11.6227     35.1149     71.7216   8.7023636909e+01   5.9260648584e+01    0.7675712     0.196917  25.21  0.002546845    4.075    0.755
       143 -11.0637      2.0821     71.5544   1.0177995753e+02   6.1890033567e+01    0.3243056    0.1842955 -58.60  0.001068277    1.483    0.326
       144 -10.3089    197.4381     74.7531   4.2712297147e+01   2.6773300890e+01    0.1792673    0.1250422 -30.59 0.0009424029    1.626    0.385
       145  -9.9502    154.1839     72.5819   4.9555347058e+01   3.6646105935e+01    0.2110077    0.1254845  45.24 0.0009559693    1.771    0.436
       146 -11.1844    130.5428     72.0374   5.4575032790e+01   4.2091294455e+01    0.3305656    0.2083376 -41.68  0.001265186    1.638    0.389
       147 -10.7337    132.6747     69.3674   5.3295150027e+01   4.2061683283e+01    0.4076216     0.271173 -76.82  0.001278182    2.365    0.577
       148 -12.0423    122.7292     68.8431   5.5548740985e+01   4.4379020267e+01    0.4619478    0.3157228  47.08  0.001274416    1.396    0.284
       149 -11.2925    171.2080     68.4229   4.5326917714e+01   3.3479228103e+01    0.3602782    0.2992339 -45.02  0.001617182    1.204    0.169
       150 -10.4535    110.6526     69.0737   5.8810251754e+01   4.6983389364e+01    0.2320624    0.1905527  57.95  0.001061337    1.267    0.211
       151 -11.1802     79.1258     68.2259   6.8399620966e+01   5.3458144327e+01    0.4436219    0.3271756  59.24  0.002203172    1.789    0.441
       152 -11.6926     10.0713     62.5047   9.5868752548e+01   6.3393220848e+01    0.3686723    0.2441881 -56.80   0.00146995    1.437    0.304
       153 -12.1586      4.7752     62.3120   9.8344962640e+01   6.3757234093e+01    0.5243388    0.3179069 -35.99  0.002213279    1.341    0.255
       154 -11.7376     59.2619     63.6722   7.4297707835e+01   5.7672278219e+01    0.2850042     0.260985 -30.84 0.0004822688    1.196    0.164
       155  -9.9075     21.2051     65.0191   9.1329724114e+01   6.2021850066e+01     0.178962    0.1393679 -39.56 0.0004598146    1.124    0.110
       156 -12.2456     91.4787     62.5910   6.2406353330e+01   5.2083970762e+01    0.8815007    0.5594205 -70.36  0.003343966    3.505    0.715
       157 -10.4432     91.4819     57.4731   6.0686904311e+01   5.2930254025e+01    0.3559105    0.1998814  43.43  0.001064928    1.658    0.397
       158 -10.3038    142.9616    250.0000   8.9779072110e+01   1.5398493861e+00    0.2209205   0.06596587  31.72 0.0008022592    2.941    0.660
       159 -11.7276    158.9593     62.3158   4.5906554705e+01   3.7196339882e+01     0.740852    0.5672612  32.34  0.003938461    1.625    0.385
       160 -12.3592    160.5214     56.0258   4.3968277802e+01   3.7778477000e+01    0.5249004    0.3097262 -85.84   0.00223246    2.549    0.608
       161 -12.4042    154.0054     52.8003   4.4252206770e+01   3.9733207023e+01     0.649918    0.3890648  80.92  0.002723221    2.081    0.519
       162  -9.6364     50.7355     56.8139   7.5421523361e+01   6.0216152373e+01    0.5007802    0.2352702  38.60   0.00224225    2.198    0.545
       163 -11.1212     52.0144     61.7857   7.6608035633e+01   5.9112857158e+01    0.3819141    0.2203151  41.89  0.001309998    1.967    0.492
       164 -12.6335     43.9336     61.7386   8.0030896784e+01   6.0230201118e+01    0.5010968    0.2974558 -23.02  0.000719958    1.814    0.449
       165 -11.3160     40.8854     57.3344   7.9879046164e+01   6.1460064218e+01    0.3571427    0.1977709  37.47  0.001635326    1.983    0.496
       166 -10.2445     65.2076     61.9091   7.1369647670e+01   5.7041152767e+01    0.1890738    0.1828494  16.82 0.0009146837    1.215    0.177
       167 -10.1618    175.0004    246.5026   8.2340775919e+01  -2.2222469887e+00    0.1996868    0.1124393  27.73  0.001034154    1.593    0.372
       168 -11.6982     92.7086     41.2284   5.4685215745e+01   5.5080570368e+01    0.7103119    0.2334314  48.83  0.002694013    2.659    0.624
       169 -12.2910    120.1937     58.1749   5.2930836182e+01   4.6663852406e+01    0.9178261    0.5737991 -79.99  0.003519047    3.275    0.695
       170 -11.7859    114.7075     49.2168   5.1469696825e+01   4.9212428931e+01    0.5585326    0.3227349  38.76  0.002094332    1.800    0.444
       171 -12.6377    106.1879     42.5288   5.1436135919e+01   5.2015148243e+01    0.9656822    0.3984288  45.66  0.002417194    2.215    0.549
       172 -11.6209    113.9081     38.1792   4.8108079881e+01   5.0863582010e+01    0.2304887    0.2152299 -69.15 0.0003103544    1.205    0.170
       173 -12.6335    119.0893     44.2188   4.8836057846e+01   4.8916441605e+01     1.201912    0.5450653  68.91  0.004382398    3.224    0.690
       174 -12.9035    120.6965     38.3666   4.6631885906e+01   4.9308156193e+01     0.722402    0.5627342  63.74  0.002860216    1.202    0.168
       175 -11.9266    126.5518    241.6591   9.2288731306e+01   5.4348522728e+00    0.3201982    0.2535479  57.43  0.001740344    1.491    0.329
       176 -11.4921    145.7870    237.0340   8.7254593797e+01   3.5643271678e+00    0.4457988    0.2625445  55.35  0.001956447    2.626    0.619
       177 -10.1793    113.7403     61.1705   5.5505401709e+01   4.7625226857e+01    0.2248728    0.1816654 -57.22  0.001198697    1.440    0.305
       178 -11.1648    249.4738     58.8575   3.3393770599e+01   1.9083102866e+01    0.3245044      0.18633 -39.42   0.00193653    1.617    0.382
       179 -11.0255     29.6529     59.7874   8.5811569948e+01   6.2285811182e+01    0.5189108    0.2901438   8.51  0.002568578    1.940    0.484
       180 -11.0030     25.1807     59.4072   8.7782187894e+01   6.2809315673e+01    0.3257684    0.2294264  37.65  0.001526245    1.759    0.432
       181 -11.1752     25.3123     55.9974   8.6630567609e+01   6.3470127867e+01    0.2966902     0.150826 -29.67  0.001323307    1.926    0.481
       182 -12.3489     75.2721     52.9916   6.4516778218e+01   5.6798242620e+01    0.6658599    0.5188733   6.48  0.002481249    1.316    0.240
       183 -11.0755     72.6923     47.3409   6.3382417812e+01   5.8162012659e+01    0.3281773    0.2371422 -51.43  0.001276205    1.825    0.452
       184 -12.3333    218.8335     57.1509   3.6136378490e+01   2.5052838383e+01    0.5102594    0.2814411  83.81  0.002081561    2.135    0.532
       185 -11.5552    215.4845     52.9161   3.5622140475e+01   2.6316618842e+01    0.4105826    0.2340542 -40.09  0.002053097    1.661    0.398
       186 -11.4836    137.6230     55.3342   4.8127803794e+01   4.3132568718e+01    0.5273873    0.3329869  35.19  0.002487599    1.917    0.478
       187 -10.6557    126.8623     55.9280   5.0659558638e+01   4.5501181918e+01     0.363087    0.2282283  71.67  0.001666906    1.934    0.483
       188 -10.3547     66.8827     55.3402   6.8427003357e+01   5.7909393136e+01    0.2166263    0.1850274 -40.06 0.0006256872    1.321    0.243
       189 -12.0869    205.1655     52.6543   3.6745875626e+01   2.8461437192e+01    0.7488411    0.4946295 -72.79  0.002601935    1.521    0.343
       190 -11.2345    194.2955     46.4056   3.6667425720e+01   3.1612305610e+01    0.5154361    0.2512702 -88.29  0.002094212    3.163    0.684
       191 -12.2208    197.9079     43.3767   3.5553521618e+01   3.1243680887e+01    0.6735657    0.3831721  73.27  0.003383311    1.715    0.417
       192 -11.9881    205.0777     37.3808   3.3448238586e+01   3.0509320177e+01    0.3882294     0.306101 -61.78  0.001867247    1.113    0.101
       193 -12.0879    198.7456     36.0832   3.3844927284e+01   3.2000428381e+01    0.3824183    0.3406618  65.81  0.001509516    1.294    0.227
       194 -10.8582     99.2308     54.1538   5.7234946397e+01   5.1850083930e+01    0.4086181    0.1544504  57.50  0.001349967    3.563    0.719
       195  -9.7946     13.8232     54.1638   9.1651447388e+01   6.4835588832e+01    0.1723851    0.1157239 -26.59 0.0002356201    1.256    0.204
       196 -11.4847    103.9227     63.4758   5.8939450950e+01   4.9368474214e+01    0.4529695     0.337288  22.49  0.002304356    1.492    0.330
       197 -11.4573     60.9179     36.6907   6.3683447846e+01   6.1834158850e+01    0.5622568    0.3306688 -12.05  0.001363186    2.156    0.536
       198 -12.0790     60.6665     46.7386   6.7671216096e+01   6.0374205227e+01    0.7601462    0.3469063 -32.83  0.003361088    2.332    0.571
       199 -10.2269     59.2880     41.6365   6.6263838525e+01   6.1393170140e+01    0.1979995    0.1623658 -60.94  0.000763868    1.869    0.465
       200 -11.6191    245.7148     51.5331   3.2367103611e+01   2.0757559630e+01    0.3062715    0.1773361  89.43   0.00142484    1.889    0.471
       201 -10.2483    144.3573     52.3879   4.5932583571e+01   4.2010264368e+01    0.2091708    0.1587225  29.63  0.001103898    1.618    0.382
       202 -11.0725    145.9667     47.1241   4.4149592409e+01   4.2369791927e+01    0.3184477    0.2078203 -31.13  0.001322316    1.716    0.417
       203 -10.4818     33.9807     52.5194   8.1355675112e+01   6.3199244710e+01    0.1914222    0.1178053  20.50 0.0009198245    1.572    0.364
       204 -10.9849    250.2143     76.2106   3.6574333829e+01   1.6446219209e+01    0.2397946    0.1589976 -60.61 0.0007665681    1.304    0.233
       205 -10.9175     39.0608     43.9892   7.5864885764e+01   6.4070961400e+01     0.269004    0.1634195  14.15  0.001019343    1.656    0.396
       206 -11.8377     45.5429     48.0419   7.4475525992e+01   6.2499800847e+01    0.4241055    0.3322762 -17.08  0.002199698    1.154    0.134
       207 -11.3738     44.2357     44.0161   7.3527524821e+01   6.3357580897e+01    0.3191124    0.2348198  44.69 0.0009661182    1.718    0.418
       208 -11.0382    176.7390     43.5790   3.8292947859e+01   3.5831968724e+01    0.3601585    0.2425793  56.70  0.001858674    1.489    0.328
       209 -11.8397    175.5146     48.4935   3.9671221223e+01   3.5448050030e+01    0.3320547    0.2821017  60.57  0.001511789    1.216    0.177
       210 -12.3226    171.9986     47.7158   3.9994339158e+01   3.6342521942e+01    0.5371095    0.3196686  64.03  0.002304958    1.581    0.367
       211 -10.3423     87.5775     49.7844   5.9261210698e+01   5.4916615753e+01    0.1792734    0.1300389 -44.07 0.0004961495    1.584    0.369
       212 -11.4997     20.5036     46.4411   8.5771109764e+01   6.5746297262e+01    0.2852467    0.2342256 -43.87 0.0006058743    1.340    0.254
       213 -10.2296     51.9344     48.3181   7.1825571708e+01   6.1514749122e+01    0.1857822     0.150822  11.12 0.0004633916    1.082    0.076
       214 -10.0071     12.2814     48.5986   9.0682601164e+01   6.6042846861e+01     0.162301    0.1018882  -4.14 0.0003631656    1.523    0.343
       215 -10.8259    248.5650     45.3678   3.0985551313e+01   2.1071351623e+01    0.2613961    0.1501529 -59.68  0.001120506    1.433    0.302
       216 -11.1154    133.2123     45.9843   4.6302540413e+01   4.5460365930e+01    0.3721112    0.1982082  55.39  0.001148871    1.693    0.409
       217 -10.3072    138.5452     44.6922   4.4860837235e+01   4.4405946848e+01    0.3180824    0.1929876  29.08  0.001427344    2.414    0.586
       218 -10.5702    161.6816     43.8657   4.0588484301e+01   3.9195042861e+01    0.2721519    0.1801406  74.29  0.001450282    1.468    0.319
       219 -10.7118     33.3639     42.4647   7.7962058118e+01   6.5053741728e+01    0.2419582    0.1512772 -42.66  0.001347327    1.629    0.386
       220 -10.4310     26.4845     42.9182   8.1496874628e+01   6.5771698352e+01    0.2065785    0.1767241 -40.51  0.001045441    1.375    0.273
       221 -11.2189     22.0557     37.0738   8.1522667555e+01   6.7248148139e+01    0.4821392    0.2377312  40.80  0.002294523    2.855    0.650
       222 -12.6920    227.0127     37.4422   3.1333691301e+01   2.6097490048e+01    0.6265767    0.2917243  87.54  0.003077989    2.585    0.613
       223 -11.3544    133.5419     37.7563   4.3800049408e+01   4.6445373497e+01    0.3820249    0.2728905 -86.62  0.001700957    1.676    0.403
       224 -11.9622     78.1896     37.9788   5.8002993703e+01   5.8460102734e+01    0.6480626    0.4546458 -87.91  0.002839732    3.295    0.696
       225 -11.3952     79.4784     33.4891   5.5889829650e+01   5.8790409704e+01    0.4200398    0.2607988  13.41  0.002055344    2.085    0.520
       226 -10.4981    217.9072     39.1907   3.2531358224e+01   2.7664279315e+01    0.1908966    0.1344662 -72.19 0.0008568733    1.241    0.194
       227 -11.4399    184.0355     38.0692   3.6014058447e+01   3.4924560061e+01    0.2597679    0.2010681  74.34 0.0007440363    1.193    0.162
       228 -11.1137    176.7616     36.9783   3.6685082876e+01   3.6670052679e+01    0.3439447    0.2210898 -25.89   0.00185947    1.942    0.485
       229 -11.8740    181.5264     32.7532   3.5072286914e+01   3.6131038862e+01    0.5329635    0.3604843 -62.39  0.002536068    1.430    0.301
       230 -10.9924    142.5399     38.9956   4.2481899078e+01   4.4217964417e+01    0.3632972    0.1919491  67.37  0.001705568    1.839    0.456
       231 -11.2725      4.9254     36.7524   9.0632895903e+01   6.8790172202e+01    0.3338159    0.2305719 -41.51  0.001305504    1.282    0.220
       232 -11.0535    170.4384     30.1173   3.5834581051e+01   3.8911186981e+01    0.4028247    0.3252952 -15.95    0.0024935    1.641    0.391
       233 -11.5756     68.3166    240.6288   1.0551018417e+02   1.3638802185e+01    0.2547645    0.2028822   9.93  0.001285291    1.506    0.336
       234 -10.9250    197.4941    232.4865   7.5413402939e+01  -2.8154144534e+00     0.131004    0.1071682  -5.04 0.0008104946    1.010    0.009
       235 -10.5006     94.0907     35.7744   5.2358653408e+01   5.5497479264e+01    0.1971322    0.1737581  70.54 0.0008703363    1.295    0.228
       236 -10.5300    248.2014     33.4070   2.8846505238e+01   2.2661724998e+01    0.3110456   0.09372187 -52.76  0.001441023    2.758    0.637
       237 -10.5307    108.9082    229.1721   9.4672131077e+01   1.0550472700e+01       0.2205    0.1756447  51.17  0.001220681    1.287    0.223
       238 -10.8248     63.9620    222.5059   1.0463873307e+02   1.8229708922e+01     0.204032    0.1261651  31.39 0.0006989875    1.565    0.361
       239  -9.9940    164.5003    212.0020   7.8909558357e+01   5.7005815976e+00    0.2027318    0.1342827 -43.82 0.0005724696    1.514    0.340
       240 -10.3430    172.5293    211.5252   7.7036991537e+01   4.5664576864e+00    0.1404369     0.124364  -4.79 5.738301e-05    1.016    0.016
       241  -9.6983    132.6949    207.6698   8.5622496042e+01   1.1621476636e+01    0.1508474    0.1090244 -14.73 0.0005280425    1.656    0.396
       242  -9.5758     61.4733    206.5147   1.0343942696e+02   2.2343565500e+01    0.1378257    0.1284794  72.48 0.0008098944    1.007    0.006
       243  -9.6798     83.6102    195.8138   9.6264751917e+01   2.1983156733e+01    0.1980636    0.1390162 -77.80 0.0006655334    1.596    0.373
       244  -9.8778     16.4484    191.5087   1.1329095097e+02   3.0931632450e+01    0.1315346    0.1128409  89.31  5.71634e-05    1.013    0.013
       245 -10.6549    238.4024     33.0712   2.9538349999e+01   2.4486838958e+01    0.3081937    0.1446721  72.76  0.001716197    2.131    0.531
       246 -10.6930    210.6012     29.1819   3.1172811650e+01   3.0379534202e+01    0.5299625    0.1513402 -42.92  0.002321926    2.875    0.652
       247 -10.9315    170.3475    191.1688   7.3739087570e+01   9.0495660241e+00    0.4490261    0.1950571  20.60  0.001359129    4.231    0.764
       248 -11.7856     57.6647     30.2284   6.2335348325e+01   6.3276302010e+01    0.3869862    0.2627515  12.54  0.001163825    1.497    0.332
       249 -12.6125     48.2689     29.9839   6.6088534923e+01   6.4866006707e+01    0.6310782      0.29314  37.70  0.002817779    1.947    0.486
       250 -10.2874     67.8707     32.1217   5.9281934907e+01   6.1199257323e+01    0.1865582    0.1689686  34.75  0.000607187    1.192    0.161
       251  -9.5612     52.6724    190.6687   1.0381144461e+02   2.7381507002e+01    0.1459085    0.1034526 -34.93 0.0007051415    1.712    0.416
       252 -11.5470      4.7074    185.8028   1.1575713460e+02   3.3314578325e+01    0.3081321    0.2507062  83.66  0.001808279    1.057    0.054
       253 -10.3946    240.2325    184.9493   5.8877630410e+01  -2.8035974897e-01    0.1985203    0.1706599   1.27 0.0005620327    1.214    0.177
       254 -10.6552      6.9270     30.3556   8.7159224186e+01   6.9767339782e+01    0.2776248    0.1420568  -4.92  0.001471361    2.029    0.507
       255 -10.5182    197.0205     29.2645   3.2532560090e+01   3.3195699775e+01    0.2567067    0.1826534  76.27 0.0008964514    1.284    0.221
       256 -11.0548    198.3105     25.0999   3.1494621210e+01   3.3409165144e+01     0.313881    0.2035702 -66.06  0.001586199    1.408    0.290
       257 -10.8484    189.0655     28.0928   3.3122599008e+01   3.5037254368e+01    0.3165731    0.2373922 -15.68  0.001911511    1.919    0.479
       258 -10.0290     99.5090     30.5087   4.9052507350e+01   5.4968227930e+01     0.131164    0.1155382  47.09 4.985483e-05    1.033    0.032
       259 -10.0555    170.5145    171.9883   6.9865680066e+01   1.3098022683e+01    0.2259635    0.1394151 -43.92 0.0007187272    1.532    0.347
       260 -11.2972      9.3106    166.9686   1.1296918671e+02   3.7727579813e+01    0.2286665    0.2068731   4.36  0.001232835    1.344    0.256
       261 -10.2051     19.1813    164.6098   1.0998702414e+02   3.7559801510e+01    0.1765108    0.1313879  -4.44 0.0009277294    1.708    0.414
       262 -10.3486    204.9963    163.0438   6.0856044619e+01   8.9999595365e+00    0.2171996    0.1870734 -29.24 0.0006284098    1.011    0.011
       263  -9.7708     78.5204    160.0372   9.1811824825e+01   3.1901395783e+01      0.21564    0.1339995  88.90 0.0008091488    2.468    0.595
       264 -11.6069    228.5476     15.6334   2.7027337088e+01   2.8391246526e+01    0.2811092    0.1628721  69.76 0.0005138962    1.703    0.413
       265 -10.3001     13.8414    158.8313   1.1088704726e+02   3.9488603587e+01    0.1836987    0.1408597  78.40 0.0003324045    1.286    0.223
       266 -10.2045    239.6241     27.9685   2.8500375378e+01   2.4882675193e+01     0.198831    0.1020297 -31.01  0.001091967    2.423    0.587
       267 -10.5332     97.0141     26.4117   4.8251531483e+01   5.5970618081e+01    0.2677414    0.1618141 -35.92  0.001420295    1.883    0.469
       268 -11.5074    104.9073    154.3545   8.2944202578e+01   2.9110981555e+01    0.3327349    0.2311669 -45.14  0.001485974    1.411    0.292
       269  -9.7740     46.4861    154.5301   1.0059340678e+02   3.7553038683e+01    0.1455935    0.1342651 -73.14 0.0001134653    1.024    0.023
       270 -10.9272    224.7284    151.0318   5.4882448888e+01   8.0546893305e+00    0.2030468    0.1872776 -10.71 0.0004788615    1.153    0.132
       271 -11.8887     23.2895    148.6329   1.0688070099e+02   4.1399014539e+01    0.5485502    0.2502755 -37.16  0.002179214    2.690    0.628
       272  -9.4579    185.2967    150.2996   6.2057983888e+01   1.5020721877e+01    0.1465504    0.1110082 -11.10 0.0005812357    1.574    0.365
       273 -10.4685     16.0286    147.9641   1.0901257348e+02   4.2155191916e+01    0.2103369    0.1888339 -72.26 0.0008426248    1.041    0.039
       274 -11.4897    249.9812    144.0735   4.9613040744e+01   5.4140314394e+00    0.6676515    0.1757224 -41.45  0.002491849    3.024    0.669
       275 -10.8307    182.1722     25.5020   3.3297648112e+01   3.6836195596e+01    0.2943505    0.1816027  63.38 0.0009360625    1.519    0.342
       276 -10.4873    177.5294     24.5409   3.3606757101e+01   3.7966595156e+01    0.2272175     0.176633 -57.51 0.0008360242    1.241    0.194
       277 -10.6973    178.0085     21.4860   3.2829488934e+01   3.8197571287e+01    0.3110578    0.1395996  48.91  0.001432169    2.717    0.632
       278 -10.8390    203.5508     24.1990   3.0794889252e+01   3.2415632446e+01    0.2513614    0.1453943 -68.43 0.0008253992    1.651    0.394
       279 -11.1646     48.5973    146.0463   9.8567630378e+01   3.9563677631e+01    0.4328353    0.2529245  16.79  0.001515735    2.020    0.505
       280  -9.8126     74.3347    146.2829   9.0477392215e+01   3.6122589530e+01    0.1576031    0.1152694 -23.24 0.0007009491    1.618    0.382
       281 -11.2861     33.3666    144.6412   1.0318127788e+02   4.1544287405e+01    0.3343033    0.2599754  47.53   0.00120826    1.410    0.291
       282 -11.5950      2.2613    141.3567   1.1244218123e+02   4.4792172964e+01     0.397001    0.2669152 -80.57  0.001456974    1.306    0.234
       283 -10.0449     59.6485     23.8023   5.8892957209e+01   6.3729482079e+01    0.1563142    0.1124648 -34.51  0.000428488    1.619    0.382
       284 -10.7689     13.8996     23.4408   8.0351343301e+01   7.0272933123e+01    0.2026986    0.1354425 -23.71 0.0004642165    1.259    0.205
       285 -11.5876    223.8123     22.2182   2.8638468930e+01   2.8561559444e+01    0.3411563    0.1833656 -85.51  0.001779004    1.819    0.450
       286 -10.5060    170.1067     23.1980   3.4173315148e+01   3.9766544800e+01    0.2636865    0.1414886  59.10  0.001397177    1.726    0.421
       287 -10.9293    217.2342    138.3575   5.3537848654e+01   1.1660153098e+01    0.2475761    0.2352268 -71.21 0.0008963975    1.196    0.164
       288 -10.9033     11.2703    137.2244   1.0917340678e+02   4.5293257445e+01    0.3977013    0.1407825 -44.69   0.00152109    2.805    0.644
       289 -10.9375     73.6713     19.3433   5.2215887536e+01   6.1573369845e+01    0.1859703    0.1841629  38.35  0.001303884    1.280    0.219
       290 -11.1079    189.3705    135.5403   5.7987069983e+01   1.7274695698e+01    0.3122728    0.2898577 -89.85 0.0009111434    1.232    0.188
       291 -12.3802    143.3642     25.0626   3.8411365154e+01   4.5647468209e+01     0.549669    0.3055558  55.20  0.002162145    1.612    0.380
       292 -10.3201     32.1030    137.5297   1.0250108781e+02   4.3539263265e+01    0.2028614    0.1413536  23.65  0.001028882    1.592    0.372
       293  -9.8175    199.4464     20.2097   3.0334317141e+01   3.3722493790e+01    0.1673259   0.08929845 -51.31 0.0009386601    1.705    0.413
       294  -9.6593    194.4895     19.4767   3.0648650023e+01   3.4848878542e+01    0.1198271   0.09712656 -81.45 0.0002514141    1.002    0.002
       295 -10.1620     79.4955     19.0581   5.0328455134e+01   6.0432159808e+01    0.1734653    0.1231226 -20.44  0.000880343    1.577    0.366
       296 -11.5681     21.6683    135.0797   1.0554159942e+02   4.5086663574e+01    0.5298918    0.2977599  44.17  0.002488416    2.036    0.509
       297 -10.9248    186.7356     15.2738   3.0479674382e+01   3.6956862982e+01    0.4132184    0.1288913  68.18  0.001810932    2.726    0.633
       298 -11.6170     29.9961    133.1335   1.0250097247e+02   4.4886771575e+01      0.41102    0.2431567 -31.31 0.0004792645    1.926    0.481
       299 -11.4036    245.5025    134.4078   4.8383083861e+01   7.7501219074e+00     0.450257    0.2666792  63.87  0.002287562    2.642    0.621
       300 -11.4781    242.3554    127.6919   4.7511337793e+01   9.4035576700e+00    0.2696315    0.1747364 -71.13  0.001362867    2.282    0.562
       301 -13.0326    240.6633    122.4690   4.6715926839e+01   1.0577526739e+01     0.835902    0.4471205 -53.92  0.003713063    1.854    0.461
       302  -9.8396    173.4946     16.3910   3.2129886338e+01   3.9734289355e+01    0.1217008    0.0991209  88.00  0.000157549    1.025    0.025
       303  -9.5325    103.6995    130.7210   7.8002241860e+01   3.5227504294e+01    0.1571259    0.1218868 -13.41 0.0002024159    1.543    0.352
       304 -11.0361    188.1819    128.2927   5.6590611889e+01   1.8957208242e+01    0.3420561    0.2284766 -31.52   0.00161972    1.554    0.356
       305 -11.4415    223.3379    123.5672   4.9471101822e+01   1.3318249075e+01    0.5834688    0.2638847 -50.48  0.002522179    2.130    0.531
       306 -11.1453     22.8477    127.0303   1.0394013851e+02   4.7087129756e+01    0.2105849    0.1897984 -35.64 0.0004517713    1.127    0.113
       307 -13.0546    103.8070    122.5278   7.5966731812e+01   3.7191491867e+01    0.3588472     0.331355 -13.32 0.0006565441    1.095    0.087
       308  -9.5228    200.9329    119.7032   5.2317903446e+01   1.8155368326e+01    0.2168491    0.1065741  29.77 0.0007032153    4.285    0.767
       309 -10.6969     43.6766    116.5565   9.4724995029e+01   4.7804414097e+01    0.3673173    0.1997046 -78.48  0.001195282    2.576    0.612
       310 -11.4186     21.7785    114.3889   1.0222360910e+02   5.0414208804e+01    0.5034755    0.2659572 -10.02  0.001682436    2.522    0.604
       311 -11.1698     28.1159    113.2077   9.9705331525e+01   5.0190792986e+01    0.2676738    0.2001276  22.45 0.0005884445    1.480    0.324
       312 -12.0527     24.0984    109.2131   1.0043507205e+02   5.1534398455e+01    0.8099002    0.3335747 -73.93  0.002973084    2.954    0.661
       313 -11.8233     27.0070    106.5225   9.8826216502e+01   5.1963100250e+01    0.5132603    0.3287523  78.08  0.002320562    2.363    0.577
       314 -10.2741      7.3571    114.8590   1.0745709808e+02   5.1270584615e+01    0.2056645    0.1817416  39.19 0.0005823679    1.338    0.253
       315 -12.3196      2.4711    111.9929   1.0877204826e+02   5.2255719268e+01    0.4833893    0.2281375 -73.66 0.0004938104    1.902    0.474
       316 -11.3411      4.3482    105.1074   1.0706982746e+02   5.3870890426e+01    0.3462474    0.3067908  30.71  0.001893545    1.352    0.260
       317 -10.3206     93.9023    112.3579   7.6440362054e+01   4.1427460339e+01     0.268373    0.2137538 -59.95 0.0007936227    1.357    0.263
       318 -12.4028    248.7112    108.2057   4.2869687765e+01   1.1665070689e+01    0.5462181    0.3126222 -60.24  0.002621146    1.894    0.472
       319 -11.2359    170.4304    110.4164   5.5935973718e+01   2.6129403545e+01    0.3470308    0.2978805 -36.79 0.0009953739    1.148    0.129
       320 -10.2144     48.7961    112.2994   9.1959677034e+01   4.8289583661e+01    0.2223578     0.182599  46.47  0.001049156    1.404    0.288
       321 -11.4406    214.8193    107.6808   4.7419536177e+01   1.7714018551e+01    0.3638537    0.2008307 -48.27  0.001106036    1.607    0.378
       322 -10.9143    101.2793    110.1828   7.3554256176e+01   4.0562762822e+01    0.3025244    0.2305938 -19.93 0.0009631757    1.507    0.337
       323 -11.4364     80.0902    108.0237   7.9846534192e+01   4.4852191936e+01    0.4456149    0.2907548  24.60 0.0007155244    1.655    0.396
       324 -10.1718     15.6897    109.2175   1.0355125202e+02   5.2163138210e+01    0.2912125    0.1241714  37.21  0.001221707    2.743    0.635
       325 -10.8940    228.3696    107.4089   4.5383688791e+01   1.5274501347e+01    0.2507371      0.20782  58.01  0.001157178    1.411    0.291
       326 -11.4854    143.9064    106.3371   6.0814181350e+01   3.2633134684e+01    0.3826893    0.2907854  69.21   0.00116255    1.586    0.370
