#   1 NUMBER                 Running object number                                     
#   2 MAG_AUTO               Kron-like elliptical aperture magnitude                    [mag]
#   3 X_IMAGE                Object position along x                                    [pixel]
#   4 Y_IMAGE                Object position along y                                    [pixel]
#   5 X_WORLD                Barycenter position along world x axis                     [deg]
#   6 Y_WORLD                Barycenter position along world y axis                     [deg]
#   7 A_WORLD                Profile RMS along major axis (world units)                 [deg]
#   8 B_WORLD                Profile RMS along minor axis (world units)                 [deg]
#   9 THETA_WORLD            Position angle (CCW/world-x)                               [deg]
#  10 FWHM_WORLD             FWHM assuming a gaussian core                              [deg]
#  11 ELONGATION             A_IMAGE/B_IMAGE                                           
#  12 ELLIPTICITY            1 - B_IMAGE/A_IMAGE                                       
         1 -14.1977      7.4674     22.0116   1.0936535075e+02   6.8028175675e+01     1.372359    0.6217926 -27.13  0.007989771    1.895    0.472
         2 -11.5420     65.0757     17.5231   8.5316820919e+01   6.1262352006e+01    0.3958001    0.2050939  28.76  0.002148582    1.786    0.440
         3 -11.6614     95.6145      3.3853   7.1989429119e+01   5.6842465801e+01    0.3173374    0.1702435  46.84  0.001640085    1.467    0.318
         4 -11.6955     78.9425      3.9627   7.6228155286e+01   6.0012271932e+01    0.3106909    0.1888316 -15.58  0.001912008    1.786    0.440
         5 -12.9360     87.0488      2.8804   7.3804227436e+01   5.8559845128e+01    0.7923066    0.3616121  38.69  0.004204811    1.846    0.458
         6 -11.8924     75.6553     13.4847   8.0631885832e+01   5.9813069058e+01    0.3043057    0.2310918  44.75   0.00100435    1.270    0.212
         7 -11.4811     82.0535     13.9513   7.9032386238e+01   5.8598811255e+01     0.309798    0.1789245  32.98 0.0009825121    1.509    0.337
         8 -12.3943     87.1128     11.7738   7.6928964467e+01   5.7835097315e+01    0.4824648    0.3111834  65.38   0.00172849    1.928    0.481
         9 -11.4880    123.8062     10.4960   6.8524413567e+01   5.0414244062e+01     0.237731    0.1830715  33.57 0.0005436237    1.257    0.205
        10 -10.8778    137.7890      5.8752   6.4799486900e+01   4.7734617075e+01    0.2383374    0.1564012  66.55  0.001271038    1.317    0.240
        11 -11.0017     32.9113      4.3168   9.1239472197e+01   6.7380141259e+01    0.2495518    0.1680531  31.04  0.001760664    1.384    0.277
        12 -10.1386    112.4419      4.3043   6.8780929997e+01   5.3325500833e+01    0.2719184   0.08011481  56.84  0.001156252    2.529    0.605
        13 -11.5095     73.4097      1.5345   7.6798465487e+01   6.1210772287e+01    0.2061363     0.118911  48.86 0.0005695742    1.475    0.322
        14 -11.1600    202.7560    171.7707   9.4234351146e+01   7.0064284139e+00    0.2768157    0.1725768 -37.09  0.001293549    1.531    0.347
        15 -12.0295     74.6260    158.3652   1.2192786582e+02   3.3408811536e+01    0.3101158     0.207919 -42.41  0.001528516    1.531    0.347
        16 -13.5440    247.2772    145.7359   8.0725592802e+01   3.6913707815e+00     1.025572    0.5041001 -37.92  0.004759931    1.783    0.439
        17 -12.7101    202.3775    151.0745   8.9823715070e+01   1.1086263158e+01    0.6116968     0.522656 -39.96  0.003323694    1.118    0.105
        18 -13.8048    192.2275    148.2414   9.1219005226e+01   1.3676400548e+01     1.344614    0.7626519 -39.05  0.005824563    1.699    0.411
        19 -14.2207    201.1519    126.6241   8.4528246609e+01   1.6039228559e+01      2.08554     1.169529 -24.17  0.008232509    2.429    0.588
        20 -14.0614    214.7906    124.6941   8.1611899488e+01   1.3588255020e+01     1.441987      1.34971 -89.34  0.008449659    1.168    0.144
        21 -12.9825    164.8583    150.8668   9.7702266793e+01   1.8744437964e+01    0.7483035    0.5687035 -13.21   0.00331079    1.599    0.375
        22 -10.5815     91.5059    151.5194   1.1614857453e+02   3.2462982864e+01    0.1452267    0.1383713 -58.96 5.784582e-05    1.020    0.020
        23 -12.4146     58.2545    144.3852   1.2375983932e+02   3.8928920856e+01    0.5988111    0.4028438  56.39  0.003019289    1.820    0.451
        24 -13.1176     47.2684    142.3544   1.2640436987e+02   4.0716082346e+01    0.5184795    0.4167315  30.38   0.00306329    1.411    0.291
        25 -10.8783     90.4656    145.5487   1.1519541304e+02   3.4033769024e+01     0.277723    0.1203012 -43.86  0.001033107    2.341    0.573
        26 -13.0334    214.4702    140.9035   8.5280709180e+01   1.0642253322e+01    0.9482079    0.6811356  53.37  0.004732405    1.566    0.362
        27 -11.4193      3.3494    140.3149   1.3778106474e+02   4.5102290084e+01    0.3394668    0.1979267 -65.62  0.001995218    1.334    0.251
        28 -11.1858     33.7288    135.9733   1.2904117880e+02   4.3629864683e+01    0.1888909    0.1557842 -63.83  0.001165265    1.062    0.058
        29 -12.8626     19.5230    153.4685   1.3538512278e+02   4.0847558348e+01    0.3943571    0.3221375 -12.11  0.002549165    1.572    0.364
        30 -10.5644    122.6147    134.1936   1.0406113415e+02   3.0911681834e+01    0.2213227    0.1386594 -37.42 0.0009459623    1.646    0.392
        31 -11.2503     21.5739    133.7231   1.3202806046e+02   4.5245755127e+01    0.2053573    0.1452111  56.82  0.001045482    1.733    0.423
        32 -11.1121    138.8974    152.3476   1.0415575951e+02   2.3671300822e+01    0.3010938    0.2255383 -38.54 0.0008888291    1.339    0.253
        33 -10.2869     87.0000    129.0313   1.1253569154e+02   3.8418936770e+01    0.2450184   0.07890744 -51.76 0.0007693269    2.924    0.658
        34 -11.3601    121.8245    127.3151   1.0260257148e+02   3.2582427756e+01    0.4002838    0.2906005  39.82  0.001459689    1.405    0.289
        35 -10.6532    101.5344    114.4957   1.0489916162e+02   3.9181286789e+01    0.1468755    0.1400531 -26.57  0.000123811    1.032    0.031
        36  -9.8090     67.2780    113.3315   1.1465036858e+02   4.4901454313e+01    0.1446202   0.09847697 -26.51 0.0003558859    1.602    0.376
        37 -10.5655    177.4832    111.4910   8.5565866727e+01   2.4012610295e+01    0.2391933    0.1915874  13.54 0.0009072994    1.544    0.353
        38 -10.7135     74.2446    110.2653   1.1180336207e+02   4.4578939824e+01    0.2240062    0.1154758 -60.82 0.0008922508    2.407    0.584
        39 -12.8111    190.3191    104.2936   8.1296636772e+01   2.2515136676e+01    0.6117398    0.4725917  14.23   0.00299804    1.726    0.421
        40 -12.3895    187.7427     95.0141   7.9522518051e+01   2.4736638412e+01    0.4717904     0.390534  38.29  0.001721574    1.308    0.235
        41 -11.1573    114.1251     96.9915   9.6743010743e+01   4.0403948455e+01    0.3447422    0.2126349 -45.79 0.0009156886    1.658    0.397
        42 -11.4781    177.1332     94.1104   8.1309808480e+01   2.7275280846e+01    0.2285036    0.2067911  10.43  0.001017159    1.243    0.196
        43 -13.6046     34.0673     86.6234   1.1881666352e+02   5.4507417464e+01    0.5809132    0.5221448 -82.73  0.003808803    1.482    0.325
        44 -10.9616     72.1380     94.1414   1.0828089240e+02   4.8291003023e+01    0.1828684    0.1726784 -83.40  0.001089131    1.348    0.258
        45 -13.1534      4.9305     84.0545   1.2815904699e+02   5.7312152362e+01    0.6358297    0.2899821 -45.54  0.003470604    1.660    0.398
        46 -10.3553     89.2358     82.7863   9.9795124658e+01   4.7742694875e+01    0.1864727    0.1482556  -8.77 0.0002550199    1.283    0.220
        47 -13.3298    134.3349     75.7690   8.5593469904e+01   4.0015076814e+01    0.5754482    0.3657207  52.46  0.002725767    1.564    0.360
        48 -11.9884     17.8622     77.4053   1.2216702217e+02   5.7771286341e+01    0.3443112    0.1592896 -59.96  0.001695071    2.164    0.538
        49 -13.3776     96.2418     72.2366   9.4560004358e+01   4.8358455353e+01    0.6019911    0.4950262  -4.44  0.001871116    1.205    0.170
        50 -12.6004     34.5028     70.0078   1.1424615720e+02   5.7716245565e+01    0.3646234    0.2668455 -69.53  0.002067996    2.077    0.519
        51 -12.6322     32.9527     76.5576   1.1660615078e+02   5.6621561530e+01    0.4341232    0.1852328 -37.64  0.001523935    2.113    0.527
        52 -12.5684     41.4515     82.3387   1.1519127138e+02   5.4609966210e+01    0.5099174    0.3460125  20.56  0.002946921    1.579    0.367
        53 -11.3627    144.4144     73.8939   8.2758504398e+01   3.8093254051e+01    0.2355947    0.1898174  60.32 0.0004137584    1.274    0.215
        54 -13.8986     59.7990     70.7704   1.0559886078e+02   5.4541536740e+01    0.7015175     0.344696  32.13  0.002160559    2.091    0.522
        55 -11.8534     61.7579     66.9849   1.0377060061e+02   5.4936749369e+01    0.2432034    0.1843908  14.40 0.0006155747    1.274    0.215
        56 -13.2149    118.6013     69.2715   8.7564819885e+01   4.4431933771e+01    0.3924311      0.29042 -29.39  0.002063136    1.394    0.283
        57 -11.5386    107.9562     70.9724   9.0882406918e+01   4.6320991239e+01    0.2155962    0.1959883   6.95 0.0004622064    1.025    0.025
        58 -13.7619     82.2478     67.3165   9.7230415544e+01   5.1676506561e+01    0.7585214    0.4407627  14.41  0.003341784    2.357    0.576
        59 -13.6884     51.1219     61.7401   1.0580003866e+02   5.7284325368e+01    0.6693854    0.3500317   4.69  0.002812383    3.072    0.674
        60 -10.3253    214.5297     61.3746   6.7391460141e+01   2.4151536972e+01    0.2258504    0.1293385 -23.10  0.001027956    2.454    0.593
        61 -10.6316    169.9792     62.9879   7.4699422440e+01   3.3946885254e+01     0.210824    0.1943188  71.16 0.0003913884    1.037    0.036
        62 -11.9706    125.2685     57.5837   8.2430797956e+01   4.4792394051e+01    0.3019127    0.2662699  34.31 0.0006264243    1.045    0.043
        63 -13.9862     36.5126     54.8130   1.0891424313e+02   6.0204516468e+01    0.8056022    0.4009248 -47.63  0.004166425    2.043    0.511
        64 -13.3929     42.1364     47.8342   1.0449966212e+02   6.0685833730e+01    0.4711717    0.3120256  19.03 0.0009757551    1.445    0.308
        65 -13.3187     42.1993     42.4792   1.0262171105e+02   6.1495009719e+01    0.7263678    0.3522792  16.20  0.002061614    2.520    0.603
        66 -13.7771     68.1052     54.2285   9.7518823110e+01   5.6086420716e+01    0.4486772    0.4124219  53.81  0.001611019    1.522    0.343
        67 -10.1974    174.9822     56.5000   7.2165128025e+01   3.3724409457e+01    0.2005983    0.1265178  60.29 0.0004743812    1.493    0.330
        68 -10.7220    210.4941     54.5116   6.6401709704e+01   2.5996691333e+01    0.1991538    0.1555092  39.44 0.0009547257    1.590    0.371
        69 -11.4441    133.0676     53.8628   7.9545958020e+01   4.3614301977e+01    0.2943887    0.2099795  44.26 0.0005188878    1.295    0.228
        70 -10.6599     92.1741     53.1255   8.9695185340e+01   5.2119365213e+01    0.2022741    0.1583581  16.65 0.0006525241    1.209    0.173
        71 -13.4382     56.0226     43.4910   9.7953571294e+01   5.9495307357e+01    0.5585042    0.2830554  29.59  0.002883467    1.911    0.477
        72 -12.5352    245.4785    248.0810   1.0072552761e+02  -1.2391513637e+01    0.3204757    0.2237134 -22.16  0.002087708    1.291    0.226
        73 -11.8751     78.0036     47.5211   9.2073542267e+01   5.5454376409e+01    0.2040506     0.163929 -16.49  0.001251206    1.190    0.160
        74 -11.7749    145.4677     51.0148   7.6117687202e+01   4.1227546859e+01    0.2737525    0.2529897 -21.15 0.0008330378    1.171    0.146
        75 -12.8056      2.7754     46.0797   1.1949454117e+02   6.4617199913e+01    0.5911542    0.4303947 -59.88  0.003157784    1.735    0.424
        76 -10.9494    157.1125     43.9685   7.1979693078e+01   3.9485268524e+01    0.2233218    0.1783363  57.83 0.0005800318    1.137    0.120
        77 -10.5661    218.1684     38.7660   6.2048114569e+01   2.6404205042e+01    0.1546689    0.1436348  53.92   0.00104792    1.301    0.232
        78 -11.5479     23.8442     37.3809   1.0800418482e+02   6.4308399085e+01    0.2969476    0.1779787  -2.42  0.001795061    1.644    0.392
        79 -12.5607     38.8930     33.1612   1.0050744652e+02   6.3236821877e+01    0.4715329     0.275297  26.70  0.002837827    1.610    0.379
        80 -10.5937    176.5515     33.5192   6.6164364394e+01   3.6290687338e+01    0.1917775     0.185124  73.02  0.001281266    1.117    0.105
        81 -11.1253     82.9050     33.6057   8.5785489741e+01   5.6392040867e+01    0.2642047    0.2073976  24.53 0.0008022093    1.086    0.079
        82 -11.9052     79.5421     29.9745   8.5490502369e+01   5.7421623288e+01    0.2755049     0.235375   5.48 0.0004788715    1.099    0.090
        83 -12.2407     83.7165     22.6934   8.1705634139e+01   5.7447784286e+01    0.3309915     0.277489  27.85  0.001015429    1.058    0.055
        84 -11.7874    193.8828    248.8182   1.1056084235e+02  -5.1128201651e+00    0.2154421    0.2021607 -29.71  0.001455212    1.312    0.238
        85 -11.1155    225.3314    247.3174   1.0427749558e+02  -9.5457107455e+00    0.1299821   0.08181299   1.62   0.00070473    1.687    0.407
        86 -11.1193    144.4170    181.2052   1.0894186269e+02   1.6223533773e+01    0.2096335    0.1433337 -60.56 0.0009475916    1.687    0.407
        87 -10.7715     33.7957    177.4023   1.3498317945e+02   3.3927523695e+01    0.1595978    0.1259411   8.64 0.0009579306    1.710    0.415
        88 -12.2311    233.0490    154.0470   8.4815736347e+01   4.7310520401e+00     0.384369    0.2988266  11.21  0.001814449    1.513    0.339
        89 -12.0594    242.9774    169.0859   8.6223189572e+01   3.6052434956e-01     1.004189    0.4009201 -35.79  0.004135072    2.305    0.566
        90 -13.6322    241.7046    155.3646   8.3621977206e+01   2.9727615395e+00     1.442211     0.936533 -28.45  0.007480605    1.480    0.324
        91 -10.8924      2.3966    171.1910   1.4143322648e+02   3.8168818923e+01    0.1758024   0.09283255 -84.51 0.0009505321    1.717    0.417
        92 -12.0635    197.8830    167.6056   9.4328201110e+01   8.7372228896e+00    0.3350685    0.2817547  24.02  0.001341887    1.220    0.181
        93 -13.4644    170.8425    159.1373   9.8220267610e+01   1.5786992341e+01    0.6318649    0.5254582 -64.35  0.003184172    1.398    0.285
        94 -11.5438    227.4439    160.6612   8.7195259719e+01   4.5411150923e+00    0.2596052    0.1798569  37.98 0.0009168737    1.565    0.361
