#   1 NUMBER                 Running object number                                     
#   2 MAG_AUTO               Kron-like elliptical aperture magnitude                    [mag]
#   3 X_IMAGE                Object position along x                                    [pixel]
#   4 Y_IMAGE                Object position along y                                    [pixel]
#   5 X_WORLD                Barycenter position along world x axis                     [deg]
#   6 Y_WORLD                Barycenter position along world y axis                     [deg]
#   7 A_WORLD                Profile RMS along major axis (world units)                 [deg]
#   8 B_WORLD                Profile RMS along minor axis (world units)                 [deg]
#   9 THETA_WORLD            Position angle (CCW/world-x)                               [deg]
#  10 FWHM_WORLD             FWHM assuming a gaussian core                              [deg]
#  11 ELONGATION             A_IMAGE/B_IMAGE                                           
#  12 ELLIPTICITY            1 - B_IMAGE/A_IMAGE                                       
         1 -13.5771    227.2518      7.1656   3.3396842022e+01   2.8005666584e+01     1.970047     1.204107  47.97   0.00905872    2.206    0.547
         2 -13.0058    183.3047     51.6226   4.9319651178e+01   3.2818333588e+01     1.031142     0.887153  10.24 0.0008280645    1.481    0.325
         3 -13.1335    196.0575     41.9438   4.4877797821e+01   3.1062202272e+01     1.148675    0.8941903 -58.41  0.003658334    1.233    0.189
         4 -13.3956    203.4454     33.8193   4.1882859376e+01   3.0356692224e+01     1.045571    0.8654655 -28.16  0.001324816    1.394    0.283
         5 -11.7585     41.0099     12.5094   7.4079334390e+01   6.8793185299e+01     0.263247    0.2005516 -27.78  0.001744094    1.373    0.272
         6 -11.4782     54.4269      6.7232   6.5369169640e+01   6.7389483197e+01    0.4013529    0.1043057  47.01  0.001528346    3.596    0.722
         7 -10.9675     61.5527      3.1371   6.0874714782e+01   6.6503786115e+01    0.2420776    0.2172808 -22.51  0.001687107    1.384    0.277
         8 -11.2872    192.1517    193.6525   8.1529197816e+01   4.6549659349e+00     1.032917    0.5781602 -65.80  0.003251009    5.381    0.814
         9 -18.5955     16.8866    200.1010   1.2211755396e+02   3.0180742088e+01     14.79052     4.912606 -80.78   0.06493269    2.803    0.643
        10  -9.4384     91.4674    183.3998   1.0305470749e+02   2.4642403267e+01    0.2413077    0.2195571 -87.86 0.0005964838    1.072    0.067
        11 -10.6529     99.3114    180.8074   1.0070809266e+02   2.3985127325e+01    0.2942016    0.2446269  33.86 0.0006079636    1.242    0.195
        12 -10.5945     51.2258    164.3281   1.1065759728e+02   3.4836849063e+01     0.418075    0.2341234 -42.16  0.001905477    2.296    0.564
        13 -11.0296     47.0380    171.7797   1.1263774738e+02   3.3526759912e+01    0.6158901    0.4233141 -59.32  0.002291474    1.439    0.305
        14 -10.0552    187.4731    175.9780   7.9040704654e+01   8.7769908982e+00      0.33763    0.3244786 -69.47  0.001156586    1.247    0.198
        15  -8.7997    148.5218    175.4962   8.7702372465e+01   1.6331896110e+01    0.2800497    0.1884851 -76.51 0.0006173076    2.323    0.569
        16  -9.9280    146.5049    171.9648   8.7491880583e+01   1.7480144445e+01    0.3044207    0.2648112 -87.61 0.0007744385    1.361    0.265
        17 -10.1831    118.8468    173.6963   9.4610996673e+01   2.2267082430e+01    0.2392599     0.192247  20.86  0.001202445    1.408    0.290
        18  -9.8725     84.3237    173.5408   1.0337334664e+02   2.8075206739e+01    0.2428873    0.2194584 -65.02 0.0006238151    1.136    0.119
        19  -8.8025    193.4965    170.9303   7.6740028816e+01   8.5991045259e+00    0.2139036    0.1389616 -40.79 0.0006301828    1.538    0.350
        20  -9.3450    185.2374    169.0724   7.8095985619e+01   1.0536745689e+01    0.2621062    0.2049245 -57.54  0.001224739    1.526    0.345
        21  -9.4838    240.4794    169.4713   6.7513881340e+01   5.0732128208e-01    0.1327366     0.114355 -16.26 -7.416234e-06    1.031    0.030
        22  -9.5768    136.7700    166.9639   8.8869800770e+01   2.0457459239e+01    0.3851892     0.188691  53.44  0.001396936    2.493    0.599
        23  -9.6363     42.0007    179.0002   1.1467351004e+02   3.2383478316e+01    0.2156916    0.1710303 -70.37  0.001313281    1.213    0.176
        24 -11.5635     92.5235    151.4518   9.7449718494e+01   3.2137119316e+01    0.7540694     0.599538   0.33  0.003709387    1.673    0.402
        25 -10.5394    134.3109    147.8354   8.5501204291e+01   2.5291835000e+01    0.6314851    0.2715416 -54.78  0.002173056    2.608    0.617
        26 -10.4815    133.3876    142.5663   8.4568293354e+01   2.6691035736e+01    0.7468883    0.2830243 -56.51  0.002250954    3.417    0.707
        27  -9.1299    112.5106    150.9756   9.1905629397e+01   2.8758231561e+01    0.2756648    0.2032616  78.11 0.0008396947    1.740    0.425
        28  -8.9867    174.7118    149.1314   7.6075495961e+01   1.6665897648e+01    0.2642713    0.2100837  54.41 0.0006708716    1.364    0.267
        29 -10.2494    104.7258    138.0459   9.1337913859e+01   3.3297886542e+01    0.5395697    0.3335948 -28.45  0.002121268    2.327    0.570
        30 -10.3940    105.8381    130.7895   8.9413739802e+01   3.4847023701e+01    0.4051664    0.3414481 -64.35  0.001132945    1.210    0.173
        31  -9.9624    135.1410    249.2364   1.0219540460e+02   4.4586096634e+00    0.2268564    0.1568022  75.85  0.001248921    2.115    0.527
        32 -11.7269     92.4559    137.5028   9.4724577339e+01   3.5577074759e+01    0.2887628    0.2737118 -26.97   0.00158293    1.136    0.120
        33 -11.4757    111.7535    204.6359   1.0130865645e+02   1.6638427534e+01    0.4115476    0.2995808  77.96 0.0009400555    1.636    0.389
        34 -11.5976    121.3129    196.6566   9.7882806179e+01   1.6731378014e+01    0.5142767    0.3107164 -83.66  0.001326048    2.765    0.638
        35 -10.4913    135.7586    127.9340   8.0513545541e+01   2.9551408727e+01    0.5786039     0.171884 -48.08     0.001672    3.414    0.707
        36 -10.3950    113.2040    128.9486   8.6895424413e+01   3.3893763415e+01    0.3869899    0.3147892 -10.07  0.001190644    1.530    0.346
        37 -11.0349    119.1914    123.2388   8.3843337266e+01   3.4056287461e+01    0.4936381    0.3667779   7.45  0.002148463    1.848    0.459
        38  -9.3503    160.9994    127.6986   7.4177890672e+01   2.4126990541e+01    0.2281487     0.217085  47.23  0.001038643    1.062    0.058
        39 -10.2790    100.3766    124.9161   8.9647772733e+01   3.7261331745e+01    0.2921199    0.2431784 -15.26 0.0005248711    1.426    0.299
        40  -9.3427    108.9515    118.1144   8.5497198204e+01   3.7275245973e+01     0.223442    0.2215424 -32.80 0.0003512018    1.012    0.012
        41  -9.8757    231.3350    113.7618   5.7060979540e+01   1.1658621473e+01    0.2488108    0.2384896 -30.20 0.0007409246    1.074    0.069
        42  -8.8954    167.8691    112.7335   6.8826590788e+01   2.5707713486e+01    0.3101226    0.2036071 -67.72  0.001224286    2.179    0.541
        43  -9.8946    134.9051    104.7670   7.4746813965e+01   3.4872341936e+01    0.7131467    0.2071088 -41.60  0.002025408    3.570    0.720
        44 -11.7854    117.8138    108.4730   8.0450813545e+01   3.7724288945e+01    0.8507744    0.6065377 -45.65  0.003896393    1.390    0.280
        45  -9.2946    205.5234    110.1994   6.0584652655e+01   1.7701742268e+01    0.2553234    0.2100439  52.43 0.0006090643    1.288    0.223
        46  -8.2239     73.3063    199.2546   1.0951686529e+02   2.3716759601e+01    0.1172516    0.1051419 -16.42 0.0001698703    1.513    0.339
        47  -9.3387     82.1176    195.2399   1.0695805979e+02   2.3351270409e+01    0.2897056    0.2436608 -23.20  0.001638884    1.626    0.385
        48 -10.6473    148.5802    187.3529   8.9918947710e+01   1.3819528734e+01    0.5660563    0.3543047 -74.51  0.002272016    2.740    0.635
        49 -15.0216     71.2034    148.0018   1.0279373383e+02   3.6265751364e+01     4.679002     2.477153  77.93   0.01037053    3.678    0.728
        50  -9.0005     81.4003    185.2020   1.0579571584e+02   2.5762153623e+01    0.3950606    0.2179279  75.92  0.001588978    2.659    0.624
        51 -10.2552     39.2775     88.2055   1.0128025738e+02   5.4780030886e+01    0.2278226    0.1762501 -14.42   0.00130385    1.415    0.293
        52  -8.7118    157.4361     82.4974   6.2961854049e+01   3.4083238861e+01    0.1512198    0.1493159  88.30 7.486327e-05    1.009    0.008
        53 -10.3049    119.9976    186.0675   9.6475919009e+01   1.9269772404e+01    0.2165045    0.2065317  50.20 0.0003848638    1.033    0.032
        54  -9.5566     93.4083    205.1962   1.0560916981e+02   1.9441203071e+01    0.2690545    0.1764545  21.23   0.00124682    1.965    0.491
        55  -9.5477    168.1532    233.0172   9.3233054987e+01   1.9252575996e+00    0.2399645    0.1599324  36.61 0.0008129349    1.282    0.220
        56 -11.5216    163.6428    212.5859   9.0943868433e+01   6.2093067942e+00    0.3798296    0.3578494   4.72  0.002367858    1.098    0.089
        57 -10.5649    184.1609    212.2667   8.6561289839e+01   2.7718662851e+00    0.2830338    0.1861073 -40.89  0.001496955    1.652    0.395
        58 -13.0547    105.0039    211.1778   1.0375241671e+02   1.6353449966e+01     1.613626    0.6862038 -67.93  0.006298068    3.154    0.683
        59 -11.7926    112.6841    196.4847   9.9888037429e+01   1.8234268344e+01    0.6529701    0.4088429   6.22  0.002528867    3.201    0.688
        60 -11.2765    114.7028    184.6415   9.7526287452e+01   2.0511411414e+01    0.3268878    0.2640021 -45.22  0.001733514    1.358    0.264
        61  -9.3587    189.6999     14.9856   3.8738391931e+01   3.5868946760e+01    0.1804998    0.1587695 -65.74 0.0006202451    1.118    0.106
        62 -10.4965    107.5685    203.7356   1.0214622518e+02   1.7514308169e+01    0.2903613    0.2301786  79.05 0.0008577917    1.365    0.268
        63  -9.8598     89.7916    212.3216   1.0731861068e+02   1.8464246508e+01    0.2534782    0.2030766  77.00  0.000554869    1.225    0.183
