#   1 NUMBER                 Running object number                                     
#   2 MAG_AUTO               Kron-like elliptical aperture magnitude                    [mag]
#   3 X_IMAGE                Object position along x                                    [pixel]
#   4 Y_IMAGE                Object position along y                                    [pixel]
#   5 X_WORLD                Barycenter position along world x axis                     [deg]
#   6 Y_WORLD                Barycenter position along world y axis                     [deg]
#   7 A_WORLD                Profile RMS along major axis (world units)                 [deg]
#   8 B_WORLD                Profile RMS along minor axis (world units)                 [deg]
#   9 THETA_WORLD            Position angle (CCW/world-x)                               [deg]
#  10 FWHM_WORLD             FWHM assuming a gaussian core                              [deg]
#  11 ELONGATION             A_IMAGE/B_IMAGE                                           
#  12 ELLIPTICITY            1 - B_IMAGE/A_IMAGE                                       
         1 -14.2946    193.3349     32.1775   1.2132539952e-01   3.3346623303e+01    0.8451214    0.6744804 -68.19  0.003671119    1.062    0.059
         2 -11.6182    189.8404     14.1247   3.5617706369e+02   3.6050593761e+01    0.1926407    0.1274291 -60.77 0.0007547771    1.219    0.180
         3 -19.1087     58.8040    207.7619   6.7165933545e+01   2.2587898916e+01     7.129076     6.847801  -3.74   0.03323115    1.139    0.122
         4  -9.9637     16.1587    187.3754   7.7825334638e+01   3.1556202640e+01    0.1268431   0.08826835 -59.78 0.0001593064    1.573    0.364
         5 -12.8379    173.4857    175.1733   3.4071972510e+01   1.4083070424e+01    0.6274741    0.4719156 -52.43  0.001424416    1.595    0.373
         6 -12.4300    179.7266    168.4216   3.1651019677e+01   1.4393726042e+01    0.5732697    0.4696364 -32.63  0.002861887    1.141    0.124
         7 -11.7441    242.3201    165.8233   2.1269320838e+01   7.0313356358e+00    0.1706209    0.1128759 -40.98 0.0007253232    1.415    0.293
         8 -11.2005    154.0040    233.1530   4.7138830613e+01   6.7124080861e+00    0.1901203     0.152014 -19.25 0.0004089626    1.199    0.166
         9 -19.1109     47.5066     90.5849   5.3005228023e+01   5.4210229281e+01     20.62124    0.9428418 -60.24   0.02546498   20.683    0.952
        10 -11.0092     14.3128    226.8412   8.0243133980e+01   2.2617869544e+01    0.2905616    0.1799605 -35.74  0.001549234    2.196    0.545
        11 -14.1214    134.0182    145.3760   3.6982697639e+01   2.5961941759e+01     1.460332    0.5071372 -55.74  0.004434136    4.093    0.756
        12 -11.8939    161.6539    216.3503   4.3187138353e+01   8.5606929969e+00     0.263797    0.2316143  32.08  0.001794154    1.448    0.309
        13 -11.3808     13.8630    136.9126   7.4961244368e+01   4.5065347026e+01    0.2682295    0.2183567 -18.99 0.0003674831    1.355    0.262
        14 -10.4013     14.4343    146.4208   7.5565849449e+01   4.2408344653e+01    0.2896343    0.2453094  86.79 0.0007958346    1.157    0.136
        15 -10.3370     13.4696    142.0580   7.5556384991e+01   4.3675124669e+01      0.33797    0.1977252 -79.20  0.001530121    1.685    0.407
        16  99.0000      6.0000    211.3697   8.1795617642e+01   2.6656714984e+01    0.3183113   0.07073633 -82.29   0.00104061    4.837    0.793
        17 -11.0349      6.2893    138.9038   7.7984104220e+01   4.5025049124e+01      0.61415    0.3286671  15.91   0.00272061    1.894    0.472
        18 -12.4876    136.2205    128.3160   3.2769158089e+01   2.9148556761e+01    0.6666525    0.1850416 -50.69  0.001929512    4.120    0.757
        19 -10.7752    186.1430    127.9584   2.2596405860e+01   2.0420139447e+01    0.3975452      0.26669 -78.20  0.001819205    2.961    0.662
        20 -12.0787     11.9149    205.2919   7.9954431609e+01   2.7596965843e+01    0.3361365    0.1990949  21.39  0.001544495    1.536    0.349
        21 -10.7226      9.2306    126.9241   7.5879047227e+01   4.8154335440e+01    0.2265258    0.1816936  60.69 0.0005832818    1.240    0.193
        22 -11.3448      2.6356    125.5377   7.8418717760e+01   4.8927046598e+01    0.3493115    0.3318693  -3.63  0.002049796    1.117    0.105
        23 -10.6369     16.4633    201.6382   7.8518459150e+01   2.8087790917e+01    0.1468358    0.1246721 -64.92  0.000882437    1.333    0.250
        24 -11.4781    151.9304    240.7975   4.8575636529e+01   5.7422144124e+00    0.1897202    0.1730573   0.87  0.001076691    1.334    0.251
        25 -11.6868      7.9408    118.6758   7.5648608626e+01   5.0532081547e+01    0.6271418    0.2494029 -21.79  0.002028549    3.687    0.729
        26 -10.5571    152.0689    118.6568   2.7000037556e+01   2.8118375225e+01    0.1934181    0.1817031  28.77 0.0005823392    1.122    0.109
        27 -11.3155    113.1040    114.7926   3.5574481185e+01   3.6491924993e+01    0.2275208    0.2077648  74.52 0.0004488502    1.189    0.159
        28 -12.1134    135.0000    111.5449   2.9129476982e+01   3.2837738306e+01    0.5680951    0.1387817 -44.02  0.001629337    4.009    0.751
        29 -11.1547    100.1617    112.8521   3.8892092297e+01   3.9457441582e+01    0.2331346    0.2076857  71.34 0.0004218684    1.225    0.184
        30 -13.7266    120.1268    109.2736   3.2290066314e+01   3.6297898097e+01    0.6844728    0.6052359  34.34  0.003302451    1.162    0.139
        31 -11.3325      5.4729    111.3488   7.6007733176e+01   5.2716183115e+01    0.6041057    0.2797651  -6.60  0.002318616    2.618    0.618
        32 -11.9920    151.9559    198.5908   4.2501467624e+01   1.2789526226e+01    0.2325734    0.1824366 -44.02 0.0006590655    1.400    0.286
        33 -11.5735     93.6612    110.5610   4.0366008291e+01   4.1243976537e+01    0.2784426    0.2662541  52.84  0.000390332    1.042    0.040
        34 -11.2867     15.0507    109.2071   7.1497483319e+01   5.2695137772e+01    0.5300963    0.2420668   1.04  0.001819484    2.674    0.626
        35 -11.7382    111.9587    104.0410   3.3175056327e+01   3.9088875121e+01    0.3879441    0.2955415  73.36  0.001807879    1.640    0.390
        36  -9.9834    142.1003     93.7740   2.3057791905e+01   3.4858711572e+01    0.2184269    0.1872512 -82.61  0.000725979    1.274    0.215
        37 -11.5125     15.4799    195.3374   7.8466216040e+01   2.9667185937e+01    0.1741538    0.1595065 -59.79 0.0005249214    1.245    0.197
        38  -9.9476     87.3102     87.2968   3.6155821938e+01   4.7871474917e+01    0.1529361    0.1234905  -0.80 0.0002612942    1.595    0.373
        39 -11.1320    194.2978    196.1733   3.3765345274e+01   8.0007300605e+00    0.3628077    0.2075253 -60.77  0.001494535    4.630    0.784
        40 -10.7174    250.0276    238.5372   3.1290612265e+01  -2.8261738449e+00    0.1610789   0.09139627 -26.16   0.00094614    1.307    0.235
        41  -9.8358    102.7785     81.7583   2.9576905938e+01   4.5760750331e+01    0.2103215     0.174708  78.83  0.000752245    1.347    0.257
        42 -12.5026     81.7664     78.9810   3.5565739645e+01   5.0849515095e+01     0.926999    0.2814769  50.19  0.002550432    4.034    0.752
        43 -13.5029    160.5750     69.4978   1.3282637669e+01   3.5100227294e+01    0.8720897    0.5070261  56.03  0.002594332    1.800    0.444
        44 -14.2131    174.2441     57.2904   8.1970116243e+00   3.4021533771e+01    0.9756195    0.8917347  24.06  0.004006358    1.440    0.306
        45 -12.6458    180.6508     49.9280   5.6002633555e+00   3.3701820697e+01    0.3915478    0.3638835 -76.76 0.0008557366    1.148    0.129
        46 -10.0292    108.7949     70.0608   2.4273647311e+01   4.6696639555e+01    0.2206936    0.1918096 -86.78 0.0003799391    1.213    0.176
        47  -9.8894     13.5377     59.0296   6.3157807380e+01   6.6207647213e+01    0.2068908    0.1348378 -63.61 0.0004700994    1.533    0.348
        48 -10.3073    236.6130    244.2507   3.4024931018e+01  -2.4670835113e+00    0.1419347     0.066266 -26.08 0.0009470949    1.659    0.397
