#   1 NUMBER                 Running object number                                     
#   2 MAG_AUTO               Kron-like elliptical aperture magnitude                    [mag]
#   3 X_IMAGE                Object position along x                                    [pixel]
#   4 Y_IMAGE                Object position along y                                    [pixel]
#   5 X_WORLD                Barycenter position along world x axis                     [deg]
#   6 Y_WORLD                Barycenter position along world y axis                     [deg]
#   7 A_WORLD                Profile RMS along major axis (world units)                 [deg]
#   8 B_WORLD                Profile RMS along minor axis (world units)                 [deg]
#   9 THETA_WORLD            Position angle (CCW/world-x)                               [deg]
#  10 FWHM_WORLD             FWHM assuming a gaussian core                              [deg]
#  11 ELONGATION             A_IMAGE/B_IMAGE                                           
#  12 ELLIPTICITY            1 - B_IMAGE/A_IMAGE                                       
         1 -10.1318      1.8334     49.6978   1.0289557627e+02   6.6168685877e+01    0.5319511   0.08858518 -63.29  0.001535456    6.545    0.847
         2 -11.9893    216.3351     37.2193   3.8712972420e+01   2.7281208437e+01    0.9230029    0.6586979 -68.40  0.004667293    1.257    0.204
         3 -10.0054      2.2350     23.9848   9.4621522432e+01   7.0910366309e+01    0.4022565   0.06859637 -52.73  0.001479716    4.517    0.779
         4 -11.6735    236.2682     18.1355   3.2891816309e+01   2.5402762616e+01     0.669632    0.5062064 -65.73  0.002791926    1.058    0.055
         5  -9.7190      2.2177     13.7470   9.0531972830e+01   7.2579436594e+01     0.257542     0.111121 -32.59  0.001216992    1.977    0.494
         6  -9.4264      2.3766      3.5772   8.5746201630e+01   7.4070905222e+01    0.3145317    0.1062528 -43.30  0.001618762    2.673    0.626
         7 -10.5146     85.0045    221.7044   1.0558113005e+02   1.6893755113e+01    0.4962747    0.3418041  86.56  0.001681657    1.632    0.387
         8 -13.2916      8.8386    207.7027   1.2101610850e+02   2.9170010671e+01     2.213083    0.9891189 -84.49  0.007113174    1.989    0.497
         9 -10.5839     14.5469    248.7791   1.2220317275e+02   2.0098632259e+01    0.4486907    0.4280597 -85.06  0.001281293    1.469    0.319
        10 -13.7453      4.2669    242.3166   1.2376267377e+02   2.2387233597e+01      16.5307    0.8001984 -78.04   0.02835389   23.457    0.957
        11 -11.7416     10.9814    232.2577   1.2200637969e+02   2.3746817096e+01    0.6509224    0.3379995  85.96  0.003821092    1.706    0.414
        12 -11.3949     24.9596    204.5350   1.1733179596e+02   2.8294247334e+01    0.4464128    0.3534716 -47.42  0.000930706    1.633    0.388
        13 -13.8151     35.6480    194.4594   1.1404556227e+02   2.9459163379e+01     5.053785     2.014486  72.28   0.01756701    4.032    0.752
        14 -13.2564     40.2790    249.7486   1.1744035605e+02   1.7060246765e+01     4.698545     1.241656  27.85   0.01385237    7.315    0.863
        15 -10.2379     55.0542    177.9408   1.0747327925e+02   3.1103743495e+01     0.423963    0.3027863 -26.95   0.00150154    2.036    0.509
        16 -10.2600     60.9714    172.3880   1.0520149610e+02   3.1696448718e+01     0.353267    0.2841809 -36.51 0.0008076603    1.512    0.339
        17  -9.6393     43.4498    218.3145   1.1441622886e+02   2.3163482011e+01     0.288547    0.1770649  54.50 -4.874363e-05    1.416    0.294
        18  -9.2445     94.5107    169.5155   9.5860977539e+01   2.7405032223e+01    0.3523125    0.2112547  70.60  0.001392059    2.430    0.588
        19 -10.1044     71.7881    162.8118   1.0087269722e+02   3.2571926767e+01    0.3149746    0.2833492  56.45 0.0004824709    1.103    0.093
        20 -11.6470     58.3978    158.8083   1.0394957302e+02   3.5409271897e+01    0.5421336    0.3250811 -41.80  0.001422328    1.979    0.495
        21  -8.2346     36.2959    160.6156   1.1026445015e+02   3.7565901086e+01    0.2408298     0.146075  79.98 0.0005399926    1.803    0.445
        22  -9.3582     32.8565    157.1503   1.1077681175e+02   3.8782989759e+01    0.3282151    0.2216825  67.75 0.0009900454    1.534    0.348
        23 -11.9526     78.9775    156.5631   9.7844185383e+01   3.3061861594e+01      1.29197    0.7106021  51.28  0.001826949    1.981    0.495
        24 -11.0994     67.5391    142.5142   9.8641242045e+01   3.8263163053e+01    0.5014686    0.3807152  41.08  0.001314398    1.363    0.266
        25 -10.9758     70.1938    145.5958   9.8416148030e+01   3.7110593281e+01    0.5066041    0.4147547   5.33  0.001600418    1.513    0.339
        26 -11.2541     57.9068    241.7246   1.1335431034e+02   1.6470992757e+01    0.7617249    0.4319522  35.44     0.001825    1.661    0.398
        27  -8.2720     46.6428    146.7116   1.0547238542e+02   3.9894342175e+01    0.1400934     0.100919 -33.51 0.0007025023    1.681    0.405
        28  -9.4242     94.8574    142.6900   9.0718992322e+01   3.3925434147e+01    0.3588396    0.2629172 -14.27  0.001248536    1.944    0.486
        29 -10.4582     82.8843    140.9004   9.3817652737e+01   3.6355954173e+01    0.3247525     0.270182 -52.91 0.0004114602    1.172    0.147
        30 -10.4616     58.3366    132.4666   9.9585198829e+01   4.2034754986e+01    0.4026355    0.2550313 -68.95  0.001911762    1.554    0.357
        31 -10.0803     56.5326    128.5103   9.9408598877e+01   4.3256394972e+01    0.5051149    0.1950098 -51.54  0.001930493    2.350    0.574
        32  -9.1829    106.9318    131.2276   8.4783124970e+01   3.4532596049e+01    0.3680751    0.2880783  33.00  0.001120769    1.338    0.252
        33  -9.5608     94.2315    127.6178   8.7645362093e+01   3.7714268431e+01    0.2969067    0.2525477 -43.86 0.0003873912    1.175    0.149
        34  -8.7697    114.6082    125.1868   8.1201999671e+01   3.4480925482e+01     0.227537    0.1413316 -39.44 0.0004679578    1.722    0.419
        35 -10.1018     67.6733    129.0426   9.6034811841e+01   4.1612346074e+01     0.558113     0.327505  79.22  0.001701629    3.064    0.674
        36  -7.7655    105.2001    119.7847   8.2573039240e+01   3.7568196009e+01    0.2022658     0.177129 -12.57 0.0003134625    1.296    0.229
        37  -9.1120     53.3924    111.5854   9.7038455887e+01   4.7820955630e+01    0.2805763     0.131617 -74.86 0.0009606542    3.342    0.701
        38  -7.8556    205.2129    110.5692   5.7142018900e+01   1.8062206897e+01     0.199046    0.1354226  41.52  0.000882415    1.681    0.405
        39  -8.5156     41.5011     92.4998   9.6967899274e+01   5.3736103621e+01    0.1362492    0.1201962 -42.07 0.0008106611    1.013    0.013
        40  -8.7664     52.0991     90.1703   9.2501288963e+01   5.3015293193e+01    0.2182025    0.1772584 -24.71 0.0008717925    1.237    0.192
        41  -9.1104     13.1896     60.2144   1.0043722851e+02   6.3336489465e+01     0.216046    0.1313437 -46.20 0.0005890147    1.334    0.250
        42 -11.5618    127.5050    231.2711   9.7397810149e+01   8.4373460538e+00    0.7221662    0.2844261  32.45  0.002908806    2.485    0.598
        43 -12.0688    111.6767    229.6589   1.0063822299e+02   1.1230524827e+01    0.9373411    0.4227413  38.39  0.004238065    1.914    0.478
        44 -11.1808    223.0921     30.0674   3.6480436671e+01   2.6727329737e+01    0.5578089    0.3885424  47.23  0.001354208    1.930    0.482
        45  -7.8476     32.6884     47.3049   8.7697002851e+01   6.4125713893e+01    0.1095873    0.1001257  67.87 0.0006353186    1.615    0.381
        46 -11.7867    207.9958     41.9799   4.0713015669e+01   2.8501306567e+01     0.643656    0.4669662 -58.17  0.002753762    1.250    0.200
        47  -8.8518    127.7901     35.4620   5.1628571185e+01   4.8351917951e+01    0.2997204    0.2096845 -78.52  0.000893385    1.914    0.477
        48 -11.9934     99.5516    228.6552   1.0317603309e+02   1.3287939920e+01    0.9767276    0.2904246  40.41  0.003698693    2.759    0.638
        49  -9.1637     77.0496    225.6074   1.0777864717e+02   1.7208221886e+01     0.217591    0.1606206  85.18 0.0007086791    1.392    0.282
        50  -9.9167     83.6898    234.7626   1.0731082311e+02   1.4379973848e+01     0.269727    0.1784402 -60.64  0.001530421    1.681    0.405
