#   1 NUMBER                 Running object number                                     
#   2 MAG_AUTO               Kron-like elliptical aperture magnitude                    [mag]
#   3 X_IMAGE                Object position along x                                    [pixel]
#   4 Y_IMAGE                Object position along y                                    [pixel]
#   5 X_WORLD                Barycenter position along world x axis                     [deg]
#   6 Y_WORLD                Barycenter position along world y axis                     [deg]
#   7 A_WORLD                Profile RMS along major axis (world units)                 [deg]
#   8 B_WORLD                Profile RMS along minor axis (world units)                 [deg]
#   9 THETA_WORLD            Position angle (CCW/world-x)                               [deg]
#  10 FWHM_WORLD             FWHM assuming a gaussian core                              [deg]
#  11 ELONGATION             A_IMAGE/B_IMAGE                                           
#  12 ELLIPTICITY            1 - B_IMAGE/A_IMAGE                                       
         1 -17.7082    140.5686    176.4404   1.1289287013e+02   1.7540126240e+01     4.885058     3.520691  85.79   0.02180304    1.868    0.465
         2 -18.2829    141.0820    110.3866   9.7570621857e+01   3.2468258526e+01      9.38808     4.676215 -58.18   0.03240803    2.688    0.628
         3 -14.8889      9.4974      6.4615   1.0727237106e+02   7.1069727082e+01    0.9664281    0.5893773   4.63  0.006937031    1.439    0.305
         4 -13.4702    143.6498    232.7871   1.2183617218e+02   5.1545899679e+00    0.4302127     0.356134  34.93  0.002221578    1.178    0.151
         5 -12.1790    150.5687    231.8482   1.2027752236e+02   4.1184507932e+00    0.3615383    0.1698634 -56.03   0.00157815    2.554    0.608
         6 -12.9375    130.0284    231.2751   1.2441457886e+02   7.8080283815e+00    0.3216633     0.254374  64.09  0.001870987    1.224    0.183
         7 -13.3316     11.4350    228.2784   1.4706103698e+02   2.5201020138e+01    0.4338781    0.3190901  75.76  0.003181248    1.062    0.058
         8 -13.4085    205.7892    228.7949   1.0867213493e+02  -4.9244912143e+00    0.4649897     0.374201  32.45  0.002830837    1.147    0.128
         9 -13.5868    123.2248    228.4462   1.2542138680e+02   9.5338031436e+00    0.4316852    0.3270917  55.80  0.002039961    1.185    0.156
        10 -12.7752    135.2447    224.5119   1.2234850907e+02   8.2269628094e+00    0.3316578    0.2297378  83.17  0.001642204    1.927    0.481
        11 -17.4869     79.5957    193.8530   1.3003810667e+02   2.4218356647e+01     4.893142     2.521129  45.91   0.02281404    1.869    0.465
        12 -16.2716    148.3713    208.8645   1.1705114309e+02   9.0090549509e+00     2.092992     1.315013  58.77  0.009698565    1.795    0.443
        13 -11.8692    121.5064    240.5123   1.2739069299e+02   7.4780615825e+00    0.2930215    0.2714091 -13.50  0.001741006    1.435    0.303
        14 -16.8852    167.8334    170.2998   1.0538633354e+02   1.3387193059e+01     2.847175     2.100675   6.17   0.01260943    1.937    0.484
        15 -13.8587    191.7408    207.5858   1.0765495348e+02   1.1971669372e+00    0.4885332     0.408889 -62.62  0.002576892    1.466    0.318
        16 -12.8260    201.5671    129.7234   8.9059451690e+01   1.4708128104e+01    0.3827394    0.1411085 -43.49  0.001294303    2.568    0.611
        17 -14.2234    115.9809    129.2382   1.0883666275e+02   3.3464611066e+01    0.6667475    0.5111834  77.11  0.002893719    1.636    0.389
        18 -12.9114    193.4402    128.0520   9.0273915809e+01   1.6853651794e+01     0.291775     0.243094 -72.17  0.001442361    1.326    0.246
        19 -12.1532    103.4867    128.4950   1.1203924947e+02   3.5992590581e+01    0.3151172     0.143252 -51.76  0.001085695    2.087    0.521
        20 -13.5309    107.9230    123.8475   1.0972125402e+02   3.6264664018e+01    0.5517201    0.3016921 -31.42  0.002025006    2.597    0.615
        21 -16.0347    108.0595    145.5515   1.1461597181e+02   3.1079114248e+01     1.941697     1.447136  81.39  0.006841332    1.666    0.400
        22 -10.8400     68.1774    122.8128   1.2075398832e+02   4.3013895165e+01    0.1967486    0.1558539 -34.26 0.0006558605    1.341    0.254
        23 -16.2982    184.6987    113.6570   8.8537302938e+01   2.1780848711e+01     2.208454     1.763256  14.64   0.01036845    1.668    0.400
        24 -13.0573    120.9484    221.7281   1.2494742413e+02   1.1284487506e+01    0.3486617    0.2577721  66.83  0.001269851    1.365    0.268
        25 -11.7699    218.3523    117.7871   8.3162181987e+01   1.3374328400e+01    0.3145945    0.2252298   7.81   0.00135918    2.317    0.568
        26 -13.3313    113.2264    186.6564   1.2118202068e+02   2.0337144997e+01    0.5701771    0.2686424 -54.39  0.002321647    2.113    0.527
        27 -11.3830     45.2846    118.0253   1.2647720133e+02   4.6971646486e+01    0.2631053    0.1554771 -19.28   0.00117217    2.675    0.626
        28 -12.9766     40.5136    110.8579   1.2649032656e+02   4.9137965645e+01    0.2785755    0.2014329   2.38  0.001570951    1.778    0.438
        29 -12.7762    218.5556    205.1911   1.0187209294e+02  -3.1493765752e+00    0.4105939    0.3258547  30.78  0.002371305    1.219    0.180
        30 -11.2005     85.5277    108.5067   1.1232773770e+02   4.3727766012e+01    0.1455131    0.1338005 -40.75 4.504545e-05    1.022    0.022
        31 -13.5847    194.2776    179.1996   1.0154983748e+02   6.1758079325e+00    0.3671135    0.3030809  66.84  0.001804792    1.463    0.316
        32 -13.2061    204.7292    195.6746   1.0274241853e+02   1.0127046239e+00    0.3962867    0.3310658 -38.79  0.001823748    1.216    0.178
        33 -14.3889     96.4601    172.5545   1.2276673306e+02   2.6580637153e+01    0.7017292    0.5163121 -56.51  0.003449239    1.325    0.245
        34 -14.7817    191.9485    170.3415   1.0017379856e+02   8.4298250688e+00    0.6925569    0.6601849  -0.82  0.003865686    1.048    0.046
        35 -13.4037    174.9209    105.6837   8.8551768152e+01   2.5668370228e+01    0.3740588    0.2925723 -63.22 0.0009929419    1.369    0.270
        36 -12.9284    215.6141    168.2393   9.4963432595e+01   4.1403150731e+00    0.4533759    0.3567254 -64.81  0.002311612    1.579    0.367
        37 -12.7765    210.7406     94.8026   7.9041066015e+01   1.9379803829e+01    0.5009437    0.2749315 -52.34  0.002125425    1.843    0.458
        38 -15.0238    204.4071    186.2492   1.0092573045e+02   2.8419959464e+00    0.8616976    0.8246694 -89.75  0.004304817    1.233    0.189
        39 -13.3602     20.5420     94.9206   1.2953684901e+02   5.4490757590e+01    0.6912496    0.4136143 -49.50  0.004033036    1.337    0.252
        40 -13.5026    123.8711    237.2977   1.2649461360e+02   7.6944733455e+00    0.5676887    0.3488908  54.32   0.00298355    1.502    0.334
        41 -11.6246     56.9696     95.2794   1.1784642736e+02   5.0783594841e+01    0.1824487    0.1679599 -24.85  0.000622199    1.088    0.081
        42 -12.3567     95.7394     91.2284   1.0466689007e+02   4.5733693936e+01    0.3588431    0.1882328 -48.14  0.001344608    1.864    0.464
        43 -14.2861    196.1597    152.2194   9.5328348809e+01   1.1279560691e+01    0.6722533     0.427256 -22.26  0.002762633    2.113    0.527
        44 -14.2003    103.7751     85.9875   1.0079993406e+02   4.5307433402e+01    0.5854876    0.4951971  -3.45  0.002829342    1.291    0.225
        45 -14.1826    200.1927    165.4458   9.7421168071e+01   7.7497001210e+00    0.6418501    0.4691624  84.30  0.002836018    2.163    0.538
        46 -12.7670     50.5879     84.3571   1.1715464296e+02   5.3889197219e+01    0.4559681    0.3513004 -24.20  0.001905027    1.276    0.216
        47 -12.0551    123.1583    215.3579   1.2354254326e+02   1.2222698665e+01     0.225134    0.1964653 -50.68  0.001127222    1.295    0.228
        48 -11.6931    225.3846    220.6407   1.0346020653e+02  -6.8324877281e+00    0.2353363    0.1651065 -34.24  0.001345056    1.430    0.300
        49 -13.1253    100.7876    157.6421   1.1895549107e+02   2.9449616686e+01    0.3193029    0.2870313  43.41  0.001399926    1.184    0.156
        50 -13.4450     17.2477     68.7902   1.2486105426e+02   6.0199762952e+01     1.078413    0.2592946 -43.63  0.004282024    3.215    0.689
        51 -13.9388     94.9652     74.1837   9.9857014837e+01   4.9232698078e+01    0.4869259    0.4512134  21.01  0.002875285    1.078    0.073
        52 -13.8359     99.0352     69.6667   9.7237290812e+01   4.9298963824e+01    0.4901864    0.4665848  22.62   0.00282931    1.080    0.074
        53 -13.5827    204.7600    161.6982   9.5686180078e+01   7.5747738404e+00    0.5132908    0.2920867 -47.00  0.001708723    1.746    0.427
        54 -12.3788    166.5199     72.0273   8.1316053016e+01   3.3944683361e+01    0.2917694    0.2100072  77.87  0.001191552    1.589    0.371
        55 -13.7894    177.2378     64.5653   7.7244138058e+01   3.2581924826e+01    0.7071614    0.4401108  71.43  0.002926015    1.739    0.425
        56 -12.5679    177.2625     74.6760   7.9936673611e+01   3.0897902848e+01    0.2538181    0.2172124 -40.51 0.0008074192    1.205    0.170
        57 -13.8620    104.7881     68.7825   9.5287741324e+01   4.8344196994e+01    0.5473367    0.4313138  55.03  0.002920216    1.413    0.292
        58 -12.7957     90.1690    144.5413   1.1913970495e+02   3.4436099749e+01    0.3185039    0.2410654  61.33  0.001010584    1.454    0.312
        59 -12.3774    250.0000     55.4830   6.4792316587e+01   1.7192312961e+01    0.4228389   0.06620087 -37.33  0.001153557    5.907    0.831
        60 -11.5830     59.6893    159.6650   1.2977652420e+02   3.5222957708e+01    0.3537707    0.2360138 -83.81  0.001807017    1.520    0.342
        61 -12.4945     53.5038     43.2616   1.0338171098e+02   6.1094931177e+01    0.2665964    0.1696429   2.11  0.001468531    1.775    0.436
        62 -13.1615     18.2453    154.2041   1.3923631557e+02   4.1020430241e+01    0.4652286    0.2128564 -72.59  0.002322877    1.772    0.436
