#   1 NUMBER                 Running object number                                     
#   2 MAG_AUTO               Kron-like elliptical aperture magnitude                    [mag]
#   3 X_IMAGE                Object position along x                                    [pixel]
#   4 Y_IMAGE                Object position along y                                    [pixel]
#   5 X_WORLD                Barycenter position along world x axis                     [deg]
#   6 Y_WORLD                Barycenter position along world y axis                     [deg]
#   7 A_WORLD                Profile RMS along major axis (world units)                 [deg]
#   8 B_WORLD                Profile RMS along minor axis (world units)                 [deg]
#   9 THETA_WORLD            Position angle (CCW/world-x)                               [deg]
#  10 FWHM_WORLD             FWHM assuming a gaussian core                              [deg]
#  11 ELONGATION             A_IMAGE/B_IMAGE                                           
#  12 ELLIPTICITY            1 - B_IMAGE/A_IMAGE                                       
         1 -13.8108    200.2123     48.1489   2.9458598716e+01   3.0345789892e+01     1.056663    0.8557253  39.68  0.004752723    1.721    0.419
         2 -13.4272    229.7656     19.8867   2.1396100915e+01   2.8152340268e+01    0.7406171    0.5603819 -64.83  0.003993182    1.041    0.039
         3 -11.7615     22.8507     12.1344   6.3282872320e+01   7.1756629097e+01    0.2822204    0.2183271  38.67  0.001328862    1.516    0.340
         4 -10.4897     59.6989     21.4023   4.9984169942e+01   6.4306207299e+01    0.3859765    0.1545577  37.26  0.001247287    2.407    0.585
         5 -10.6793    241.9412    249.1165   6.0778981694e+01  -7.4346442972e+00    0.2211557    0.1200864 -32.00  0.001077652    1.481    0.325
         6  99.0000     56.1549    235.1288   9.9598852730e+01   1.6438494054e+01     1.320762    0.6604466 -35.80  0.005573001    2.941    0.660
         7  -9.2435     95.4040    192.1361   8.3850197550e+01   2.1491586949e+01    0.1985333    0.1462231 -78.68 0.0006453257    1.727    0.421
         8  -9.9128     54.3525    190.1066   9.5320283941e+01   2.7347136430e+01    0.2101006    0.1903517 -13.22 0.0004182099    1.174    0.148
         9 -10.3810    191.6467    192.5589   6.0585712427e+01   7.1473091882e+00    0.3482316    0.2284931 -70.09  0.001448588    3.532    0.717
        10 -11.9451     47.7952    186.1417   9.6757259337e+01   2.9096653156e+01    0.5144536    0.3474589  -9.02  0.001553909    1.849    0.459
        11  -9.2373     78.9626    243.7023   9.4835769685e+01   1.1984115835e+01    0.1640129    0.1458654  28.51 0.0007321459    1.030    0.029
        12  -9.8880    154.8381    184.1575   6.7007880043e+01   1.4219234086e+01    0.2034411    0.1569811 -14.39 0.0005195353    1.299    0.230
        13  -7.2623     35.8071    241.5990   1.0504840120e+02   1.7173820753e+01    0.3548288    0.1387953  44.37 0.0007239351    2.195    0.544
        14  -9.0221     67.4417    239.9050   9.7267825101e+01   1.4129775120e+01    0.2973648    0.1337223 -68.40  0.001314184    2.595    0.615
        15 -11.8211     99.0279    180.5129   8.0911071311e+01   2.3784634698e+01    0.4794671    0.3840035 -83.03   0.00161334    1.570    0.363
        16  -9.3613     41.1159    180.9391   9.8127101301e+01   3.1152291433e+01    0.2204797    0.1575354 -32.75 0.0003995465    1.579    0.367
        17 -12.4591     60.4548    174.6645   9.1442620014e+01   3.0600957300e+01    0.8286076    0.7163621 -24.62  0.004407297    1.218    0.179
        18 -18.5365     13.2776    201.6871   1.0786376446e+02   2.8437920069e+01     13.50925     3.914813 -77.67   0.04837467    3.433    0.709
        19 -10.5630    180.0570    176.1716   5.9887753854e+01   1.1940374632e+01    0.2465767     0.186863 -70.50  0.001233854    2.041    0.510
        20  -9.2727     42.7760    194.5792   9.9154793275e+01   2.7485153985e+01    0.1752364    0.1233909  38.66 0.0001585159    1.353    0.261
        21  -9.2767    199.6311    173.7948   5.5552753289e+01   9.4807028346e+00    0.1857457     0.113402 -48.73 0.0004999819    1.671    0.402
        22 -12.3071    114.8693    172.2970   7.4968611000e+01   2.3297390476e+01    0.8863653    0.2800568  29.89  0.002699472    3.325    0.699
        23  -9.5472     40.6887    171.4811   9.7124318231e+01   3.3674145078e+01    0.2796345    0.1904984  69.23 0.0009399162    1.697    0.411
        24 -10.8551    110.6154    167.3199   7.5207702914e+01   2.5182743444e+01    0.3074758    0.2800057 -79.67   0.00068583    1.288    0.223
        25 -10.9997     95.0373    167.5640   7.9768880349e+01   2.7599177577e+01    0.3638856    0.2973095  44.33  0.001532482    1.280    0.219
        26 -11.4772    247.0341    163.6771   4.5906582742e+01   4.8771865719e+00      0.51727    0.1538246 -45.49  0.001940808    2.973    0.664
        27 -10.5778    245.8119    159.1132   4.5275348417e+01   5.7548970377e+00    0.2682743    0.1374677 -45.84 0.0007925309    1.692    0.409
        28 -11.9134    103.3278    171.1839   7.8015736788e+01   2.5409241289e+01    0.5553076    0.4213964  76.77  0.002339223    1.854    0.461
        29  -9.2422     71.1555    200.1753   9.1805028512e+01   2.2803248968e+01    0.1851956    0.1587993  65.03 0.0003829634    1.262    0.207
        30  -9.8588     53.0277    204.5366   9.7363114623e+01   2.3895926372e+01    0.3130932    0.1814616  59.25 0.0009874062    2.004    0.501
        31 -10.1828     55.4703    162.9070   9.1267666150e+01   3.4298019496e+01    0.2941915    0.1925562  44.04  0.001198954    1.589    0.371
        32  -9.7152     94.9494    158.9293   7.8166970458e+01   2.9777668094e+01    0.2290214    0.2221157  49.13 0.0004810022    1.107    0.097
        33  -8.9744     99.5471    160.4715   7.7089070467e+01   2.8657268596e+01    0.1534182     0.149149  13.80 0.0002294894    1.050    0.047
        34 -11.1530    133.8748    145.6491   6.4358506431e+01   2.6232392338e+01     1.193266    0.3004248 -54.02  0.002732261    6.156    0.838
        35 -11.2326     89.4987    148.0307   7.7683449173e+01   3.3394857286e+01    0.4708031    0.3473416 -18.16 0.0007586891    1.577    0.366
        36 -11.1857     92.6792    145.3375   7.6129158647e+01   3.3557492219e+01    0.4345569    0.3363128  63.55  0.001567868    1.621    0.383
        37  -8.9884    119.6981    148.6414   6.8833037527e+01   2.8102816679e+01    0.1646818     0.117448 -16.76 0.0007037749    1.716    0.417
        38  -8.9632    104.8828    147.8402   7.2931430484e+01   3.0887424526e+01    0.2024484    0.1832995  66.13 0.0003069985    1.276    0.216
        39  -9.9588     82.4511    143.3947   7.8990927162e+01   3.5686550716e+01    0.2627518    0.1475229  30.89 0.0008320146    1.753    0.430
        40 -11.4481    104.9206    132.4121   6.9500575838e+01   3.4613511945e+01    0.6896671    0.4096415 -35.94  0.001990254    1.855    0.461
        41 -10.2290    141.8166    133.8895   5.9698842379e+01   2.7347763424e+01    0.3555545      0.25269 -66.41 0.0009283597    1.817    0.450
        42 -11.7317     91.7479    133.4836   7.3853807303e+01   3.6664584647e+01    0.3188936    0.2775084  -6.58  0.000271929    1.190    0.159
        43  -9.1491     73.4721    234.4052   9.5213877898e+01   1.4605407561e+01    0.1348995    0.1171699  29.92 0.0001654816    1.018    0.018
        44 -10.7349    135.9770    129.4848   6.0145761047e+01   2.9425247901e+01    0.3845607    0.2716083 -32.31  0.001783767    1.496    0.331
        45 -10.6418    112.9289    126.7570   6.5790024437e+01   3.4461000178e+01    0.3470777     0.268214  13.12 0.0009930928    1.463    0.317
        46 -10.3955     99.7458    122.3902   6.8719007042e+01   3.7933157084e+01    0.3457816    0.2617854 -14.63  0.001344967    1.569    0.363
        47  -9.6652    162.4712    119.8444   5.1716216519e+01   2.6248647937e+01     0.260112    0.2165033 -82.15 0.0008061927    1.476    0.322
        48  -9.8491    135.0000    120.0044   5.8134903106e+01   3.1657881781e+01    0.2489089   0.08469638 -45.76 0.0007409371    2.910    0.656
        49 -12.0097     73.0399    229.6325   9.4810454631e+01   1.5701106349e+01    0.3699816    0.2581574 -58.90  0.001995684    1.568    0.362
        50  -9.3363    108.6420    116.8948   6.4638123067e+01   3.7532090030e+01    0.2107681    0.1930724 -44.09 0.0004544915    1.112    0.101
        51  -9.2376    183.4955    116.5121   4.6841707958e+01   2.2856784520e+01    0.1363084    0.1251745 -38.42 7.067567e-05    1.038    0.036
        52  -9.6252    159.3223    115.6434   5.1409998988e+01   2.7691291304e+01    0.2726062    0.2001982 -62.94  0.001010384    1.577    0.366
        53  -9.4806    156.5182    111.7404   5.1090545773e+01   2.9012964941e+01    0.2456278    0.2065802  87.02  0.001160554    1.427    0.299
        54  -9.7906    205.4149    110.2206   4.1850448407e+01   1.9980031904e+01    0.2028346    0.1819195  56.47 0.0005942395    1.267    0.211
        55 -11.2493    114.7782    108.3948   6.0670121620e+01   3.8201729023e+01    0.3693368    0.2407185  59.20  0.001562044    1.928    0.481
        56 -10.3995    134.5378    104.5703   5.4407271956e+01   3.4943801746e+01    0.5401475    0.1364781 -48.30  0.001457388    4.532    0.779
        57  -9.4047    108.3101    107.3087   6.2276349542e+01   3.9726355162e+01    0.1558921     0.119954  -3.77 0.0004045535    1.620    0.383
        58  -8.8123    151.2724    105.6370   5.0761148839e+01   3.1263155785e+01    0.1469412    0.1119572 -74.43 0.0007001267    1.659    0.397
        59 -11.5812    119.0255    103.5458   5.8205318643e+01   3.8365286801e+01    0.3264535    0.2856205  -5.51  0.001451901    1.258    0.205
        60 -11.7725     61.6585    101.6132   7.6822071342e+01   4.9291458577e+01    0.7116107    0.3055715  48.44  0.002309321    3.423    0.708
        61 -10.7855    120.7205     98.0899   5.6290496786e+01   3.9131559607e+01    0.2645252    0.2088069  57.71  0.001051151    1.354    0.262
        62 -11.8986     50.1374     92.7441   7.9165181990e+01   5.3021976860e+01    0.5893902    0.3258662  48.36  0.001570548    2.376    0.579
        63 -12.4496     39.8726     88.3734   8.2430942039e+01   5.5339962364e+01    0.7968703    0.2529792  33.58  0.002776223    3.027    0.670
        64 -11.9019     47.2316    227.8295   1.0117286363e+02   1.9035583508e+01     0.256601    0.2011425  77.62 0.0006978265    1.354    0.262
        65  -9.6874     91.0703    197.3646   8.5858880885e+01   2.0844714936e+01    0.2728846    0.1924138 -85.55 0.0006175555    1.928    0.481
        66 -12.2939     39.5100     71.9799   7.8037840501e+01   5.9080683421e+01    0.4902245    0.3754965 -80.75     0.001588    1.981    0.495
        67  -9.5223    143.3791     67.1906   4.2545919350e+01   3.9733015519e+01    0.1978553    0.1221673 -49.77 0.0009503483    1.704    0.413
        68 -12.3744    183.6512     60.6474   3.4222615368e+01   3.1998125395e+01    0.3963147    0.3646418 -47.52 0.0008576273    1.184    0.156
        69 -10.0091     90.2333    227.6823   9.0208319163e+01   1.4003391656e+01    0.3180736    0.1870227  26.81  0.001384018    1.514    0.340
        70 -11.3983     33.2377    248.1673   1.0609463669e+02   1.6036756005e+01    0.3124128    0.2436038  70.68  0.001861866    1.272    0.214
        71 -12.5942    205.6419     43.1508   2.7853448835e+01   2.9920776215e+01    0.4425929    0.3837393 -76.45  0.001212804    1.092    0.085
        72  -9.4930     57.5516     49.6738   6.2291958580e+01   6.0667178232e+01    0.2398999    0.1304054 -34.99 0.0009811838    1.982    0.496
        73 -15.2480     68.0791    145.1306   8.4089892935e+01   3.7360399090e+01     5.199957     2.791319 -79.66   0.01798107    2.996    0.666
        74 -15.0841    122.4554    232.3976   8.2815876985e+01   8.8327146176e+00     4.135124     3.779856 -26.09  0.007318943    1.178    0.151
        75 -10.7868     26.8433    250.2089   1.0767884500e+02   1.6229926522e+01    0.1744126    0.1464531  -9.67 0.0005131209    1.478    0.323
        76 -10.0394     44.8384    207.0188   9.9857906471e+01   2.4183740143e+01    0.4448081     0.201345  58.56  0.001328451    2.840    0.648
        77  -8.9865     66.9707    202.2160   9.3232132508e+01   2.2824753542e+01    0.1767078      0.11024  26.98 0.0002193704    1.509    0.337
        78 -11.7363     38.4667     16.2460   5.6848642742e+01   6.8809875021e+01     0.514408    0.1951823  50.59  0.001988618    3.522    0.716
        79  -9.7157     56.7946    246.6613   1.0046041693e+02   1.3901442855e+01    0.1156276   0.09109246 -36.36 0.0004236345    1.513    0.339
