#   1 NUMBER                 Running object number                                     
#   2 MAG_AUTO               Kron-like elliptical aperture magnitude                    [mag]
#   3 X_IMAGE                Object position along x                                    [pixel]
#   4 Y_IMAGE                Object position along y                                    [pixel]
#   5 X_WORLD                Barycenter position along world x axis                     [deg]
#   6 Y_WORLD                Barycenter position along world y axis                     [deg]
#   7 A_WORLD                Profile RMS along major axis (world units)                 [deg]
#   8 B_WORLD                Profile RMS along minor axis (world units)                 [deg]
#   9 THETA_WORLD            Position angle (CCW/world-x)                               [deg]
#  10 FWHM_WORLD             FWHM assuming a gaussian core                              [deg]
#  11 ELONGATION             A_IMAGE/B_IMAGE                                           
#  12 ELLIPTICITY            1 - B_IMAGE/A_IMAGE                                       
         1 -14.9159    160.4055     43.0415   8.1962745629e+01   4.0267953886e+01     1.371739     1.085354 -17.93  0.003884663    1.385    0.278
         2 -14.6494    173.3226     10.4831   6.9206502954e+01   4.0801608248e+01     1.128411     1.019351  38.85  0.004043807    1.178    0.151
         3 -12.7236    189.7662     13.7597   6.8068588172e+01   3.6112217564e+01    0.5026646    0.1952092 -35.07  0.001979462    2.455    0.593
         4  99.0000     12.8152    243.0268   1.5147995002e+02   2.4869408745e+01    0.2140083   0.09593827 -61.51  0.001325182    3.092    0.677
         5 -20.1429     78.6222    177.2634   1.3441332035e+02   2.9414173323e+01     16.04324     6.382242 -67.14   0.07072398    2.537    0.606
         6 -10.0869     17.6623    199.7354   1.4859007408e+02   3.2168130905e+01   0.08937956   0.07807101 -68.05 0.0006974273    1.590    0.371
         7 -12.2587    134.0553    244.5275   1.3138485465e+02   8.5493371155e+00    0.2096978    0.1696623 -42.39  0.001139872    1.734    0.423
         8 -11.2117    126.8818    250.7054   1.3327809121e+02   8.7632532874e+00    0.1555882   0.07854984  45.91            0    1.481    0.325
         9 -11.5970    139.2244    250.1693   1.3109363212e+02   6.9197713143e+00    0.2473558    0.2094566  50.23  0.001863013    1.143    0.125
        10 -13.8101    207.2630    177.9518   1.0755724316e+02   5.7909718933e+00    0.5931429    0.5036277  -1.71  0.002814076    1.203    0.168
        11 -12.4455    203.6995    172.2952   1.0712217285e+02   7.3829854360e+00    0.5247672    0.3860197 -25.65  0.002737382    1.469    0.319
        12 -13.6674    195.6472    170.6401   1.0834770087e+02   9.2573342579e+00    0.7932062    0.4641645 -52.01  0.001918699    2.182    0.542
        13 -12.2076    193.9964    165.7279   1.0768573040e+02   1.0419234141e+01    0.3905421    0.2652483  39.32  0.001154251    1.373    0.272
        14 -11.4501     16.4587    250.0424   1.5121386420e+02   2.3343937279e+01    0.1319905   0.07325401  88.13 0.0009658288    1.498    0.332
        15 -10.6596    151.0569    241.9851   1.2809534351e+02   6.1911788509e+00    0.1731089    0.1379479  38.71 0.0006613627    1.159    0.137
        16 -13.2051    178.0446    171.1127   1.1195269140e+02   1.2721378440e+01    0.4959173    0.3088146 -51.67  0.002364188    1.881    0.468
        17 -11.6903     18.1262    173.4630   1.4681783199e+02   3.7396570411e+01    0.1975725    0.1736239  73.47 0.0009090622    1.282    0.220
        18 -13.7513    165.9356    188.8103   1.1763221013e+02   1.1989413268e+01    0.7361118    0.3650976  41.67  0.003350718    1.797    0.444
        19 -10.9724     20.4855    166.8383   1.4584079242e+02   3.8565621443e+01    0.1649592    0.1597467 -53.12 0.0008709737    1.517    0.341
        20 -11.6397    201.3263    164.7166   1.0604899411e+02   9.0986001692e+00     0.415491     0.285358 -46.11  0.001777034    1.641    0.391
        21 -11.0536    222.4384    161.6696   1.0146510771e+02   5.3603078132e+00    0.2654428    0.2072919 -63.07 0.0007723799    1.843    0.457
        22 -12.0261    139.0560    242.7340   1.3030567237e+02   8.0180048036e+00    0.3168963    0.2340061 -55.54  0.001390259    1.737    0.424
        23 -11.0668     21.7551    239.2919   1.4994049885e+02   2.4570844025e+01    0.1178231   0.08710597  88.67 0.0005262488    1.320    0.242
        24 -12.9671    164.3863    157.4697   1.1210373327e+02   1.8045748396e+01    0.3894894    0.2828223  45.19 0.0009103423    1.287    0.223
        25 -14.7023    143.3979    144.3194   1.1405782086e+02   2.5048230245e+01     1.145384    0.5524746 -56.75  0.004387975    2.452    0.592
        26 -14.6284    134.1138    146.4145   1.1665311205e+02   2.6491191409e+01     1.758137    0.4915589 -56.86  0.004353993    6.002    0.833
        27 -14.5762    135.5884    128.9993   1.1255028741e+02   2.9918599096e+01     2.229374    0.4400162 -50.84  0.005157204    6.142    0.837
        28 -10.7626     17.7288    153.5542   1.4536439804e+02   4.1659542453e+01    0.2012687     0.122632 -80.54 0.0003648085    1.303    0.233
        29 -10.1811    192.3298    153.2943   1.0542062271e+02   1.2926156480e+01    0.1483404    0.1102103  14.55 0.0004345552    1.632    0.387
        30 -11.4443    131.1470    236.2979   1.3099346693e+02   1.0256200227e+01    0.2340262    0.1654234 -62.47 0.0008452839    1.744    0.427
        31 -10.8077      7.6842    236.9337   1.5202138080e+02   2.6402940595e+01   0.09260674   0.06429771  74.30 0.0004107176    1.103    0.094
        32 -12.5236    174.0968    149.0614   1.0826492707e+02   1.7599503320e+01    0.3570382    0.3427096 -66.09  0.001388018    1.116    0.104
        33 -11.3527     27.4327    145.7753   1.4243486584e+02   4.2484866131e+01    0.2543011    0.1864133 -70.46 0.0009742219    1.236    0.191
        34 -10.1408      7.5671    149.7314   1.4730418042e+02   4.3324013468e+01    0.1049675    0.0742434 -48.51 0.0003484894    1.824    0.452
        35 -10.6429     17.1176    224.8160   1.5000251206e+02   2.7566125826e+01    0.1236412   0.07800543 -84.66   0.00067862    1.406    0.289
        36 -12.7354    134.6450    109.2717   1.0799550469e+02   3.4352596444e+01     1.274821    0.1738741 -45.63  0.002604464    7.325    0.863
        37 -12.8358    160.5045    128.2234   1.0651979312e+02   2.4679910877e+01    0.4001563    0.3730571 -70.40  0.001697751    1.117    0.105
        38 -10.7655     16.3896    208.8903   1.4932197821e+02   3.0550407535e+01    0.1466558   0.08047871 -76.13 0.0009834347    1.653    0.395
        39 -12.7062     11.5121    206.0046   1.5001880039e+02   3.1567616778e+01    0.4067295    0.2366618  39.67    0.0021343    1.814    0.449
        40 -10.9743    133.5836    248.6971   1.3191342241e+02   8.0145077245e+00      0.15866    0.1239275  75.28 0.0002894049    1.378    0.275
        41 -12.8002    155.1035    190.1286   1.2004603697e+02   1.3807258649e+01    0.3553871    0.2568057  62.20  0.001922834    1.451    0.311
        42 -12.7100    153.8844    185.6479   1.1955102387e+02   1.4844432528e+01    0.2958831    0.2530005  65.98  0.001744807    1.177    0.150
        43 -10.7788    205.3937    110.1133   9.2718590394e+01   1.7681239649e+01    0.2602732    0.2045079  39.85 0.0006604258    1.307    0.235
        44 -13.8248    156.2255    199.2461   1.2128081428e+02   1.2005195871e+01    0.8299498    0.5240178 -80.49  0.003751167    2.858    0.650
        45 -12.5068    163.7982    202.9641   1.2037106419e+02   9.9942498007e+00    0.3218895      0.26373 -87.47  0.000723218    1.557    0.358
        46 -13.0026    161.1390    197.7076   1.2006242743e+02   1.1362611788e+01    0.4281199    0.3166536 -76.52  0.002335989    1.855    0.461
        47 -11.2583    139.3887    201.1982   1.2493354589e+02   1.4705744331e+01    0.2802514     0.249205 -68.56 0.0005957696    1.275    0.216
        48 -11.2308    136.1805    196.7887   1.2493597093e+02   1.6071318517e+01    0.3364998    0.2224487  78.79  0.001689228    2.024    0.506
        49 -10.9160    117.2830    201.7290   1.2944438748e+02   1.8427930056e+01    0.2754368    0.1530242  58.50 0.0009883632    1.745    0.427
        50 -11.7153    169.8243    195.2098   1.1793625489e+02   1.0165494275e+01     0.234064    0.1621798  51.06 0.0006740852    1.330    0.248
        51 -10.6335    103.0124     81.9241   1.0905984777e+02   4.6667958123e+01    0.2114214     0.209175 -48.89 0.0003936007    1.037    0.036
        52 -10.6415    143.0453     80.3236   9.7762544080e+01   3.8339261878e+01    0.2201102    0.2020109  55.72   0.00065159    1.093    0.085
        53 -14.4737    149.5951     57.7830   8.9091389508e+01   4.0767394418e+01     1.216191     1.028857   1.34 0.0009885492    1.346    0.257
        54 -12.9204    180.5562    193.3271   1.1551240799e+02   8.4563719126e+00    0.4193739    0.3359255  78.99  0.002361955    1.673    0.402
        55 -13.1286    164.3268     34.6891   7.8477510631e+01   4.0387364794e+01     0.454833    0.4207062 -21.21 0.0008835512    1.148    0.129
        56 -10.4791     13.6445     59.9331   1.3382230414e+02   6.2695310656e+01    0.1658433     0.118911 -62.14 0.0004303444    1.121    0.108
        57 -10.9346    147.0229     34.8329   8.1866554656e+01   4.4861085119e+01    0.2244962    0.1948191 -84.46 0.0004974768    1.283    0.220
        58 -14.9290    174.1470    187.2436   1.1571566327e+02   1.0686816937e+01     1.265389    0.6525001 -49.87  0.005511624    2.307    0.567
