#   1 NUMBER                 Running object number                                     
#   2 MAG_AUTO               Kron-like elliptical aperture magnitude                    [mag]
#   3 X_IMAGE                Object position along x                                    [pixel]
#   4 Y_IMAGE                Object position along y                                    [pixel]
#   5 X_WORLD                Barycenter position along world x axis                     [deg]
#   6 Y_WORLD                Barycenter position along world y axis                     [deg]
#   7 A_WORLD                Profile RMS along major axis (world units)                 [deg]
#   8 B_WORLD                Profile RMS along minor axis (world units)                 [deg]
#   9 THETA_WORLD            Position angle (CCW/world-x)                               [deg]
#  10 FWHM_WORLD             FWHM assuming a gaussian core                              [deg]
#  11 ELONGATION             A_IMAGE/B_IMAGE                                           
#  12 ELLIPTICITY            1 - B_IMAGE/A_IMAGE                                       
         1 -14.3262     68.1578    144.2542   1.0972117764e+02   3.7404189918e+01     3.888338     1.913322  80.42   0.00491767    4.370    0.771
         2 -14.0549    224.2668     12.4181   4.0721032718e+01   2.7579455179e+01     1.623016     1.152466  24.19  0.003044205    2.116    0.527
         3 -13.7328    198.1066     37.0568   5.0188237768e+01   3.1066895781e+01     1.496114     1.194961  -2.71  0.004266128    1.567    0.362
         4 -13.7645    206.5795     31.1565   4.7449871630e+01   2.9694304338e+01     1.248097     1.007816 -40.66  0.004801834    1.224    0.183
         5 -12.6281    213.6323     23.9936   4.4720854971e+01   2.8825155780e+01    0.6209785    0.4624221  30.63  0.001453315    1.781    0.439
         6 -10.6779      2.0269      3.0292   9.7736270949e+01   7.3950657643e+01    0.2894174     0.103588 -47.86  0.001539991    2.237    0.553
         7 -10.9949     50.5998      3.5544   7.2989020307e+01   6.8485122799e+01    0.2634096    0.1667148  49.05 0.0008434618    1.989    0.497
         8 -10.5273     46.1552      1.9053   7.4013482688e+01   6.9348461381e+01    0.2122894    0.1582278  43.47 0.0009421336    1.649    0.394
         9  -8.9431    164.4395    206.0278   9.7574621490e+01   8.0746719572e+00    0.1786246    0.1330054 -44.60 0.0004422832    1.533    0.347
        10 -15.2924     99.6783    247.7381   1.1542336356e+02   1.1502098968e+01     7.227575     2.467877  33.47   0.02710068    3.923    0.745
        11 -13.7579     36.4634    210.4238   1.2397231986e+02   2.6641868840e+01    0.8509049    0.6359109 -10.44  0.005020721    2.992    0.666
        12 -15.3473     45.7700    199.9998   1.2136682683e+02   2.7689825937e+01     2.721084     1.368406  68.30   0.01136739    1.938    0.484
        13  -9.3828    206.3055    181.6232   8.4775352673e+01   4.5299460260e+00    0.1310627    0.1120069 -83.91 0.0007028305    1.774    0.436
        14 -11.2192     41.3364    178.9351   1.2040971235e+02   3.2700103199e+01    0.2151062    0.1842142  69.78 0.0003817314    1.146    0.128
        15 -11.4937    193.3349    194.3640   8.9747585118e+01   4.8187616722e+00    0.8266732    0.4890902 -61.84  0.003446331    3.205    0.688
        16 -10.8392    114.0050    174.2286   1.0331243550e+02   2.3333004657e+01     0.289117    0.1250994  38.83  0.001155473    2.268    0.559
        17 -11.1584    129.7419    173.2750   9.9522696210e+01   2.0722951899e+01    0.3892017    0.1240804  37.58  0.001258662    3.334    0.700
        18 -14.5548     65.7850    242.9064   1.2103199383e+02   1.6987162035e+01     2.990781     2.486929  33.17   0.01695594    1.598    0.374
        19 -10.6190     27.9357    156.3314   1.2123052531e+02   3.9170260020e+01    0.1664889    0.1392014  84.77 0.0005658311    1.075    0.070
        20  -9.3809    174.6315    148.8555   8.4427959000e+01   1.6824823842e+01    0.2135361    0.1396274 -53.25 0.0008814379    1.729    0.422
        21 -10.6569    133.6364    144.6668   9.3031475966e+01   2.6213110325e+01    0.8530911    0.1911702 -52.62  0.002086935    5.421    0.816
        22 -10.7235     25.6999    148.5925   1.2097886125e+02   4.1156498106e+01    0.1913387    0.1236366  22.95 0.0008459592    2.034    0.508
        23 -10.7726     98.7837    144.2316   1.0175273102e+02   3.2753072223e+01    0.3096072     0.254091 -38.55 0.0009904398    1.389    0.280
        24  -9.9850    101.5038    140.9843   1.0042001148e+02   3.3051864530e+01    0.3269842    0.2208001 -37.34  0.001514929    1.784    0.440
        25 -12.3872     86.4909    143.0611   1.0473424933e+02   3.5022801809e+01    0.4186767    0.2907121  44.96 0.0004314532    1.468    0.319
        26  -8.9546    156.2823    138.3078   8.6177284988e+01   2.2906076315e+01    0.1514959    0.1220606  -1.80 0.0002395124    1.562    0.360
        27  -9.9938    109.7397    132.4069   9.6484251256e+01   3.3597575315e+01    0.3292134     0.254472 -22.39  0.001131656    1.692    0.409
        28 -10.1280    106.1663    131.1979   9.7174309126e+01   3.4528833692e+01    0.3398359    0.2803822 -89.60  0.001342181    1.331    0.249
        29 -11.2560    135.5464    127.0486   8.8564168680e+01   2.9752632470e+01    0.6666888     0.151773 -48.67  0.001707957    4.533    0.779
        30 -10.8735     96.9076    128.6327   9.9129363786e+01   3.6754060285e+01    0.2838205     0.254817 -14.22 0.0006487101    1.334    0.251
        31 -11.3690     77.6746    166.1714   1.1063033186e+02   3.0942243283e+01    0.2934791    0.2185512 -68.49 0.0003522904    1.271    0.213
        32 -10.0000    116.6695    126.2336   9.3265841433e+01   3.3729157476e+01    0.3008118    0.1920379 -68.06  0.001262558    1.915    0.478
        33  -9.1438     91.1911    124.1608   9.9758549158e+01   3.8772071227e+01    0.2008936    0.1645591  81.53 0.0004686432    1.347    0.257
        34  -9.6937    106.8299    120.5409   9.4606276382e+01   3.6902162614e+01    0.2314873    0.1901629 -44.57 0.0003335056    1.212    0.175
        35 -12.8486     84.2644    159.5892   1.0806010444e+02   3.1484884932e+01     1.218532    0.8138914  68.01 0.0007915078    1.627    0.385
        36 -10.0492    168.0061    113.2313   7.7279669149e+01   2.5512201234e+01    0.3729023    0.2677683 -72.78  0.001565385    1.952    0.488
        37 -10.4210    194.8430    168.5404   8.4406417324e+01   8.9673226362e+00    0.3231049    0.2595355  39.01 0.0009628362    1.199    0.166
        38 -13.4357     65.0919    162.2310   1.1309842584e+02   3.3589017440e+01    0.5259384    0.3235144 -50.73  0.002267741    1.791    0.442
        39  -9.9167    205.2062    110.4177   6.8874832594e+01   1.7426940367e+01    0.2913793    0.2479835  30.45  0.001060068    1.250    0.200
        40 -11.2775     32.7895    155.9574   1.2005434278e+02   3.8782827940e+01    0.2913733    0.1866391  86.67  0.001230303    1.399    0.285
        41  -8.9515    129.0201     95.7665   8.2083287949e+01   3.8008004260e+01    0.2115994    0.1307461  46.23 0.0008856649    1.653    0.395
        42  -9.2445     24.9717     82.6934   1.1170870939e+02   5.6629313627e+01    0.1615038    0.1430741 -55.65 0.0002862904    1.099    0.090
        43  -9.8751    159.4598     80.5181   7.0068516293e+01   3.3972979191e+01    0.1553988    0.1524325   3.49 0.0001165668    1.032    0.031
        44  -8.6634     30.2914     63.2737   1.0530539896e+02   6.0518499725e+01    0.1259385   0.07873197 -34.51 0.0002166684    1.517    0.341
        45 -10.2607     13.4007     60.0541   1.1112140193e+02   6.2443388182e+01    0.1792613     0.170514 -29.25 0.0004090296    1.238    0.192
        46 -10.2047    147.4871     51.5680   6.3654884409e+01   4.1924214188e+01    0.2260887    0.2189797 -33.47 5.753175e-05    1.059    0.055
        47 -11.8680    140.8363     46.6241   6.3489630028e+01   4.4328428882e+01    0.9926441    0.5802422 -78.37  0.003164108    4.109    0.757
        48 -10.5640     94.0675    234.4744   1.1518740507e+02   1.4576071038e+01    0.2152877    0.1463818  80.99  0.000787587    1.534    0.348
        49 -13.5904     24.0431    225.2273   1.2714160608e+02   2.5130420593e+01      1.17162    0.4840563  35.34  0.006577116    2.527    0.604
        50 -16.3501      8.8871    240.7198   1.3039009961e+02   2.3862308513e+01     9.980255     1.694969 -78.39   0.02479528    5.271    0.810
        51 -11.8717     62.9988    181.9773   1.1599534330e+02   2.9405031006e+01    0.3774979    0.2706557 -36.72  0.002084418    2.127    0.530
        52 -11.1829    145.0818     42.1582   6.1026949098e+01   4.3933455936e+01    0.5485162    0.3134822 -88.37  0.001799945    3.782    0.736
        53  -9.5275     95.1496     41.7765   7.4018445874e+01   5.5370351554e+01    0.2837751    0.1492901 -45.35  0.001215833    2.165    0.538
        54  -9.6754    102.0110     30.0169   6.7296683690e+01   5.5690474351e+01    0.1705689    0.1524028  22.45 0.0004463085    1.028    0.027
        55 -10.6159    189.3467     14.9313   4.5091300348e+01   3.5954847791e+01    0.2438338    0.1799225  89.36 0.0007304549    1.321    0.243
        56 -11.8109     68.0466    176.3025   1.1420280814e+02   2.9993002048e+01    0.2711297    0.2344752 -58.88 0.0005627275    1.324    0.245
        57 -14.9805      9.3557    207.4138   1.2875498531e+02   3.0014546522e+01     1.968786     1.160329 -60.41  0.009576148    2.036    0.509
