#   1 NUMBER                 Running object number                                     
#   2 MAG_AUTO               Kron-like elliptical aperture magnitude                    [mag]
#   3 X_IMAGE                Object position along x                                    [pixel]
#   4 Y_IMAGE                Object position along y                                    [pixel]
#   5 X_WORLD                Barycenter position along world x axis                     [deg]
#   6 Y_WORLD                Barycenter position along world y axis                     [deg]
#   7 A_WORLD                Profile RMS along major axis (world units)                 [deg]
#   8 B_WORLD                Profile RMS along minor axis (world units)                 [deg]
#   9 THETA_WORLD            Position angle (CCW/world-x)                               [deg]
#  10 FWHM_WORLD             FWHM assuming a gaussian core                              [deg]
#  11 ELONGATION             A_IMAGE/B_IMAGE                                           
#  12 ELLIPTICITY            1 - B_IMAGE/A_IMAGE                                       
         1 -13.0779     42.9220     45.3455   7.9454190958e+01   6.3254269158e+01    0.7553736    0.6360677  49.92 0.0009378968    1.691    0.408
         2 -10.9576    150.8784     23.6990   4.0772881027e+01   4.4018572788e+01     2.469565    0.6356395  56.13  0.008955481    3.102    0.678
         3 -11.1308    139.4782     30.4214   4.4672881348e+01   4.5976105492e+01     1.005327     0.541092   2.40  0.003619837    4.267    0.766
         4 -12.4763    119.7797     58.0715   5.7711320333e+01   4.6807221863e+01     2.799658     1.470402 -64.34  0.008336147    5.066    0.803
         5 -12.5627    125.0879     27.6231   4.6557957384e+01   4.9690936614e+01      0.76691    0.5814522  47.60  0.002825933    1.212    0.175
         6 -11.7378    136.1102     23.0786   4.3028937135e+01   4.7591250440e+01    0.9788768    0.3927839  55.85  0.004249588    2.095    0.523
         7 -12.3424    131.1387     14.6754   4.1284674581e+01   4.9606720816e+01     3.682204     0.561216  58.71   0.01174938    3.988    0.749
         8 -12.6841    119.6114     38.0277   5.1171990121e+01   4.9716126702e+01    0.9785072    0.6616424 -70.31  0.003107208    2.183    0.542
         9 -12.0876    107.0473     31.7665   5.2032768699e+01   5.3348424733e+01    0.8044226    0.4378467  14.58  0.003100829    3.384    0.704
        10 -11.2323    145.6424     46.6193   4.8384013553e+01   4.2448739325e+01     1.063081    0.4094578 -27.20  0.003830171    3.317    0.698
        11 -12.0590    159.4201     30.2498   4.1309439861e+01   4.1247649457e+01    0.5913821    0.5505869 -33.96  0.003780221    1.222    0.182
        12 -10.9209     79.7559     35.8399   6.1405031095e+01   5.8591383314e+01    0.8438088    0.5592195 -32.52  0.004559944    1.599    0.375
        13 -11.1068    183.3951     25.4879   3.6837001786e+01   3.6178007273e+01     0.546741    0.3005773  51.32  0.002762338    1.976    0.494
        14 -10.7409     59.8007     23.9057   6.3568476444e+01   6.3839379295e+01    0.5324622    0.2038999 -27.10  0.002262437    2.913    0.657
        15 -10.2325     47.1010     19.5805   6.6762651268e+01   6.6493018402e+01    0.2990814    0.2170473 -18.38  0.001531758    1.323    0.244
        16 -11.8322     27.3056     27.9531   7.9774192307e+01   6.8046180379e+01    0.5930544    0.4090069  16.65  0.003413545    1.329    0.248
        17 -12.5780     36.0613     17.1811   7.0598874533e+01   6.8450079479e+01    0.5664501    0.3686638 -31.00  0.003498448    1.560    0.359
        18 -11.9184     48.5103     12.8612   6.3041664548e+01   6.7055221994e+01    0.6287327    0.2868636  43.92  0.002244207    2.020    0.505
        19 -11.8552     20.2215     21.2325   8.0480907771e+01   6.9861646732e+01    0.6911497    0.2304465 -39.07  0.002794108    2.700    0.630
        20 -12.6537     17.0303     12.5443   7.8130747279e+01   7.1453788900e+01    0.7115607    0.4691806 -10.13  0.003831413    1.275    0.215
        21 -10.1692     86.3390      7.4101   4.8149789539e+01   6.0352723831e+01    0.6591028    0.3047728  59.16  0.003209873    1.941    0.485
        22 -11.1412     90.8227     20.7598   5.2196685421e+01   5.8133239425e+01    0.5975846    0.3896733 -24.72  0.003322764    1.687    0.407
        23 -11.6553     85.7396     14.7260   5.1226333010e+01   5.9816878118e+01    0.5424492    0.3110631  -5.47  0.002558276    2.204    0.546
        24 -10.9055     74.7404      3.4931   4.9686494452e+01   6.3079892766e+01    0.4866813      0.27957  54.87  0.002589986    1.527    0.345
        25 -10.9957    178.8454     20.9971   3.6260315860e+01   3.7732989861e+01    0.5212013    0.2390939  48.13  0.001673582    2.585    0.613
        26 -10.3471     65.8510     10.4322   5.5467646788e+01   6.4214843386e+01    0.4834625    0.1749736  40.71  0.002138651    2.378    0.580
        27  -9.7688     62.7536      6.8218   5.4891848447e+01   6.5139110180e+01    0.2381191    0.1621541  22.95  0.001457533    1.326    0.246
        28 -11.8819     68.2390     18.0786   5.7998808883e+01   6.2977544023e+01    0.5129607    0.3944791  43.22  0.001522418    1.221    0.181
        29 -11.6467    234.1640      6.8318   2.8198181262e+01   2.7305745263e+01    0.5438617    0.3374428  67.04  0.003526406    1.684    0.406
        30 -10.4608    211.1174     16.9174   3.2017804596e+01   3.0968839071e+01    0.3201677    0.1917124 -31.60  0.001006822    1.868    0.465
        31 -11.5086    211.6931     10.0439   3.0500200322e+01   3.1591251543e+01    0.4854814    0.3480675   4.05  0.002460237    2.591    0.614
        32 -12.1465    246.8023      7.1266   2.7446808196e+01   2.4818417749e+01    0.9947609    0.4659752 -28.68  0.005339102    2.748    0.636
        33 -10.8818    243.6140      2.6470   2.6818617949e+01   2.5906330558e+01    0.4513227    0.1743575  57.95  0.002267822    3.243    0.692
        34 -11.8789    237.7970     16.0665   2.9725579931e+01   2.5567213728e+01    0.5164862    0.3300282  70.72  0.003181457    1.586    0.369
        35 -11.4172    227.5633     15.4545   3.0363799632e+01   2.7689142997e+01    0.4425359    0.2704199 -89.69  0.001373286    1.478    0.323
        36 -11.5675    225.1260      2.5466   2.7970970500e+01   2.9571387268e+01    0.6554146    0.2332533  80.95  0.003109756    2.705    0.630
        37 -10.8354    218.8628      3.0399   2.8503817362e+01   3.0808458095e+01    0.3116609    0.2284204 -51.12  0.001005869    1.276    0.216
        38 -11.1256    176.8825      5.8669   3.2727349054e+01   3.9725350242e+01    0.4401655    0.1865831  80.67 0.0009920112    2.299    0.565
        39 -11.9270    191.8144      8.6864   3.1934087754e+01   3.6073403977e+01    0.8843477    0.4917844 -30.44  0.003812009    2.021    0.505
        40 -10.7263    183.5762      5.2982   3.1924305364e+01   3.8256619066e+01    0.3581825    0.2800232 -38.75  0.001232643    1.415    0.293
        41  -9.7442     78.2559      7.4484   5.0353941353e+01   6.2033621999e+01    0.2171007    0.1741135  58.60 0.0009024115    1.286    0.223
        42 -12.0387     23.2225     11.4157   7.4208820174e+01   7.0886452535e+01    0.4833909    0.2858665  11.29  0.002120158    1.585    0.369
        43 -12.2452    104.6946     12.7027   4.5771903075e+01   5.5881605812e+01    0.5110924    0.4683958 -53.34  0.001964904    1.300    0.231
        44  -9.8820      5.2368     12.6478   8.5025656344e+01   7.2582480733e+01    0.2593025    0.1682463  14.14  0.001756283    1.429    0.300
        45  -9.3117      5.4526      9.4534   8.3363125353e+01   7.3030648418e+01     0.177292    0.1090443 -22.45 0.0007626477    1.305    0.234
        46 -11.5265    165.5117     17.6259   3.7034718062e+01   4.1201889068e+01    0.4968675    0.2677675  44.77  0.001734374    2.179    0.541
        47  -9.9098    168.4638      9.9835   3.4679055539e+01   4.1275540697e+01    0.3258597    0.1480029  53.28  0.001557635    2.173    0.540
        48  -9.7627    163.2106      9.3492   3.5132770354e+01   4.2559451114e+01    0.3782919    0.1937996 -25.97  0.001923898    2.298    0.565
        49  -9.7735    153.4106      7.0777   3.5736414572e+01   4.5061477211e+01     0.275171    0.1550376  72.82  0.001465342    1.534    0.348
        50  -9.3906    157.5805      6.9429   3.5175633141e+01   4.4097062573e+01    0.2288358    0.1567509  -5.43 0.0007453282    2.063    0.515
        51  -9.9142    158.0278      2.5288   3.3936966454e+01   4.4380707023e+01    0.2998388    0.2067825  59.23  0.001818972    1.333    0.250
        52 -11.1192      2.4553      2.0018   8.1434009178e+01   7.4327839216e+01    0.2836521    0.1562298   4.58  0.001643048    1.660    0.397
        53 -10.0142     12.1843      1.4688   7.5172901757e+01   7.3419890686e+01    0.4773137    0.1370741  33.78  0.002184137    3.292    0.696
        54 -10.0266    116.8029      2.4791   3.9831009584e+01   5.3981719509e+01    0.2425535    0.1915055  50.62 0.0008693889    1.120    0.107
        55  -8.9326    108.6119      5.8167   4.2501743856e+01   5.5587521755e+01    0.2308473    0.1602828 -31.29  0.001092391    1.669    0.401
        56 -10.1083    110.9535      2.1080   4.0761889643e+01   5.5345880300e+01    0.4165349    0.1751648  70.96  0.001843181    2.370    0.578
        57 -10.8429    105.2376      1.8033   4.1750842815e+01   5.6660329328e+01    0.5139672    0.1971174  68.69  0.002186108    2.569    0.611
        58 -10.2486     41.2570      4.5252   6.2027798020e+01   6.9113559570e+01    0.3251937    0.1770659  11.71  0.001228266    2.073    0.518
        59 -11.8102    134.6313      2.8649   3.7094166354e+01   4.9818577638e+01    0.5042803    0.2725126  82.06  0.002075455    1.904    0.475
        60 -10.1599    143.2805      3.6485   3.6105305998e+01   4.7731616666e+01    0.4676592    0.2055921  77.70  0.002111188    2.258    0.557
        61 -10.8456    205.3197      2.4125   2.9384038870e+01   3.3733564937e+01    0.4990433     0.192871  82.85   0.00180033    2.522    0.603
        62  -9.6149      1.2174      7.5327   8.5045638925e+01   7.3665049858e+01    0.2245702   0.07503919 -45.02 0.0006407996    2.821    0.646
        63  -9.2613    151.9143      1.2791   3.4327390983e+01   4.5909887268e+01    0.2487343   0.09843539  77.94 0.0008956844    2.476    0.596
        64  -9.2501    123.0009      1.3300   3.8409291738e+01   5.2641827070e+01    0.2874778   0.09973779  67.40  0.001208367    2.440    0.590
        65 -10.4466     82.1904      1.3206   4.6759628961e+01   6.1714031949e+01    0.1978329   0.09352165  55.98 0.0003276921    1.737    0.424
        66  -8.7893     33.5269      1.5182   6.3945649698e+01   7.0614747877e+01    0.1193017    0.0876844  13.77  0.000809219    1.053    0.051
        67 -11.0247    249.5869    141.4432   5.3905454617e+01   4.5079604619e+00    0.4822331    0.2215283 -30.14  0.002105429    2.286    0.563
        68 -10.2673    142.9762    249.7280   9.4716975432e+01   1.8514765284e+00     0.191642    0.1470495  30.98   0.00116125    1.109    0.098
        69 -10.0367    239.5577    146.7033   5.6511593013e+01   5.2119877918e+00     0.253532    0.1914929 -23.86 0.0006966866    1.257    0.204
        70 -10.9961     33.3620    144.4351   1.0725224570e+02   4.1477257663e+01    0.4450058    0.3025616  46.24  0.001650191    1.598    0.374
        71  -8.9087    233.6918    143.3198   5.6749545332e+01   6.7859211938e+00    0.1320024    0.1005156 -63.66 0.0007033103    1.640    0.390
        72  -8.4446    104.7241    142.3685   8.5495340197e+01   3.1949565741e+01    0.1598364      0.12363  86.46 0.0007006546    1.679    0.404
        73  -8.9858     59.0417    142.7229   9.9204952959e+01   3.9005796173e+01    0.1711219    0.1305441  32.45 0.0007268367    1.411    0.291
        74  -9.5093    132.8785    140.3895   7.7295325834e+01   2.7034125642e+01    0.2895175    0.2180209 -57.38  0.001320811    1.392    0.282
        75 -10.4548    217.0425    138.3733   5.8491237614e+01   1.0628785454e+01    0.3361354    0.2515663 -48.90  0.001168182    1.285    0.222
        76  -9.9588     80.0898    137.4712   9.1738029541e+01   3.7351144640e+01    0.3998925     0.267859 -30.59  0.001748557    1.792    0.442
        77 -10.1690     47.0343    135.2570   1.0160453212e+02   4.2403032447e+01    0.4261051    0.2091828 -67.16  0.001760456    1.932    0.482
        78 -10.1646     39.2664    137.5708   1.0441713715e+02   4.2653455212e+01    0.3761918    0.2031881  44.49  0.001699285    2.061    0.515
        79  -9.6377     38.5160    133.2180   1.0394306861e+02   4.3854012303e+01    0.2389652    0.2191979  70.13 0.0007115042    1.172    0.146
        80 -10.9927     22.7837    127.0744   1.0797430879e+02   4.6881005422e+01    0.2698178    0.2139974  27.01 0.0002957498    1.455    0.313
        81  -9.5176     32.8283    137.8041   1.0644057649e+02   4.3238541735e+01    0.2755904    0.2297833  78.84 0.0008955727    1.251    0.201
        82 -11.3850     22.8669    135.5281   1.0916853429e+02   4.4717976964e+01    0.6323915    0.5046081  38.96   0.00372222    1.411    0.291
        83 -11.4810     30.1169    132.8976   1.0653648368e+02   4.4755291713e+01    0.4715683    0.3344845 -68.19  0.000451338    1.230    0.187
        84 -10.0456    245.1754    134.8207   5.3210620330e+01   6.3570908202e+00    0.1802413    0.1395202 -21.58 0.0004672065    1.314    0.239
        85 -10.3003     73.9224    132.5096   9.2600734319e+01   3.9560872017e+01    0.3351821    0.2808276 -17.02  0.001711263    1.348    0.258
        86 -10.0901     61.3904    132.3856   9.6529064632e+01   4.1367168426e+01    0.4640985    0.3129764   0.20  0.001754466    2.036    0.509
        87  -9.5998    103.8315    130.9023   8.3126924428e+01   3.4944756448e+01      0.23057    0.2062005 -19.51  0.000301906    1.184    0.155
        88 -10.3742     93.0642    129.8164   8.6088078538e+01   3.7141360805e+01    0.3875165    0.2316175 -65.42  0.001551186    1.965    0.491
        89 -10.6607      9.4729    128.3682   1.1234019465e+02   4.7536086293e+01     0.465043    0.2687538 -58.55  0.002461365    1.426    0.299
        90 -10.0933    239.5655    126.8520   5.2391843875e+01   8.6871776272e+00    0.3439076   0.09710143 -46.37  0.001158835    3.369    0.703
        91 -10.0007     82.2563    124.8923   8.8291393564e+01   4.0184573348e+01     0.489264    0.3044049  -7.08  0.001801047    2.820    0.645
        92  -8.6777    223.9921    126.5239   5.4738647615e+01   1.1533888730e+01    0.1689137    0.1208341 -89.53 0.0004934557    2.201    0.546
        93  -9.9261     56.4938    122.0996   9.6030121513e+01   4.4633792681e+01    0.2724946    0.2138108 -44.67 0.0009121548    1.194    0.162
        94 -11.0565     44.6776    118.7111   9.9298083976e+01   4.6904214561e+01    0.5913664    0.3693925 -84.00  0.002048957    2.047    0.511
        95  -9.3374     41.2555    126.3544   1.0187849217e+02   4.5330464240e+01    0.1494914    0.0928871 -41.72 0.0006585164    1.607    0.378
        96  -9.8048      2.1482    125.9349   1.1430115390e+02   4.8595703969e+01     0.240358    0.1782831  89.05 0.0009204124    1.290    0.225
        97 -12.8284    103.7942    122.3101   8.1049157933e+01   3.7038461373e+01    0.4220298     0.382084  -9.00 0.0005123413    1.172    0.147
        98 -10.0811     18.9248    122.6856   1.0855895900e+02   4.8298276788e+01    0.2925375     0.164102 -64.48 0.0008941544    1.471    0.320
        99  -8.7530    143.5035    122.4445   7.0173445244e+01   2.8938897061e+01    0.1560669    0.1526528 -29.87 0.0002149262    1.007    0.007
       100  -9.2600     71.3181    120.9024   9.0885744525e+01   4.2884492647e+01    0.2133653    0.1826259 -48.00 0.0004642452    1.088    0.081
       101  -9.5760     53.4394    125.2890   9.7686821076e+01   4.4205630607e+01    0.3284332    0.1665338 -54.06  0.001259943    1.733    0.423
       102 -10.1597     49.4834    123.3180   9.8599965195e+01   4.5184794704e+01     0.319629    0.2607515  -0.31 0.0009910539    1.413    0.292
       103  -8.6146     13.6973    118.7526   1.0968279849e+02   4.9666444450e+01    0.1299579   0.08502112 -41.11  0.000222757    1.496    0.331
       104  -9.4161    113.7475    116.1184   7.6549157140e+01   3.6570654404e+01    0.3148447    0.1913559 -43.56  0.001308632    1.615    0.381
       105 -11.8277      7.2014     88.9278   1.0708036115e+02   5.7337315204e+01    0.6635365    0.4498326  25.07  0.001885928    1.744    0.426
       106 -11.8173     49.0658     99.4737   9.3533891522e+01   5.1146847631e+01     1.740199    0.6016126 -47.65  0.006405855    2.514    0.602
       107 -10.2835     43.0412     94.6744   9.4600827967e+01   5.2987497913e+01     0.412812    0.3207284  16.85  0.001880508    1.395    0.283
       108 -11.7129      9.5869     97.3172   1.0768910599e+02   5.5202434819e+01    0.6350111    0.5027795 -81.36 0.0004154959    1.307    0.235
       109 -10.7547     18.6854    106.0216   1.0593046348e+02   5.2475945308e+01    0.2314814    0.2134971 -30.11 0.0001870045    1.154    0.134
       110 -12.0834     34.6101     93.7213   9.7561654800e+01   5.4096974517e+01     1.246246    0.7234731 -54.97  0.004249804    1.484    0.326
       111 -11.3173     26.7468     86.1894   9.8858585709e+01   5.6589932204e+01    0.7474565    0.4989909  17.99  0.003301302    1.659    0.397
       112 -11.9210     42.4248     85.6209   9.2542095561e+01   5.5159886347e+01    0.9103664     0.442635  20.47  0.002812984    2.343    0.573
       113 -11.9071     17.6614    100.7317   1.0534573608e+02   5.3844146183e+01    0.5819608    0.3329249  16.57  0.001771795    2.028    0.507
       114 -11.5327     23.0207     94.8002   1.0219667790e+02   5.4869433826e+01    0.4185564    0.2752087 -12.76 0.0009297768    1.746    0.427
       115 -11.4036     18.3839     90.5829   1.0309611931e+02   5.6226072669e+01     0.463239    0.3172562 -63.50  0.001237772    1.311    0.237
       116 -11.9905     25.0922    113.7017   1.0504355087e+02   5.0067666890e+01     1.124258    0.3974524  12.14  0.003929566    4.207    0.762
       117 -12.1402     24.8999    108.1307   1.0411148650e+02   5.1470240046e+01     1.064362    0.6753418 -16.45    0.0053789    1.913    0.477
       118 -10.5931      7.0348    114.9097   1.1132707781e+02   5.1052005685e+01    0.4020116    0.2043633 -64.74  0.002017675    1.554    0.356
       119 -12.5344      2.2652    111.4350   1.1243005784e+02   5.2178253397e+01    0.4507955    0.2425547 -70.10 0.0005749215    1.515    0.340
       120 -11.0963      4.1662    104.8653   1.1084542586e+02   5.3683489397e+01    0.4177182    0.3229171  47.30  0.002327595    1.565    0.361
       121  -9.5923     79.6037    114.9059   8.6757941068e+01   4.3080720725e+01    0.3900258    0.2905089 -87.78  0.001761534    1.862    0.463
       122  -9.3790     66.9952    114.4789   9.0831290206e+01   4.5116100072e+01    0.3030844    0.2072583  57.01  0.001373615    1.877    0.467
       123 -10.0289     65.8173    110.8846   9.0376138205e+01   4.6169977714e+01    0.4064475    0.2726687  24.22  0.001919074    1.636    0.389
       124  -9.0646    126.5413    113.5243   7.2284854152e+01   3.4534098942e+01    0.1569786    0.1520375 -21.65 0.0001592139    1.021    0.021
       125 -10.4661    107.8380    112.1055   7.7219609038e+01   3.8669753375e+01    0.5703975    0.3944732 -62.52  0.002483185    1.692    0.409
       126  -9.1193    103.3083    105.6944   7.6850561854e+01   4.1023554401e+01    0.4505052    0.2459161  47.06  0.001533721    1.972    0.493
       127  -9.7755    104.0073    112.6940   7.8519593049e+01   3.9276754302e+01    0.2971841    0.2523448 -70.21 0.0003472997    1.336    0.251
       128 -10.6120    101.9445    109.4776   7.8289875156e+01   4.0419124088e+01      0.52549    0.3245029  24.46  0.001695413    1.985    0.496
       129  -9.4953     94.0351    112.5736   8.1550565404e+01   4.1166325847e+01     0.298021    0.2204795 -67.78  0.001181864    1.601    0.375
       130  -9.9903     49.0674    112.4614   9.6502695513e+01   4.7970537520e+01    0.2688281    0.2633932  62.51 0.0008966585    1.144    0.126
       131 -10.3525    170.5376    110.7458   6.0941962626e+01   2.5515162680e+01    0.3932751    0.2912671 -45.64  0.001600684    1.295    0.228
       132  -9.8504    147.3119    111.6003   6.6435103431e+01   3.0469074130e+01    0.3296815    0.1953525 -40.98  0.001362999    1.664    0.399
       133 -10.0136    132.1530    110.7958   7.0057628798e+01   3.3944432357e+01    0.4192945     0.203367 -59.11  0.001346675    3.072    0.674
       134 -11.5211     79.4483    108.1023   8.5093447899e+01   4.4748477367e+01    0.6589664    0.3554524  25.62  0.001266091    2.179    0.541
       135 -11.6489     88.5819    104.6366   8.1183020900e+01   4.4006395519e+01    0.5001727    0.3550903  29.73 4.568196e-05    1.483    0.326
       136 -10.2128    175.2957    108.1344   5.9294537516e+01   2.4986572000e+01    0.3325993    0.2323537 -22.11  0.001043455    1.760    0.432
       137  -9.8774    120.2766    109.3496   7.2894877499e+01   3.6778805992e+01    0.2767342    0.2396552 -12.68 0.0007073028    1.266    0.210
       138  -8.8925     58.5060    109.4708   9.2554344473e+01   4.7526590117e+01    0.1462242    0.1341588 -44.43 0.0008098814    1.017    0.016
       139 -10.3082    143.4544    106.0027   6.5892437706e+01   3.2502630620e+01    0.3095012    0.3009723 -55.05  0.001153625    1.028    0.027
       140 -11.1454    145.5192    100.2848   6.3843859446e+01   3.3223184689e+01    0.4263876    0.3143546 -31.59 0.0004828911    1.435    0.303
       141  -9.4734    181.5041    104.0029   5.7023980708e+01   2.4421744517e+01    0.2368522    0.1404552 -41.67 0.0009758631    1.594    0.373
       142 -11.3225     67.6233     96.1869   8.5992111117e+01   4.9408674612e+01    0.7233518    0.4835411 -26.84  0.003328433    1.661    0.398
       143  -9.7494     57.5252    102.3563   9.1186250944e+01   4.9384645464e+01    0.3231471    0.2052234 -47.95 0.0008040844    1.421    0.296
       144  -9.7538     57.7215     97.5945   8.9913557163e+01   5.0491068604e+01    0.2816131    0.1880307 -50.77 0.0008021737    1.372    0.271
       145 -11.1947     89.5938     89.8018   7.6650537624e+01   4.7146045592e+01    0.7194474    0.4338326 -24.98  0.002385767    2.132    0.531
       146 -10.0542     80.7352     98.2697   8.2030836420e+01   4.6832900328e+01    0.3153613    0.2489799 -13.31   0.00102413    1.410    0.291
       147  -9.4830     77.5407     96.5678   8.2642583214e+01   4.7755381162e+01    0.2680714    0.2289006 -29.59 0.0005572778    1.123    0.110
       148  -9.8064     82.5233     93.4716   8.0073713938e+01   4.7609072201e+01    0.2949654    0.2320951 -12.23 0.0007438164    1.414    0.293
       149 -11.0958     78.4561     92.9844   8.1317637387e+01   4.8412044925e+01    0.5013022    0.4328642  14.02  0.002686567    1.184    0.156
       150  -9.6338    209.9600     98.0374   5.0592248208e+01   1.9419084877e+01    0.2178117    0.2008245 -44.24  0.001064075    1.076    0.071
       151  -9.2461    120.5841    101.2517   7.0581365503e+01   3.8489924906e+01    0.2223116    0.1460053 -33.30 0.0008969699    1.633    0.387
       152  -9.3040    142.7611     95.3880   6.3163829137e+01   3.4831959637e+01    0.2085503    0.1438373  39.17 0.0002813846    1.531    0.347
       153  -9.9697    117.6984     93.4321   6.9161721648e+01   4.0757545046e+01    0.4025845    0.3024787   1.46  0.001806909    1.763    0.433
       154 -10.8327    121.5038     88.6593   6.6712255097e+01   4.0911908587e+01     0.719455    0.4316418 -54.15  0.002982075    1.936    0.484
       155 -10.6177    125.9587     93.8550   6.7014715362e+01   3.8885996687e+01    0.3792269    0.3092816   8.51 0.0009251863    1.464    0.317
       156 -10.0612    122.4569     93.5272   6.7868767824e+01   3.9715626727e+01    0.3050101    0.2399766 -20.29 0.0007758902    1.438    0.305
       157  -9.3273    160.8226     93.9201   5.8641556702e+01   3.1005080576e+01    0.2934995    0.1999781  81.83  0.001228685    2.112    0.527
       158  -9.3391    104.0801     93.2000   7.3078706897e+01   4.3625344730e+01     0.290149    0.2025265 -71.11  0.001110836    2.113    0.527
       159 -10.4531    152.8434     91.9582   5.9863852341e+01   3.3208210896e+01    0.4289595    0.3217244  32.01  0.002027081    1.535    0.348
       160 -11.1291     98.5148     91.0597   7.4165507996e+01   4.5182155074e+01    0.3042661    0.2678699  37.32  0.001595979    1.152    0.132
       161 -10.0914     66.4656     88.8041   8.4350630697e+01   5.1261510360e+01    0.3469618    0.2371199   2.02  0.001156718    1.833    0.454
       162 -10.3038    183.8521     86.1097   5.2090320415e+01   2.7193157277e+01    0.6788692    0.2277753 -45.34  0.002313771    2.895    0.655
       163 -10.5500    104.8392     87.2189   7.1074947868e+01   4.4724294933e+01     0.692419    0.3595202 -23.67   0.00228765    3.303    0.697
       164 -11.3708    113.8465     83.8452   6.7413185050e+01   4.3522696987e+01    0.5998148    0.4644415  78.77  0.002796475    1.775    0.437
       165  -9.5313    108.6800     80.6809   6.7939269466e+01   4.5239100853e+01    0.3160884    0.2051202  31.28  0.001290225    1.687    0.407
       166 -10.7874    143.1867     84.3269   5.9950191241e+01   3.6876357574e+01    0.3045476    0.2891195 -86.76 0.0006739359    1.089    0.082
       167 -10.6082     80.4786     83.5103   7.7820429390e+01   5.0125362273e+01    0.4556475    0.3345918 -22.10  0.002232712    1.468    0.319
       168 -11.9391     75.2170     80.1657   7.8630927268e+01   5.1730255730e+01    0.7582305     0.654206 -81.32  0.001716487    1.560    0.359
       169 -10.0287    165.5322     83.5708   5.4891396162e+01   3.1839593917e+01    0.3136328     0.255683 -68.78  0.001128423    1.323    0.244
       170 -10.3849     67.1550     82.1623   8.2150511904e+01   5.2611698632e+01    0.4006548    0.2968741 -36.27   0.00207182    1.268    0.211
       171 -10.3516     60.6021     83.6024   8.5007200520e+01   5.3278520768e+01    0.3018574    0.2419112 -51.26 0.0005017876    1.261    0.207
       172 -11.7784     53.2707     76.2629   8.5635742624e+01   5.5886482346e+01    0.6409718    0.5719278  14.03  0.003758949    1.158    0.136
       173 -10.8697     58.3983     77.5845   8.4048203981e+01   5.4894314406e+01    0.3345387     0.256687 -47.55 0.0007223752    1.279    0.218
       174  -9.5219    127.6935     83.0592   6.3408046929e+01   4.0640278464e+01    0.2136968     0.199637 -27.58 0.0007808116    1.085    0.078
       175  -9.3347      1.4142     80.6822   1.0780782308e+02   5.9553827568e+01    0.3825442     0.139658 -72.54  0.001070437    2.834    0.647
       176 -11.4862      2.1478     71.3657   1.0563661235e+02   6.1623613672e+01    0.6058626    0.2112383 -63.95  0.002667182    2.372    0.578
       177 -13.0819      4.3232     61.7871   1.0248648186e+02   6.3599403275e+01    0.3694709    0.2849512 -41.15 0.0005882407    1.011    0.011
       178 -11.9133      9.9147     62.2300   1.0006491650e+02   6.3176582138e+01    0.5911638    0.3186783 -40.17  0.001204649    1.503    0.335
       179 -10.8600    103.2949     75.5844   6.7945809557e+01   4.7344342592e+01    0.6883608    0.3547489 -47.18  0.002801942    2.089    0.521
       180 -10.1544    232.9320     77.7950   4.2862697653e+01   1.8144272843e+01    0.3187458    0.1793827 -37.74   0.00126965    1.633    0.388
       181 -11.5457     13.9181     74.4887   1.0135072231e+02   6.0242265049e+01     0.546407    0.3809576 -67.94  0.002278626    1.474    0.322
       182  -9.7888     14.0607     67.4374   9.9559927204e+01   6.1784564710e+01    0.4680532    0.2453961   5.56  0.002380963    2.176    0.540
       183 -10.1459     94.1689     75.1943   7.0654516662e+01   4.9261485981e+01    0.6482909    0.5584034 -88.25  0.003280646    1.559    0.359
       184 -10.3378     84.1122     60.9539   6.9205542499e+01   5.3837721610e+01    0.6717948    0.4858446  81.98  0.002932086    2.711    0.631
       185 -11.7066     85.2522     73.3181   7.2975983404e+01   5.1332084673e+01     0.694448    0.5181813  47.55  0.002753081    1.455    0.313
       186 -11.2831     91.6936     62.9741   6.7408200889e+01   5.2007885677e+01     1.016375    0.5074108  47.87  0.004023361    2.045    0.511
       187 -11.3211     77.4333     66.1077   7.3281885276e+01   5.4132565605e+01     1.122865    0.5887608 -54.31  0.004538043    2.593    0.614
       188 -11.0035     91.7257     57.2688   6.5432562714e+01   5.2977968497e+01      0.48948    0.3731174 -14.25  0.002227673    1.418    0.295
       189 -10.2801     87.6255     56.4468   6.6462964879e+01   5.3930850904e+01    0.7823358    0.2836871 -41.68  0.002887013    2.896    0.655
       190 -12.7683     74.6300     53.2384   6.9753387253e+01   5.6920508586e+01    0.7457848    0.5017627  10.32 0.0004666699    1.762    0.432
       191 -11.1250     72.5575     47.1489   6.8238788822e+01   5.8287773331e+01      0.35215    0.2498804 -41.27  0.001810046    1.546    0.353
       192 -10.0154    126.9485     76.9550   6.1774244755e+01   4.1950957763e+01    0.2233295    0.2169517  30.09 0.0003405905    1.011    0.011
       193 -12.0243    186.4048     70.8283   4.7794606726e+01   2.9197743297e+01    0.8878735    0.5639499 -42.58  0.003417142    1.504    0.335
       194  -9.6116    184.2910     61.0128   4.5645358300e+01   3.1223313678e+01    0.2265174    0.1765787 -68.65 0.0008251772    1.285    0.222
       195 -10.0366     62.4659     73.9614   8.1369992049e+01   5.5055368791e+01    0.5255679    0.3086037  52.10  0.001574083    2.481    0.597
       196  -9.7620     24.6011     73.5373   9.6599719853e+01   5.9636374927e+01    0.4832185    0.2177549 -67.00   0.00199236    2.765    0.638
       197 -11.2386     40.9633     72.4548   8.9447638447e+01   5.8233074015e+01    0.5793468    0.2732203 -52.65  0.002274903    1.975    0.494
       198 -11.5126     35.0703     72.0434   9.1777933931e+01   5.8966983725e+01    0.7000808    0.2517085  27.60  0.002847997    2.894    0.654
       199 -10.0757    153.7358     72.5761   5.4275522952e+01   3.6519060160e+01    0.3512355    0.2228512  39.29  0.001113803    1.786    0.440
       200 -11.6977    122.9587     69.0715   6.0384287186e+01   4.4259836556e+01    0.5144852    0.4623612  32.31  0.001535205    1.103    0.093
       201  -9.2730    161.9856     70.9714   5.2169221081e+01   3.4848594603e+01    0.2350413    0.1719445 -76.34 0.0008911479    1.661    0.398
       202  -9.6333    172.0502     68.9379   4.9745680475e+01   3.2822025993e+01    0.3770071    0.2124451 -42.05  0.001377534    1.733    0.423
       203  -9.0228    172.3002     64.6634   4.8565585330e+01   3.3447155373e+01    0.2484815    0.1926133 -57.24 0.0008932007    1.291    0.226
       204  -9.8850    169.1227     63.1042   4.8705149999e+01   3.4438013453e+01    0.2609695    0.2476964 -34.23 0.0009675352    1.149    0.129
       205 -11.3276    220.1288     66.5274   4.1979893192e+01   2.2483576017e+01    0.5743105    0.3331557  56.01  0.002959468    1.889    0.471
       206 -11.3904    234.1858     61.0558   3.9161716792e+01   2.0435558818e+01     0.556522     0.351307  68.81  0.002622258    1.690    0.408
       207  -9.5556    192.4597     65.7429   4.5580321209e+01   2.8629183808e+01    0.2603382     0.191118 -74.87 0.0007395897    1.452    0.311
       208 -10.5474     58.8405     62.8940   7.9135933642e+01   5.7802524476e+01    0.4545188    0.3446479 -50.62  0.002230292    1.478    0.324
       209  -9.6050     64.8130     61.2756   7.6259923204e+01   5.7177404064e+01    0.2934458    0.1954168 -45.82  0.000737267    1.571    0.364
       210 -11.8817     60.0369     46.5352   7.2736732682e+01   6.0531396752e+01    0.9801836    0.6349385 -36.15  0.005256389    1.530    0.346
       211 -11.7731     25.3683     58.0359   9.1819692495e+01   6.2842916559e+01    0.7631761    0.6266806  14.81  0.004889086    1.303    0.233
       212 -11.0267     20.8201     46.3684   9.0134777430e+01   6.5535797259e+01    0.3775302    0.2417143 -39.81  0.001063027    1.316    0.240
       213  -8.2878     24.1128     38.6889   8.5730087120e+01   6.6617449576e+01     1.009539    0.6082596  50.62  0.004780292    3.361    0.702
       214 -10.2401     51.6298     48.6355   7.6955375599e+01   6.1471257797e+01     0.721274    0.3762507 -42.55  0.003502462    1.903    0.474
       215  -9.7014    175.0021    246.9321   8.7635921370e+01  -2.3470567917e+00    0.2725377    0.1592632  30.37  0.001473764    1.484    0.326
       216 -11.2238     40.5555     57.0101   8.4705727892e+01   6.1419903550e+01    0.5266706    0.2669466  28.76  0.001158944    2.016    0.504
       217 -11.4723     52.0569     61.7557   8.1470869924e+01   5.9004631760e+01    0.4640117    0.3481114 -55.50  0.002539627    1.594    0.372
       218 -11.7039     43.5846     62.0696   8.5102419906e+01   6.0059465073e+01    0.2744503    0.2345053 -30.96 0.0003755336    1.101    0.091
       219 -11.5295     46.7043     58.9411   8.2732198778e+01   6.0271664305e+01    0.3851066    0.2708302 -43.43 0.0006728464    1.374    0.272
       220 -10.8535     33.6861     52.8864   8.6341792610e+01   6.3006937906e+01    0.5436463     0.209461  27.89  0.001986542    2.650    0.623
       221  -9.3060    201.2201     64.6034   4.4031393212e+01   2.6845107105e+01     0.271514    0.1258777  59.33  0.001164656    2.182    0.542
       222  -9.3697    198.3281     62.6436   4.3968775203e+01   2.7787533589e+01    0.2420832    0.1767697 -74.53 0.0007690976    1.423    0.297
       223  -9.9890    106.0351     63.8143   6.3323417134e+01   4.8896462773e+01    0.2743621    0.2526023  75.98  0.001532969    1.260    0.207
       224 -11.2885     27.0789     47.2101   8.7422316468e+01   6.4777380039e+01    0.5271947    0.2667624 -11.24  0.001028829    2.727    0.633
       225 -10.0787    159.1671     62.4776   5.0356609894e+01   3.6888164780e+01     0.574061    0.1902464  48.46  0.001945399    3.111    0.679
       226  -8.8581    205.8455     61.7907   4.2734918877e+01   2.6254314705e+01    0.1814798    0.1375767 -69.29 0.0003660523    1.271    0.213
       227  -9.4155    163.5234    243.8518   8.9547968058e+01  -1.7101484345e-01     0.203462    0.1648365  41.88 0.0008367161    1.319    0.242
       228  -9.7698     67.9864    240.4969   1.0969410986e+02   1.4340886597e+01    0.1931113    0.1111483  35.85  0.001004023    1.581    0.368
       229 -10.7944    147.3446    238.3120   9.2166166910e+01   3.2240179136e+00    0.2668114    0.2290459 -27.07  0.001209826    1.258    0.205
       230 -11.3937    127.0373    242.3884   9.7137987668e+01   5.5445636592e+00    0.4136804    0.3296806  79.20   0.00197622    1.634    0.388
       231 -10.6060    198.3884    233.0223   8.0671180009e+01  -3.4349455350e+00    0.3271688    0.3057276  38.11  0.002176594    1.449    0.310
       232  -9.5549     15.2425    233.7475   1.2001452172e+02   2.1880997606e+01    0.2188351    0.1364242 -72.64  0.001029288    1.562    0.360
       233 -10.5156    247.2957    231.7596   7.1343275123e+01  -9.5867845074e+00      0.19566    0.1674779 -29.10 0.0008325559    1.495    0.331
       234  -9.4881     23.7949    231.8084   1.1818730962e+02   2.1413524443e+01    0.1740897    0.1102157  61.44 0.0007601731    1.329    0.247
       235 -12.2333    114.9939     25.0223   4.7824484535e+01   5.2316836694e+01    0.8033299    0.3070651  61.12  0.002367189    2.429    0.588
       236  -9.1496    150.8409     61.1412   5.1605845818e+01   3.9072060138e+01    0.1957319    0.1688015  29.42 0.0005677405    1.306    0.234
       237  -9.4737    113.3852     60.5173   6.0184251786e+01   4.7847307928e+01    0.2872909    0.1837855 -31.14  0.001345614    1.666    0.400
       238 -10.9025    105.8323     58.4715   6.1602560181e+01   4.9834069524e+01    0.5852646    0.3462346  66.76  0.002389404    2.498    0.600
       239  -8.7648    209.2870    223.7059   7.6925592039e+01  -3.4697832671e+00    0.1076531    0.1046465  54.39 0.0001949319    1.545    0.353
       240 -10.3995    138.2141     49.3692   5.0704890064e+01   4.3828001019e+01    0.7128927    0.3083778  38.69  0.002523636    3.167    0.684
       241 -10.5518    134.8470     45.8311   5.0323142974e+01   4.5119618654e+01    0.4073208    0.1914023  62.54 0.0008628138    2.151    0.535
       242  -9.9181    138.9945     43.8466   4.8859124738e+01   4.4407915880e+01    0.3303595    0.2095884  40.84  0.001066221    1.679    0.404
       243 -11.0090    156.5842     52.6654   4.8078287927e+01   3.8984297857e+01     1.038958    0.6370435 -41.93  0.005030502    1.662    0.398
       244 -12.5928    153.0617     35.8652   4.3907979601e+01   4.2085124535e+01     0.423075    0.3229739  72.37 0.0004275845    1.221    0.181
       245 -10.8172    160.4838     43.5397   4.4832705519e+01   3.9326579679e+01    0.7687824    0.2383358  64.26  0.002070933    3.268    0.694
       246 -11.0490    155.6577     42.3533   4.5317384279e+01   4.0634912326e+01    0.3868679    0.3338068 -52.07  0.001276854    1.196    0.164
       247  -8.9160    153.4735    219.4797   8.7888177683e+01   5.8007190210e+00    0.1383344    0.1244894  16.51 4.052769e-05    1.003    0.003
       248 -11.3861    164.3514     27.6007   3.9860026901e+01   4.0385893961e+01    0.2915634    0.2341045  79.60 0.0005884597    1.121    0.108
       249  -9.8661    238.1508     55.7131   3.7631966619e+01   2.0421068959e+01     0.212346    0.1559907 -42.91 0.0002511372    1.269    0.212
       250 -10.3687    240.3703     50.6157   3.6368971265e+01   2.0700263948e+01    0.2619699    0.2149343 -27.10 0.0009442355    1.533    0.348
       251 -10.0335     66.9591     54.4573   7.3017889358e+01   5.8050560084e+01    0.3548939     0.190328 -44.34  0.001508607    1.971    0.493
       252  -9.3284    187.9558     55.0774   4.3599196353e+01   3.1264475920e+01    0.2482962    0.1734543  61.03  0.001323667    1.419    0.295
       253  -9.3609    211.6926     52.7372   3.9907978678e+01   2.6306646179e+01    0.2442505    0.1847224 -70.87  0.001437201    1.227    0.185
       254  -9.6841    201.3397     53.3134   4.1332110736e+01   2.8494034399e+01    0.4651037    0.1795282  58.68  0.001947641    2.537    0.606
       255 -10.3679    201.6094     49.1759   4.0320860203e+01   2.9018889488e+01    0.4484353    0.2760795 -20.80  0.002163035    2.292    0.564
       256 -10.8308    201.0086     45.5145   3.9533734589e+01   2.9656989561e+01    0.4759873    0.2181291  80.47  0.001947556    2.816    0.645
       257 -10.1667    136.7198     56.5712   5.3224261226e+01   4.3118186573e+01    0.6671848    0.4402206   5.12  0.002830338    2.509    0.601
       258 -10.6331    245.6899     51.6690   3.6075430663e+01   1.9526662802e+01    0.3046219    0.1640752 -88.86  0.001565316    2.268    0.559
       259 -11.1507    175.1289     48.1776   4.3745676813e+01   3.5227268653e+01    0.5361568    0.2920068  66.97  0.001459578    1.792    0.442
       260 -10.0193     91.4959     48.5397   6.2409676042e+01   5.4415806814e+01    0.2744213    0.2265122 -60.63 0.0008139601    1.595    0.373
       261 -10.7618     12.4873     48.2552   9.4831791885e+01   6.5855106993e+01    0.3201404    0.1761236 -31.43  0.001772558    1.565    0.361
       262  -9.3211     17.2476     42.1047   9.0411048592e+01   6.6645871211e+01    0.3628276    0.1701645 -22.26  0.001438341    2.413    0.585
       263  -9.6141      2.2937     48.7900   1.0001010684e+02   6.6400325239e+01    0.2194823    0.1723492  40.47  0.001441708    1.764    0.433
       264  -9.0805    209.6554     47.2805   3.8908022488e+01   2.7511172725e+01    0.1362897   0.08623013 -70.97 0.0004714233    1.635    0.388
       265  -9.4213    176.5930     43.2983   4.2253370416e+01   3.5548617973e+01    0.2383097    0.1564632  83.14 0.0009712132    1.594    0.373
       266  -9.2639      6.2389     42.9343   9.6266109552e+01   6.7315937077e+01    0.2310747    0.1904726 -52.92  0.001587302    1.342    0.255
       267  -9.9668     10.8439     30.6353   8.9500993222e+01   6.9227244315e+01    0.3041514    0.2001163 -27.18  0.001560544    1.214    0.176
       268  -9.4015      6.1768     30.8965   9.2140924858e+01   6.9537133497e+01    0.3201067    0.1621286 -17.29   0.00139553    1.978    0.494
       269  -8.7281      3.6661     39.2992   9.6421936464e+01   6.8169417416e+01    0.1633759    0.1521951 -26.02 0.0005593361    1.315    0.240
       270 -10.1891      5.7220     36.1484   9.4276425469e+01   6.8624046317e+01    0.3097395    0.2587184  19.17  0.001997859    1.452    0.311
       271 -10.1606    189.0387     39.5781   3.9609308780e+01   3.3153489996e+01    0.4367781    0.1962922 -24.96  0.001777411    3.075    0.675
       272 -10.7495     93.9478     41.1960   5.8998706763e+01   5.4976275073e+01    0.6348562    0.2546206  48.16  0.002587576    2.258    0.557
       273 -10.1903    164.5274    212.2124   8.4203891815e+01   5.4175271523e+00    0.2511354     0.182942  32.20 0.0006733292    1.290    0.225
       274  -9.6937     86.1301     31.1101   5.7551176384e+01   5.7926457350e+01    0.2239045    0.1851206 -10.00  0.001270177    1.249    0.199
       275 -10.0468    231.6037     39.4606   3.4915759373e+01   2.3946679115e+01    0.2564912    0.1651116 -56.03  0.000877561    1.314    0.239
       276  -9.5877    217.0618     38.6196   3.6163542991e+01   2.7076059666e+01    0.2928001    0.1116481 -50.63  0.001280283    2.429    0.588
       277  -9.4114    193.9431     38.6404   3.8766378053e+01   3.2157681044e+01     0.178704    0.1486269  79.13  0.000482004    1.128    0.113
       278 -10.7809    189.2000     27.7150   3.6699941238e+01   3.4588179111e+01    0.3368241    0.2851803   0.47  0.002080883    1.665    0.399
       279  -9.8140    153.2686    207.6129   8.5923244778e+01   8.1877993073e+00    0.2875154    0.2328822  72.44 0.0008905564    1.704    0.413
       280 -10.9936    176.7573     36.6398   4.0506052616e+01   3.6374947771e+01      0.39315    0.3112662 -43.25  0.002323544    1.298    0.230
       281 -10.8058    174.3801     31.6670   3.9545087207e+01   3.7545222018e+01    0.6502386    0.2347259  48.03  0.001863127    3.376    0.704
       282 -11.1353     61.0455     35.9917   6.8173351142e+01   6.1997203255e+01    0.4374683    0.2889738 -18.07  0.001340777    1.553    0.356
       283 -10.0294     67.2713     31.7578   6.4096561813e+01   6.1495915088e+01    0.4360936    0.4026737 -58.57  0.002046268    1.523    0.343
       284  -9.3676    183.7859     38.1299   3.9934423029e+01   3.4549834530e+01    0.1986828    0.1549356 -73.88 0.0007669026    1.222    0.182
       285  -9.1470    206.6812     37.0625   3.6919865696e+01   2.9519996630e+01    0.1736303    0.1485859 -59.26 0.0006182755    1.112    0.101
       286  -9.0413     12.6188     36.8217   9.0882666952e+01   6.7993758586e+01    0.1548522    0.1062454 -56.72 0.0006304274    1.726    0.421
       287  -9.4409     94.0733     35.9074   5.7014938971e+01   5.5660682037e+01    0.1918555    0.1773098  78.56 0.0005614251    1.313    0.238
       288 -10.4503    240.0037     32.9987   3.2867134344e+01   2.3100846573e+01    0.3068036     0.227888 -82.99  0.001354564    1.199    0.166
       289 -10.0892    240.6691     26.5713   3.1550214666e+01   2.3765983956e+01    0.2438438    0.1667734 -51.78 0.0007945418    1.228    0.185
       290  -9.3972     61.1411    206.6593   1.0774031580e+02   2.2677075751e+01    0.1843278    0.1643179  48.65 0.0009302909    1.124    0.110
       291 -12.2173     58.2636     29.7885   6.6685826879e+01   6.3339643366e+01    0.3866628    0.2600938  12.72 0.0009733297    1.505    0.336
       292 -11.4999     49.0158     30.5361   7.0795797274e+01   6.4727952214e+01    0.6977615     0.239317  35.85  0.002889889    2.790    0.642
       293  -8.4959    216.6654     32.2756   3.4822917439e+01   2.7968854540e+01    0.1300216   0.07854085 -69.79 0.0002498703    1.604    0.376
       294  -9.8783    182.9492     32.4938   3.8632203854e+01   3.5449465837e+01    0.1968878    0.1175203  69.97 0.0005907181    1.550    0.355
       295 -10.8463    198.9937     28.9062   3.5885266662e+01   3.2236439825e+01    0.4058401    0.3648126 -41.97  0.001850554    1.274    0.215
       296  -9.0709     35.7463     31.5874   7.7212724603e+01   6.6448900324e+01    0.1617904    0.1083462  35.99 0.0009402725    1.653    0.395
       297  -9.0613     13.9791     23.2847   8.4777654673e+01   7.0171771303e+01    0.3579145     0.302943  55.22  0.001134302    2.188    0.543
       298  -9.8593    123.9893    205.9693   9.2484883734e+01   1.3415916245e+01    0.2023786     0.190842  19.10 -0.003769674    1.049    0.047
       299  -9.7155      6.1159     21.6498   8.8510333537e+01   7.1108281590e+01    0.3022006    0.2252366   4.50  0.002134404    1.252    0.201
       300 -10.0636    238.3361    204.5845   6.8069124580e+01  -4.4046285187e+00    0.2554187     0.135749 -33.90  0.001341925    1.624    0.384
       301 -11.5739      5.4085    200.4525   1.1998803951e+02   3.0146709191e+01    0.7635798    0.1486475 -69.37   0.00280307    3.724    0.731
       302 -10.5607    245.8323    200.8652   6.6083355515e+01  -4.8131798512e+00    0.1982699    0.1425414 -11.50 0.0007867708    1.223    0.182
       303 -10.3813    234.0579    196.9601   6.7401644173e+01  -2.5847694651e+00    0.3299675    0.2318581 -24.23  0.001205721    1.210    0.173
       304  -8.7833    195.3056    199.6741   7.5338241067e+01   2.7919175152e+00    0.1256455    0.1134342  89.38 0.0004596299    1.648    0.393
       305 -10.2973    230.4032     27.5058   3.2571228858e+01   2.5699885490e+01    0.3464639    0.1758558 -44.38  0.001797334    1.698    0.411
       306  -9.9561    250.2099     27.2722   3.0960839174e+01   2.1845617338e+01    0.1867711    0.1432101 -41.59 0.0006842978    1.376    0.273
       307  -9.7105     97.1456     26.3001   5.2594847462e+01   5.6168570071e+01    0.2297675    0.1903631 -33.80 0.0007651696    1.367    0.269
       308 -10.0969    213.7446     23.9738   3.3303963770e+01   2.9598256112e+01    0.2944145    0.2459687  82.79  0.001973958    1.172    0.146
       309  -9.4985    216.5327     20.4961   3.2308482150e+01   2.9409275260e+01    0.1723967     0.159128  85.38 0.0005391876    1.265    0.210
       310  -9.5037     82.6163    196.2177   1.0116416970e+02   2.2178247844e+01    0.3497187    0.2089555  19.79   0.00153356    2.134    0.531
       311 -10.5077    246.6419    193.5479   6.4581233193e+01  -3.7617537208e+00    0.2543764    0.1345347 -38.26  0.001337172    1.637    0.389
       312 -10.0203    170.1439    191.2607   7.9105883719e+01   8.6360152638e+00    0.4292829    0.2251551  21.47  0.001652444    2.557    0.609
       313  -9.6891     16.4204    191.4325   1.1684474010e+02   3.1287389841e+01    0.1992008    0.1823528  85.23 0.0006640822    1.152    0.132
       314  -9.5230    169.0463     23.8503   3.8217130470e+01   3.9702910920e+01    0.2410557     0.155717  64.97  0.001163443    1.390    0.280
       315 -12.1305      4.6949    184.2535   1.1902864130e+02   3.4011115791e+01    0.6443067    0.4548778  81.55  0.003978551    1.200    0.167
       316  -9.2991    223.7460     21.9594   3.1996052295e+01   2.7728250333e+01    0.1961838    0.1421948  72.81 0.0007791645    1.372    0.271
       317 -10.2168    239.5685    184.8669   6.4129363352e+01  -1.3617918835e+00     0.352792    0.2161619 -13.14  0.001444478    1.854    0.461
       318 -10.0444    250.4543    178.2760   6.1046772594e+01  -1.8111527862e+00    0.3780843    0.1000643 -35.38  0.001312391    3.552    0.718
       319  -9.6569    230.5726    175.5695   6.3869577082e+01   1.5643962912e+00    0.2630336     0.157622  30.60 0.0009176497    1.865    0.464
       320  -9.5780     74.7311     19.4656   5.6439049067e+01   6.1572573631e+01    0.2501104    0.1450851  31.27  0.000927497    1.648    0.393
       321 -10.3785     52.1354    173.6266   1.0597334801e+02   3.1902888828e+01    0.5412226    0.2824313 -88.49   0.00217549    2.464    0.594
       322  -9.9829     27.7393    175.8564   1.1264549579e+02   3.4020254656e+01    0.2469827    0.1843601  44.87  0.001043349    1.375    0.273
       323 -10.0962    247.5884    174.0474   6.0692820816e+01  -7.0775893892e-01    0.4194313     0.192522  21.60  0.001579778    4.151    0.759
       324 -10.8504     36.6930    171.1556   1.0978781464e+02   3.4288769408e+01    0.5811355      0.33796  76.03  0.002699981    1.969    0.492
       325  -8.8041    170.6192    171.8337   7.5096251897e+01   1.2589317290e+01    0.2026305    0.1392991 -52.88  0.000703614    1.573    0.364
       326 -10.1479      9.6085    155.5676   1.1534864994e+02   4.0675009095e+01    0.2697837    0.2029348 -75.04  0.001190017    1.104    0.094
       327 -11.8464      9.7654    166.9169   1.1637984403e+02   3.7832883419e+01    0.5483021    0.4037509 -78.05  0.002440946    1.131    0.116
       328  -9.2007    198.2510    168.0120   6.8406454929e+01   8.3343656190e+00    0.2056959    0.1755689 -30.80 0.0006261034    1.073    0.068
       329  -9.3950    156.4634    166.1432   7.7164402977e+01   1.6487293436e+01    0.2251043    0.1476405 -46.13 0.0006090175    1.502    0.334
       330 -10.5817    186.2181     15.1993   3.4018858776e+01   3.6665160516e+01    0.2502618     0.183335 -89.65   0.00041628    1.198    0.165
       331  -9.2281    152.2726    166.5791   7.8256589321e+01   1.7188456216e+01    0.1990784    0.1465918  25.80 0.0003854379    1.451    0.311
       332 -10.1812     18.8065    165.0014   1.1384671814e+02   3.7564426742e+01    0.3169964    0.2519943 -45.72  0.001504312    1.400    0.286
       333 -10.8686     13.6362    158.4743   1.1455642751e+02   3.9634666453e+01    0.5431327    0.2042122 -67.69  0.002350791    2.124    0.529
       334  -9.1415    188.5355    163.9527   6.9537890220e+01   1.0902130246e+01    0.2136599    0.1195142 -22.60 0.0007873352    2.476    0.596
       335  -9.2071    205.2511     17.4254   3.2657053294e+01   3.2181690406e+01    0.1675249    0.1011245  89.10 0.0006319084    1.540    0.351
       336 -10.2958     39.7938    162.2404   1.0783672701e+02   3.6229327890e+01    0.4176437    0.2515461  76.45   0.00139888    1.954    0.488
       337 -10.8001     28.3624    161.8867   1.1094008309e+02   3.7482091884e+01    0.4915834    0.2243428 -58.65  0.001784359    1.916    0.478
       338  -9.4318     75.6381     13.7765   5.3775587764e+01   6.1979928489e+01    0.2393792     0.139725  54.29 0.0006710821    1.615    0.381
       339  -9.9179    204.9843    162.9520   6.6009856518e+01   8.1235666144e+00    0.2810686    0.2171824  11.88 0.0005902273    1.450    0.310
       340  -9.9128    208.4592    160.5089   6.4824886079e+01   7.9785353107e+00    0.2759723    0.1267131 -43.89 0.0009040413    2.017    0.504
       341 -10.8492    246.4665    159.6008   5.8027324825e+01   1.8929462093e+00    0.5002836    0.1087935 -38.13  0.001567032    4.071    0.754
       342  -9.1588     79.1550    160.6408   9.6477785196e+01   3.1551988437e+01    0.2125264    0.1846466 -83.58 0.0009172387    1.163    0.140
       343  -9.3855    224.4006    157.6607   6.1310198400e+01   5.7631146889e+00    0.3432269    0.1533489 -44.96  0.001450643    2.077    0.519
       344 -12.4172    117.7780     44.0229   5.3600661010e+01   4.9342028582e+01     1.035565    0.6883891 -81.62  0.004530185    2.542    0.607
       345  -9.4805    215.4001    157.7856   6.2951719389e+01   7.2785301319e+00    0.2102016    0.1190182 -31.31 0.0009511766    1.718    0.418
       346 -10.3804    104.8744    154.3130   8.8004001732e+01   2.8946147546e+01     0.402736    0.3260283 -24.14   0.00193951    1.417    0.294
       347  -9.7634     33.3443    154.6737   1.0865814399e+02   3.8841566282e+01    0.2785091    0.2471032  62.51  0.001674527    1.171    0.146
       348 -10.6787     31.2123    151.6102   1.0886578053e+02   3.9838102176e+01      0.32709     0.225859 -42.64  0.001172483    1.556    0.357
       349 -11.7644     13.0197    138.7653   1.1255102325e+02   4.4663750551e+01    0.7742091    0.4554386 -81.38  0.003975734    1.552    0.355
       350 -12.1881     22.5656    149.2787   1.1105079430e+02   4.1226608844e+01    0.7484397    0.3410591 -42.36  0.003164605    2.559    0.609
       351 -10.7572     15.9543    148.0250   1.1278757961e+02   4.2091928588e+01    0.3721349    0.2725612 -74.42 0.0008643463    1.149    0.129
       352  -9.3600     74.6205    154.2361   9.6635940359e+01   3.3871252112e+01    0.2409531    0.1443805 -62.65 0.0008266238    1.608    0.378
       353 -10.1014     73.8784    146.2918   9.5381394628e+01   3.6028771401e+01    0.4005285    0.1658156 -46.77  0.001404789    2.445    0.591
       354 -10.6606      3.1675    152.7791   1.1681425316e+02   4.1829120054e+01    0.4383013    0.3502412 -88.76  0.002786629    1.076    0.071
       355 -10.7447      3.4928    146.9920   1.1617223145e+02   4.3251206236e+01    0.3386029    0.2310093 -62.04 0.0008386995    1.270    0.213
       356 -12.1768      1.8750    142.3045   1.1615849186e+02   4.4525693289e+01    0.6618399    0.4072695  55.48 0.0009108195    1.777    0.437
       357  -9.5634     41.8170    149.1231   1.0542875162e+02   3.9392994995e+01    0.3051867    0.2210017  21.32 0.0009458303    1.601    0.376
       358 -11.1156     46.4337    146.4646   1.0364984327e+02   3.9568491527e+01     0.765107    0.2808045 -59.80  0.002919937    2.295    0.564
       359  -9.4298     49.3948    146.2650   1.0273026487e+02   3.9277700362e+01    0.2098492    0.1715697 -24.33  0.001121021    1.426    0.299
       360 -10.6631     63.2333    150.6345   9.9338112150e+01   3.6402033889e+01    0.4499131    0.3039811   3.09  0.001319331    2.077    0.518
       361 -10.1585    234.5697    149.4673   5.7884433437e+01   5.5436002503e+00    0.4004307    0.2058435 -31.45  0.001832992    1.873    0.466
