#   1 NUMBER                 Running object number                                     
#   2 MAG_AUTO               Kron-like elliptical aperture magnitude                    [mag]
#   3 X_IMAGE                Object position along x                                    [pixel]
#   4 Y_IMAGE                Object position along y                                    [pixel]
#   5 X_WORLD                Barycenter position along world x axis                     [deg]
#   6 Y_WORLD                Barycenter position along world y axis                     [deg]
#   7 A_WORLD                Profile RMS along major axis (world units)                 [deg]
#   8 B_WORLD                Profile RMS along minor axis (world units)                 [deg]
#   9 THETA_WORLD            Position angle (CCW/world-x)                               [deg]
#  10 FWHM_WORLD             FWHM assuming a gaussian core                              [deg]
#  11 ELONGATION             A_IMAGE/B_IMAGE                                           
#  12 ELLIPTICITY            1 - B_IMAGE/A_IMAGE                                       
         1 -14.9113    162.4795     42.3443   2.9017180430e+02   6.3016706196e+00   0.06075522   0.04228589 -44.81  0.003467942    1.420    0.296
         2 -14.5897    175.6291      9.5541   2.8982826276e+02   6.5989921545e+00   0.05030346   0.04446736 -44.67  0.003742118    1.109    0.098
         3 -12.6908    196.8456      6.4591   2.8956539500e+02   6.5188202694e+00   0.01642013   0.01036502  55.87  0.001620501    1.974    0.494
         4 -12.0964    125.0638    243.8978   2.9177713877e+02   4.2347350654e+00   0.01413179  0.008403454 -61.75 0.0009919433    1.683    0.406
         5 -20.0335     76.2599    173.4396   2.9193059260e+02   5.2909570474e+00    0.8700097    0.3564854 -65.05   0.07179246    2.593    0.614
         6 -14.1922    165.6423    188.6775   2.9098889937e+02   4.6379556862e+00   0.04067908   0.02088831  26.50  0.003654476    1.910    0.476
         7 -13.8001    174.6268    192.8565   2.9090974076e+02   4.5424325224e+00    0.0296864   0.01810464 -79.76  0.002255394    2.101    0.524
         8 -14.0879    175.2988    186.0634   2.9086245999e+02   4.6152854747e+00    0.0341048   0.02165595 -87.46  0.002497405    2.170    0.539
         9 -11.5194    170.4189    185.2241   2.9091378069e+02   4.6510665309e+00   0.01303734  0.009594835 -73.45 0.0007551133    1.496    0.332
        10 -12.6969    153.9722    185.9566   2.9110750610e+02   4.7315343255e+00   0.01497007   0.01279883  76.54  0.001726549    1.349    0.259
        11 -13.9191    207.3302    177.7807   2.9044538506e+02   4.5355591873e+00   0.04570173    0.0279849 -69.69  0.004603837    1.794    0.443
        12 -12.2061    203.7930    171.3705   2.9044875193e+02   4.6268128662e+00   0.02142951    0.0163541 -33.89  0.001974621    1.347    0.257
        13  -9.6192    137.9467    245.3980   2.9163750104e+02   4.1484919551e+00   0.01901876   0.01005636  68.84  0.001396655    3.834    0.739
        14 -11.1865     21.8043    241.0558   2.9295023224e+02   4.8213187714e+00   0.01024926  0.008046469 -58.87  0.000957098    1.268    0.211
        15 -10.2695    131.3532    237.1938   2.9166580816e+02   4.2763867600e+00   0.01762741  0.006966603 -59.84 0.0009675905    2.422    0.587
        16 -10.5979     13.8440    238.6408   2.9302799842e+02   4.8911774996e+00  0.006444698  0.004097073 -46.08  0.000648526    1.550    0.355
        17 -10.0221    126.1955    237.3637   2.9172619090e+02   4.3022376530e+00  0.006624694  0.004351718 -40.83 0.0004583567    1.551    0.355
        18 -10.7902     28.3526    179.3092   2.9251726450e+02   5.4820396404e+00   0.01262034  0.009105152 -10.24  0.000958978    1.585    0.369
        19 -12.5586      6.6691    176.9441   2.9275371732e+02   5.6248906196e+00   0.02058333   0.01480513  51.67  0.001614048    1.568    0.362
        20 -13.6036    195.6814    170.4639   2.9053687000e+02   4.6808382213e+00   0.03034025    0.0203462 -71.56  0.001881161    1.646    0.393
        21 -12.2338    193.8068    165.5691   2.9052993382e+02   4.7460570835e+00   0.01626051   0.01300816  19.16  0.001135847    1.250    0.200
        22 -11.0745     16.4642    250.1771   2.9306447891e+02   4.7471395438e+00  0.009101418  0.006309507 -60.98 0.0009791035    1.441    0.306
        23 -10.5041     11.9401    173.8972   2.9267524947e+02   5.6309899040e+00  0.009200744  0.007625055 -24.82            0    1.241    0.194
        24 -13.2910    177.6727    170.3284   2.9074349261e+02   4.7796128214e+00   0.02111292   0.01489773 -70.58  0.002295288    1.534    0.348
        25 -10.5327     25.8698    229.7379   2.9283792606e+02   4.9270751088e+00   0.01573259  0.004644497 -65.40  0.001050442    3.839    0.739
        26 -11.0252    139.0690    250.1600   2.9165221540e+02   4.0888215626e+00   0.01112013  0.009225569 -51.85 0.0006526629    1.183    0.155
        27 -11.6777    201.0906    164.5631   2.9044019308e+02   4.7180278823e+00   0.02100113   0.01371777 -83.31  0.002097735    1.966    0.491
        28 -10.2387     22.5395    220.9697   2.9282558229e+02   5.0437329024e+00  0.009154859  0.005842432 -50.32 0.0006383199    1.518    0.341
        29 -10.9534    222.4676    161.6723   2.9017723090e+02   4.6350101874e+00   0.01348238  0.009541143  72.37 0.0008675102    1.863    0.463
        30 -13.0445    164.1245    156.7627   2.9082056529e+02   5.0054605095e+00   0.01708446   0.01367235 -12.52 0.0009165205    1.337    0.252
        31 -14.4834    135.9703    129.4760   2.9098616021e+02   5.4645569015e+00   0.08901856   0.02196742 -66.81  0.004935666    5.823    0.828
        32 -15.0770    134.1646    145.6591   2.9110124660e+02   5.2920939807e+00   0.08372905   0.03211592 -73.81  0.005522424    4.372    0.771
        33 -14.9152    143.5696    143.9564   2.9098289120e+02   5.2605440870e+00   0.05145329   0.03061462 -78.91  0.004881148    2.158    0.537
        34 -10.5459     22.9545    156.1150   2.9244504747e+02   5.7723259118e+00  0.009622224  0.009160887 -13.97 0.0004266899    1.021    0.020
        35  -9.7175      6.5969    155.7532   2.9263174400e+02   5.8640592134e+00  0.006836636  0.004716642 -17.65 0.0006936624    1.695    0.410
        36 -12.6461    160.0477    151.5080   2.9083693589e+02   5.0866195590e+00   0.01734547  0.009507865 -56.42   0.00169424    1.754    0.430
        37 -10.4227     23.4520    215.5264   2.9278356302e+02   5.1001847242e+00  0.006751333  0.005860781 -26.61 0.0002412557    1.157    0.136
        38 -12.5853    173.8946    148.8449   2.9066184714e+02   5.0418459925e+00   0.01590678   0.01441958  45.48   0.00142867    1.160    0.138
        39 -12.2955    207.7009    212.3974   2.9064272556e+02   4.1439485106e+00   0.01131298   0.01110544 -16.76  0.001462005    1.028    0.027
        40 -10.3939     25.2555    211.2987   2.9273829951e+02   5.1381611070e+00  0.006546531  0.004657896 -31.45 0.0001931746    1.500    0.334
        41 -10.6180      8.4816    137.8512   2.9250615775e+02   6.0556593682e+00   0.01318389  0.008361478  -1.90  0.001289832    1.948    0.487
        42 -12.7441    160.5113    127.9869   2.9069451077e+02   5.3488852909e+00   0.01766034   0.01443265 -80.19  0.001770742    1.368    0.269
        43 -13.0941     11.5109    205.9649   2.9286590383e+02   5.2719155859e+00   0.02688018   0.01643032  11.21   0.00267566    1.833    0.454
        44 -11.9616    140.5237    120.6071   2.9088196068e+02   5.5398330908e+00   0.01672041  0.009158154  50.46 0.0009678089    2.228    0.551
        45 -13.1663    161.2972    197.3364   2.9108932923e+02   4.5638955241e+00   0.01965166   0.01601101  59.01  0.001900747    1.393    0.282
        46 -12.5720    163.8097    203.0734   2.9109376120e+02   4.4857483151e+00   0.01750483   0.01296482  54.57 0.0006545872    1.546    0.353
        47 -12.2185    154.4838    196.1346   2.9116082107e+02   4.6141672357e+00   0.02270214   0.01288129  65.22  0.001927768    2.833    0.647
        48 -10.7716    205.4839    110.1863   2.9007236153e+02   5.3061133037e+00   0.01175347  0.009077314  19.97 0.0006457889    1.296    0.228
        49 -12.5357    157.6807    201.8202   2.9115706423e+02   4.5329078625e+00   0.02718101   0.01525794  55.62  0.001946752    2.386    0.581
        50 -11.0529    139.1147    200.8391   2.9136523338e+02   4.6440266358e+00   0.01836603   0.01156062  68.01 0.0008394513    2.297    0.565
        51 -10.5653    135.7709    196.5652   2.9137891582e+02   4.7101756485e+00   0.01195056  0.009780751  81.30  0.001379913    1.447    0.309
        52 -10.5386    117.3556    201.6893   2.9162089548e+02   4.7516426985e+00   0.01184864  0.007113271  39.49 0.0007862578    1.702    0.413
        53 -13.1108    169.7043    195.2962   2.9098062859e+02   4.5415217320e+00   0.01878227   0.01584893  59.99  0.002237749    1.331    0.249
        54 -14.2305    150.9992     56.9532   2.9038965161e+02   6.1994714741e+00   0.04440355     0.033343 -32.79 0.0009291656    1.383    0.277
        55 -13.1703    180.5374    193.3194   2.9084436863e+02   4.5053269807e+00   0.02169472   0.01888463  84.16  0.001726909    1.307    0.235
        56 -11.0514     13.5192     59.9541   2.9199527983e+02   6.9058445197e+00     0.011795  0.008579204  42.86 0.0005028266    1.442    0.307
        57 -13.0150    166.2609     33.9262   2.9007895104e+02   6.3758415693e+00   0.01915166   0.01712266 -32.67 0.0008754462    1.102    0.092
        58 -10.2690    144.9550     34.0011   2.9032528091e+02   6.4901960194e+00  0.009863627  0.007423355  57.35 0.0003300576    1.544    0.352
        59 -11.3542    133.8500    246.0018   2.9168817418e+02   4.1637473384e+00  0.009227016   0.00833045 -41.88 0.0003670536    1.084    0.077
