#   1 NUMBER                 Running object number                                     
#   2 MAG_AUTO               Kron-like elliptical aperture magnitude                    [mag]
#   3 X_IMAGE                Object position along x                                    [pixel]
#   4 Y_IMAGE                Object position along y                                    [pixel]
#   5 X_WORLD                Barycenter position along world x axis                     [deg]
#   6 Y_WORLD                Barycenter position along world y axis                     [deg]
#   7 A_WORLD                Profile RMS along major axis (world units)                 [deg]
#   8 B_WORLD                Profile RMS along minor axis (world units)                 [deg]
#   9 THETA_WORLD            Position angle (CCW/world-x)                               [deg]
#  10 FWHM_WORLD             FWHM assuming a gaussian core                              [deg]
#  11 ELONGATION             A_IMAGE/B_IMAGE                                           
#  12 ELLIPTICITY            1 - B_IMAGE/A_IMAGE                                       
         1 -14.2871     68.5734    144.6663   9.9769226278e+01   3.7445808119e+01       4.9506     2.609458  74.31   0.00520083    3.833    0.739
         2 -14.2488    219.6815     26.9203   3.6177007201e+01   2.7674106225e+01     1.365447     1.014531  30.63  0.007728676    2.172    0.539
         3 -14.3415    205.9827     39.4472   4.0503833789e+01   2.9156492596e+01     1.981961     1.515916  28.96  0.008138923    1.948    0.487
         4 -12.4290    248.2257      4.2289   2.9331446105e+01   2.4314599108e+01    0.4413787    0.4061659  86.39  0.003427463    1.400    0.286
         5 -12.2885    242.4314      3.7442   2.9590822106e+01   2.5526235737e+01    0.4240064    0.2937033 -62.39   0.00245892    1.126    0.112
         6 -10.3826     50.0096      3.4771   6.0980888416e+01   6.8240612525e+01    0.2379475    0.1815936  50.50  0.001059061    1.508    0.337
         7 -10.3156     45.8333      1.6216   6.1697197896e+01   6.9120838644e+01    0.2886778    0.1501774  52.88  0.001528035    2.219    0.549
         8  -9.7357      2.0000      2.9829   8.5368678280e+01   7.4559989896e+01    0.1726501   0.05157636 -43.33 0.0003026047    3.007    0.667
         9 -10.1456     58.7090    196.0887   1.0979118302e+02   2.6039231287e+01    0.2133318    0.1876929  44.97  0.000297332    1.211    0.174
        10 -10.6211    139.9919    250.0260   9.8566736005e+01   2.8166110492e+00    0.2023913    0.1656423  38.56  0.001304239    1.043    0.041
        11 -10.9987    117.4311    250.2501   1.0318176100e+02   6.1898443133e+00    0.3550937    0.2539108 -53.86  0.001376736    1.660    0.397
        12 -11.3050    116.6886    246.3289   1.0287169665e+02   7.0036235945e+00    0.3363864    0.2808402 -11.77  0.001611043    1.586    0.370
        13 -15.6884      3.9115    184.2211   1.2138930241e+02   3.4714421983e+01     9.922277    0.6614489 -74.39   0.01729017    7.683    0.870
        14 -15.5747      9.3973    207.4764   1.2173250889e+02   2.8949425806e+01     3.553496     1.130798 -59.38   0.01266198    3.290    0.696
        15 -13.4732     35.4863    201.3394   1.1566840874e+02   2.7646891057e+01    0.6390374    0.4970062 -55.13  0.001399923    1.513    0.339
        16 -15.1601     45.9375    190.9787   1.1225741552e+02   2.8855563758e+01     3.176929     1.677557 -82.36   0.01516806    1.893    0.472
        17 -11.7428    206.7231    194.0575   7.5759453940e+01   1.8238078645e+00    0.3514215    0.2370689  11.80  0.001789293    1.686    0.407
        18  -9.6340    149.5295    187.4899   8.6682644167e+01   1.3220089446e+01    0.2600404    0.2035885  77.96    0.0011952    1.712    0.416
        19 -14.3283     56.9136    238.8733   1.1434791918e+02   1.6913833774e+01    0.9380851    0.6954103  68.11 0.0005924563    1.139    0.122
        20  -9.4423     82.4955    182.4341   1.0217945474e+02   2.5931699823e+01    0.2337618    0.2094793 -61.60 0.0001156287    1.162    0.139
        21  -9.4705     79.3051    181.6508   1.0287025771e+02   2.6603343099e+01    0.2866247    0.2022289  56.53  0.000946666    1.405    0.288
        22  -9.6007     99.4879    180.9106   9.7649965840e+01   2.3591122241e+01    0.2169924    0.1898353  45.69 0.0005134338    1.123    0.109
        23  -9.8285    189.2153    177.2594   7.5950621183e+01   7.9754244222e+00    0.4555127    0.2271633 -56.53  0.001683892    2.971    0.663
        24 -12.1210     62.8164    175.1753   1.0616483350e+02   3.0544166543e+01    0.4602843    0.3110881 -36.81  0.002229095    1.964    0.491
        25 -11.9370     67.7732    170.0490   1.0414294297e+02   3.1135310076e+01    0.3314474    0.2707343 -35.11 0.0008631694    1.495    0.331
        26  -9.2897    148.4491    175.2137   8.4570563494e+01   1.6074630606e+01    0.2052756    0.1450871 -63.69 0.0009336739    1.675    0.403
        27 -12.2366     77.5369    160.7585   1.0005312921e+02   3.2043981587e+01    0.5326316    0.4154796  37.57 0.0004973623    1.339    0.253
        28 -13.5399     64.7529    156.6467   1.0289727404e+02   3.4930738689e+01    0.5514711     0.413682 -49.93   0.00131595    1.365    0.268
        29 -15.5948      3.8936    247.9398   1.2488818699e+02   2.1120541882e+01     1.917317     1.343621 -57.56   0.01273626    1.980    0.495
        30  -9.8820    235.4774    154.9847   6.2632643422e+01   3.8557088833e+00     0.184927    0.1067773 -56.28 0.0005641654    2.383    0.580
        31  -9.3326    151.8550    151.5294   7.8763976067e+01   2.0671179657e+01    0.2753051     0.196526 -87.21 0.0009247781    2.193    0.544
        32 -10.8498    133.7473    144.4815   8.1651483833e+01   2.5977142508e+01     1.106877    0.2636936 -54.18  0.002384217    6.379    0.843
        33  -8.7756    112.4355    150.4624   8.8569599530e+01   2.8700300559e+01    0.1532924    0.1480237 -79.69 0.0008058785    1.011    0.011
        34  -9.9421    174.9079    149.1548   7.2957917291e+01   1.6458833638e+01    0.2322693     0.210045 -87.25 0.0006468493    1.291    0.225
        35 -10.7605     22.4408    146.2429   1.1326302627e+02   4.2359499173e+01    0.2890748    0.1773834  69.35 0.0007909351    1.764    0.433
        36 -10.5039     32.3950    143.9048   1.1014953307e+02   4.2014755279e+01    0.3943931    0.2550969  64.70   0.00202197    1.703    0.413
        37 -10.0947     98.7446    140.9884   9.0336910324e+01   3.3529106237e+01    0.3268108    0.2672561 -61.07 0.0008047171    1.192    0.161
        38  -9.5520    101.5140    137.9823   8.8897328196e+01   3.3777065640e+01    0.4161661    0.2489073 -34.45  0.001203156    2.101    0.524
        39 -12.3981     86.8370    139.5022   9.3444041910e+01   3.5942568676e+01    0.3178963    0.2673822 -50.18 0.0003710228    1.161    0.139
        40  -9.2929    197.2501    138.2683   6.5855927677e+01   1.4108078388e+01    0.1910338    0.1677542 -72.40 0.0003815301    1.313    0.239
        41  -9.4887     26.9952    135.2268   1.1052836288e+02   4.4721610590e+01    0.1957556    0.1594509  73.99 0.0004797249    1.254    0.203
        42 -10.5033    106.3226    131.3284   8.6019262420e+01   3.4520946777e+01    0.4232867    0.3194706 -53.95  0.001708615    1.288    0.224
        43 -10.2237    109.3520    130.3319   8.4926486846e+01   3.4187040883e+01    0.3724362    0.2834372   8.80  0.001210708    1.749    0.428
        44 -15.3511     82.2746    220.4663   1.0718710304e+02   1.7271363952e+01     6.079557     1.499198  39.53   0.01098537    3.262    0.693
        45 -10.9818     66.9418    127.5729   9.6964617261e+01   4.2023647580e+01    0.5796301    0.3843468 -61.22  0.002769688    1.402    0.287
        46 -12.6338     84.8963    154.2162   9.6870607244e+01   3.2548504252e+01     1.485407    0.7535468 -53.89  0.006126536    1.874    0.466
        47 -10.1855    135.2616    128.1096   7.7376306095e+01   2.9463050924e+01    0.3963199    0.2186612 -44.98  0.001563913    1.783    0.439
        48  -9.2997    160.7569    127.7070   7.1061156505e+01   2.4044741661e+01    0.2554506    0.1230744 -53.35 0.0008945503    2.357    0.576
        49 -10.4453     97.3990    125.8519   8.7317619792e+01   3.7508120099e+01    0.3262093    0.2515595 -25.94  0.001141797    1.533    0.348
        50  -9.0915    116.1698    124.5854   8.1621754651e+01   3.4226826421e+01    0.2176674    0.1516578  26.29 0.0006089666    1.705    0.413
        51  -8.8954    163.5280    121.4464   6.8872711051e+01   2.4772900876e+01    0.1559067    0.1491558 -66.67 0.0002165283    1.054    0.051
        52  -9.8729    106.8357    119.0333   8.2887190121e+01   3.7384230390e+01    0.2205673    0.2114025 -42.96 0.0003171281    1.027    0.026
        53  -9.7478    230.3130    166.6334   6.5920333618e+01   2.6992803879e+00    0.1319773    0.1046317 -64.97 0.0007038246    1.766    0.434
        54  -9.8373     23.5391    119.5176   1.0927771706e+02   4.8965218143e+01    0.1341434    0.1133089 -71.06 1.219643e-05    1.032    0.031
        55 -12.2132    247.4285    110.1042   5.1295392145e+01   9.4609036908e+00    0.3944642    0.3007679 -48.87  0.002323764    1.145    0.127
        56 -10.0306    205.5127    110.2818   5.7768586330e+01   1.7761303359e+01    0.2968585     0.233436  44.38  0.001249575    1.413    0.292
        57  -9.7090     30.0214    107.5504   1.0508169910e+02   5.1361567462e+01    0.1819759    0.1342135  23.65  0.001018771    1.569    0.362
        58 -12.5371    243.4667    100.5576   4.9775708601e+01   1.1789816040e+01    0.4871912    0.3123547 -15.76  0.002284959    2.353    0.575
        59 -10.2862     53.1596     90.8355   9.3100526837e+01   5.2844534744e+01    0.2047632    0.1507802 -32.79 0.0004849023    1.341    0.254
        60  -8.7185    120.5165    165.5864   8.9525206087e+01   2.3552633222e+01    0.1506565    0.1451378  66.08 0.0001397799    1.022    0.021
        61 -16.0077     27.6272    249.5703   1.2072870967e+02   1.8315830318e+01     9.444774     2.687206  26.03   0.01601552   13.513    0.926
        62  -9.2291     18.3013     90.2990   1.0593404267e+02   5.6477886879e+01    0.1352069   0.08015292 -39.47 0.0002475641    1.582    0.368
        63  -8.9901    152.1962     83.9906   6.1373633097e+01   3.4941559299e+01    0.2506606    0.1654185 -64.97 0.0006432951    1.946    0.486
        64  -9.3338    160.4094     82.7715   5.9256220432e+01   3.3212466675e+01    0.2063285    0.1466337 -27.19 0.0005253833    1.594    0.373
        65  -9.4851     72.3977     83.3187   8.4072033749e+01   5.1743306856e+01    0.2206784    0.1689239  57.02  0.000538601    1.642    0.391
        66  -9.5182     89.5240     65.0218   7.2336265167e+01   5.2372798480e+01    0.2682324    0.2010733  63.02  0.000804189    1.722    0.419
        67  -9.4813     47.8714     62.1853   8.6711377335e+01   5.9724579896e+01    0.1792989    0.1728551 -16.79 0.0003529775    1.189    0.159
        68 -10.8747     13.4936     60.0092   1.0086110515e+02   6.3591173489e+01    0.2523043    0.1976127 -58.72 0.0004310197    1.249    0.200
        69 -11.0887     58.4574    220.8206   1.1241985589e+02   2.0483803458e+01    0.3754982    0.2983532  29.00   0.00165671    1.476    0.323
        70 -12.6014    197.3382     45.6443   4.3079808889e+01   3.0319625741e+01    0.6139334     0.545732  53.88 0.0009948954    1.291    0.225
        71 -12.4700    186.7508    213.7743   8.3381910825e+01   1.6530125207e+00    0.6621058    0.3817119  17.60  0.003040506    2.126    0.530
        72 -10.0117    136.6371     35.0186   4.9762658715e+01   4.6441098480e+01    0.3512583    0.2262585 -78.34   0.00121445    2.181    0.541
        73 -10.5393    136.4501     42.5953   5.2231713913e+01   4.5494344485e+01    0.2618143    0.2228348 -81.32 0.0003422211    1.286    0.222
        74  -9.4506    189.7191     15.0376   3.6338104230e+01   3.5882548082e+01    0.1749849    0.1528786 -69.87 0.0005535705    1.095    0.087
        75 -14.9529     16.7732    216.8002   1.2081715071e+02   2.6191289763e+01       2.2888    0.9836861  59.87  0.005516301    2.079    0.519
        76  -9.5519    112.4637    205.5584   9.8365217147e+01   1.5805656253e+01    0.1400711    0.1274173  54.78 5.753856e-05    1.012    0.012
        77 -11.4996    193.9257    196.6441   7.8795165400e+01   3.5054016491e+00     1.189763    0.6200753 -61.91  0.003904809    4.774    0.791
        78 -10.0334    107.5408    203.9209   9.9270304919e+01   1.6972278331e+01    0.1932281    0.1742561  88.70 0.0005084482    1.127    0.113
