#   1 NUMBER                 Running object number                                     
#   2 MAG_AUTO               Kron-like elliptical aperture magnitude                    [mag]
#   3 X_IMAGE                Object position along x                                    [pixel]
#   4 Y_IMAGE                Object position along y                                    [pixel]
#   5 X_WORLD                Barycenter position along world x axis                     [deg]
#   6 Y_WORLD                Barycenter position along world y axis                     [deg]
#   7 A_WORLD                Profile RMS along major axis (world units)                 [deg]
#   8 B_WORLD                Profile RMS along minor axis (world units)                 [deg]
#   9 THETA_WORLD            Position angle (CCW/world-x)                               [deg]
#  10 FWHM_WORLD             FWHM assuming a gaussian core                              [deg]
#  11 ELONGATION             A_IMAGE/B_IMAGE                                           
#  12 ELLIPTICITY            1 - B_IMAGE/A_IMAGE                                       
         1 -16.6254    181.5917     92.3833   8.7533336728e+01   2.6444004539e+01     5.883661     3.552357  15.75   0.01995047    3.356    0.702
         2 -16.2469    233.6096     77.3324   7.4968417545e+01   1.6785576261e+01     3.122618     2.093091 -16.63   0.01088903    1.790    0.441
         3 -18.4609    212.3171     99.9487   8.3892648599e+01   1.7912182188e+01     8.163237     7.567331 -46.75   0.04575931    1.055    0.052
         4 -16.5009    185.9698    105.5023   9.0175816967e+01   2.3000443139e+01     6.634536     2.218883 -33.24   0.01256478    3.402    0.706
         5 -13.3471    184.3187     28.8908   6.8877006090e+01   3.5489878287e+01     1.099761    0.7319968  62.15   0.00477216    1.423    0.297
         6 -11.3453    225.6030     23.1907   6.2534700180e+01   2.6041677686e+01    0.4143661    0.2858609 -49.67  0.001436938    1.320    0.243
         7 -10.8288    192.2598     12.0964   6.3131634294e+01   3.5361218749e+01    0.2322717    0.2061103  77.87  0.000241277    1.062    0.059
         8 -11.5537    184.4570     19.8156   6.6238867134e+01   3.6498368165e+01    0.3371606    0.2883289  80.62 0.0003440819    1.089    0.081
         9 -11.2088    189.4317     16.7215   6.4744123153e+01   3.5582981724e+01    0.4466673    0.2811467  89.31  0.001767011    1.668    0.401
        10 -10.4560    202.8458     15.1023   6.2790180453e+01   3.2424968544e+01    0.4796931    0.2877768  62.20  0.002442427    1.590    0.371
        11  -9.8559    247.6073     16.0848   5.8948510624e+01   2.1872793362e+01    0.3126659    0.1302139 -33.41  0.001464131    2.162    0.537
        12 -11.9148    174.3833     18.7822   6.7273157442e+01   3.9159119099e+01    0.3147863    0.2666421  44.72  0.001204254    1.234    0.190
        13 -10.4807    238.0978     10.2998   5.8386375618e+01   2.4622225933e+01    0.2797799    0.1891624  70.54 0.0009725538    1.472    0.321
        14 -11.8183    223.3531      8.5211   5.9173187547e+01   2.8196325286e+01    0.3911985    0.1891947 -43.75 0.0009294255    1.859    0.462
        15  -9.5406    184.4331      8.4657   6.3002583923e+01   3.7680184176e+01    0.1331623     0.120591  86.56 7.242949e-05    1.012    0.012
        16 -11.4751    166.4609      2.4224   6.3372074577e+01   4.2750746130e+01    0.2898122    0.2173094  62.82 0.0006817085    1.203    0.169
        17  -9.3220    222.4800      1.3177   5.7518274143e+01   2.9132413599e+01    0.1250097    0.1029674 -85.89 0.0002813879    1.074    0.069
        18 -12.3557    183.2917    200.4004   1.1151052605e+02   6.1488662837e+00    0.5130944     0.346853 -67.20   0.00248077    2.490    0.598
        19 -10.8298    228.4453    250.1479   1.1139697533e+02  -7.8515565351e+00    0.1933627    0.1107926  37.12  0.001158224    1.486    0.327
        20 -10.6247    180.2810    202.0440   1.1238632720e+02   6.4152919789e+00    0.2441602    0.1719107  40.59 0.0003691509    1.278    0.218
        21 -11.2208    128.1885    200.1160   1.2268723138e+02   1.5966898899e+01    0.2263025    0.1916845  52.15            0    1.050    0.048
        22 -10.8105    214.2096    197.8514   1.0517857136e+02   1.1188522604e+00    0.3602495    0.2712648  40.92  0.002129047    1.328    0.247
        23 -16.2834    172.6957    156.4634   1.0515929306e+02   1.6086675909e+01     4.845693     2.839867  29.03   0.01189403    2.073    0.518
        24 -11.4527    242.6703    248.9975   1.0886079150e+02  -9.6956285054e+00    0.2221666    0.1242071  17.22  0.001361102    1.654    0.395
        25  -8.6450    165.2903    249.2944   1.2231014188e+02   1.7403213781e+00    0.1120528   0.08123676  16.99 0.0003514501    1.552    0.356
        26 -10.5168    215.0317    243.6293   1.1269979780e+02  -5.1597050983e+00    0.2437019    0.1784573  36.12 0.0007652091    1.245    0.197
        27 -10.0287    106.9654    190.4727   1.2579972148e+02   2.1442665561e+01    0.2052207    0.1222374  41.03   0.00102845    1.586    0.370
        28 -10.3875    187.9979    189.4910   1.0861598277e+02   7.1100696172e+00    0.2100471    0.1243336  43.00  0.001023768    1.580    0.367
        29  -9.2328    212.6055    188.1296   1.0364565684e+02   2.8755117878e+00    0.1977668    0.1280061 -33.37  0.001042823    1.576    0.365
        30 -10.4674    216.0433    185.5751   1.0251717072e+02   2.6616066056e+00    0.3339722    0.2323307  42.83 0.0008268875    1.446    0.309
        31  -9.7151    243.7913    184.2248   9.7354057797e+01  -1.8801877298e+00    0.1769356    0.1585731  11.25 0.0006486477    1.167    0.143
        32 -15.5773    231.8883    102.5201   8.1357673948e+01   1.3169436357e+01     1.207974    0.8178523 -55.42   0.00459309    1.658    0.397
        33 -15.9533    227.5566    136.2643   8.9998107364e+01   8.4818169055e+00      4.47351     2.454268  37.21   0.01903371    2.014    0.503
        34 -12.5726    123.5134    176.7812   1.1999100863e+02   2.1465106905e+01    0.4515439    0.2826519 -83.25  0.001948483    2.439    0.590
        35 -12.2251    167.0079    194.6941   1.1376433587e+02   1.0063714928e+01    0.3449744    0.3180538 -36.68  0.002132458    1.190    0.160
        36 -10.5121     33.3774    176.9727   1.4025805337e+02   3.4374911737e+01    0.2506993    0.1673097 -67.39  0.001083326    1.410    0.291
        37  -8.8736    236.6294    177.2848   9.7203963468e+01   3.1981275183e-01    0.1179813    0.1069226 -88.72 0.0003030317    1.704    0.413
        38 -10.9458    213.7982    171.8783   1.0020236672e+02   5.2449566156e+00    0.4279914    0.2708117 -64.39  0.001741934    3.251    0.692
        39  -9.5721    247.6560    173.6167   9.4600903093e+01  -1.0105048343e+00    0.1485138    0.1188856  37.68 0.0004187103    1.358    0.263
        40 -10.2174     80.1866    171.8280   1.2914566147e+02   2.9625842246e+01    0.1701346    0.1553718 -49.09 0.0004520813    1.308    0.236
        41  -9.7124     65.9396    242.1532   1.3946247983e+02   1.7528453924e+01    0.1738661    0.1138599  63.57 0.0002866354    1.219    0.179
        42 -10.1845    229.2294    164.8275   9.5945315441e+01   3.5276668755e+00    0.2241605     0.182948  26.23 0.0004625249    1.190    0.160
        43 -11.7639    233.9271    163.4120   9.4828860195e+01   2.8964138691e+00      0.35403    0.2316354  45.26  0.000803422    1.635    0.388
        44 -11.6178    149.8877    195.5005   1.1742656487e+02   1.3023813745e+01    0.3238738    0.2342591  47.23 0.0009672677    1.268    0.211
        45 -12.3350    155.3405    194.6913   1.1615933384e+02   1.2187801878e+01    0.4784409    0.2818725  48.28  0.001536476    1.606    0.377
        46  -9.4188     42.5209    158.5044   1.3626280813e+02   3.7519648826e+01    0.1270882    0.1048566 -89.18 7.779584e-05    1.001    0.001
        47  -9.8198     77.7093    155.3221   1.2727412117e+02   3.3739391614e+01    0.1404852   0.09693362  77.05 0.0002265202    1.608    0.378
        48 -10.0013    250.5852    153.3850   8.9936767331e+01   1.4617430541e+00    0.1665243    0.1136191 -21.96 0.0005836698    1.344    0.256
        49 -11.0609     90.2188    151.3460   1.2350111414e+02   3.2750463772e+01    0.2974033    0.1889316 -70.80  0.001428982    1.638    0.390
        50 -10.3266    240.5580    149.2983   9.0695008745e+01   3.8870452878e+00    0.3101958    0.2402368  37.59   0.00163419    1.354    0.261
        51  -9.3642     34.4717    150.4469   1.3725231090e+02   4.0226832935e+01    0.1247699     0.103066 -82.80 0.0002762851    1.038    0.037
        52 -11.7602    151.3575    190.8516   1.1633709883e+02   1.3623742898e+01      0.34651    0.2521999  59.75  0.001493307    1.491    0.329
        53 -12.1058    109.8922    133.1036   1.1489547325e+02   3.3590081920e+01    0.3906592    0.2813812 -57.01  0.001912161    1.360    0.265
        54 -11.5844    115.9847    142.7578   1.1539258056e+02   3.0272723900e+01    0.3432452    0.2140229  42.74 0.0008883009    1.613    0.380
        55 -12.0140    112.7730    139.5781   1.1553817263e+02   3.1585550935e+01     0.362905    0.2754783 -60.20  0.001159346    1.309    0.236
        56 -11.0074     98.9949    139.2592   1.1900449340e+02   3.4100883158e+01     0.197254    0.1869361  72.02 0.0003862274    1.057    0.054
        57  -9.2771     31.9448    135.6954   1.3607337598e+02   4.3901989475e+01    0.1772554   0.09908468 -10.16 0.0005877112    4.322    0.769
        58 -12.0094    108.6047    122.8912   1.1294027744e+02   3.6160879029e+01    0.3601754    0.2679904 -81.93  0.001251927    1.675    0.403
        59 -13.3621    114.2478    120.0885   1.1077631856e+02   3.5731088398e+01    0.7778327    0.4674389 -62.06  0.003276452    1.907    0.475
        60 -11.9257     90.3731    116.4712   1.1646427913e+02   4.0851556157e+01    0.3781775    0.2650209  35.29  0.001601713    1.561    0.359
        61 -12.8540    100.1425    114.4937   1.1326157985e+02   3.9621102502e+01    0.6705827    0.3386547 -39.30  0.002631338    2.246    0.555
        62 -13.2669    100.6620    105.6690   1.1092207323e+02   4.1528773811e+01    0.6789993    0.4858367 -38.33  0.002857386    1.427    0.299
        63  -8.9283    249.2448    195.3293   9.8570543117e+01  -4.2645191178e+00    0.1239068   0.08142845  -0.99 0.0003211327    1.541    0.351
        64 -11.7369    124.6514    116.2894   1.0711442249e+02   3.4518032255e+01    0.2874625    0.2652364 -13.67 0.0005958288    1.185    0.156
        65  -9.8335     56.5672    116.5139   1.2620792524e+02   4.5741936158e+01    0.1358114    0.1175334 -65.89 5.710743e-05    1.013    0.012
        66 -12.2668    113.1763    108.9580   1.0829144143e+02   3.8430354451e+01    0.4446592    0.2987608  -1.58  0.001715172    2.741    0.635
        67  -9.4623     29.5091    106.4925   1.3243905939e+02   5.0965704583e+01    0.1277888    0.1052859 -69.31 0.0001586148    1.018    0.018
        68 -12.9999    142.5856    191.9741   1.1837540523e+02   1.5000456858e+01    0.5387447    0.4747064  81.39  0.002926138    1.238    0.192
        69 -10.4868    110.2191     94.4030   1.0517890663e+02   4.2187678375e+01     0.205081    0.1432223  54.98 0.0004627128    1.611    0.379
        70 -11.1356     87.7013     88.3937   1.1010187557e+02   4.7643356928e+01     0.328918    0.2002698 -21.87  0.001330997    2.477    0.596
        71  -9.6657      3.5174     88.5070   1.3765739871e+02   5.6954535099e+01    0.1198335   0.09183501 -65.78 0.0001925321    1.005    0.005
        72 -12.1738    117.1608     84.6732   1.0040992948e+02   4.2802147009e+01    0.4920045    0.2778138  49.39 0.0008848073    1.867    0.464
        73 -10.0271    101.3271     83.3089   1.0450918014e+02   4.6256950499e+01    0.1502657    0.1149772  -5.36 0.0007038948    1.657    0.397
        74 -10.7423     49.7214     85.0645   1.2152910058e+02   5.3839466885e+01    0.2083836    0.1806226  49.63 0.0005408268    1.357    0.263
        75 -12.1346    125.1149     77.0975   9.5945258049e+01   4.2583396139e+01    0.4422485    0.3070126  58.27  0.001579821    1.607    0.378
        76 -11.5671    184.9854    192.7976   1.0981932448e+02   7.1056976481e+00    0.5121586    0.1564371  49.87  0.001586462    4.269    0.766
        77 -11.3908    136.3340     74.6684   9.2329683838e+01   4.0501218387e+01    0.3440405    0.2440719  24.61  0.001066234    1.740    0.425
        78 -11.9586    131.7296     72.6671   9.2847833577e+01   4.1928100699e+01    0.3633538    0.3384072  17.50  0.000947247    1.097    0.088
        79 -11.8328    135.7176     66.9939   9.0050169369e+01   4.2024662463e+01    0.3309494    0.2719365 -63.33  0.001353285    1.409    0.290
        80 -11.9866    139.0652     64.9395   8.8586054814e+01   4.1593030490e+01    0.5106646    0.3362539 -86.69  0.001963728    2.703    0.630
        81 -11.9079    145.0237     68.3203   8.8270082281e+01   3.9589147920e+01    0.3891608    0.3033943 -32.63   0.00162424    1.290    0.225
        82 -11.9549    119.1682     69.3686   9.5066250673e+01   4.5341346235e+01    0.3592003    0.3110501  82.50  0.001643299    1.408    0.290
        83 -12.0852    126.5092     66.5399   9.2207236688e+01   4.4224029369e+01    0.3660833     0.309395  89.87 0.0009220477    1.474    0.322
        84 -11.1185    101.0271     70.2366   1.0050526621e+02   4.8937878519e+01    0.2747069    0.2038195 -39.05  0.001382574    1.291    0.225
        85 -11.5070    127.0910     56.2138   8.8617217730e+01   4.5859831741e+01     0.308799    0.2405829  27.32 0.0005365482    1.381    0.276
        86 -11.7882    118.1679    191.0443   1.2345671156e+02   1.9460328981e+01    0.4075318    0.2542898 -58.31  0.001816219    1.713    0.416
        87 -12.1981    141.8497     69.8493   8.9490198617e+01   4.0078024009e+01    0.4770841    0.3488472  69.57  0.002201195    1.612    0.380
        88 -10.5451    227.0364    190.9491   1.0156233276e+02  -5.1018390895e-02    0.2916802    0.2184082 -13.36  0.001020047    1.287    0.223
        89  -9.4344    106.2763     51.6688   9.2589375160e+01   5.1206770133e+01    0.1387844    0.1131343 -66.17 0.0003031617    1.598    0.374
        90  -9.0900     36.9236     51.3009   1.1668480937e+02   6.2386241850e+01    0.1863117   0.08281697  48.43 0.0007026412    4.390    0.772
        91 -11.5707    231.7844    188.5062   1.0025426528e+02  -4.9761110237e-01      0.29495    0.2556829  21.87 0.0006728193    1.138    0.122
        92 -11.4350    151.7606     44.2041   7.9065882341e+01   4.1739943195e+01    0.4297853    0.1851062 -32.99  0.001469364    2.317    0.568
        93 -10.8041    242.6680     37.9415   6.4393745083e+01   2.0324497715e+01    0.3819962    0.2298428 -12.73   0.00177818    2.415    0.586
        94 -10.6256    208.0079    191.9670   1.0523223137e+02   3.0937948431e+00     0.272937      0.23209  21.82 0.0003982414    1.050    0.048
        95 -10.8203    148.6704     37.2865   7.7398578725e+01   4.3454847203e+01    0.2690833    0.1877875 -56.20 0.0007429269    1.677    0.404
        96 -11.9440    143.8832     35.3222   7.7687500881e+01   4.4900142282e+01    0.4600521    0.3709906  89.43  0.001685999    1.432    0.302
        97 -10.6697    234.9391    240.9145   1.0888370165e+02  -7.7410387438e+00    0.1758764     0.135794  14.97 0.0004977477    1.023    0.023
        98 -11.9959    194.5029     32.2997   6.8464912864e+01   3.2509591480e+01    0.5711109    0.4110671  83.24  0.001941789    1.410    0.291
        99 -11.3219    192.0063     26.8331   6.7261504554e+01   3.3797677263e+01    0.4749622    0.2991323 -17.60  0.002110127    1.896    0.473
       100 -10.5491    132.9189     32.1393   7.8862410803e+01   4.7988553197e+01    0.2960425    0.1920646 -32.30  0.001438137    1.588    0.370
       101  -9.6737    245.3355     29.4318   6.2164179503e+01   2.0799494578e+01    0.2528053    0.1394594 -36.10  0.000907674    1.634    0.388
       102  -9.2065     68.7690     29.0181   9.5688892777e+01   6.1877050826e+01    0.1662098   0.09917381 -31.76 0.0003388668    1.576    0.366
       103 -11.3024    240.5184     23.6249   6.1253764582e+01   2.2569516819e+01    0.4744317    0.2073562 -51.20  0.001986092    2.124    0.529
       104 -11.5176    226.6359    239.2243   1.1002428656e+02  -6.3491301781e+00    0.3423277    0.1722848 -21.74  0.001229096    2.367    0.578
       105  -9.9148    208.3173    188.6827   1.0455187156e+02   3.5524180639e+00    0.2146424    0.1279773  44.41  0.001073153    1.657    0.396
       106  -9.3294    250.6906     23.8954   6.0445143824e+01   2.0296083911e+01    0.1748168   0.09285647 -42.42 0.0003849273    1.599    0.375
       107  -9.0760    201.4813     21.5269   6.4654050503e+01   3.2051654380e+01    0.1349479    0.1243064 -87.50 4.581355e-05    1.037    0.035
       108 -10.0426    236.7457    234.6856   1.0758357031e+02  -7.2872740429e+00    0.2360302     0.116126  25.34  0.001270509    1.916    0.478
       109  -9.4322     69.4319    230.4469   1.3787757027e+02   1.9163012165e+01    0.1162372   0.09004559  65.83 9.033951e-05    1.005    0.005
       110 -11.1337    204.4542    225.5885   1.1175599461e+02  -1.2187112878e+00    0.2596885    0.1879839  34.38 0.0005701256    1.184    0.155
       111 -10.1524    129.9088    192.1244   1.2109824589e+02   1.7220803656e+01    0.2017573    0.1793993  63.71 0.0003139424    1.068    0.064
       112  -8.9503    197.6652     18.2559   6.4206091014e+01   3.3362181931e+01    0.1400159   0.09343851 -70.26 0.0005607825    1.569    0.363
       113  -8.9233     49.3302    226.2831   1.4121070093e+02   2.2488817071e+01   0.09226532   0.08931176 -44.43 0.0007006289    1.609    0.379
       114 -11.4605    180.3329    222.5239   1.1573222762e+02   3.1798344023e+00    0.6836652    0.2357462  40.19  0.002614944    2.483    0.597
       115 -11.8358    128.4951    188.4897   1.2082424491e+02   1.8189019731e+01    0.3536193    0.2579366  20.25  0.001818062    1.769    0.435
       116 -10.0829    124.0353    215.5202   1.2570442409e+02   1.3786616733e+01    0.1992122    0.1107428  41.68  0.001025565    1.572    0.364
       117 -10.5059     60.3469    214.9817   1.3822948289e+02   2.3278943633e+01    0.3286885    0.1376349  42.99  0.001690705    2.053    0.513
       118 -11.7812    190.4254    200.8582   1.1020444785e+02   4.8066803065e+00    0.4487986     0.261923  53.96  0.001479545    2.070    0.517
       119  -9.6832    142.3158    203.2948   1.2023937004e+02   1.2929473009e+01    0.1274979    0.1020672   8.76 0.0003510961    1.603    0.376
       120  -9.8950     10.2139    192.1808   1.4614162313e+02   3.3418473497e+01    0.1575669    0.1222784 -88.46 0.0004550969    1.153    0.133
       121  -9.6575    206.0751    202.4847   1.0752624557e+02   1.8225315780e+00    0.1938016    0.1148413  37.78 0.0004316378    1.524    0.344
