#   1 NUMBER                 Running object number                                     
#   2 MAG_AUTO               Kron-like elliptical aperture magnitude                    [mag]
#   3 X_IMAGE                Object position along x                                    [pixel]
#   4 Y_IMAGE                Object position along y                                    [pixel]
#   5 X_WORLD                Barycenter position along world x axis                     [deg]
#   6 Y_WORLD                Barycenter position along world y axis                     [deg]
#   7 A_WORLD                Profile RMS along major axis (world units)                 [deg]
#   8 B_WORLD                Profile RMS along minor axis (world units)                 [deg]
#   9 THETA_WORLD            Position angle (CCW/world-x)                               [deg]
#  10 FWHM_WORLD             FWHM assuming a gaussian core                              [deg]
#  11 ELONGATION             A_IMAGE/B_IMAGE                                           
#  12 ELLIPTICITY            1 - B_IMAGE/A_IMAGE                                       
         1 -12.1121     41.2961     37.3138   8.8124670624e+01   6.4750138832e+01    0.5838426    0.3092618 -27.77 0.0002384997    1.822    0.451
         2 -12.4201    107.6861     28.9300   6.0687517804e+01   5.4405692111e+01    0.4762868    0.3875666 -32.31  0.002681743    1.327    0.246
         3  -9.4269     23.7195      1.3490   7.9847207965e+01   7.2302623824e+01    0.1419278     0.095807  20.94 0.0001858516    1.406    0.289
         4 -10.5059     16.6216     17.2789   9.1721496550e+01   7.0669831584e+01     0.559339    0.2582706 -31.15  0.002533998    1.827    0.453
         5 -11.1344     18.3217     22.9342   9.3279602541e+01   6.9576007190e+01    0.4453617    0.2630916 -49.54  0.002646867    1.688    0.408
         6 -10.7699     24.8858      6.7188   8.2129467496e+01   7.1455771058e+01    0.2495006    0.1671257 -35.29 0.0005315036    1.509    0.337
         7 -11.2105     14.3777     10.3918   8.9739667074e+01   7.1961703090e+01    0.4370924    0.2277213 -25.89  0.001460436    1.615    0.381
         8 -11.4547     20.0367      6.5961   8.4683579409e+01   7.1990636028e+01    0.3727329    0.1848956 -29.85 0.0009307285    1.670    0.401
         9  -9.8092     17.4252      1.9235   8.3645620226e+01   7.2907832055e+01    0.2052186    0.1441148  11.68  0.000830808    1.307    0.235
        10 -11.8913    165.9754     18.6008   4.5245565089e+01   4.1433413096e+01    0.5997425    0.4169043 -78.61  0.001876804    1.647    0.393
        11  -9.2288      1.2462      8.9310   9.6653198445e+01   7.3176092000e+01    0.3094039   0.07391653 -49.48  0.001342207    3.208    0.688
        12 -11.9445      5.3500     16.1293   9.7415891304e+01   7.1708859842e+01    0.4362249    0.3872436 -70.19  0.001807664    1.782    0.439
        13 -12.5608    116.9564     22.3103   5.5770069901e+01   5.3076215342e+01    0.2939827    0.2604483  -2.10  0.000455607    1.151    0.131
        14 -10.6167     26.8588     21.4931   8.8288185096e+01   6.9021991664e+01    0.4134614    0.2108124 -19.33    0.0021134    2.108    0.526
        15 -10.2514     52.8725     10.9752   7.1097147512e+01   6.7122166541e+01    0.5539476    0.3693056   5.90  0.003090523    1.396    0.284
        16  -9.5703     47.8182      8.4793   7.1981867272e+01   6.8204537190e+01    0.9186087    0.2162562  34.73  0.002978504    5.135    0.805
        17  -8.5047     42.3132     14.6898   7.7585184238e+01   6.8199311590e+01    0.3302969    0.2072948 -46.55  0.001691766    2.259    0.557
        18 -10.7910    182.0086     18.1503   4.2900319342e+01   3.7461601566e+01    0.6805457    0.3210516  40.00  0.002172449    2.803    0.643
        19 -10.3213    218.4065     18.6931   3.8964048637e+01   2.8584280085e+01    0.3256014    0.2144984 -43.00  0.001809236    1.421    0.296
        20  -9.4023    127.2563     16.5790   5.1342508258e+01   5.1243003120e+01    0.3951224    0.1849831  -4.74  0.001474925    3.330    0.700
        21 -11.2530     67.6658     15.4186   6.7466444446e+01   6.4103803622e+01       0.3472    0.2606965  29.03 0.0004282637    1.193    0.162
        22  -9.6484     68.8083     11.4829   6.5186199278e+01   6.4349794121e+01    0.2985742    0.1680487  54.29  0.001083164    2.121    0.529
        23 -10.8878    115.5946     14.8805   5.3231362475e+01   5.4175050570e+01    0.4426584    0.2218775  54.85  0.001413565    1.747    0.427
        24  -9.7725    230.2301     14.3294   3.6852966627e+01   2.6364648322e+01    0.2683451    0.1776957 -24.56  0.001506314    1.722    0.419
        25  -9.9486    209.9330     14.1287   3.8672280297e+01   3.1079169466e+01     0.217594    0.1870953 -78.96 0.0003981926    1.025    0.025
        26  -9.9268    173.2366     13.2655   4.2635435110e+01   4.0157162586e+01    0.3253237    0.1960691 -34.62  0.001305823    1.724    0.420
        27 -10.4612    176.0031     10.9902   4.1618128505e+01   3.9690480685e+01    0.3871782    0.2710102  42.93  0.001901258    1.543    0.352
        28 -10.9624    133.0968     12.7252   4.8802027719e+01   5.0203828425e+01     0.242891     0.224924  62.70  0.000329918    1.077    0.072
        29  -9.7697    128.2809      8.2016   4.8089605670e+01   5.1784144037e+01    0.2397571    0.2022198  88.43 0.0001993524    1.327    0.247
        30 -10.3155     88.7551     13.4379   5.9601768033e+01   6.0249575207e+01     0.291689    0.1948086  41.24  0.001610895    1.317    0.241
        31 -10.6780    146.7647     12.1572   4.6196003757e+01   4.6888789556e+01    0.4713404    0.3158886  67.66 0.0009439451    1.375    0.273
        32  -9.0787     75.2328     12.3559   6.3371651753e+01   6.3056600402e+01    0.2550901    0.1783738 -55.17   0.00130698    2.463    0.594
        33  -9.9386     32.4794     12.3343   8.1116144590e+01   6.9791579200e+01    0.2060654    0.1733614 -12.09 0.0005130029    1.235    0.190
        34 -11.4915    108.2808      7.3120   5.1922484581e+01   5.6567637623e+01    0.7067947    0.4692754  38.30  0.002934495    1.345    0.257
        35  -8.8465    119.4782      2.5239   4.7680699802e+01   5.4360402203e+01    0.2049814    0.1017811  53.23 0.0006516884    1.664    0.399
        36 -10.3053    115.6354      2.0162   4.8250314601e+01   5.5304460205e+01    0.2501789    0.1688639  59.65 0.0002486023    1.316    0.240
        37 -10.0986    165.2720      8.0955   4.2157395135e+01   4.2644390446e+01    0.3324411    0.2134377 -41.77  0.001226104    1.651    0.394
        38  -8.8734      5.6648      8.9987   9.4073276642e+01   7.2870551399e+01    0.2687607     0.230606 -17.67  0.002093341    1.317    0.241
        39  -9.6620    212.1685      8.9211   3.7172139653e+01   3.1098221830e+01    0.2435966     0.181402  65.15  0.001448395    1.329    0.248
        40  -9.8555    202.4937      8.4570   3.7977945465e+01   3.3443670703e+01     0.285145     0.189042 -68.31  0.001555889    1.491    0.329
        41  -9.6663    120.0830      8.1000   4.9667190380e+01   5.3753294538e+01    0.2101367    0.1858005  -1.43 0.0007294434    1.203    0.169
        42  -9.8539     90.0213      1.9425   5.4173687867e+01   6.1052656267e+01    0.4472012    0.2292172  58.67  0.001765462    1.876    0.467
        43 -10.6431     86.6661      6.3154   5.7050997193e+01   6.1378584964e+01    0.3071798    0.2799667  39.17  0.001368432    1.190    0.160
        44  -9.1584     92.3083      8.0006   5.6216613789e+01   6.0036356383e+01     0.177561    0.1702951 -11.99 0.0004027135    1.245    0.196
        45 -10.0111    193.8023      8.2924   3.8821669166e+01   3.5561929712e+01    0.3833365    0.1574089  74.75    0.0016198    2.321    0.569
        46  -9.1702     74.1470      8.1652   6.1769419913e+01   6.3702420484e+01    0.1994566    0.1449179  20.38 0.0005119271    1.200    0.167
        47  -8.9284     97.9585     11.4368   5.6169313386e+01   5.8492797707e+01    0.2176713    0.1643405 -28.29 0.0005319224    1.455    0.313
        48 -10.5972    248.0117      4.9942   3.3442897311e+01   2.3501172628e+01    0.3261653    0.2420319  24.87 0.0007333554    2.216    0.549
        49  -9.8610    138.9271      6.8431   4.5710174093e+01   4.9306987674e+01    0.1992178    0.1793515  16.58  0.000248735    1.188    0.158
        50  -9.5258     62.4034      6.2548   6.4968299739e+01   6.6058726853e+01    0.2490741     0.223392  83.31  0.001600435    1.863    0.463
        51 -10.3021    208.5635      4.1900   3.6339725466e+01   3.2421955112e+01    0.3603054    0.2708524 -64.86   0.00192905    1.223    0.182
        52  -7.8944     40.6761      6.6776   7.4251174599e+01   6.9466743115e+01    0.2319861    0.1224257 -12.62  0.001131237    1.990    0.497
        53 -10.2393     37.9492      2.5420   7.3307378891e+01   7.0343568476e+01    0.2994005    0.2604043 -13.16   0.00104197    1.390    0.280
        54  -9.9306    238.1247      3.7030   3.3857078996e+01   2.5754351393e+01    0.2460091    0.1810195 -26.27  0.001539718    1.563    0.360
        55  -8.0989     79.4887      9.5663   6.0692297937e+01   6.2521803134e+01    0.1298295    0.1085371  21.73 0.0003399629    1.024    0.023
        56  -9.1055    224.1241      3.6050   3.4889916623e+01   2.8877011921e+01    0.2259194    0.1676924  -0.70  0.001313441    1.965    0.491
        57 -10.6582    193.6169      3.4796   3.7574213301e+01   3.6068408984e+01    0.5720632    0.2190461  68.58  0.002469946    2.263    0.558
        58  -9.7582    198.3244      2.2984   3.6809848747e+01   3.5042096519e+01    0.2970563      0.16396  51.91   0.00149676    1.912    0.477
        59 -10.8694    160.4710      2.9678   4.1238776515e+01   4.4294607478e+01    0.5063415    0.2596312  60.01  0.001853017    1.669    0.401
        60 -10.2378     30.9039      3.4160   7.7234228105e+01   7.1175185621e+01    0.1970665    0.1417791 -26.29 0.0003310726    1.359    0.264
        61 -10.3780    218.8600      2.5009   3.5055768141e+01   3.0189217420e+01    0.2926414    0.2103797  74.28  0.001089504    1.301    0.231
        62 -10.9313    179.8793      2.0787   3.8638105439e+01   3.9556982880e+01    0.3218967    0.1967959  73.35 0.0006716139    1.453    0.312
        63  -9.4514    186.5693      1.6983   3.7818820624e+01   3.7948291979e+01    0.2982896    0.1524489 -80.97 0.0006135968    2.298    0.565
        64  -9.3750     81.4391      1.6129   5.6419900094e+01   6.2867255024e+01    0.3268905    0.1683998  59.68   0.00160134    2.068    0.516
        65 -10.6059     74.0384      1.9349   5.8831611702e+01   6.4313454234e+01    0.3011767    0.2023035  43.86  0.001035448    1.322    0.244
        66  -9.1875     68.6307      2.1815   6.0729962524e+01   6.5324707503e+01    0.2597777    0.1532683  27.91  0.000993685    1.520    0.342
        67 -10.5954     49.7823      2.1511   6.7828403648e+01   6.8611073449e+01    0.2443689    0.1572925  30.45 0.0003242946    1.359    0.264
        68  -8.2484     13.6352      3.2735   8.6545897410e+01   7.3087861404e+01   0.09324378   0.08623881  10.82 0.0007003178    1.665    0.399
        69  -8.9190      3.6404      2.5318   9.2130567071e+01   7.4025670807e+01     0.220053   0.08528625 -28.18   0.00112091    2.340    0.573
        70  -9.0436    147.7481      1.5295   4.2551371733e+01   4.7572113204e+01    0.2043621    0.1271559  41.29    0.0010502    1.613    0.380
        71 -10.4727     33.9484    128.8736   1.1352784320e+02   4.4961093335e+01    0.2796924    0.2608965  -8.61 0.0005441256    1.325    0.245
        72 -10.3449    115.9050    249.1678   1.0957255799e+02   8.0966059363e+00    0.2736795    0.2173522  59.99  0.001158469    1.177    0.150
        73 -12.0057     28.6733    131.9554   1.1543023298e+02   4.4683410655e+01    0.2911304    0.2310549 -87.65 0.0002615277    1.143    0.125
        74  -9.2081     23.7720    133.3820   1.1695627847e+02   4.4752311637e+01    0.1662904    0.1536987 -64.14 0.0003976598    1.186    0.157
        75  -9.8481     61.9092    131.2800   1.0590241860e+02   4.1320222662e+01    0.2365502    0.1737141 -73.93 0.0003869298    1.302    0.232
        76 -10.2278     12.9489    131.0018   1.1960153511e+02   4.6147672001e+01     0.184135    0.1445197 -81.51  0.001202334    1.044    0.042
        77 -10.1910     12.3516    127.1349   1.1932947499e+02   4.7111880228e+01    0.2179708    0.1557353 -58.67   0.00075632    1.256    0.204
        78  -8.8097     88.5172    127.4853   9.7448450080e+01   3.8445654086e+01    0.1480067     0.138525 -63.46 0.0001321229    1.013    0.013
        79  -9.1367    217.9978    125.6739   6.5807487497e+01   1.2259149445e+01    0.2684432    0.1494363 -36.05  0.001096842    1.655    0.396
        80 -10.1165     59.8591    125.8739   1.0551660730e+02   4.2909654552e+01    0.2095445    0.1711536 -45.46 0.0002855767    1.218    0.179
        81 -10.6947      7.0826    123.4861   1.2036649867e+02   4.8324306930e+01    0.2309351    0.1945737  23.68  0.001072902    1.515    0.340
        82  -9.7328      3.0277    122.9077   1.2141555979e+02   4.8704497418e+01    0.1836012    0.1435645 -84.17 0.0006610873    1.080    0.074
        83 -10.5108     32.5046    121.3045   1.1282520775e+02   4.6939342686e+01     0.274638    0.2241853  26.23  0.001444934    1.472    0.321
        84  -9.5523    237.1796    120.8327   6.1370953187e+01   9.2228411723e+00    0.2006588    0.1618559  -1.27    0.0010829    1.353    0.261
        85  -9.0477    123.6443    121.0038   8.6006352598e+01   3.3621617118e+01    0.2158426    0.1930968 -46.78 0.0004351351    1.090    0.083
        86 -11.3613     21.4007    119.3672   1.1579848871e+02   4.8325605559e+01    0.4716609    0.3508456  60.56   0.00288321    1.501    0.334
        87  -9.4566     44.9765    119.9828   1.0889534016e+02   4.6056978564e+01    0.2119013     0.146201 -34.96  0.001011479    1.643    0.392
        88  -9.5980     93.3696    118.9470   9.4105007678e+01   3.9715567960e+01    0.2717495    0.2287296  22.87  0.000806464    1.316    0.240
        89 -11.1383     54.7482    118.1264   1.0559390050e+02   4.5431522799e+01     0.227437    0.2124329 -72.60 0.0002527338    1.074    0.069
        90 -10.6588      9.9375    117.5864   1.1888283881e+02   4.9548724506e+01    0.2921105    0.2133966 -65.66 0.0009608851    1.107    0.096
        91 -10.6079     12.9859    113.6145   1.1749370657e+02   5.0301260865e+01    0.3534631    0.2118917  23.03  0.001662584    2.063    0.515
        92  -9.6852     83.2584    117.1642   9.6707027558e+01   4.1782257145e+01    0.2676445    0.2003784 -76.56  0.001152656    1.533    0.348
        93  -8.9920     66.7942    118.3835   1.0196956259e+02   4.3861640475e+01     0.181105    0.1389948  11.22 0.0005241312    1.613    0.380
        94 -10.6165      2.8346    116.1318   1.2073782766e+02   5.0314323500e+01    0.2866039    0.2441643   8.13  0.001302073    1.546    0.353
        95 -10.6214      4.0420    110.7833   1.1977070739e+02   5.1510345232e+01    0.4892267    0.1450735 -75.07   0.00196331    2.831    0.647
        96  -9.5657      7.0805     89.4590   1.1586891305e+02   5.6354458604e+01    0.4459088    0.1844789 -69.26  0.001618679    1.910    0.477
        97  -9.7080      3.4788    102.0264   1.1884256033e+02   5.3602977937e+01    0.3540679    0.1220658 -73.15  0.001237223    2.325    0.570
        98 -10.2798      8.6959     98.8550   1.1676740784e+02   5.4066823723e+01    0.4504575    0.2341841  83.95 0.0007516351    2.447    0.591
        99 -10.0181      3.8547     97.9902   1.1818349605e+02   5.4530212277e+01    0.2965747    0.1986511 -60.69  0.001863437    1.161    0.139
       100 -10.0296     61.4629    113.9600   1.0269239739e+02   4.5635696708e+01    0.3418511    0.2262459 -71.48  0.001675466    1.557    0.358
       101  -9.6496     62.7190    110.7121   1.0161011636e+02   4.6267385085e+01    0.2292058     0.190901 -69.63 0.0001735313    1.169    0.145
       102  -9.6885     33.8339    114.1692   1.1129261043e+02   4.8559370402e+01    0.1983048    0.1585268 -88.70 0.0006259818    1.260    0.207
       103  -8.8184     79.2169    112.8499   9.6943604571e+01   4.3444714392e+01    0.1941331    0.1619819 -27.62 0.0003054664    1.283    0.221
       104 -10.9595     19.5316    109.6890   1.1497396491e+02   5.0794869688e+01     0.400166    0.2573039 -50.32  0.001650343    1.393    0.282
       105 -10.3061     36.8714    107.1247   1.0911585642e+02   4.9993297165e+01    0.4611878    0.2086497 -62.14  0.001768087    1.810    0.447
       106  -9.7787    137.2420    107.4140   7.8776756641e+01   3.3808444009e+01    0.2871439    0.2515447 -67.39 0.0005099059    1.281    0.220
       107  -9.3004      8.1533    107.2754   1.1810366050e+02   5.2107930434e+01    0.2507455    0.1480955 -78.33  0.001417315    1.438    0.305
       108  -9.5639    153.9655    107.0162   7.4451759697e+01   3.0156826422e+01    0.2296213    0.2240861 -12.65            0    1.007    0.007
       109  -9.3142    128.5482    109.1967   8.1581167050e+01   3.5281835181e+01    0.2860939    0.1945185  55.82 0.0005735273    1.693    0.409
       110 -11.0521    101.8982    100.6335   8.6870607049e+01   4.2505024577e+01    0.8791826    0.6444563  -3.12  0.002016221    1.830    0.454
       111 -10.0013    110.3250     99.2012   8.3957612776e+01   4.1220377106e+01     0.348697    0.2647364  42.41 0.0008423944    1.375    0.273
       112 -10.7911    104.3434     91.0555   8.3394782552e+01   4.4178811810e+01     0.549654    0.3872608  86.44  0.002191642    2.604    0.616
       113  -9.9193     74.5977    104.2169   9.6335417129e+01   4.6202478949e+01    0.2177275    0.1204644 -45.09 0.0009469481    1.680    0.405
       114  -9.7129     47.9074    103.4049   1.0481762350e+02   4.9787084885e+01    0.2654004    0.1638609 -54.04 0.0004428711    1.368    0.269
       115  -9.9676     50.6352     99.0692   1.0298182732e+02   5.0528664818e+01    0.3006592    0.2162037  -8.51  0.000402825    1.756    0.430
       116  -8.8849     28.8627    103.7189   1.1107412429e+02   5.1515079705e+01    0.2776783    0.1038802 -54.15  0.001207396    2.079    0.519
       117  -9.8984    174.9300    102.9479   6.8528304931e+01   2.6123552852e+01    0.2289317    0.2195977 -22.53            0    1.013    0.013
       118  -8.4628    177.6518    100.3112   6.7226888742e+01   2.5995412023e+01    0.1650038    0.1556678  -6.49 0.0004127252    1.075    0.069
       119 -10.3314     57.3874    101.7971   1.0135473433e+02   4.9086979867e+01    0.4727786     0.237506 -57.42   0.00167943    1.742    0.426
       120  -9.9278     79.4995    100.8371   9.3917240115e+01   4.6265841066e+01    0.3624944    0.1713559  50.73  0.001325794    2.958    0.662
       121  -9.9127    124.2492     98.4160   7.9750387947e+01   3.8551462736e+01     0.439523     0.260781  11.09  0.001373721    3.697    0.729
       122  -9.5391     42.4405     98.4476   1.0559118391e+02   5.1546384433e+01    0.3451937    0.1278146 -53.96  0.001423671    2.135    0.532
       123 -10.3644     46.6706     93.9062   1.0316460101e+02   5.2189819701e+01    0.2890268    0.2433562  -5.99  0.001720164    1.345    0.256
       124  -8.5550     15.5053     99.5520   1.1468856727e+02   5.3489279622e+01    0.1579135    0.1165941 -19.44 0.0005176679    1.630    0.387
       125  -9.1604     17.9966     96.4382   1.1336824642e+02   5.4062822772e+01     0.227158    0.1304744 -58.48 5.867829e-06    1.355    0.262
       126  -9.0685     67.0502     97.9843   9.7255778562e+01   4.8748291237e+01    0.2123578    0.1696988  82.11 0.0004758941    1.627    0.385
       127  -9.7402    135.7215     96.7225   7.6155982119e+01   3.6421762397e+01    0.2596013    0.1908813 -83.49  0.001064701    2.110    0.526
       128  -9.2839    129.8632     96.8089   7.7745977283e+01   3.7691477944e+01    0.2282883    0.2079056  -2.65 0.0004017072    1.139    0.122
       129  -9.5887     12.2956     94.1991   1.1488477334e+02   5.4953010780e+01    0.3662892    0.1514293 -77.61  0.001591718    2.488    0.598
       130 -10.0294     80.8527     93.6072   9.1559598610e+01   4.7733116495e+01    0.4424915     0.262012 -68.28   0.00178222    2.385    0.581
       131  -9.3720     23.6244     95.4035   1.1131419332e+02   5.3910032933e+01    0.1784437    0.1376641  76.65 0.0007011538    1.531    0.347
       132  -9.0702    179.0813     94.1590   6.5237094931e+01   2.6823535729e+01    0.2373621    0.2074267  -1.95 0.0005611899    1.258    0.205
       133 -10.1601     51.9243     93.9884   1.0138342983e+02   5.1589995980e+01    0.2026078    0.1781507 -50.47 0.0003100061    1.026    0.025
       134 -10.9896     27.7714     88.0155   1.0846344873e+02   5.5332653285e+01    0.8466157    0.4366154 -80.67  0.003716582    2.573    0.611
       135 -10.3352     30.4140     84.1330   1.0669765455e+02   5.6022107431e+01     0.612974    0.3308012 -75.60  0.002859195    2.190    0.543
       136  -9.4750      1.9548     93.0244   1.1809969607e+02   5.5782405102e+01    0.1838272    0.1448179 -73.21 0.0007012625    1.090    0.083
       137  -9.1074    134.4924     92.3995   7.5214735020e+01   3.7593348011e+01    0.1552106     0.150572   4.52 -4.681738e-05    1.021    0.021
       138  -9.2149    116.9855     91.6986   7.9842206700e+01   4.1514454330e+01    0.2129439    0.1972685  24.01 0.0002819359    1.096    0.088
       139 -10.2781     87.5987     87.8986   8.7739319361e+01   4.7912458378e+01    0.5433872     0.243118 -48.36   0.00183183    2.098    0.523
       140 -10.2582     21.2420     87.7468   1.1070125675e+02   5.5884538152e+01    0.2874873    0.1776639  20.96  0.001002268    1.956    0.489
       141 -10.1227    124.1903     88.4587   7.6830219988e+01   4.0670864281e+01    0.3530674    0.2510174 -55.05   0.00100433    1.581    0.368
       142 -10.0858    119.3083     84.4927   7.6992093911e+01   4.2533449371e+01    0.3577249    0.2727043  58.16  0.001679657    1.519    0.342
       143 -10.4535     43.7731     88.2110   1.0285639275e+02   5.3831417897e+01    0.3523746    0.1878548  34.61 0.0008188773    2.146    0.534
       144  -9.6719     57.1667     82.2144   9.6556358869e+01   5.3689196866e+01    0.2399581    0.1809123 -49.87 0.0005230136    1.175    0.149
       145 -10.9126     49.3240     83.5275   9.9723092221e+01   5.4318858094e+01    0.4670695    0.2639939 -42.54    0.0022834    1.575    0.365
       146 -10.0041     53.7091     81.2198   9.7531752063e+01   5.4336636549e+01    0.3797849    0.1799258 -38.73  0.001292257    2.093    0.522
       147  -9.3446     94.0247     86.9103   8.5377062727e+01   4.7004337037e+01    0.2372796    0.2073728  25.19 0.0002826885    1.192    0.161
       148  -9.7954     66.3267     87.6602   9.4817675707e+01   5.1247505506e+01    0.3224514    0.2504349  55.02  0.001129652    1.624    0.384
       149  -9.8652     70.0221     86.4811   9.3220537436e+01   5.0994966550e+01    0.2532511    0.2379842 -36.32 0.0004253669    1.068    0.064
       150 -10.8298     73.3343     80.9790   9.0494677732e+01   5.1734935084e+01    0.6306027    0.2919368 -39.86  0.002550799    2.095    0.523
       151  -9.2815    189.3209     87.0700   6.1249970671e+01   2.5674645769e+01    0.2135341    0.1906475 -40.74  0.000389084    1.081    0.075
       152 -10.7587    129.3671     85.8878   7.4627811549e+01   4.0062490156e+01    0.3432358    0.2720102   4.41  0.001090491    1.504    0.335
       153  -9.9535     16.5655     85.9708   1.1200431099e+02   5.6612848693e+01    0.3833824    0.1754178 -47.81  0.001864762    1.791    0.442
       154  -9.2613     11.1701     86.0281   1.1389933307e+02   5.6926508874e+01    0.2003219    0.1304789 -51.25 0.0006602076    1.244    0.196
       155 -10.1812    155.0417     84.9447   6.7879051742e+01   3.4308153630e+01    0.2345465    0.2287408  14.07 0.0003976761    1.021    0.021
       156  -8.9208     78.7195     84.5517   8.9704037844e+01   5.0113301301e+01    0.2509241    0.1800675 -68.89  0.001182104    1.800    0.444
       157  -9.6043     35.6303     82.7262   1.0448896170e+02   5.5892871183e+01    0.3102348    0.2025574 -58.51 0.0006765316    1.305    0.234
       158  -9.0101     38.4524     79.4933   1.0267505833e+02   5.6370363772e+01    0.1691644    0.1461305 -84.30 0.0001977029    1.376    0.273
       159  -9.6913     20.9391     82.0913   1.0968808576e+02   5.7218758107e+01    0.3025489    0.1606392  38.67  0.001559427    2.349    0.574
       160 -10.3666     54.3509     86.3128   9.8646197647e+01   5.3097222424e+01    0.2408566    0.1791575 -35.96 0.0006951672    1.255    0.203
       161 -10.1546    151.1143     80.7207   6.7534818694e+01   3.6040431420e+01    0.3823639    0.1325197  48.72  0.001216903    2.849    0.649
       162  -9.2972      1.8405     79.6482   1.1608951875e+02   5.8867696206e+01    0.3150617    0.1455188 -76.00  0.001579711    1.987    0.497
       163  -9.4683      1.9778     74.0208   1.1507376313e+02   6.0136123819e+01    0.2250777    0.1267829 -53.39 0.0004602108    1.331    0.249
       164  -8.5903    168.2700     79.6839   6.3383407363e+01   3.2085060821e+01    0.1545266    0.1196633 -66.96 0.0002555494    1.556    0.357
       165  -9.3870     42.7160     80.5108   1.0135752410e+02   5.5716356357e+01    0.2887976     0.156992 -40.38  0.001402583    1.680    0.405
       166 -10.5264    108.5726     77.7121   7.8001172446e+01   4.6145770479e+01    0.5481803     0.278691  32.01  0.002069988    2.371    0.578
       167  -8.8268     90.3071     79.2463   8.4234915703e+01   4.9315864676e+01    0.1870458     0.173126 -86.96 0.0005189365    1.336    0.252
       168 -10.6758     63.4326     75.3320   9.2324434456e+01   5.4397287273e+01    0.4028939    0.3504391  18.98  0.002043724    1.239    0.193
       169  -8.3484     25.3212     78.2431   1.0725703279e+02   5.7782690619e+01    0.1268022   0.08030189 -34.46 0.0001775461    1.523    0.343
       170 -11.5550     16.9193     74.1165   1.0950497756e+02   5.9308667981e+01    0.3179317    0.2068885 -55.39 0.0004010384    1.193    0.162
       171 -10.4971    157.9632     76.6782   6.4734429798e+01   3.5132598363e+01     0.317442     0.257504  46.18 0.0007104063    1.235    0.190
       172  -9.1342     44.8064     73.0877   9.8607602493e+01   5.7164966064e+01    0.2074769    0.1706452 -45.48  0.001065388    1.059    0.055
       173 -10.4433     45.4758     68.9286   9.7168360582e+01   5.8003105587e+01    0.6610466    0.3161283 -25.66  0.002190282    2.999    0.667
       174 -11.9592     52.8997     75.1406   9.6141190445e+01   5.5792535989e+01    0.2881062    0.2477545 -20.97            0    1.123    0.110
       175 -11.1567     52.9325     70.3038   9.4715170779e+01   5.6844555290e+01    0.5693338    0.2304054 -54.35  0.002314555    2.333    0.571
       176 -12.1527    199.7756     71.8504   5.5232737918e+01   2.5753122927e+01    0.3849308      0.27194 -27.69 0.0004460261    1.460    0.315
       177  -8.7403    126.1053     75.8175   7.2361599641e+01   4.2769866673e+01    0.2122126     0.175332   9.24 0.0003388612    1.338    0.252
       178  -9.6999     82.4248     75.3210   8.5629378131e+01   5.1504112908e+01    0.3974401    0.2550463  -0.88  0.001366725    2.334    0.571
       179  -9.2732     29.0341     75.4548   1.0521842782e+02   5.8123137496e+01    0.2987798    0.1791322 -26.19  0.001572438    1.824    0.452
       180  -9.9579    179.7878     74.7071   5.9612545436e+01   3.0137659220e+01    0.4682494    0.2582671  36.98  0.001787906    2.262    0.558
       181  -9.5473    173.7611     69.2049   5.9187703412e+01   3.2548866418e+01    0.3013846    0.1613939  40.03  0.001154563    2.168    0.539
       182  -9.1435    175.2932     75.2803   6.0658019737e+01   3.1141578304e+01    0.2317311    0.1880016 -16.80 0.0001812698    1.353    0.261
       183 -10.9789    170.0861     72.5626   6.0911635451e+01   3.2888334420e+01     0.526264    0.3526947  78.82 0.0008027931    2.010    0.503
       184  -9.7063     92.9950     66.9938   7.9346255287e+01   5.1313339919e+01    0.3413565    0.2303214 -55.21 0.0009634931    1.806    0.446
       185 -10.2987     94.0005     72.4880   8.0858752614e+01   5.0038768504e+01    0.5292706    0.2933524 -26.16  0.001717583    2.219    0.549
       186 -10.4948     89.1656     72.5464   8.2465704000e+01   5.0909746310e+01    0.5016971    0.2859797 -49.77  0.001323492    1.831    0.454
       187  -9.4978     88.5880     68.1876   8.1209588870e+01   5.1888709675e+01    0.2725607    0.2046283 -23.32  0.001345926    1.327    0.247
       188  -9.8017     68.9959     73.9751   8.9903339896e+01   5.3900635058e+01    0.2641841    0.1790725 -44.50 0.0009641739    1.330    0.248
       189  -9.3913    152.1735     72.4067   6.4741736277e+01   3.7299011843e+01    0.2702539    0.2114381 -34.33 0.0002178449    1.277    0.217
       190  -9.4447    137.8632     72.1081   6.8089964908e+01   4.0768114491e+01    0.2283931    0.2088693 -68.17  0.000448009    1.236    0.191
       191 -11.4111     79.7202     69.8279   8.4783736471e+01   5.3092808621e+01    0.2654215    0.2352472 -23.04 0.0002908245    1.013    0.012
       192 -10.0086     75.3130     66.0867   8.5091917919e+01   5.4570243690e+01    0.2451321    0.2216893  18.66 0.0002611768    1.160    0.138
       193  -9.5616     10.1625     69.5846   1.1112586768e+02   6.0727512268e+01    0.2392819    0.1313273 -54.96 0.0007665931    1.360    0.265
       194  -9.0737    157.0939     68.6642   6.2481556879e+01   3.6750763365e+01    0.2150774    0.1900914  47.60 0.0004521669    1.123    0.110
       195  -9.9393    120.3424     66.3138   7.0830047996e+01   4.5823603119e+01    0.5504655     0.240053 -36.79  0.002042912    2.281    0.562
       196  -9.0561     64.0721     69.4841   9.0288692325e+01   5.5560869665e+01    0.1957286    0.1365773  26.37  0.000489004    1.548    0.354
       197  -9.9645     15.9867     59.5859   1.0647664795e+02   6.2576991471e+01    0.3498753     0.199576 -79.63  0.001043218    2.484    0.597
       198 -10.2749     14.5086     64.8733   1.0837085392e+02   6.1519434269e+01     0.307961    0.2469657  31.96  0.002049241    1.580    0.367
       199 -10.5614      1.7922     68.0439   1.1404033353e+02   6.1480648410e+01     0.404208    0.1676556 -58.91   0.00118733    1.694    0.410
       200 -10.0377     11.1893     61.3697   1.0889090885e+02   6.2480384343e+01    0.2980879    0.2300713   5.84  0.001501769    1.523    0.343
       201 -10.8740      1.7647     61.9500   1.1283690168e+02   6.2823395006e+01    0.2870171    0.1766431 -50.16 0.0005444408    1.217    0.178
       202 -11.1109      6.0106     59.0692   1.1048368675e+02   6.3253058924e+01    0.3401984     0.250829 -67.04 0.0009080129    1.276    0.216
       203 -10.5371     38.9876     58.4171   9.6586339584e+01   6.0920444191e+01    0.5404701     0.277084  23.76  0.001773605    2.191    0.544
       204 -11.5270     32.1054     64.7379   1.0125523037e+02   6.0235166206e+01    0.5840127    0.3179068  -4.65  0.001171441    2.528    0.604
       205 -10.4486     31.6129     59.0233   9.9820100218e+01   6.1500037339e+01    0.3529515    0.1954148 -62.69  0.001765714    1.933    0.483
       206 -10.2750    143.6695     66.4181   6.4844710643e+01   4.0398048261e+01    0.2821968     0.255089  -8.66 0.0007856821    1.136    0.120
       207  -9.2780    139.9621     64.2574   6.5038651480e+01   4.1656698937e+01    0.2144027    0.1886013  42.08 0.0001903353    1.116    0.104
       208  -9.8647    105.7045     66.7449   7.5243676967e+01   4.8868480485e+01    0.3447634    0.2325921  32.60   0.00157156    1.544    0.352
       209  -9.9107    135.4088     64.7411   6.6320880936e+01   4.2653051303e+01    0.3155204    0.2671258  11.72 0.0008796377    1.270    0.213
       210 -10.5818     23.4904     62.8574   1.0423566137e+02   6.1347922047e+01    0.6434582    0.2285495 -35.64  0.001917188    3.037    0.671
       211  -9.7548     22.1109     57.0528   1.0323406393e+02   6.2694334724e+01      0.35749    0.2464246 -54.64  0.001170875    1.249    0.199
       212  -9.7331     24.9543     54.0621   1.0116110682e+02   6.3102412414e+01    0.2408332     0.181155 -61.96 0.0008816292    1.405    0.288
       213  -9.8854    203.3010     63.2161   5.2338827945e+01   2.6269107175e+01    0.3170043    0.2682882  25.53  0.001417171    1.403    0.287
       214  -9.6112    100.1837     64.0191   7.6015627516e+01   5.0492547077e+01    0.2314951    0.2038612  30.15 0.0002408448    1.141    0.123
       215  -9.1591    160.4823     60.9772   5.9383135526e+01   3.7188893154e+01    0.3141301    0.1857265 -34.29  0.001348472    1.699    0.411
       216  -9.3096    163.7633     59.7439   5.8332829660e+01   3.6569652043e+01    0.3850775     0.244047  77.52  0.001593331    2.089    0.521
       217 -10.3184    116.7383     61.2653   7.0120808707e+01   4.7519096641e+01    0.2545285    0.2295444  13.96 0.0002688729    1.075    0.070
       218 -10.4396     70.5201     60.3402   8.4863830877e+01   5.6467713629e+01    0.3319142    0.2896304  -7.13   0.00108921    1.068    0.064
       219  -9.9423     82.9392     63.0180   8.1360920910e+01   5.3900834101e+01    0.4203799     0.214829 -50.83 0.0009766686    2.244    0.554
       220  -9.1902    194.0880     60.6177   5.3093118529e+01   2.8904363566e+01    0.2660335    0.1879198 -44.52 0.0005286648    1.377    0.274
       221  -8.7482     98.6115     60.7279   7.5359701633e+01   5.1411777691e+01    0.1541194    0.1085833  10.42 0.0006992291    1.718    0.418
       222  -8.9832     55.4474     57.4482   8.9617233236e+01   5.9198314762e+01    0.1765987    0.1251779  37.94 6.683818e-05    1.647    0.393
       223  -9.8359     52.6152     54.5539   8.9745770326e+01   6.0137250033e+01    0.3808911    0.2023491 -45.83   0.00185256    1.683    0.406
       224  -9.4308    151.6446     59.6020   6.0836921884e+01   3.9594788166e+01    0.3497045    0.1413573  54.22  0.001244161    2.396    0.583
       225  -8.8874    144.9580     58.7166   6.2053472426e+01   4.1373805756e+01    0.2225142    0.1573208 -54.48 0.0008186703    1.662    0.398
       226  -9.9038    136.7635     56.1172   6.3123810459e+01   4.3770136044e+01    0.2872432    0.2172963  10.62 0.0006627035    1.577    0.366
       227 -10.2059    163.1501     54.7181   5.6906434854e+01   3.7502713463e+01    0.3317274    0.2509106 -59.86   0.00160299    1.508    0.337
       228  -9.4836    170.7668     58.0059   5.6436692563e+01   3.5093640986e+01    0.2468608     0.184165 -71.54 0.0008046221    1.634    0.388
       229  -9.9685    167.3284     56.9240   5.6767732825e+01   3.6120229686e+01    0.2647746     0.207981  80.51 0.0003657209    1.430    0.301
       230  -9.5125    105.1038     57.4718   7.2190490808e+01   5.0674021430e+01    0.2659865    0.2027764 -38.69 0.0003485005    1.331    0.248
       231  -9.6948     60.6718     58.2176   8.7842449175e+01   5.8338233788e+01    0.2329114    0.1882724  26.51 0.0007584418    1.330    0.248
       232 -11.2044    225.8802     55.3212   4.7139148027e+01   2.2144493968e+01     0.253967    0.2158004 -56.98 0.0002780083    1.077    0.072
       233 -10.3656    118.4593     54.4433   6.7259823131e+01   4.8294472957e+01    0.7144022    0.3672316 -20.42  0.002116075    2.583    0.613
       234 -10.1196    123.0160     52.0059   6.5176282938e+01   4.7652949410e+01    0.4312238    0.2457153  39.56  0.001625116    1.777    0.437
       235 -10.1944    123.7252     47.9867   6.3570488587e+01   4.8113883809e+01    0.3002094    0.2449616 -42.88 0.0003327061    1.329    0.248
       236 -10.4535    125.6831     45.2743   6.2108301371e+01   4.8063692363e+01    0.3871858    0.2425205  64.62  0.001639627    1.871    0.465
       237  -9.9236     96.5517     45.0045   7.0215519315e+01   5.4504039427e+01     0.358067    0.2866033  26.21  0.001950778    1.193    0.162
       238  -9.3954     87.7866     46.0191   7.3451729404e+01   5.6062931368e+01    0.2767845    0.1586566 -39.71 0.0007178645    1.768    0.434
       239 -10.7334     93.4763     54.6127   7.4807472699e+01   5.3512273495e+01    0.3437218    0.2485756 -22.13 0.0004968706    1.378    0.274
       240 -11.2260     94.8861     49.4507   7.2433642632e+01   5.4117507025e+01    0.6354585    0.2365716  41.65   0.00187737    2.683    0.627
       241  -9.7297     89.5357     49.4788   7.4191207648e+01   5.5153990019e+01    0.2688038     0.213958  -2.77  0.000644157    1.249    0.200
       242  -9.7821     46.9043     47.0885   8.9427266398e+01   6.2287928363e+01    0.3306019    0.2104409  -3.08 0.0004389821    1.823    0.452
       243  -9.8834     42.5030     44.3702   9.0303355171e+01   6.3320551915e+01    0.2505212    0.2048266  -6.28 0.0006411455    1.141    0.123
       244 -11.0728     42.0287     51.7815   9.3146796316e+01   6.1944070478e+01    0.5833688    0.3646573 -60.06  0.001997174    1.938    0.484
       245  -9.2362     38.8336     46.6134   9.2709252403e+01   6.3301875550e+01    0.3200329    0.2031605  31.83  0.001795741    1.808    0.447
       246 -10.2065    191.4856     54.1954   5.1723542507e+01   3.0508348696e+01    0.3005754    0.2509009 -25.08  0.001449789    1.267    0.211
       247 -10.2418    152.0725     54.1356   5.8995103126e+01   4.0349473974e+01    0.3909326    0.3343923  60.40  0.002048708    1.167    0.143
       248 -10.7130    153.0784     48.6883   5.7031038138e+01   4.0915878019e+01    0.4499479    0.2848299  76.35  0.001923551    2.006    0.502
       249  -9.4035    145.4199     53.6079   6.0277956412e+01   4.2068823899e+01    0.3082869    0.1480193 -30.18  0.001193587    2.182    0.542
       250 -10.2260     83.5529     52.1476   7.7226319917e+01   5.5803959164e+01    0.3210745    0.2662392 -22.78  0.001088061    1.114    0.103
       251  -8.8358     79.5844     48.8110   7.7355543228e+01   5.7094584249e+01    0.2804848     0.167771 -47.41  0.001069708    1.908    0.476
       252 -10.4385     30.4553     53.2184   9.8542268240e+01   6.2810527025e+01    0.3679126    0.2556986  16.08  0.001936962    1.597    0.374
       253  -9.6467     60.9595     51.9884   8.5512971490e+01   5.9500399440e+01     0.242857    0.2154147  44.55 0.0009381186    1.446    0.308
       254 -12.4908     61.8359     44.1712   8.2208039554e+01   6.0796329437e+01    0.5053498    0.2764283 -35.58 0.0004787753    1.664    0.399
       255 -10.2959     65.4008     49.5656   8.2888991802e+01   5.9292535337e+01    0.3173619    0.2059191 -31.94 0.0005943011    1.402    0.287
       256 -10.9413     67.6182     44.4535   8.0071730651e+01   5.9854687079e+01    0.4575408    0.2845315  13.51  0.001210633    1.912    0.477
       257  -9.0120      8.3837     43.7670   1.0551422223e+02   6.6338363071e+01    0.2074586   0.09809636 -61.14 0.0008269692    1.890    0.471
       258 -10.9946      4.6282     37.7429   1.0550379163e+02   6.7745949419e+01    0.4159262     0.392315 -61.02    0.0029431    1.377    0.274
       259  -9.8878      5.0434     31.7691   1.0341333519e+02   6.8886219980e+01    0.4896997    0.1863149  11.47  0.002428729    3.078    0.675
       260 -10.6722      6.9527     50.6895   1.0804925932e+02   6.4988881846e+01    0.5216437    0.3091338  31.91  0.003109312    2.179    0.541
       261 -11.3842     12.0915     44.4804   1.0401852651e+02   6.5976302851e+01    0.5833421    0.1447879 -51.27  0.001618612    2.595    0.615
       262 -11.6144     14.4593     39.4742   1.0135226714e+02   6.6819701856e+01    0.4881177    0.3616745 -62.52  0.001364361    1.517    0.341
       263 -10.5238    199.6299     51.7355   4.9794330047e+01   2.8866425359e+01    0.2970386    0.2576365  -5.91 0.0003832986    1.350    0.260
       264  -9.4776    196.9036     48.0964   4.9203348846e+01   3.0049913473e+01    0.2340442    0.1975623  66.79 0.0004635963    1.175    0.149
       265  -9.2425    204.1496     46.3067   4.7688064615e+01   2.8531574662e+01    0.2830604    0.1716391  40.61 0.0005489096    2.041    0.510
       266  -8.5530    106.8954     52.7920   6.9966653819e+01   5.1094518837e+01    0.1838652    0.1125895  43.47 0.0003532268    1.602    0.376
       267  -9.9488     71.3402     51.7587   8.1465003187e+01   5.7961289048e+01    0.2807855    0.2013264   0.35  0.001183098    1.526    0.345
       268 -10.0230    176.6057     49.6719   5.2892179424e+01   3.4874368501e+01    0.4203461    0.2121495  45.66  0.001699667    2.112    0.527
       269  -8.2465    216.2847     48.3354   4.6604616112e+01   2.5353256931e+01    0.1335209    0.1081293  20.24 0.0007012979    1.624    0.384
       270  -9.4820     31.7498     47.8002   9.6218545845e+01   6.3783267031e+01    0.1766105    0.1371931 -27.16 0.0005958195    1.072    0.067
       271  -9.9453     17.6766     47.1704   1.0228982546e+02   6.5063620350e+01    0.3217078    0.2596755 -46.99  0.002124956    1.143    0.125
       272 -10.3477    114.7473     46.1794   6.5307409724e+01   5.0434116585e+01    0.2937382    0.2465036  -9.95  0.001087064    1.196    0.164
       273  -8.5735    104.2784     47.6668   6.8856817625e+01   5.2482138624e+01    0.2175848    0.1441941  48.78 0.0004716622    1.535    0.349
       274 -10.3074    102.7614     43.8967   6.7889207276e+01   5.3390932695e+01    0.5461989    0.3191842  21.62   0.00228416    2.238    0.553
       275 -11.7076    103.6579     38.6983   6.5630051191e+01   5.3972189825e+01    0.3790217    0.2612259  52.21 0.0003064229    1.499    0.333
       276  -9.4540     26.7656     45.1568   9.7547985756e+01   6.4755414112e+01    0.3607572    0.1108493 -46.52  0.001532077    2.441    0.590
       277  -8.6746    231.3069     46.3453   4.4297335436e+01   2.2170205715e+01    0.1295833    0.1046847  20.59 0.0007043045    1.696    0.410
       278  -8.9264    164.8516     46.1577   5.3931785389e+01   3.8329918261e+01    0.1994464    0.1685112  26.22 0.0003921824    1.302    0.232
       279  -9.3201    134.2839     46.2029   6.0342038184e+01   4.5886138757e+01    0.2302793    0.1832378  -1.88 0.0008045044    1.394    0.283
       280  -9.3571    245.6316     45.0721   4.2454417462e+01   1.9199462005e+01    0.2853146    0.1548656 -82.98  0.001287718    2.474    0.596
       281  -9.3124    108.8334     44.6118   6.6384004110e+01   5.1978809652e+01     0.264155    0.1756876 -47.24 0.0005384688    1.785    0.440
       282  -9.5385    199.9550     43.5044   4.7516562788e+01   2.9935086556e+01    0.2331708    0.1979666  -7.33 0.0003882585    1.403    0.287
       283 -10.2193    178.9510     42.1287   5.0277785831e+01   3.5336102367e+01    0.2535169    0.2118437 -40.12  0.001113177    1.211    0.174
       284  -8.9014    180.5477     54.4793   5.3621143805e+01   3.3183787145e+01    0.1440485    0.1421216  62.91 5.755997e-05    1.041    0.039
       285 -10.9778     78.2387     34.6982   7.2195467021e+01   5.9612640388e+01     0.884697    0.3769127  49.75  0.003586142    2.754    0.637
       286  -9.9601     86.1119     36.7699   7.0344432417e+01   5.7829552740e+01     0.506461    0.2696713  -9.81 0.0002052212    2.880    0.653
       287 -10.6009     83.4602     33.5837   6.9926707253e+01   5.8803722719e+01    0.3987739     0.292032   5.69  0.001333272    1.385    0.278
       288  -9.0337     82.2668     42.3390   7.3892066424e+01   5.7691980444e+01    0.2270936     0.168898  -3.00 0.0003676715    1.373    0.272
       289  -9.4920     82.4748     38.9005   7.2442257932e+01   5.8195109581e+01    0.2672702    0.1732429 -31.80 0.0009470904    1.496    0.331
       290 -10.2088     75.2500     28.7792   7.0746066720e+01   6.1011331690e+01    0.2908528    0.2299968 -19.47  0.001026658    1.196    0.164
       291 -10.1278     71.6919     29.6808   7.2427668467e+01   6.1516637110e+01    0.3919279    0.2429689 -16.98  0.001170313    1.639    0.390
       292 -10.1563     53.0736     42.7560   8.5204178578e+01   6.2294034318e+01    0.2208618    0.1623643 -29.53 0.0003499144    1.174    0.148
       293  -9.2889    201.4413    249.3869   9.3372833099e+01  -4.8856883800e+00    0.2290178    0.1202816  36.46 0.0009278408    1.574    0.365
       294  -9.1039     32.1864     41.6795   9.3882850122e+01   6.4927769828e+01    0.2625299    0.2361298 -74.81  0.001731405    1.624    0.384
       295 -10.1738    136.0408     36.3929   5.6539588174e+01   4.6820268270e+01    0.4592093    0.3448135 -41.40  0.000943765    1.440    0.306
       296  -9.4570    140.5388     25.9630   5.1990894006e+01   4.6994527828e+01    0.2230283    0.1835854  72.72 0.0003795524    1.247    0.198
       297  -9.9749    152.5986     31.8659   5.1662763524e+01   4.3293886642e+01     0.415147    0.2566853  66.71  0.001527757    1.605    0.377
       298  -8.9035    143.5122     35.4739   5.4635805755e+01   4.5105433180e+01    0.2356724    0.2005624  19.33 0.0005773454    1.243    0.196
       299 -11.2104    145.4346     28.9976   5.2068177807e+01   4.5428178369e+01    0.7142639    0.5167792  32.12  0.003643109    1.476    0.323
       300 -11.3329    127.2264     39.4737   5.9658614267e+01   4.8525699553e+01    0.3031291    0.2842852  68.65 0.0006378059    1.164    0.141
       301 -10.6880    130.5772     36.0186   5.7636721645e+01   4.8190423516e+01    0.3907373    0.3714155  22.44   0.00153813    1.035    0.034
       302  -9.5009     91.0519     41.0443   7.0430735893e+01   5.6220905929e+01    0.2065349     0.189778  -4.45 0.0004072968    1.090    0.083
       303 -10.4515    228.1171     37.7588   4.2582491143e+01   2.4032338783e+01    0.3144155    0.1765695 -43.55 0.0004291461    1.599    0.374
       304  -9.0995    191.4565     38.8190   4.7429653807e+01   3.2651386571e+01    0.3222474    0.1478503 -17.02   0.00102253    3.334    0.700
       305  -9.0391    165.9736     39.6419   5.1715400221e+01   3.8937215198e+01    0.1982968    0.1748831  68.18 0.0003850076    1.094    0.086
       306  -9.1858    158.3187     39.7644   5.3141474367e+01   4.0848809379e+01    0.3012935    0.1116629 -37.37  0.001090767    2.666    0.625
       307  -9.0457    182.3132     38.9290   4.8816584276e+01   3.4917269742e+01    0.1865564    0.1809733 -65.53 0.0004690654    1.050    0.048
       308  -9.0683    121.4017     39.3392   6.1047935884e+01   4.9911064287e+01    0.2601325     0.128665  53.55  0.001080484    1.934    0.483
       309  -8.6797     24.1987     39.2161   9.6674506226e+01   6.6127128127e+01    0.2298617   0.09575413 -26.84 0.0008460608    2.900    0.655
       310  -9.2278    238.0140     37.9327   4.1585917164e+01   2.1793440173e+01    0.1973608    0.1696055 -62.06 0.0004344712    1.007    0.007
       311  -8.9414    214.6678     38.3603   4.4265406481e+01   2.7076728498e+01    0.1518971     0.091498 -62.80 0.0007040337    1.803    0.445
       312 -10.4822    208.1734     34.9207   4.4168059193e+01   2.9067364330e+01    0.4886309    0.2845667 -17.33 0.0008780925    2.223    0.550
       313 -10.4494    211.6790     28.1144   4.2009551176e+01   2.9070839010e+01    0.3217274    0.2159321 -82.99 0.0003516248    1.560    0.359
       314  -9.5018    186.5290     37.0437   4.7643876498e+01   3.4107472721e+01    0.2496988    0.1923033 -84.24 0.0007578922    1.377    0.274
       315 -10.1318    176.7877     36.5201   4.8972568913e+01   3.6617116031e+01    0.3709617    0.2398332  78.58  0.001078521    1.677    0.404
       316 -10.8410    116.0214     34.1321   6.0489988951e+01   5.1856049484e+01    0.5403125    0.3307951  19.14 0.0006643903    2.080    0.519
       317  -8.9020    250.7050     35.7178   3.9862458454e+01   1.9345490872e+01    0.1113175   0.09843706  26.59 0.0002034646    1.538    0.350
       318 -10.1588     58.2638     34.9042   7.9882856188e+01   6.2896524513e+01    0.4415934    0.2658427  12.48 0.0002723075    1.939    0.484
       319  -9.4354     54.5997     33.2106   8.0678666358e+01   6.3708315711e+01    0.2164934    0.1707274  -3.15 0.0005717181    1.108    0.097
       320  -9.8491    128.5950    247.6712   1.0698224426e+02   6.4449704148e+00    0.3014347    0.1726272  57.12  0.001296588    1.886    0.470
       321 -10.2739     99.9054     26.8642   6.2024214036e+01   5.6364545897e+01    0.7908146    0.3320325  35.49  0.003034951    2.682    0.627
       322  -9.0140     47.7672     34.5457   8.4151278303e+01   6.4426953018e+01    0.1703474    0.1170746  21.59 0.0009814204    1.462    0.316
       323 -10.8726    186.2019     29.9713   4.5687115081e+01   3.5070876433e+01    0.6977914    0.4005098  69.83  0.002722373    1.690    0.408
       324  -9.1575    163.3966    246.8140   1.0018125096e+02   1.2325889839e+00    0.1485195     0.112386 -24.41 0.0006080861    1.609    0.379
       325  -9.0826     14.2093     28.7788   9.7720490720e+01   6.8862745120e+01    0.2740408    0.1513923  15.81  0.001619095    1.967    0.492
       326  -9.4727     30.1953    125.6736   1.1413979142e+02   4.6078271476e+01    0.2888345    0.1514416 -66.40 0.0008765207    1.554    0.357
       327 -10.7010     20.5365    244.6906   1.2641657140e+02   2.1031476239e+01    0.2349322    0.1519823  87.58 0.0005241177    1.315    0.239
       328  -8.7557    211.0139    245.4817   9.1015928099e+01  -5.7828556734e+00    0.1751503     0.096574  32.74 0.0003782734    1.487    0.328
       329 -10.1085    202.3965    243.3291   9.2276539594e+01  -4.2334859459e+00    0.2909609    0.1818253 -20.50  0.001706686    1.809    0.447
       330  -8.9552      1.4563    244.0150   1.2949079034e+02   2.3015695448e+01    0.1429243    0.0779482 -88.32 0.0003778578    1.529    0.346
       331 -11.3502     27.7973     31.2047   9.1939334455e+01   6.7276961027e+01    0.7802954    0.4074855  -6.38  0.003513423    2.504    0.601
       332 -10.9091     22.9340     30.8005   9.4143539114e+01   6.7796671063e+01    0.2954264    0.2084549 -15.85  0.001036796    1.245    0.197
       333  -8.7539    232.9991     32.0000   4.0704264145e+01   2.3662035931e+01    0.2019925   0.07106714  69.02 0.0005510862    2.894    0.654
       334  -9.1024    159.0838     30.5629   5.0078991200e+01   4.1822264775e+01    0.2822851    0.1346855 -40.04  0.000780958    2.177    0.541
       335  -9.7839    124.4246     29.8081   5.6818549275e+01   5.0445864812e+01    0.4522417    0.2716259  85.22  0.001396207    2.981    0.665
       336  -9.4430    247.4800     30.1199   3.8913673957e+01   2.0730618264e+01    0.2222119     0.164055  55.60 0.0008683162    1.588    0.370
       337 -10.8161    221.5752     28.7686   4.1098715937e+01   2.6665986097e+01    0.3785029    0.3170377 -20.49  0.001261788    1.391    0.281
       338  -9.2256    102.3222    242.3492   1.1144804641e+02   1.1242419800e+01    0.1106475   0.09301134  -1.18 0.0007048889    1.744    0.427
       339  -8.7812     55.4731     29.4082   7.8673156577e+01   6.4181979041e+01    0.1310802    0.1055836  -3.99 0.0001033019    1.038    0.037
       340  -9.1699     51.9517     28.7891   7.9884870533e+01   6.4789953633e+01    0.1811063    0.1536623  -2.77 0.0004088558    1.094    0.086
       341 -10.1590     48.7945     26.5688   8.0262184294e+01   6.5577778999e+01    0.3747414    0.3134981  55.38  0.002292593    1.936    0.484
       342  -9.9107    134.0480     27.4198   5.3821511528e+01   4.8417906537e+01    0.2437111    0.2051066 -21.94 0.0004120138    1.261    0.207
       343  -9.3799     39.8177     27.3972   8.4659418946e+01   6.6614541110e+01    0.3076942    0.1892918  51.28  0.001485643    3.146    0.682
       344 -10.2914    159.2806     24.7144   4.8193195283e+01   4.2453979471e+01    0.3094387     0.243356 -66.37 0.0008821316    1.417    0.294
       345  -9.7566    165.2586     25.8794   4.7587583843e+01   4.0815271896e+01    0.5784215    0.3117073 -71.65  0.002203783    2.983    0.665
       346  -9.5691     44.0448    240.4864   1.2212752521e+02   1.9228453871e+01    0.1683108    0.1323861 -78.51 0.0003560987    1.370    0.270
       347  -9.5949    247.5962    239.7570   8.3569543110e+01  -1.0173393270e+01    0.1430184   0.09982522 -30.14 0.0006807917    1.628    0.386
       348 -10.1876     34.0303    239.2688   1.2381727555e+02   2.0584341067e+01    0.1921091    0.1357845  75.98 0.0001872241    1.126    0.112
       349 -10.8863      2.0319     25.5182   1.0283223657e+02   7.0225169302e+01    0.1777649    0.1263124 -34.65  0.000337927    1.032    0.031
       350 -10.6987      1.5506     22.4259   1.0197938475e+02   7.0819017074e+01    0.2203174    0.1433997 -49.00 8.549018e-05    1.292    0.226
       351  -9.5714    204.5191     24.1431   4.1799764976e+01   3.1257767791e+01     0.250319    0.2254266 -57.95  0.000909593    1.083    0.077
       352 -10.4594     61.5835     23.8270   7.3692279404e+01   6.4052633663e+01    0.2998943    0.2104991  -7.38  0.001725947    1.334    0.251
       353  -9.1088     66.1295     22.8768   7.1494306210e+01   6.3425395299e+01    0.1989584     0.165526   3.26 0.0004611484    1.016    0.016
       354  -9.9244    233.9494     24.5134   3.8869301521e+01   2.4362516964e+01    0.2831352    0.1478538  80.53 0.0008158733    2.006    0.501
       355 -11.2188    153.6262     23.0360   4.8608133154e+01   4.4061991562e+01     0.300867    0.2286776  44.10 0.0003052033    1.286    0.222
       356 -10.2141    123.6830     22.4256   5.4263264975e+01   5.1481137416e+01    0.4120923    0.2683539 -85.51  0.001575166    2.490    0.598
       357  -9.0230    167.9899    237.4858   9.7984119548e+01   1.9189086203e+00    0.1699763   0.09407005  54.21 0.0006101314    2.336    0.572
       358 -10.8652    105.0645     20.9223   5.8202001119e+01   5.5937906041e+01    0.2345747     0.226162 -14.61 0.0003317299    1.186    0.157
       359  -9.6710    110.3866     20.9069   5.6828614185e+01   5.4743057501e+01    0.4656832    0.1846544  43.80  0.001867193    2.313    0.568
       360  -8.9360     85.4719     23.9246   6.5175905260e+01   5.9714417669e+01    0.1886283    0.1249708 -20.21 0.0005150695    1.495    0.331
       361  -8.7685    133.2565    234.6212   1.0447525446e+02   7.8962243763e+00    0.1222209   0.08959515  70.31 0.0006968859    1.661    0.398
       362  -9.5539    132.2523     21.4629   5.2079108381e+01   4.9525224394e+01    0.2548076    0.2239983 -51.44 0.0008567919    1.295    0.228
       363  -8.6784     79.9828     22.4594   6.6343960605e+01   6.0967910913e+01    0.1650017    0.1213173  75.85 0.0008075087    2.441    0.590
       364  -9.6823     41.2876     21.7542   8.1439283478e+01   6.7316234849e+01    0.1968874    0.1833701 -16.58 0.0006172386    1.422    0.297
       365  -9.1486     39.5734     17.5220   8.0239196136e+01   6.8163941892e+01    0.2385256    0.1577235 -10.59 0.0007264283    1.357    0.263
       366  -9.2024     41.1529    234.1334   1.2222424404e+02   2.0745832339e+01    0.1523596    0.1316027  73.07 0.0004095267    1.211    0.174
       367  -9.5340    220.3078    233.4158   8.7370442149e+01  -5.5792676936e+00    0.2446831   0.09814087  32.48  0.001145204    2.193    0.544
       368  -9.2024     45.4594     16.4645   7.7025562283e+01   6.7519314411e+01     0.242037    0.1839257 -20.16  0.001277196    1.180    0.153
       369  -9.0606    186.6706    231.6432   9.3452229103e+01  -1.6682634499e-01    0.1329567   0.08797563   5.87 0.0007044241    1.785    0.440
       370  -9.1410    176.6411    231.3194   9.5365423699e+01   1.4846758210e+00    0.1244258   0.09456711  60.31  0.000704408    1.763    0.433
       371  -9.0897     36.0290     20.5051   8.3331246594e+01   6.8160600259e+01    0.2529202    0.1485223 -41.94  0.001086011    1.741    0.426
       372  -9.0822    221.4401    237.5090   8.7837588291e+01  -6.2761321451e+00    0.2214675   0.09244052  27.39  0.001024984    2.321    0.569
       373  -9.9714     93.6808     20.2000   6.1065282581e+01   5.8482906746e+01    0.2190149    0.1723876  48.61 0.0004659749    1.266    0.210
       374  -9.5993    199.4552     18.3951   4.0870417442e+01   3.3134255165e+01    0.2400807    0.2251874   5.75  0.001085254    1.288    0.224
       375  -9.8253    234.6607     18.3842   3.7399869840e+01   2.4919087549e+01     0.347968    0.1438123  76.93  0.001542569    2.514    0.602
       376  -9.1608    151.9013     18.1340   4.7307919224e+01   4.5016708834e+01     0.194515    0.1525377  36.58 0.0005956087    1.312    0.238
       377  -9.1609    230.8469    232.8376   8.5358136978e+01  -7.0324349594e+00    0.1906917    0.1304832   7.73 0.0004312063    1.271    0.213
       378 -10.0774     60.6212     17.5946   7.1178918879e+01   6.5045200244e+01    0.4028913    0.2112731  30.22  0.001921453    1.856    0.461
       379  -8.4266    223.5127    224.9923   8.5354747801e+01  -4.9302611606e+00    0.1654968   0.09272179  -7.90 0.0005999369    2.248    0.555
       380  -8.5338      2.0051    224.2579   1.2857770145e+02   2.6618027522e+01    0.1208587   0.07729733  45.49 0.0003714375    1.485    0.327
       381  -9.7792    225.7828     16.5259   3.7754070850e+01   2.7127162577e+01    0.2302409    0.1669648 -38.84 0.0008795499    1.342    0.255
       382  -9.8055     73.1237     16.6555   6.6085126119e+01   6.2966113814e+01    0.2146196     0.182772 -41.45 0.0008742169    1.543    0.352
       383  -9.5392     88.9048    221.0477   1.1184750715e+02   1.7130282930e+01    0.1937078    0.1673158  60.77 0.0006910276    1.042    0.040
       384  -8.4303    183.4927    219.4906   9.2117260983e+01   2.2196310406e+00    0.1318233    0.1119689  22.48 7.956801e-05    1.014    0.014
       385  -8.8504    203.1512    217.8041   8.7957881145e+01  -7.3602968461e-01      0.17848    0.1294863  11.65 0.0003707171    1.303    0.232
       386  -9.4568    198.9659     13.9714   3.9764431935e+01   3.3728323299e+01     0.263498    0.1695289  65.18 0.0007257524    1.452    0.311
       387  -9.1456    179.4674     13.4547   4.1888838619e+01   3.8582598674e+01    0.2382654    0.1870958 -73.85 0.0001005668    1.283    0.221
       388 -10.3866     89.9541    215.1185   1.1096970849e+02   1.8154305887e+01    0.2728582    0.1760865 -70.56  0.000489863    1.647    0.393
       389  -9.7332      8.2998    209.5653   1.2673772352e+02   2.8944939365e+01    0.1931731    0.1501787  82.45  0.000652334    1.100    0.091
       390  -9.5933    139.3415     13.8703   4.8053054117e+01   4.8563595049e+01    0.2610686    0.1710382  54.37 0.0005699723    1.345    0.257
       391  -8.8370    230.7525    209.4293   8.1245776479e+01  -3.8682602903e+00     0.172984    0.1035435  22.58 0.0003937574    1.571    0.364
       392  -8.9877     67.0846    207.3018   1.1492040897e+02   2.2929492126e+01    0.1735644    0.1364861  57.00 0.0003563547    1.120    0.107
       393  -9.2052     57.3395    205.5508   1.1678626603e+02   2.4542895956e+01     0.184441    0.1297175 -55.78 0.0006208647    1.643    0.391
       394  -8.6780     80.3981     14.2399   6.2535885505e+01   6.1851705445e+01    0.1399907   0.08189012  27.49 0.0006922685    1.671    0.402
       395  -8.5707      1.4429    204.4968   1.2773602578e+02   3.0573513038e+01    0.1124852   0.07943479  76.70 0.0001093721    1.045    0.043
       396  -8.4747    142.4368    203.4490   9.8068798546e+01   1.2050953451e+01    0.1360741    0.1231191  40.85 6.012209e-05    1.015    0.015
       397 -10.8032     33.3597    199.5412   1.2121193220e+02   2.8582051232e+01    0.2625445    0.1872957  64.16 0.0003372106    1.192    0.161
       398 -10.9435     19.2119     28.9935   9.5281533866e+01   6.8437140853e+01    0.2875248    0.1905459  -6.72 0.0004215009    1.463    0.317
       399  -8.9664    219.4913     11.4687   3.7122658464e+01   2.9123995633e+01    0.1282699    0.1098992 -75.49 0.0008097914    1.002    0.002
       400  -8.4090      5.7261    200.3242   1.2671179788e+02   3.1065824228e+01    0.1171711   0.06200125  69.25 0.0003282598    1.579    0.367
       401  -9.0433    120.8494    199.1570   1.0215885589e+02   1.6578071720e+01    0.2102498     0.170706  63.33  0.000715618    1.247    0.198
       402  -9.0440     62.3054    198.5447   1.1503459194e+02   2.5416237488e+01    0.1474225    0.1198819  32.93 0.0002990108    1.419    0.295
       403  -9.2443      7.0911    194.6866   1.2612472710e+02   3.2128725532e+01    0.2162794   0.09989825  49.89  0.001251192    1.899    0.474
       404  -9.1139     58.8799    192.1493   1.1510793929e+02   2.7249759436e+01    0.1933577    0.1474773  76.05 0.0003817608    1.172    0.147
       405  -9.7926     91.4112    188.2576   1.0726594032e+02   2.3612967313e+01    0.3476712    0.2147388  63.61  0.001646435    1.801    0.445
       406  -8.9440     16.3945    181.7679   1.2337564469e+02   3.4110087304e+01    0.1677081   0.08757283 -68.14 0.0009462599    1.678    0.404
       407  -9.4690     55.4627    181.2520   1.1468597163e+02   3.0121488027e+01    0.2098096    0.1655096  47.50 0.0004623155    1.272    0.214
       408  -8.6846     32.4933    175.5532   1.1933359391e+02   3.3981982070e+01    0.1241302    0.1014075  86.65 0.0001671925    1.009    0.009
       409  -9.4331     17.0370    174.9692   1.2271752195e+02   3.5570272385e+01    0.1780083    0.1233131 -54.47 0.0005787386    1.631    0.387
       410  -9.0622     78.3228    173.9222   1.0835186518e+02   2.8796001089e+01    0.2418599    0.1665939  50.33 0.0007269807    1.413    0.293
       411  -9.6821      5.2644    168.4394   1.2479617036e+02   3.8004026956e+01    0.2045712    0.1404445 -54.48 0.0004962992    1.635    0.388
       412  -9.3455     47.9786    166.1034   1.1470459430e+02   3.4522346200e+01    0.1988228    0.1712708 -87.14 0.0005484588    1.029    0.028
       413 -10.5063     24.1743    162.6615   1.2003039138e+02   3.7753919582e+01    0.3330367    0.1832369  42.55  0.001854571    1.855    0.461
       414 -11.5930     37.6108    159.4662   1.1646558617e+02   3.7212364810e+01    0.5498626    0.3097668  56.12  0.002320657    1.840    0.457
       415 -11.9416     30.7452    154.7543   1.1763363133e+02   3.9007474335e+01     0.571091    0.3723157  61.51  0.002625406    1.552    0.356
       416  -9.9323     11.7369    151.5613   1.2196056472e+02   4.1378532243e+01    0.3150492    0.1497321 -59.82  0.001664841    1.851    0.460
       417 -11.5832      3.6144    154.6828   1.2414047254e+02   4.1249129031e+01    0.7467193    0.2309081 -69.16  0.002465963    2.395    0.583
       418 -11.3010      4.8898    147.0391   1.2321462830e+02   4.2926037635e+01    0.5677156    0.2803159  89.98  0.002510898    1.802    0.445
       419  -9.4788      9.4040    147.4946   1.2215900273e+02   4.2501758912e+01    0.2073678    0.1238142 -87.98 -0.0001342129    1.410    0.291
       420 -10.4677     45.5667    152.2293   1.1358353501e+02   3.8105357793e+01     0.426093     0.184625 -55.09  0.001211298    2.128    0.530
       421  -8.9145    143.9604    153.3431   8.8327175049e+01   2.2213253219e+01    0.2064041    0.1904273  34.75 0.0004776592    1.072    0.067
       422  -8.8627    230.3114    147.6945   6.8690646016e+01   5.9712002050e+00    0.1328003    0.1116681 -64.24 0.0002452502    1.616    0.381
       423  -9.8393     54.0123    145.6804   1.1045084894e+02   3.8740752316e+01    0.2901994    0.1792718 -80.07  0.000384085    1.618    0.382
       424 -11.1852     21.6791    141.1455   1.1842508181e+02   4.3057549389e+01    0.4866752    0.2087268  34.18  0.002385411    2.505    0.601
       425  -9.9662     15.3408    143.2749   1.2027854409e+02   4.3052825289e+01    0.2496257    0.1793722 -59.57  0.000739795    1.313    0.238
       426 -10.0287     12.1992    143.7700   1.2111890837e+02   4.3171930214e+01    0.3181549    0.1679851  81.99  0.001290732    1.903    0.475
       427  -9.4794     41.7168    139.0558   1.1281770417e+02   4.1715234277e+01    0.2378431    0.1659584  66.10 0.0007806668    1.548    0.354
       428  -9.5983    236.0174    137.0459   6.5294910382e+01   6.7055398849e+00    0.2170533    0.1933302 -24.48 0.0005834777    1.058    0.055
       429  -9.9951     34.4708    136.7094   1.1447107984e+02   4.3002018786e+01    0.2695761    0.2019348  39.80  0.001060126    1.497    0.332
       430  -8.7538     69.1882    135.8474   1.0464731275e+02   3.9243193670e+01    0.1827425    0.1553874 -40.23            0    1.258    0.205
       431 -10.9604      2.7601    132.7087   1.2246037682e+02   4.6413322666e+01    0.5179863    0.1722924 -74.31  0.002329821    2.298    0.565
       432 -10.6753      8.0270    133.2951   1.2114829090e+02   4.5939127847e+01    0.3020924    0.2060734 -28.21  0.001161755    1.966    0.491
       433  -8.6338     82.8307    134.4052   1.0051003956e+02   3.7641419493e+01    0.1775129     0.142901  14.81  0.000148736    1.508    0.337
       434 -10.2949     42.7509    131.4026   1.1140599346e+02   4.3483137828e+01    0.5232553    0.2141472 -45.65  0.002120687    2.679    0.627
       435 -10.4419     20.2320    131.2452   1.1765925077e+02   4.5550259314e+01    0.2275523     0.177452 -84.31 0.0005308116    1.102    0.093
