#   1 NUMBER                 Running object number                                     
#   2 MAG_AUTO               Kron-like elliptical aperture magnitude                    [mag]
#   3 X_IMAGE                Object position along x                                    [pixel]
#   4 Y_IMAGE                Object position along y                                    [pixel]
#   5 X_WORLD                Barycenter position along world x axis                     [deg]
#   6 Y_WORLD                Barycenter position along world y axis                     [deg]
#   7 A_WORLD                Profile RMS along major axis (world units)                 [deg]
#   8 B_WORLD                Profile RMS along minor axis (world units)                 [deg]
#   9 THETA_WORLD            Position angle (CCW/world-x)                               [deg]
#  10 FWHM_WORLD             FWHM assuming a gaussian core                              [deg]
#  11 ELONGATION             A_IMAGE/B_IMAGE                                           
#  12 ELLIPTICITY            1 - B_IMAGE/A_IMAGE                                       
         1 -12.4123    190.2816     29.8376   6.2803859624e+01   3.3886321512e+01    0.9860897    0.8601052  29.61  0.003711217    1.269    0.212
         2 -12.4894    199.9424     16.7107   5.7815703651e+01   3.2961088431e+01      1.07703    0.7585426  28.40  0.003701922    1.807    0.447
         3 -10.2334     58.3776      4.6272   8.5086219798e+01   6.4967669392e+01    0.3701557    0.1329945 -23.73  0.001646477    2.949    0.661
         4  -8.6889     74.0000      3.0028   7.9196747835e+01   6.2706601160e+01    0.1914014   0.06185506 -26.34 0.0008122381    3.011    0.668
         5  -9.2479     88.0784    241.9104   1.2839098763e+02   1.5448144919e+01    0.1779837    0.1142947  67.42 0.0003652491    1.281    0.220
         6 -10.9467    141.3137    249.8012   1.2026505851e+02   5.8756636465e+00    0.5326158    0.1687634  41.32  0.002273359    2.820    0.645
         7 -11.4609    133.3253    247.5664   1.2137065113e+02   7.5230647222e+00    0.6669191    0.3249642  62.64  0.003340673    2.344    0.573
         8  -9.8910    114.1319    249.7785   1.2483541805e+02   1.0250599161e+01    0.2712124    0.1529914  47.17  0.001663004    1.434    0.303
         9 -10.4104     98.9456    250.2304   1.2737522910e+02   1.2495120740e+01    0.4669625     0.108355  46.55  0.001858931    3.220    0.689
        10 -10.7937     95.4688    248.5054   1.2778238379e+02   1.3286617739e+01    0.5592369    0.1906784 -58.87  0.002790368    3.353    0.702
        11 -19.1865      6.2384    130.1403   1.3294988947e+02   4.6741161315e+01     16.31899     1.721295 -71.59   0.04203106    8.684    0.885
        12 -10.6021    119.1010    228.8547   1.2170618339e+02   1.2861316309e+01    0.3653697    0.2252332  68.06  0.002092937    1.645    0.392
        13 -11.0695    114.7811    230.0945   1.2261731981e+02   1.3352330702e+01    0.5139499    0.2968847 -75.83  0.002860194    2.123    0.529
        14 -11.8240    109.7661    227.5317   1.2321774391e+02   1.4594991530e+01    0.5492393    0.3967253  49.13  0.003566253    1.238    0.193
        15 -11.8132    127.1943    229.9177   1.2038516332e+02   1.1344916733e+01    0.5075244    0.3167003  51.96  0.003017854    1.302    0.232
        16 -10.7030     72.7058    225.6717   1.2948659268e+02   2.0433778005e+01    0.3563753    0.1517516  65.90  0.001712086    2.660    0.624
        17  -9.4014    161.3973    225.7564   1.1362224427e+02   6.0807232261e+00    0.1568357    0.1215763 -33.01 0.0009538666    1.700    0.412
        18 -10.9232    148.3627    229.5381   1.1652028187e+02   7.7876303558e+00     0.344432    0.2548608   4.49  0.001879764    2.430    0.588
        19 -10.2177     78.3247    210.3110   1.2700218148e+02   2.2479151963e+01     0.273863    0.2068326 -67.58  0.001760836    1.415    0.293
        20  -8.6642    199.7623    199.2211   1.0213618882e+02   3.0913240643e+00    0.2010386    0.1090559 -27.00 0.0008901146    2.486    0.598
        21  -9.8243    193.9948    239.4754   1.0974168595e+02  -1.6788783210e+00    0.3797506    0.1609741 -54.28  0.001551623    4.503    0.778
        22  -8.5142    208.4922    186.4971   9.8111199605e+01   3.4016363727e+00    0.1387801    0.1224751  28.04 0.0008105738    1.018    0.017
        23 -10.6980     76.5082    183.5186   1.2431155054e+02   2.8024576295e+01    0.3695003    0.2580307 -46.64  0.002153959    1.871    0.465
        24 -10.4369     80.5991    177.7325   1.2274377248e+02   2.8635187032e+01    0.3048727     0.253451 -42.40  0.001079134    1.610    0.379
        25  -8.3110    198.8496    178.7948   9.8475760837e+01   6.6015627726e+00    0.1870506    0.1674531  76.64 0.0007956081    1.331    0.249
        26  -9.3751     73.1095    175.6590   1.2401617945e+02   3.0126338048e+01    0.2166395     0.150528 -83.74 0.0009223931    1.333    0.250
        27  -9.0692    178.3355    241.3299   1.1276428427e+02   7.9077747144e-01    0.1217689    0.0853121  21.38 0.0004669439    1.729    0.422
        28  -9.8298     81.7871    170.1889   1.2147287563e+02   3.0045182980e+01    0.2457107    0.1917987  58.85 0.0007817728    1.216    0.177
        29 -10.4486     88.1797    167.4845   1.1971725199e+02   2.9667570901e+01    0.3975856    0.2575927 -79.41 0.0004455199    1.601    0.376
        30 -11.9775     76.6840    163.3537   1.2160370210e+02   3.2232314340e+01    0.5350339       0.4496 -32.71   0.00122834    1.658    0.397
        31 -10.8360     93.9409    159.8102   1.1727362708e+02   3.0417753005e+01    0.5341893    0.3244958 -41.49  0.001778082    2.131    0.531
        32 -13.1038     50.8118    150.0317   1.2544295356e+02   3.8413469761e+01       1.4724    0.4039791 -57.48    0.0059943    3.022    0.669
        33 -11.9941     43.2723    144.8745   1.2644335622e+02   4.0359463336e+01    0.4394881    0.3948599  85.98  0.003164639    1.149    0.130
        34 -12.5481     59.3151    134.5993   1.2124383975e+02   4.0773064264e+01     1.050385    0.4036892 -70.85  0.004115804    3.062    0.673
        35 -10.7104     73.5955    153.1096   1.2078712636e+02   3.4874143742e+01    0.5698089    0.2052027 -64.60  0.002303806    2.725    0.633
        36 -12.4939     67.9352    144.2376   1.2072416589e+02   3.7571557377e+01    0.9758971    0.5744044  60.82  0.004209647    1.932    0.482
        37  -9.6253    105.8051    143.4083   1.1168533108e+02   3.2026034472e+01    0.4942519    0.2657816 -32.40  0.001830609    3.413    0.707
        38 -10.7066     94.0676    143.8833   1.1454138697e+02   3.3859733443e+01    0.2686278     0.247878 -50.65 0.0004432585    1.195    0.163
        39 -10.5657     69.5773    134.5865   1.1877129819e+02   3.9475735431e+01    0.2612797    0.2170062 -29.45  0.001151785    1.541    0.351
        40 -11.9214     46.2428    131.2309   1.2385543980e+02   4.2999745025e+01    0.4125623    0.3251463 -79.57  0.002725222    1.099    0.090
        41  -9.2829    101.5370    129.1560   1.0990611499e+02   3.5869531826e+01    0.2409318    0.2205324  -5.45 0.0007740103    1.333    0.250
        42  -9.1019    105.8033    131.1069   1.0925643994e+02   3.4713883534e+01    0.2236347    0.1870441 -88.12 0.0009949594    1.261    0.207
        43  -9.7904    114.4117    132.1088   1.0736476754e+02   3.2966948298e+01    0.3480018    0.2405516 -26.82  0.001375603    2.033    0.508
        44  -9.5410     80.4963    248.4940   1.3019180359e+02   1.5442137868e+01    0.1918766    0.0975408 -74.43  0.001167104    2.107    0.525
        45  -8.7298    109.7871    120.8223   1.0606108449e+02   3.6252910121e+01    0.2041116     0.189369 -33.07 0.0004916856    1.158    0.137
        46  -8.5456    167.5295    112.5175   9.0215463939e+01   2.5939462608e+01     0.153868    0.1489721  83.45 0.0001247776    1.058    0.055
        47  -9.1585    114.7750    110.9830   1.0251133550e+02   3.7454761635e+01    0.1975783     0.115328 -48.30 0.0005199583    1.655    0.396
        48 -10.1923     72.4393    237.6918   1.3058385599e+02   1.8363184012e+01    0.2254907    0.1525879  52.19   0.00119488    1.303    0.232
        49  -8.7585     52.4915     89.5046   1.1459473509e+02   5.1318901736e+01    0.1251421    0.1064845 -53.84 0.0008105233    1.021    0.021
        50  -9.9741    102.6342    235.4861   1.2531988075e+02   1.4352277507e+01    0.2250818    0.1592715 -84.52  0.001464674    1.455    0.313
        51 -11.0526    180.4754     37.2408   6.6524742502e+01   3.5446306268e+01    0.4244761    0.3639526  53.26  0.001139006    1.101    0.092
        52 -10.8192    163.1617    245.3522   1.1595954574e+02   2.8432485119e+00    0.2673917    0.2392047  49.32  0.001558734    1.148    0.129
        53 -11.0897     83.2467    244.5548   1.2941515847e+02   1.5701814997e+01    0.3967084    0.2444004  87.21  0.002284192    1.609    0.379
        54  -9.0533     88.4912    235.5341   1.2773032595e+02   1.6464885967e+01     0.116005   0.08782303  67.15 9.855224e-05    1.003    0.003
        55 -10.9277    121.5204    249.0591   1.2352841166e+02   9.1990153683e+00    0.4359245    0.2327953  37.94  0.001780571    1.968    0.492
