#   1 NUMBER                 Running object number                                     
#   2 MAG_AUTO               Kron-like elliptical aperture magnitude                    [mag]
#   3 X_IMAGE                Object position along x                                    [pixel]
#   4 Y_IMAGE                Object position along y                                    [pixel]
#   5 X_WORLD                Barycenter position along world x axis                     [deg]
#   6 Y_WORLD                Barycenter position along world y axis                     [deg]
#   7 A_WORLD                Profile RMS along major axis (world units)                 [deg]
#   8 B_WORLD                Profile RMS along minor axis (world units)                 [deg]
#   9 THETA_WORLD            Position angle (CCW/world-x)                               [deg]
#  10 FWHM_WORLD             FWHM assuming a gaussian core                              [deg]
#  11 ELONGATION             A_IMAGE/B_IMAGE                                           
#  12 ELLIPTICITY            1 - B_IMAGE/A_IMAGE                                       
         1 -13.2961     58.2962    127.8772   1.1840697070e+02   4.3311645897e+01     4.093165     1.080027 -52.34   0.01351548    3.101    0.677
         2 -12.5236     68.2178    144.0826   1.1873899882e+02   3.7963287292e+01     1.304911    0.8430262  77.01  0.004390257    2.255    0.557
         3 -12.1985    190.5259     33.5442   6.1967880051e+01   3.3741852469e+01    0.8689085    0.7452268 -70.92  0.003466068    1.118    0.106
         4 -12.5240    199.2553     22.4751   5.8492189275e+01   3.3116788672e+01      0.67712    0.6586171  39.60  0.001722882    1.424    0.298
         5  -9.8695     49.2294      3.5234   8.2565855001e+01   6.6193208893e+01    0.2301837    0.1198487  -6.19  0.001303097    2.233    0.552
         6  -8.2467    184.2403    234.4024   1.0707409076e+02  -2.8279377279e+00    0.1917722    0.1177255  43.59  0.000956274    1.651    0.394
         7 -19.3145      7.5151    132.9171   1.3430529045e+02   4.7123790238e+01     19.03257     2.627343 -69.75   0.04653454    7.200    0.861
         8  -9.4832     66.7862    225.5885   1.3130452448e+02   1.8189928153e+01    0.2431037    0.2042532 -45.02 0.0008091584    1.522    0.343
         9  -9.9952    177.5061    220.2131   1.0601509024e+02   9.4869831033e-01    0.3257448    0.1922348  36.30  0.001546894    1.627    0.385
        10  -9.9261    193.9209    194.0454   9.7633526611e+01   3.2484369273e+00     0.578716    0.3754074 -55.60  0.002707417    1.769    0.435
        11 -10.1318    169.7228    233.3716   1.0993364273e+02  -2.4436317065e-01    0.2871886    0.2254602  73.24  0.001366303    1.797    0.443
        12  -8.1047    180.3171    192.6855   1.0024298317e+02   6.0118164716e+00    0.1441132    0.1182336  84.82 0.0006253807    1.648    0.393
        13 -10.2833    165.1594    233.9235   1.1099209990e+02   4.1631663885e-01    0.3109117    0.1908384  41.05  0.001547718    1.525    0.344
        14  -9.4778    208.7354    182.8105   9.2391449077e+01   2.8396688462e+00    0.3721504    0.1785964 -31.07  0.001424651    2.523    0.604
        15 -10.5361     80.8503    174.4146   1.2080929136e+02   2.8435682369e+01    0.3830677     0.289105 -41.19  0.001281248    1.486    0.327
        16  -8.0585     63.2993    182.3278   1.2653835241e+02   2.9031494878e+01    0.1404358    0.1048921 -38.32 0.0007028961    1.638    0.389
        17  -7.8107     99.4983    180.5298   1.1708765647e+02   2.3858573833e+01     0.148967    0.1423926 -79.51 0.0001751578    1.043    0.041
        18 -10.7390     77.1362    179.7298   1.2264304348e+02   2.7672819325e+01    0.5509802     0.357165 -30.65  0.001316695    2.275    0.560
        19  -8.9428    195.9512    171.1725   9.2555045694e+01   7.5670210148e+00    0.3287942    0.2579631 -21.03  0.001200272    1.400    0.286
        20 -11.2840     69.2636    134.0795   1.1641556885e+02   4.0289205777e+01    0.8027319     0.496916 -64.50  0.003684794    1.618    0.382
        21  -9.5249    139.0635    249.2322   1.1887156227e+02   1.8552721038e+00    0.2633168     0.171207  51.61  0.001380611    1.526    0.345
        22 -10.2168     85.2138    235.5892   1.2851748100e+02   1.3261825031e+01    0.4826336    0.2702901 -72.03  0.001381463    1.926    0.481
        23  -9.2098    134.0862    145.6677   1.0105381382e+02   2.5870774924e+01    0.7675024    0.1881315 -54.09  0.001731985    5.639    0.823
        24  -9.5132    106.1884    141.7165   1.0752680564e+02   3.2286901540e+01    0.6107331    0.3233848 -30.99  0.002071232    2.991    0.666
        25 -10.6654     94.2598    142.0060   1.1090322863e+02   3.4355382468e+01    0.3100143    0.2661954 -30.39  0.000466788    1.263    0.208
        26 -11.8277     87.9565    164.8225   1.1723400991e+02   2.9716859548e+01      1.68039     0.535001  51.23 0.0005919647    5.321    0.812
        27 -12.1418     76.7554    160.1894   1.1939309911e+02   3.2653267062e+01    0.7435771    0.5456717 -49.13  0.001217858    1.341    0.254
        28  -9.8336    114.3279    131.1135   1.0283506934e+02   3.3279231850e+01    0.4087656    0.2574309 -32.59  0.001579485    1.911    0.477
        29  -8.7269    105.9051    131.0006   1.0513166289e+02   3.4919722144e+01    0.2415118    0.2317114 -58.49  0.001293821    1.013    0.013
        30  -9.1687    101.5802    128.0475   1.0564549660e+02   3.6423618272e+01    0.2822143    0.2364441 -26.51 0.0004727369    1.304    0.233
        31  -9.8670    118.8941    125.6036   1.0025704527e+02   3.3658505661e+01    0.3967079    0.2652302  -7.87   0.00148245    2.682    0.627
        32 -10.1500     70.8180    229.7210   1.3090779000e+02   1.6686258958e+01    0.3744357      0.29062  42.92  0.001952887    1.293    0.226
        33  -8.2193    115.3214    118.3121   9.9403842109e+01   3.6037518571e+01    0.1561003    0.1225625  -7.29 0.0005942329    1.652    0.395
        34  -8.3864    167.7755    112.7618   8.5163092356e+01   2.5879659749e+01    0.2152325    0.1764629 -78.03 0.0008415353    1.349    0.259
        35  -8.9444    114.6350    111.1871   9.7756943278e+01   3.7759480183e+01    0.2202434    0.1387872 -37.46 0.0004945497    1.666    0.400
        36  -8.5331    103.5841    110.9790   1.0081010016e+02   3.9968296024e+01     0.217327    0.2015538  38.09 0.0003120713    1.106    0.096
        37  -8.4558    205.0473    110.3079   7.7388949143e+01   1.8117089936e+01    0.2056573    0.1847243  69.88  0.001086646    1.161    0.138
        38  -9.8068    120.5012    108.8569   9.5550472218e+01   3.7068556045e+01    0.4619035    0.1484532 -44.94  0.001445143    3.081    0.675
        39  -8.5137    109.8250    119.9006   1.0132532033e+02   3.6760185036e+01    0.2252594    0.2036994 -19.96 0.0003880664    1.177    0.150
        40  -8.9851    134.3923    102.6089   9.0290106689e+01   3.5423448065e+01    0.3870693    0.1450578 -38.83  0.001261303    2.941    0.660
        41 -10.8408     94.2143    157.4464   1.1413247644e+02   3.0524660306e+01    0.6809269    0.4451321 -33.24  0.002924719    1.928    0.481
        42  -9.8733     92.8859    236.2095   1.2695240234e+02   1.1946677046e+01     0.251343    0.2064657 -82.56 0.0003686568    1.223    0.182
        43 -10.1905    167.9664    224.7261   1.0884383328e+02   1.7094081041e+00    0.3993666    0.2066254 -55.01  0.001719363    2.307    0.566
        44  -8.7982    165.0674     65.8248   7.3791802803e+01   3.5091625254e+01     0.215149    0.1771931 -81.77 0.0004769168    1.253    0.202
        45 -11.2591    180.2616     41.9201   6.5316737317e+01   3.5013809289e+01    0.4363664    0.3325765  60.29  0.001221631    1.264    0.209
        46  -9.9302    157.6268    235.5640   1.1286383825e+02   1.3705854690e+00    0.3138823    0.1251445  36.20  0.001242403    2.357    0.576
        47  -8.6347    100.9573    234.6832   1.2501786436e+02   1.0998995422e+01    0.1942744    0.1590311  52.65 0.0003828262    1.095    0.087
