#   1 NUMBER                 Running object number                                     
#   2 MAG_AUTO               Kron-like elliptical aperture magnitude                    [mag]
#   3 X_IMAGE                Object position along x                                    [pixel]
#   4 Y_IMAGE                Object position along y                                    [pixel]
#   5 X_WORLD                Barycenter position along world x axis                     [deg]
#   6 Y_WORLD                Barycenter position along world y axis                     [deg]
#   7 A_WORLD                Profile RMS along major axis (world units)                 [deg]
#   8 B_WORLD                Profile RMS along minor axis (world units)                 [deg]
#   9 THETA_WORLD            Position angle (CCW/world-x)                               [deg]
#  10 FWHM_WORLD             FWHM assuming a gaussian core                              [deg]
#  11 ELONGATION             A_IMAGE/B_IMAGE                                           
#  12 ELLIPTICITY            1 - B_IMAGE/A_IMAGE                                       
         1 -13.1272     23.3912     54.9798   9.1352571935e+01   6.3715352387e+01     1.305142    0.8043861 -80.25  0.005510068    3.799    0.737
         2 -12.1897    215.5893     12.3832   3.0403659235e+01   3.0802832844e+01    0.3325242    0.2630018  32.36  0.000996075    1.988    0.497
         3 -12.4698    200.3524     12.2241   3.1663095168e+01   3.4066893424e+01     0.582081    0.2969425 -58.43  0.003118438    1.875    0.467
         4 -12.4792     64.9506     10.6622   5.5432291286e+01   6.4409879398e+01    0.3957558    0.2079253  41.07  0.001441879    1.587    0.370
         5 -12.6254     36.5469     11.1406   6.7011270170e+01   6.9178615556e+01     0.239147    0.1869791  20.85 0.0003939882    1.135    0.119
         6 -11.2082    127.8005      5.6523   3.8652152761e+01   5.1275655739e+01    0.3273108    0.1484481  56.01  0.001173915    1.803    0.445
         7 -11.4998     64.7629      2.1016   5.1664363931e+01   6.5208972940e+01    0.4809074    0.2785462  74.35  0.002240447    3.177    0.685
         8 -11.0822    189.3597      3.5920   3.0703967933e+01   3.7337117000e+01    0.2022317    0.1708162  75.77  0.001413121    1.182    0.154
         9  -9.6832     76.0033      1.0000   4.7858380692e+01   6.3063418182e+01    0.1984636    0.0586697  57.98 0.0007924446    2.874    0.652
        10 -10.2727    224.5065    225.9880   7.3813482106e+01  -5.4652956811e+00     0.184159    0.1084979 -35.31  0.001028102    1.580    0.367
        11 -11.2129     70.2389    248.8600   1.0949318254e+02   1.2434419444e+01    0.3368653    0.2526543   5.46 0.0009319104    1.903    0.475
        12 -10.9764     35.9919    223.0265   1.1456449007e+02   2.2024410336e+01    0.2779627    0.1615931 -88.82  0.000850726    1.688    0.408
        13 -10.0785     97.8170    220.6171   1.0024871988e+02   1.4493613733e+01    0.1991918    0.1127729  43.11 0.0006524779    1.618    0.382
        14 -10.8986     26.1847    220.1843   1.1646414758e+02   2.3707005987e+01    0.1705287    0.1517848 -86.69 0.0003533412    1.177    0.151
        15 -11.2200    179.7066    216.9978   8.1134006368e+01   2.4321132802e+00    0.2745172    0.2370941 -49.27 0.0008674223    1.393    0.282
        16 -12.4342    239.1253    215.3620   6.9298770470e+01  -5.7061587192e+00    0.7786936    0.3521122 -50.25  0.003233319    3.620    0.724
        17 -10.9611    233.5935    209.5040   6.9224277327e+01  -4.0747419735e+00     0.468048    0.2064172 -39.02  0.002257064    2.038    0.509
        18 -10.7155    156.3264    212.1943   8.5404814343e+01   7.0487359761e+00      0.24468    0.1749178  22.79 0.0009185979    1.363    0.266
        19 -11.1581     86.8585    206.6489   1.0100541976e+02   1.9236478678e+01    0.4063667    0.2621852 -39.58   0.00194363    1.907    0.476
        20 -10.1212    140.3019    200.6406   8.7098395331e+01   1.2083684301e+01    0.1449783    0.1145415  74.53 0.0004485694    1.718    0.418
        21  -9.8881    123.8192    197.6396   9.0549528465e+01   1.5503479788e+01    0.2117945    0.1254572  44.11 0.0005617386    1.677    0.404
        22 -10.7836    133.1339    195.4140   8.7896252110e+01   1.4435593985e+01    0.2822812    0.2181961 -62.50  0.001339339    1.455    0.313
        23 -11.5148    161.7792    194.0152   8.0900718286e+01   9.8307083113e+00    0.4643469    0.3035119  46.24  0.002194728    1.674    0.403
        24 -10.7867     68.6690    189.4889   1.0325156126e+02   2.5902759660e+01    0.2715504    0.1908393 -40.47 0.0007796149    1.676    0.403
        25 -10.1194    111.7516    215.9914   9.6336219784e+01   1.3386731300e+01    0.1801087    0.1194998 -57.37 0.0008954721    1.618    0.382
        26 -10.5120    120.6842    188.3250   8.9715889477e+01   1.8157499013e+01    0.1517925    0.1153905  71.03 0.0005747077    1.669    0.401
        27 -10.5681      2.7802    203.2022   1.2036830372e+02   2.9742639650e+01    0.1815423    0.1331097  74.79  0.000534658    1.124    0.110
        28 -10.0571     34.5099    187.5022   1.1170089157e+02   3.0507031780e+01    0.1339262     0.115669  84.89 0.0008105947    1.009    0.009
        29 -12.1741     44.3055    181.1342   1.0850783516e+02   3.1017169945e+01    0.4283858     0.209465 -77.55  0.001850797    2.083    0.520
        30 -10.8623    147.3188    179.7944   8.1544300461e+01   1.5429465870e+01    0.3047314    0.1393801 -56.84  0.001081287    2.681    0.627
        31 -10.7930    191.8163    177.5405   7.1107693438e+01   7.9813535843e+00    0.3516757    0.1892787 -46.65  0.001543805    1.855    0.461
        32 -11.3267     37.5740    176.4957   1.0972822355e+02   3.2921083478e+01    0.3327996    0.1430179 -61.60  0.001301932    2.047    0.511
        33 -10.4219    129.3779    177.1768   8.5462633005e+01   1.9242458358e+01    0.2176842    0.1450331 -64.40 0.0007344352    1.767    0.434
        34 -10.4890    159.4864    175.4944   7.7799729516e+01   1.4167957188e+01     0.267072    0.1442858 -58.02  0.001028484    2.346    0.574
        35 -10.4043    100.9934    175.9875   9.2629252733e+01   2.4398586975e+01    0.2061133    0.2034249  82.54            0    1.004    0.004
        36 -11.4456     11.8867    171.8987   1.1590632605e+02   3.6472198011e+01     0.391957    0.1531648 -65.81   0.00125647    2.097    0.523
        37 -11.5365     34.1552    172.8820   1.1021779278e+02   3.4188984092e+01    0.2656805    0.1496758 -81.78   0.00125724    1.727    0.421
        38 -10.5897    175.6501    171.0221   7.3213468650e+01   1.2169431979e+01    0.3478006    0.1337754 -44.89  0.001242814    2.502    0.600
        39 -13.6059     49.8988    164.3984   1.0484093964e+02   3.4624154453e+01    0.5533378     0.470262 -15.79  0.001007429    1.436    0.303
        40 -10.2044    206.3554    170.6740   6.6789781989e+01   6.8243802219e+00    0.1352942    0.1135368 -80.88 0.0004440351    1.771    0.435
        41 -10.9044    121.2331    169.2695   8.6015000704e+01   2.2564353836e+01    0.2417455    0.1286662 -64.18 0.0008648859    2.390    0.582
        42 -10.3522    192.1846    165.6082   6.8558998581e+01   1.0282137199e+01    0.2890856    0.1045175 -45.44   0.00101479    2.658    0.624
        43 -10.5417    138.8666    164.7654   8.0571433519e+01   2.0398340370e+01    0.2992421    0.2121611 -80.69  0.001244399    2.138    0.532
        44 -11.3011     99.5949    163.8474   9.0782154906e+01   2.7640713564e+01    0.4009378    0.2494847 -32.27  0.001645942    2.042    0.510
        45 -11.2149     93.8858    161.9491   9.2009746499e+01   2.9057477890e+01    0.4683176    0.2829165 -79.26  0.001821492    2.347    0.574
        46 -11.1518     31.5355    160.2529   1.0943797400e+02   3.7664959713e+01    0.2719522    0.1247732 -76.39  0.001140484    2.109    0.526
        47 -12.5387    119.5555    157.4589   8.4055497383e+01   2.5718285102e+01    0.7219415    0.4148211  26.49  0.001873492    2.052    0.513
        48 -10.2509    218.8286    156.1899   6.1458885668e+01   7.4276244988e+00    0.1974251    0.1531108 -14.05  0.001076735    1.343    0.256
        49 -10.1892    170.8058    156.5722   7.1193732940e+01   1.6131140976e+01    0.2043975    0.1449943  52.43 0.0007511982    1.629    0.386
        50 -10.3748    234.5184    154.0045   5.8316712778e+01   5.2265541158e+00    0.2125551    0.1139095 -39.61 0.0007473071    1.579    0.367
        51 -10.7558    242.3495    151.3114   5.6513551619e+01   4.4548578069e+00    0.1333863   0.09382879  -9.28 0.0007045544    1.717    0.418
        52 -11.9740    110.2592    147.9564   8.4575889882e+01   2.9739074495e+01    0.9709446    0.5019366  66.55  0.002341638    6.296    0.841
        53 -10.8749    189.4900    149.4715   6.5622112143e+01   1.4031309052e+01    0.3188574    0.1368833 -43.46  0.001209365    2.165    0.538
        54 -10.8083     55.3751    145.2135   1.0025716400e+02   3.8932590745e+01    0.2138067    0.1319582 -76.24 0.0008336074    1.732    0.423
        55 -10.9498     79.0782    162.8976   9.6352487873e+01   3.1121387235e+01     0.455954    0.2506822 -89.39  0.001542771    3.314    0.698
        56 -10.3647     55.2749    159.4415   1.0258764645e+02   3.5254722324e+01    0.2188612    0.1754777  51.13  0.001167177    1.297    0.229
        57 -11.0766    148.7887    144.9353   7.3733493462e+01   2.3029861247e+01    0.3032732    0.2270557 -67.26  0.001199952    1.634    0.388
        58  -9.8080    225.6441    139.3259   5.6731645021e+01   9.3523411474e+00     0.137383    0.1038176 -69.90 0.0007045626    1.773    0.436
        59 -10.7196     20.0593    138.9102   1.1007167297e+02   4.4157442389e+01    0.2069431    0.1686094  77.07  0.001078881    1.264    0.209
        60 -11.0244      1.3966    136.3594   1.1533915403e+02   4.6093276394e+01    0.2434606     0.104411 -74.51 0.0001797139    1.914    0.477
        61 -10.7436    142.9120    130.5636   7.1781204581e+01   2.7476909349e+01    0.4650778     0.205597 -54.70   0.00154321    2.713    0.631
        62 -10.9603     83.0089    132.0308   8.9121132283e+01   3.8403419988e+01    0.2503702    0.1892677  76.59  0.001138678    1.734    0.423
        63 -11.7857     97.9260    126.7755   8.3336707936e+01   3.7181542203e+01    0.5178061    0.3601499 -76.18  0.001502181    1.940    0.485
        64 -11.2977     43.7947    124.1887   1.0017613719e+02   4.5706868061e+01    0.5824409    0.2878505  53.11  0.002259633    2.864    0.651
        65 -11.3935     42.0000    119.5007   9.9888650132e+01   4.7092456161e+01    0.4854729    0.1979694 -66.29  0.001841356    2.425    0.588
        66 -10.8173     58.9693    124.3239   9.5169428998e+01   4.3857243497e+01    0.2741624    0.2059984  87.23  0.001019271    1.659    0.397
        67 -10.7432    189.1622    124.0694   5.9887587988e+01   1.9200500069e+01    0.2368176    0.2182107  51.07 0.0006154858    1.175    0.149
        68 -10.9403     29.1777    123.7798   1.0495565096e+02   4.7256727018e+01    0.2370646      0.12763  65.18 0.0009515727    2.833    0.647
        69 -10.4853     71.3095    120.6311   9.0295639224e+01   4.3070695031e+01    0.1546357    0.1172989  78.60 0.0007035871    1.763    0.433
        70 -10.8190    141.0104    118.5366   6.9248142677e+01   3.0552505199e+01    0.3456128    0.1924293 -60.44  0.001239392    2.422    0.587
        71 -11.3120    130.3700    117.7960   7.1815852394e+01   3.2960669748e+01    0.4677562    0.1438078 -51.93  0.001255758    4.015    0.751
        72 -10.5812      2.7995    117.0066   1.1264938269e+02   5.0841741362e+01    0.3751462    0.1381257  83.85 0.0009653657    7.260    0.862
        73 -11.1940    108.6919    113.5817   7.6797790533e+01   3.8311731904e+01    0.6403074    0.3384005 -66.15  0.002067346    3.297    0.697
        74 -10.3753    185.6836    113.9069   5.8146723451e+01   2.1917813909e+01    0.2170776    0.1788823 -43.78 0.0008428802    1.132    0.117
        75 -11.0184     92.2959    113.1030   8.1680013042e+01   4.1484343883e+01    0.4264186    0.2901176 -70.38  0.001815803    1.925    0.481
        76 -11.0190     91.1882    106.2732   8.0237067419e+01   4.3284584071e+01    0.5526508    0.2250616 -48.37  0.001968488    2.354    0.575
        77 -11.3568     78.4553    112.2174   8.5927245963e+01   4.4037891966e+01    0.6118182    0.3247792 -71.59   0.00205318    3.281    0.695
        78 -11.8945     14.0781    110.3988   1.0789320973e+02   5.1798749428e+01    0.4924038     0.278096  85.62  0.002253902    2.322    0.569
        79 -13.2908    110.7348    100.1780   7.2549374717e+01   4.0912745790e+01     1.033254    0.6902324  73.13  0.004029945    2.532    0.605
        80 -11.8319    140.6857    105.3496   6.5867211204e+01   3.3450971636e+01    0.4842431     0.342021 -79.80  0.001996496    2.169    0.539
        81 -11.9317    150.1789    103.4085   6.3054817454e+01   3.1757349929e+01    0.4800953    0.2403902 -53.54  0.001767524    2.341    0.573
        82 -11.8322     45.1339    102.1093   9.5112428020e+01   5.1066061509e+01    0.6245619    0.3454821  71.16  0.001970386    4.912    0.796
        83 -11.5690      7.2458    103.1827   1.0914956536e+02   5.3995756551e+01    0.3935104    0.2346333  80.16  0.001929064    2.198    0.545
        84 -12.7146     63.7603    100.5360   8.7995141107e+01   4.9059860853e+01    0.6354762    0.3157471 -58.61 0.0005906089    2.098    0.523
        85 -10.7091     81.6371     99.4447   8.1513780749e+01   4.6521500512e+01    0.3800076    0.1957248 -64.79  0.001314988    3.033    0.670
        86 -12.0210    128.4118    102.0356   6.8124567761e+01   3.6813526372e+01     0.449017    0.2617434 -59.84  0.001722191    2.259    0.557
        87 -11.2208     34.2376     89.0724   9.6158697278e+01   5.5315414257e+01     0.420802    0.1800569 -65.63  0.001646002    2.650    0.623
        88 -11.1944     86.4840     86.8477   7.6262588766e+01   4.8450293193e+01    0.4632863    0.3020504 -80.72  0.001655846    3.475    0.712
        89 -11.2737     94.5658     96.6202   7.6485885146e+01   4.4849372875e+01    0.3841088    0.1948805 -57.10  0.001422006    2.440    0.590
        90 -11.3365     48.8585     84.9001   8.9362601482e+01   5.4651616235e+01    0.4048824    0.2435714  63.27  0.001552989    3.487    0.713
        91  -9.5364    193.7366     85.3001   4.9754274387e+01   2.5433524379e+01    0.1408911    0.1016955 -67.03 0.0006919178    1.515    0.340
        92 -11.5153    104.2176     83.0321   6.9461841591e+01   4.5813819149e+01    0.4480423    0.2607707 -61.10  0.001716754    2.592    0.614
        93 -11.2374     23.9021     79.8205   9.8066876417e+01   5.8375842168e+01     0.327186    0.1787235 -78.45  0.001386283    2.832    0.647
        94 -10.7743    157.8435     76.4783   5.4053416654e+01   3.5085354166e+01    0.3112037    0.1800587 -54.12  0.001322446    1.958    0.489
        95 -10.5837    128.3246     76.6485   6.0829505462e+01   4.1835397004e+01    0.1538741    0.1181224 -79.23  0.000446984    1.757    0.431
        96 -11.2008    103.0915     75.8271   6.7564120283e+01   4.7444787117e+01    0.2263183    0.2089324  82.95 0.0009897141    1.290    0.225
        97 -10.2611    203.8446     75.4579   4.5834181101e+01   2.4877445159e+01    0.1818499     0.131686  63.09            0    1.444    0.308
        98 -10.4116    249.5062     74.5165   3.9932974400e+01   1.5934223102e+01    0.1258374   0.09967896 -56.52 0.0002838508    1.024    0.024
        99 -11.8084     81.8922     72.2419   7.3249685805e+01   5.2246165352e+01     0.499293    0.2945069 -63.46  0.001923805    2.991    0.666
       100 -12.0878     25.6926    247.2841   1.1837754529e+02   1.8014682768e+01    0.2894417    0.1790891  74.54 0.0005248671    1.434    0.302
       101 -12.2513     44.0978     64.4099   8.5177825455e+01   5.9607573149e+01    0.8628283    0.3451838 -37.88  0.003340531    2.474    0.596
       102 -13.4477     36.0876     56.7496   8.6128288195e+01   6.2071577130e+01    0.9005991    0.7109046 -61.57  0.003050758    1.629    0.386
       103 -11.2163     51.0109     69.0353   8.3803548356e+01   5.7779941275e+01    0.4719696    0.1964875 -60.96    0.0014884    4.580    0.782
       104 -12.3992      7.5033     65.9449   1.0172836673e+02   6.2606675039e+01    0.3904292    0.2800705  22.20  0.002418146    1.616    0.381
       105 -10.5818    105.0066     70.7686   6.5382443419e+01   4.7985563709e+01    0.3916335    0.1737081 -53.59  0.001296493    3.486    0.713
       106 -11.4004     62.8925     74.8262   8.0972980001e+01   5.4897104626e+01    0.2946204    0.2130471 -67.55  0.001365545    1.946    0.486
       107 -10.3684    105.5100     52.9210   5.9332487971e+01   5.0870706293e+01    0.2065722    0.1389819 -33.34 0.0006763443    1.563    0.360
       108 -13.2399      9.3588     48.9547   9.6227787266e+01   6.6017342133e+01    0.4040456    0.3490956 -47.33  0.001201312    1.256    0.204
       109 -10.8538     91.9922     49.1580   6.1991981667e+01   5.4291866857e+01    0.2759599    0.1466359 -40.57  0.001245379    2.031    0.508
       110  -9.7547     72.4584     47.4525   6.7897178599e+01   5.8322570445e+01    0.1350337    0.1205362  10.71 7.196626e-05    1.036    0.035
       111 -11.3697    142.4730     41.4757   4.7047272848e+01   4.4028295417e+01    0.3218276    0.1954746 -71.41  0.001400426    2.430    0.588
       112 -10.5738     57.4598     41.4296   7.1296252784e+01   6.1829802919e+01    0.2158425    0.1201805 -47.61 0.0007120534    2.257    0.557
       113 -12.6640     74.9406     38.9745   6.3776291806e+01   5.9139769156e+01    0.3940226    0.2881643  51.67 0.0007795323    1.512    0.339
       114 -11.3732     73.0837     31.9915   6.1659581593e+01   6.0443874664e+01    0.2735328    0.2119969 -85.99  0.001409037    2.441    0.590
       115 -11.8219      1.9787     28.8034   9.3370997059e+01   7.0269326381e+01    0.3923644    0.1439868 -47.94  0.001980702    2.155    0.536
       116  -9.1635    195.7070     29.3031   3.6018605713e+01   3.3176245882e+01    0.1307248   0.08230992 -67.88 0.0001677427    1.574    0.365
       117 -10.7290    178.8393     25.5015   3.7060266252e+01   3.7434388744e+01    0.1924936    0.1660464 -61.04 0.0003319925    1.140    0.123
       118 -11.1704    206.9896     21.0343   3.2997805088e+01   3.1670413751e+01    0.1746746    0.1382618  47.06 0.0004347287    1.639    0.390
       119  -9.9359     42.0218     20.5255   6.8968831681e+01   6.7211485836e+01    0.1774512    0.1052867  32.96 0.0004907949    1.523    0.343
       120 -10.9328     90.2356     18.6968   5.1127374843e+01   5.8526048650e+01    0.2849988     0.183661  64.46 0.0006608997    1.667    0.400
       121 -10.7732     37.8851     18.2677   6.9814515942e+01   6.8110261686e+01    0.2333433    0.1585132 -35.79  0.001054669    1.658    0.397
       122 -11.8951    210.4861    237.5073   7.8422150645e+01  -5.4024912835e+00    0.3366243    0.2778223  63.59  0.001993853    2.297    0.565
       123 -11.7141     37.9113    243.0047   1.1567263543e+02   1.7545914927e+01    0.2665989    0.2149046 -72.12  0.001430418    1.349    0.259
       124 -13.2714     19.5025    236.6395   1.1894591062e+02   2.0841297780e+01    0.4404756    0.2099833  42.63 0.0009068663    1.772    0.436
       125 -11.0515     34.3238    236.8636   1.1596448888e+02   1.9222408297e+01     0.306089    0.1347838  42.01  0.001135363    1.898    0.473
       126 -12.2002     73.0296    229.0565   1.0693445399e+02   1.6158755554e+01    0.3847362    0.2961949  64.86  0.001071019    1.236    0.191
       127 -10.4709     11.0613    231.4990   1.2032127704e+02   2.2754659010e+01    0.1678953    0.1042078  36.17  0.001035514    1.598    0.374
       128 -11.6861    149.4344    223.2945   8.8786038376e+01   5.9703087884e+00    0.4446235    0.3281061 -83.78  0.002202053    2.228    0.551
       129  -9.8421    135.5243     14.4087   4.0104581746e+01   4.8705058152e+01    0.1285114    0.1090528  66.78 4.705067e-05    1.017    0.017
