#   1 NUMBER                 Running object number                                     
#   2 MAG_AUTO               Kron-like elliptical aperture magnitude                    [mag]
#   3 X_IMAGE                Object position along x                                    [pixel]
#   4 Y_IMAGE                Object position along y                                    [pixel]
#   5 X_WORLD                Barycenter position along world x axis                     [deg]
#   6 Y_WORLD                Barycenter position along world y axis                     [deg]
#   7 A_WORLD                Profile RMS along major axis (world units)                 [deg]
#   8 B_WORLD                Profile RMS along minor axis (world units)                 [deg]
#   9 THETA_WORLD            Position angle (CCW/world-x)                               [deg]
#  10 FWHM_WORLD             FWHM assuming a gaussian core                              [deg]
#  11 ELONGATION             A_IMAGE/B_IMAGE                                           
#  12 ELLIPTICITY            1 - B_IMAGE/A_IMAGE                                       
         1 -12.2549    208.3821      7.2084   5.5556908243e+01   3.2983646061e+01    0.4378645    0.2997192  52.24 0.0008045809    1.761    0.432
         2 -14.2947    171.3601     69.8866   7.5422865268e+01   3.3283117413e+01     7.123742     1.163588 -45.04  0.001790786    6.709    0.851
         3 -12.4725    203.2478     19.6601   5.8706136929e+01   3.2759367086e+01     1.653892     1.041498 -54.11  0.009674626    1.525    0.344
         4 -13.9641    188.5565     74.9349   7.3631518570e+01   2.8381704136e+01     3.353056      1.73156 -35.50   0.01431423    2.111    0.526
         5 -13.4867    214.4937     12.8148   5.6140864009e+01   3.1036410491e+01     1.387937    0.5338944  56.89  0.006460269    2.690    0.628
         6 -16.0337    212.9380     69.9911   6.8676232826e+01   2.3592702187e+01     10.54602       4.3457 -57.06   0.03759237    2.985    0.665
         7 -15.2277    221.3631     57.8477   6.4877589549e+01   2.3615214791e+01     4.183583     1.786948  78.25   0.01580255    3.291    0.696
         8 -14.8506    231.9429     12.6879   5.4585524294e+01   2.7311172130e+01     5.559417     2.326289 -21.27   0.01022063   10.434    0.904
         9 -16.6107    240.8406     27.9020   5.6723086330e+01   2.3612190440e+01     7.349091      1.53703  60.93   0.02736612    4.292    0.767
        10 -14.2557    249.1571      4.2137   5.1745235388e+01   2.4761183148e+01     0.680441    0.6046676 -10.43  0.005035354    1.990    0.498
        11 -11.3962    131.4695     21.2639   6.9438505066e+01   4.9134788212e+01    0.6230924    0.2965913 -41.10  0.002985292    2.423    0.587
        12 -10.3783    135.6147     15.8263   6.7074216212e+01   4.8733544061e+01    0.3215498    0.2575329 -39.37  0.001650074    1.447    0.309
        13  -9.6849    171.8037     11.7706   6.0553071031e+01   4.0798326767e+01    0.2688544     0.154851 -37.19  0.001007408    1.924    0.480
        14  -9.8590    119.1881      3.1450   6.6239294711e+01   5.3484668305e+01     0.275282    0.1839888  57.08  0.001018402    1.204    0.169
        15 -10.0420    115.8009     12.4242   6.9814784637e+01   5.3446202298e+01     0.271115    0.1983214  62.48 0.0009263115    1.221    0.181
        16 -11.5596    120.2438      8.9568   6.7842357195e+01   5.2780817712e+01    0.4321544    0.3579116  58.00  0.001566994    1.031    0.030
        17  -9.2172    145.4368      8.3175   6.3333203519e+01   4.7189224369e+01    0.2926351    0.1807432  52.98  0.001677817    1.424    0.298
        18  -9.1595    146.0000      3.4550   6.1922846947e+01   4.7479779978e+01    0.3037573    0.1485288 -15.67  0.001373553    2.938    0.660
        19 -10.0990    135.2912      5.8276   6.4239317028e+01   4.9702456776e+01    0.2754697    0.2187445   2.18  0.001056892    1.599    0.375
        20  -9.3155     58.1645      7.8205   8.3503334254e+01   6.4959194949e+01    0.1565852    0.1371194  21.57 0.0003096191    1.217    0.178
        21  -8.7708    129.0000      4.0885   6.4783348276e+01   5.1251508663e+01    0.1662247    0.0710927 -23.27 0.0005201929    2.852    0.649
        22  -9.0542    171.9570      2.5675   5.8308097756e+01   4.1633717677e+01    0.2098661    0.1422408 -59.77 0.0006878607    1.541    0.351
        23  -9.7112     79.9150      1.9040   7.4566741841e+01   6.1616592062e+01    0.1769456    0.1493725  15.75 0.0006979347    1.165    0.142
        24 -10.4084    184.9600      5.9913   5.7642379746e+01   3.8351735215e+01    0.7788852    0.4468795  72.89  0.004450751    1.433    0.302
        25  -9.9416     23.9573    202.7167   1.3986018804e+02   2.9154226801e+01    0.2576483    0.2204734  27.77  0.001714088    1.546    0.353
        26 -10.5199    191.5141    151.7059   9.1258999847e+01   1.2637959227e+01    0.5082843      0.25865 -57.30  0.001864461    2.459    0.593
        27  -9.4041    227.8956    149.8116   8.3879466939e+01   5.7873111753e+00    0.3163098    0.2214127 -88.03  0.001418883    2.370    0.578
        28  -9.9977    151.8317    149.5569   9.9680521934e+01   2.1512554284e+01    0.3432779    0.2456784 -66.59  0.001171989    1.620    0.383
        29 -10.0940    133.8961    146.8233   1.0351245821e+02   2.5898639273e+01     0.783903    0.2681987 -54.10   0.00233403    3.248    0.692
        30  -9.5031    133.0000    141.0222   1.0241014575e+02   2.7457159346e+01    0.5347912    0.1927968 -55.17  0.001591214    3.258    0.693
        31  -8.4646    219.1966    149.2093   8.5310641911e+01   7.5688578241e+00      0.18872     0.163863 -77.19 0.0003883032    1.317    0.240
        32  -8.0798     96.2940    149.7507   1.1416196754e+02   3.2347804268e+01    0.1471026     0.114663  73.61 0.0002175449    1.483    0.326
        33 -10.2197    144.4718    147.9966   1.0112215654e+02   2.3426133597e+01    0.3378341    0.2753429 -89.02  0.001580782    1.458    0.314
        34 -11.1598    179.3165    144.7358   9.2275586735e+01   1.6711042667e+01    0.5400577    0.3159258 -42.52  0.002257682    1.673    0.402
        35  -8.8333    222.8647    145.4705   8.3845247933e+01   7.5921344999e+00    0.1951714    0.1442821  51.09  0.000997396    1.503    0.334
        36 -11.1536    198.0526    143.9276   8.8191104396e+01   1.2909817428e+01    0.6078908    0.3905493  87.54   0.00222726    3.060    0.673
        37  -9.9767    191.8947    144.0022   8.9454155312e+01   1.4187876753e+01    0.3518494    0.2463135  57.10 0.0006343699    1.580    0.367
        38 -11.7169    189.0467    138.8825   8.8875005712e+01   1.5876039416e+01    0.5838665    0.4658156  33.37  0.001761778    1.412    0.292
        39 -10.8015    174.3607    142.8740   9.2933133239e+01   1.8184773128e+01    0.3900282    0.2478316 -45.46  0.001686265    1.529    0.346
        40 -11.4903    157.3409    140.3152   9.6230144011e+01   2.2446135066e+01     1.063609     0.643094  88.51  0.003117607    4.300    0.767
        41 -10.3096    148.6339    139.5341   9.8138983163e+01   2.4503719682e+01    0.7608368    0.4434033 -89.19  0.001828407    6.354    0.843
        42  -9.6468    215.7215    139.7233   8.3886180436e+01   1.0136993513e+01    0.2825693    0.1978411  84.44  0.001257153    2.151    0.535
        43 -11.4722    211.5021    136.4972   8.3948601163e+01   1.1638462518e+01    0.4386102    0.3651438 -44.03  0.001847389    1.114    0.102
        44  -9.9419    202.2400    140.4053   8.6576206368e+01   1.2763800002e+01    0.2005967    0.1447477  61.00 0.0008837882    1.580    0.367
        45 -10.2338    167.4148    138.3549   9.3436465638e+01   2.0690562275e+01    0.3507464     0.237956  88.78  0.001069266    2.397    0.583
        46  -9.0263    166.5385    134.4932   9.2723149222e+01   2.1734934660e+01    0.2361046    0.1510435 -35.11 4.451993e-05    1.715    0.417
        47 -10.7709    174.6201    137.3559   9.1593774403e+01   1.9333940787e+01    0.4534176    0.2848091 -63.43  0.001631811    1.979    0.495
        48 -11.0080    189.5919    131.6564   8.7095382682e+01   1.7277064927e+01    0.4562922    0.3809002  83.00  0.001910947    1.363    0.266
        49 -12.5774     43.3306    166.0974   1.3123515444e+02   3.5850346250e+01    0.5794259    0.5319342 -86.77  0.001530024    1.095    0.087
        50 -10.3475    134.0374     97.2333   9.1043006599e+01   3.6942530885e+01    0.4845797    0.2562218 -44.79  0.001958126    1.907    0.476
        51 -11.2537    134.7099    111.0331   9.4556967295e+01   3.3909935464e+01     1.529562    0.3433011 -44.84  0.003954652    4.435    0.775
        52 -10.9190    136.2302    126.2586   9.8037772902e+01   3.0203384424e+01    0.8238477    0.2678357 -48.16  0.002511157    3.062    0.673
        53 -10.7970    132.3829    120.3212   9.7545864849e+01   3.2366105038e+01    0.6985853    0.4493381 -80.25  0.002540268    2.731    0.634
        54 -11.3930    221.7564    129.0303   8.0474697881e+01   1.1018123189e+01    0.4773133    0.3362313  43.29  0.002282947    1.616    0.381
        55 -12.3341    160.3393    128.2401   9.2642595729e+01   2.4482523172e+01     1.095358    0.4697787  45.26  0.003862574    2.386    0.581
        56 -10.0979    194.5061    197.9913   1.0029048228e+02   2.4890736161e+00    0.4826139    0.2729247 -64.99  0.001775066    3.299    0.697
        57  -9.8914    141.3948    121.7841   9.5614529016e+01   3.0094297586e+01    0.4445458    0.2977603  82.20  0.001697172    2.426    0.588
        58  -9.7473    217.1539    125.0342   8.0390197252e+01   1.2736581495e+01    0.2409846    0.2081301 -83.28 0.0004600849    1.239    0.193
        59 -10.9499    158.4121    115.3364   8.9894286018e+01   2.7703581863e+01    0.9180177    0.5031869 -67.29  0.003007456    3.216    0.689
        60 -11.4740    167.4504    114.4172   8.7629346509e+01   2.5841245190e+01     0.533272    0.4943037  26.36 0.0008861469    1.206    0.171
        61 -10.7456    174.7278    115.1473   8.6238571645e+01   2.4031385832e+01    0.4682571    0.3103474  73.30  0.001360118    1.975    0.494
        62 -13.4175    238.7705     42.6015   5.9772241848e+01   2.2084572647e+01    0.6517447    0.3349059 -60.78  0.002566395    1.819    0.450
        63  -9.1058      2.4408    117.4688   1.3566366633e+02   5.1131052193e+01    0.1230382   0.09621771 -64.65 0.0005159111    1.010    0.010
        64  -8.1577     73.7154    115.3962   1.1317486988e+02   4.4348088450e+01    0.1472761     0.112007  87.84 0.0006998183    1.769    0.435
        65  -9.9614    126.6533    110.9023   9.6626802462e+01   3.5668427133e+01    0.6014167    0.2658652 -59.71  0.001789997    3.729    0.732
        66 -11.1227    124.5285    103.3329   9.5180285129e+01   3.7742784306e+01    0.5244508    0.4308075  50.99   0.00251411    1.235    0.190
        67  -9.3022    190.6601    190.9633   9.9715934981e+01   4.5996967074e+00    0.5165253    0.3086545 -74.19  0.001677187    4.295    0.767
        68 -13.6902    250.2652     48.3219   5.9748915276e+01   1.8924897556e+01    0.7340481     0.519087 -48.16  0.002610601    1.326    0.246
        69  -8.7126    141.4926    104.9634   9.1252317617e+01   3.3700413472e+01    0.2280243    0.1518513 -41.69 0.0005480109    1.518    0.341
        70  -8.5236    155.3957    102.2060   8.7220227450e+01   3.1110463159e+01    0.2106048    0.1412862 -54.95 0.0002491604    1.580    0.367
        71 -10.2277    147.5427    100.8465   8.8694681420e+01   3.3181104080e+01    0.3910807    0.3176272 -60.22 0.0008528309    1.295    0.228
        72 -13.4875     12.6164    184.7165   1.4068881968e+02   3.4474433447e+01    0.9706377    0.7246557  86.18  0.003945734    1.103    0.093
        73 -11.2748      3.8937     94.0375   1.3148514877e+02   5.6307235141e+01    0.5430514    0.2693752 -85.52   0.00244576    3.032    0.670
        74 -10.4784    157.5753     94.7943   8.4785822037e+01   3.2071753017e+01    0.4942976    0.3898634  21.62  0.002358854    1.632    0.387
        75 -12.0334    155.6142     85.1120   8.2642988534e+01   3.4355140079e+01    0.6219981    0.4880663  78.16 0.0006651416    1.414    0.293
        76 -10.5574    141.0140     91.1502   8.7647542106e+01   3.6583116615e+01    0.4414934     0.293206 -46.78  0.002016566    1.538    0.350
        77 -11.0221    169.7210     93.0721   8.1739143645e+01   2.9566965246e+01    0.6863902    0.3287593  52.76  0.002026972    2.065    0.516
        78 -11.3064    172.7646     85.4663   7.9174286094e+01   3.0259898526e+01    0.5904229    0.4588796  30.85  0.002145267    1.613    0.380
        79  -8.9675    164.1799    162.0239   9.9540402891e+01   1.6072129459e+01    0.2761589    0.2007571  27.36 0.0007718729    1.598    0.374
        80 -10.1716    210.3577    158.1872   8.8901612110e+01   7.4972966200e+00    0.2836596    0.2496772 -72.45 0.0004875698    1.284    0.221
        81  -8.3281    128.3125     82.7049   8.8442480131e+01   4.1023456024e+01    0.1464646    0.1174154 -87.61 0.0003651721    1.597    0.374
        82 -10.0415      3.4160     80.7580   1.2912718596e+02   5.9168162308e+01    0.1811311   0.07854004 -52.30 0.0008545187    1.683    0.406
        83 -10.4752    164.0782     83.5879   8.0438459103e+01   3.2645870869e+01    0.4529011    0.2941697  46.40  0.001477467    1.579    0.367
        84  -9.6319    125.1685     76.5378   8.7465682264e+01   4.2835175505e+01    0.3151478    0.1940566  46.98  0.001440814    1.563    0.360
        85  -8.5057    148.3167     75.3190   8.1578681627e+01   3.7804021737e+01    0.1476303    0.1152365  19.21 0.0007040279    1.657    0.396
        86  -8.7318    114.0518     75.4356   9.0092908586e+01   4.5411015607e+01    0.2092303    0.1367766  46.43 0.0003574154    1.486    0.327
        87 -10.7574    151.6601     72.5330   8.0078736121e+01   3.7499419111e+01    0.4237691    0.2721563 -59.12  0.001309778    1.862    0.463
        88 -10.4431      6.4917     73.9805   1.2655954227e+02   6.0390772693e+01    0.1861828   0.09513994 -58.12 0.0009862742    1.604    0.377
        89  -9.7696    217.8571    190.7712   9.4173885832e+01  -2.6157994734e-01    0.2647535    0.2026816  59.00  0.001387859    1.714    0.417
        90 -10.7881    144.2747     68.2917   8.0508931541e+01   3.9928698319e+01    0.3820548    0.2836469 -51.97  0.001112339    1.451    0.311
        91 -10.1228    150.2981     65.3331   7.8375278786e+01   3.9003666548e+01    0.2510335    0.1835731 -23.28 0.0005906223    1.655    0.396
        92  -8.7689     86.6191     66.1756   9.5319411382e+01   5.2379987355e+01     0.193905    0.1225166 -27.86 0.0009438019    1.686    0.407
        93 -11.2212    102.1227     62.7672   8.9547969110e+01   5.0015631521e+01    0.6569272    0.2632906  34.57  0.002298053    3.226    0.690
        94 -12.1677     68.4898    146.3782   1.2125365569e+02   3.7569948438e+01     1.484804     1.131123 -44.03   0.00608076    1.339    0.253
        95  -8.6464     72.5461     58.1587   9.7329454033e+01   5.6136123855e+01    0.1827091    0.1228781 -37.83 0.0009883896    1.481    0.325
        96 -12.8026     50.2217    161.5238   1.2878899272e+02   3.6174279354e+01     0.932683    0.7748741  78.36  0.002755707    1.190    0.160
        97 -12.3297     55.9074    157.4926   1.2665095018e+02   3.6475045429e+01    0.7198057    0.5112404  87.23  0.001339306    1.522    0.343
        98 -10.9014    213.6238    167.3818   9.0221494866e+01   5.0306024139e+00    0.6520933    0.3645158  66.15   0.00230499    3.645    0.726
        99 -10.8301    230.7510    167.4688   8.7052188420e+01   1.8846355695e+00    0.3825492    0.2762636 -53.70  0.001721127    1.463    0.316
       100  -8.4515     97.3099    165.0236   1.1689678414e+02   2.8366648509e+01     0.199055    0.1774212 -66.30 0.0004102753    1.072    0.067
       101  -8.9380    171.5398     30.8756   6.5346333344e+01   3.8773256098e+01    0.1761614    0.1296379 -36.81  0.001007717    1.526    0.345
       102  -9.4362    167.0066     30.8049   6.6010824404e+01   3.9847671962e+01    0.2089033    0.1828076 -51.39 0.0005760861    1.243    0.196
       103 -10.2614    159.9318     28.0154   6.6384571919e+01   4.1834187122e+01    0.2961147    0.2075599  85.33 0.0008725165    1.442    0.307
       104  -9.2382    140.4682     28.9539   6.9996035858e+01   4.6258267228e+01    0.1759291   0.09931097 -57.01 0.0004216907    2.375    0.579
       105  -9.1263    159.1719    158.2330   9.9875269717e+01   1.7975239229e+01    0.3086063    0.2064845 -73.92  0.001230129    2.124    0.529
       106  -9.9874    211.1751    189.9823   9.5324475809e+01   1.0574494505e+00    0.2416791    0.1543548 -17.81  0.001082783    2.010    0.503
       107  -8.7101    204.7329    190.0005   9.6616382764e+01   2.2064559711e+00    0.2370696    0.1556452  75.83  0.000889047    3.405    0.706
       108 -11.1166    108.9262     24.0238   7.5094195567e+01   5.3796600345e+01     0.368939    0.2049658 -43.29  0.001875841    2.230    0.552
       109  -9.6344    154.0202     25.0089   6.6529091279e+01   4.3553166651e+01    0.2013519    0.1718654  72.41 0.0005391155    1.017    0.017
       110  -8.7766    169.1267     20.6610   6.3115258813e+01   4.0499514527e+01    0.2030398    0.1372853  86.86   0.00057576    1.431    0.301
       111  -9.9390    159.9847     17.6021   6.3638730910e+01   4.2949547812e+01    0.2506425    0.1886293 -33.01 0.0002013047    1.556    0.357
       112  -9.2022    195.7254    158.6026   9.1906382677e+01   1.0321124425e+01     0.196428    0.1444438  56.02 0.0004278679    1.523    0.343
       113  -8.1438    178.3481    156.6425   9.5166504649e+01   1.4317657821e+01    0.1630191    0.1227932 -87.53 -3.445452e-05    1.843    0.457
       114  -9.6850    203.8899    152.6848   8.8971854579e+01   9.9006730737e+00    0.2856192     0.212946 -48.30 0.0008453534    1.280    0.218
       115 -12.0405     34.7894    180.0275   1.3510639388e+02   3.3383096911e+01    0.5312251    0.3964719 -75.66  0.003147783    1.137    0.120
       116 -11.6036    224.9636    174.4128   8.9531237809e+01   1.5911199256e+00    0.7404838    0.4917592 -18.83   0.00354014    1.821    0.451
       117  -9.4725    200.5812    174.0598   9.4207310660e+01   6.1648934945e+00    0.4106617    0.1722509 -36.36  0.001465636    2.632    0.620
       118  -9.6498    249.9956    174.2965   8.5091266638e+01  -2.6040951905e+00    0.2608953    0.1718636 -31.91 0.0008171938    1.364    0.267
       119 -10.8004    235.4239    173.9642   8.7539054857e+01  -1.4190486193e-01    0.3623346     0.295176  60.16  0.001165172    1.570    0.363
       120 -11.9921     25.2287    166.6109   1.3585630885e+02   3.7634817822e+01    0.5137944    0.3335578 -65.36  0.002661431    1.305    0.234
       121 -11.9651    235.7462    247.4427   1.0118677754e+02  -1.2431513429e+01     0.231915     0.201814   1.38 0.0005070596    1.166    0.143
       122  -8.9166     71.6675    249.6744   1.3452483039e+02   1.2774982070e+01    0.1114738    0.1003342 -22.34 0.0007051089    1.710    0.415
       123 -10.2165    147.8033    224.2195   1.1510769396e+02   5.6481933565e+00     0.231794    0.2157841  17.98 0.0002470657    1.116    0.104
       124  -9.7122     33.4814    218.5228   1.3928388553e+02   2.4487989612e+01    0.1875337    0.1254726  19.65  0.001028372    2.261    0.558
       125 -10.3946     36.0276    214.8667   1.3843079423e+02   2.5015591657e+01    0.2946645     0.178986  17.00  0.001460606    2.767    0.639
