#   1 NUMBER                 Running object number                                     
#   2 MAG_AUTO               Kron-like elliptical aperture magnitude                    [mag]
#   3 X_IMAGE                Object position along x                                    [pixel]
#   4 Y_IMAGE                Object position along y                                    [pixel]
#   5 X_WORLD                Barycenter position along world x axis                     [deg]
#   6 Y_WORLD                Barycenter position along world y axis                     [deg]
#   7 A_WORLD                Profile RMS along major axis (world units)                 [deg]
#   8 B_WORLD                Profile RMS along minor axis (world units)                 [deg]
#   9 THETA_WORLD            Position angle (CCW/world-x)                               [deg]
#  10 FWHM_WORLD             FWHM assuming a gaussian core                              [deg]
#  11 ELONGATION             A_IMAGE/B_IMAGE                                           
#  12 ELLIPTICITY            1 - B_IMAGE/A_IMAGE                                       
         1 -10.8670     33.9903     61.7445   1.0823313670e+02   6.1220311480e+01     1.824627    0.6995901 -37.36   0.00618165    4.158    0.759
         2 -10.2119     10.2154     18.9781   1.0753547026e+02   7.3046321513e+01     1.262445    0.4090915 -30.95  0.003806151    6.208    0.839
         3  -9.8896     26.4612     24.3087   9.9654275038e+01   7.0462630114e+01        1.053    0.3970095 -36.93  0.004049687    3.148    0.682
         4 -10.3449    139.5085     39.9094   6.4975632635e+01   4.5004944687e+01     1.257926    0.3984112 -37.58  0.004044548    2.949    0.661
         5 -10.8779    134.0057     30.9952   6.2724077752e+01   4.7689011627e+01    0.4228929    0.3132072   2.74            0    1.581    0.367
         6  -9.6307     77.9389      4.4854   6.4650850727e+01   6.4900962448e+01    0.5683002    0.3852793 -23.08  0.001761761    1.430    0.301
         7 -10.5381     73.0094     19.9824   7.4897770318e+01   6.3862422337e+01     1.636063    0.4960698 -28.50  0.004037618    4.233    0.764
         8  -8.8100     72.0056      8.6840   6.9091641651e+01   6.5694299758e+01    0.2363508    0.1753517 -12.29   0.00054922    1.329    0.247
         9 -10.1813     69.5332     40.7946   8.6026063232e+01   6.0840198726e+01     1.011683    0.3883603 -43.02  0.003560206    2.436    0.590
        10 -10.3080     62.8372      3.1413   6.9240900430e+01   6.8328679370e+01    0.6114665    0.4814954 -22.52  0.003523303    1.202    0.168
        11  -9.8192     60.9797     31.8200   8.5629555158e+01   6.4092245672e+01    0.9732537    0.4134018 -34.03  0.002658273    2.625    0.619
        12 -10.0921     46.3161     29.4912   9.1327650802e+01   6.6889405152e+01    0.5855662    0.3264658 -47.06  0.001138984    1.618    0.382
        13 -10.1178     50.6870     15.1948   8.1874211114e+01   6.8842436969e+01     2.223742     1.123754 -14.40  0.007323057    4.442    0.775
        14  -9.6721     63.2800     21.4624   7.9565544973e+01   6.5536636795e+01    0.5050498    0.2894588 -52.14  0.001006714    2.192    0.544
        15 -10.1353     64.4869     13.5101   7.4746044539e+01   6.6569197509e+01    0.4076551    0.3249073 -16.40  0.002299808    1.187    0.157
        16  -8.9246    128.6909     24.8441   6.1369646544e+01   4.9889078516e+01    0.5574619    0.2979264 -16.72  0.001160096    2.120    0.528
        17  -9.6467     85.2886     13.1171   6.7049139848e+01   6.2166728013e+01    0.4988872    0.2774812 -52.31  0.001665044    2.499    0.600
        18  -8.0398     80.5270     12.4097   6.8209990635e+01   6.3338012408e+01    0.2894953    0.1763718 -38.57  0.001366985    1.680    0.405
        19  -8.2092     85.0863      6.7135   6.3683108555e+01   6.2999147823e+01    0.4128897    0.1677782  32.86  0.001116863    3.617    0.724
        20  -9.1270     89.7131      3.8171   6.0794639943e+01   6.2219265681e+01    0.5713248    0.4063529 -86.97  0.002389609    1.931    0.482
        21  -8.9750    101.9442      8.0976   5.9868021511e+01   5.8752543816e+01    0.3639797    0.2052988 -32.88 0.0007803628    1.766    0.434
        22  -8.5978    104.5020      2.1707   5.6337580713e+01   5.8703817276e+01    0.3888584    0.2332898  29.95  0.001520919    1.812    0.448
        23  -9.0910     96.7018     12.7239   6.3514817871e+01   5.9517316499e+01    0.4682968    0.2798817  18.06  0.001972783    2.177    0.541
        24  -8.5607     97.5498      5.9600   5.9876013683e+01   6.0076969932e+01    0.3303684    0.2212755   2.84 0.0007695804    1.664    0.399
        25  -8.4525     95.9939      2.9654   5.8716911790e+01   6.0770348995e+01    0.2895714    0.2321679  27.19 0.0006685783    1.221    0.181
        26  -9.4747    102.9062     21.4891   6.6049884014e+01   5.6879237404e+01    0.6139539    0.2771721 -26.72  0.001687264    2.225    0.551
        27  -8.3836    105.0455     13.8648   6.1908061192e+01   5.7320143532e+01    0.3019828    0.2067958 -27.86   0.00146115    1.447    0.309
        28  -9.8855    115.1120      4.2611   5.5147337068e+01   5.5757138547e+01    0.6526498    0.3913677 -82.18  0.002721432    2.311    0.567
        29  -9.6435    114.1475      9.9648   5.7985036086e+01   5.5435108672e+01    0.5218434    0.2248461  47.63 0.0003365954    2.229    0.551
        30  -8.3808    110.2956      7.6764   5.7745578644e+01   5.6672036742e+01    0.2645434    0.1889362 -33.51 0.0006774292    1.426    0.299
        31  -9.1692    111.0200      4.4731   5.6071605886e+01   5.6804828416e+01    0.3233646    0.2759677  50.33  0.001443018    1.116    0.104
        32  -9.0945    126.1778      4.8333   5.3365520485e+01   5.2768508036e+01    0.2977511    0.2048603 -16.70 0.0008660944    1.499    0.333
        33  -9.7027    119.1815     20.3013   6.1511496989e+01   5.2936668826e+01    0.6915342    0.3566125 -13.18  0.002166566    2.348    0.574
        34  -8.8444    125.1506     12.9226   5.7066514807e+01   5.2229808099e+01      0.28627    0.2104402 -32.49 0.0006683333    1.370    0.270
        35  -8.7716    126.8179      9.1536   5.5126064158e+01   5.2179555189e+01    0.2969656    0.2048699  28.94 0.0006054768    1.578    0.366
        36  -9.8692     29.2108     10.8443   9.1199012561e+01   7.2812786753e+01    0.6052646    0.4741638  48.29  0.003544261    1.678    0.404
        37 -10.4287     18.4585      5.5846   9.5245418743e+01   7.5050899530e+01     0.814768    0.5926926 -72.87  0.004031047    2.066    0.516
        38 -10.0110      6.1896      5.1966   1.0423436471e+02   7.6228997486e+01    0.3888205    0.2359169 -29.93  0.001292653    1.570    0.363
        39  -9.8212      2.7643      3.2402   1.0597545886e+02   7.6863538215e+01    0.3563871     0.187857 -39.68  0.001142509    1.593    0.372
        40 -10.6739     37.3822      9.8207   8.5726117020e+01   7.1872127874e+01     0.940755    0.3308513 -46.00  0.002195261    2.815    0.645
        41  -8.4237    141.5049     12.5483   5.4014649556e+01   4.7883197113e+01    0.2718926    0.2046543 -31.97 0.0006943853    1.331    0.249
        42  -9.6767    132.2395      8.9982   5.4103912518e+01   5.0741884708e+01    0.8082272    0.2009173 -36.84  0.002455977    3.676    0.728
        43  -9.9632    136.8472      4.4546   5.1471971055e+01   4.9926133899e+01    0.6846914    0.4913328 -31.05  0.001575521    1.406    0.289
        44  -7.3123    178.9624      5.9260   4.6783505175e+01   3.8399857239e+01    0.1654222    0.1585662 -48.14 0.0003570207    1.029    0.028
        45  -8.1190    143.0990      5.1626   5.0833344036e+01   4.8163926079e+01    0.2920438    0.1564295 -47.70 0.0006568898    2.026    0.506
        46  -9.0541    112.4947     15.5105   6.0895677639e+01   5.5237888970e+01    0.5003968    0.2604592 -42.72  0.001640894    2.075    0.518
        47  -9.5583      2.2393     14.3201   1.1122698700e+02   7.4558635650e+01     0.655587    0.2371749 -72.16  0.002705688    3.090    0.676
        48  -7.6486    151.4892      1.5181   4.8293516823e+01   4.6195857190e+01    0.1436497    0.1374215 -78.15 0.0008100334    1.037    0.036
        49  -9.7309     98.6106    128.6437   1.0123954125e+02   3.6544015336e+01    0.5980874    0.3512539  71.95  0.002429045    2.726    0.633
        50 -11.3691    194.5492    246.9623   9.9461500628e+01   3.2361582286e+00    0.6232253    0.3120042  37.82   0.00417322    1.500    0.333
        51 -10.2200     58.3222    124.6130   1.1170547204e+02   4.3446685413e+01     0.663419    0.3424539  73.45  0.002718991    2.760    0.638
        52  -9.5985     67.1555    128.4939   1.0978900065e+02   4.1395945063e+01    0.3547834    0.2826069 -88.34  0.001710582    1.212    0.175
        53 -10.0065     71.1613    125.6181   1.0820809658e+02   4.1488725045e+01    0.5422623    0.3300047 -88.61  0.001358996    2.028    0.507
        54  -7.7811    160.6716    129.6806   8.6583215069e+01   2.4613366983e+01    0.1461642    0.1071479   9.99 0.0002576773    1.685    0.407
        55  -7.5361    125.6767    129.6968   9.4575553085e+01   3.1471308920e+01    0.1400471    0.1114118   3.18 0.0003389339    1.636    0.389
        56  -9.7422     41.4858    122.1165   1.1624938893e+02   4.6005139234e+01    0.5748489    0.2541109  87.18  0.001921647    3.121    0.680
        57  -9.9120     27.4215    123.0993   1.2045860311e+02   4.7181215264e+01    0.5997724     0.245356  64.08  0.002043728    2.874    0.652
        58 -10.2384    122.7841    105.7540   8.9843792794e+01   3.6878647702e+01    0.6703359    0.5085506 -84.37  0.002510206    1.775    0.437
        59  -8.8530    158.1583    122.0938   8.5403153183e+01   2.6455814850e+01     0.375324    0.2493366  86.04  0.001429294    3.270    0.694
        60 -10.0510    140.6614    118.3287   8.8472218760e+01   3.0743411338e+01    0.4536223    0.3396678 -88.54  0.001103041    1.979    0.495
        61  -7.5759     11.6440    118.6690   1.2464815973e+02   4.9508716367e+01    0.1205465   0.07980683 -48.50 0.0007044282    1.788    0.441
        62  -8.3468      1.4181    116.7333   1.2748662641e+02   5.0648570033e+01     0.309676   0.09342679 -89.45  0.001250981    3.129    0.680
        63  -9.1582    152.1015    115.8306   8.5257847326e+01   2.8842084622e+01    0.3273157    0.2274218 -25.45  0.001427702    1.640    0.390
        64 -10.1016     91.7846    112.8894   9.9957773264e+01   4.1147158988e+01    0.5599285    0.4024075  89.72  0.001594192    1.739    0.425
        65  -8.8658     93.2887    103.4087   9.7417635142e+01   4.3001579216e+01    0.6790956    0.3826654  23.11  0.002658091    2.748    0.636
        66 -10.1785     78.1763    112.9709   1.0391722080e+02   4.3332222548e+01    0.5337984    0.3276666 -89.61  0.001938381    2.294    0.564
        67  -8.8886     55.4632    112.6214   1.1069016083e+02   4.6594274368e+01     0.501716    0.2782324 -88.54  0.002250803    2.230    0.551
        68  -7.7650    167.0178    113.9917   8.1592262025e+01   2.6012890850e+01    0.1745234     0.161209 -18.04 0.0004254335    1.080    0.074
        69  -8.9199     68.9662    103.0117   1.0473083905e+02   4.7017765624e+01    0.4548974    0.3498837  -7.24  0.002340421    1.889    0.471
        70 -10.3774     65.5639    111.0148   1.0732672439e+02   4.5632974822e+01     1.021458    0.5067506 -75.41  0.002716668    2.442    0.590
        71  -9.2843     59.2193    109.2545   1.0896178181e+02   4.6902726362e+01    0.3407166    0.2036173 -70.42 0.0007712314    1.620    0.383
        72  -9.6875     14.1699    111.5054   1.2328752887e+02   5.0982369187e+01    0.4277565     0.191846  71.97  0.002001506    2.362    0.577
        73  -8.5219    158.9713    111.9979   8.2812075186e+01   2.8077991152e+01     0.215087    0.2122057 -44.57 0.0004703992    1.095    0.086
        74  -9.2676     35.5892    110.7787   1.1657153897e+02   4.9279253424e+01    0.2481589    0.1499822  88.90 0.0005257531    1.642    0.391
        75  -9.6889     33.6832    107.6615   1.1675832320e+02   5.0208146824e+01    0.5441876    0.1960569 -46.56  0.002025088    3.713    0.731
        76  -8.8009    149.8161    109.9335   8.4330004211e+01   3.0409044707e+01    0.2759501    0.2381774  -2.36  0.001055393    1.272    0.214
        77 -10.1272    149.0788    103.1796   8.2778806382e+01   3.1817095788e+01    0.6075389    0.3905764 -43.21  0.001025559    1.590    0.371
        78  -8.3505    159.7427    107.4389   8.1505420584e+01   2.8720633926e+01    0.2116586    0.1330456  36.69 0.0009451663    1.654    0.395
        79 -10.7906     44.7202    102.1380   1.1237204353e+02   5.0363235926e+01     0.893188    0.4291542  73.43  0.003091168    3.413    0.707
        80  -8.8540     40.2771    107.1182   1.1458227435e+02   4.9662621262e+01    0.2452872    0.1362552  58.82 0.0008665895    1.944    0.486
        81  -8.9639    215.0438    249.4729   9.6567653961e+01   3.9494430088e-01    0.1615096   0.07194151  35.29  0.001043134    1.625    0.385
        82 -10.8525     21.2257    101.6473   1.2002906719e+02   5.2760229123e+01     1.028795    0.5078135  70.68  0.003332812    2.269    0.559
        83  -9.9860     19.9268     84.4547   1.1824179758e+02   5.6995878012e+01     1.252257    0.2963857 -71.19  0.004428736    3.429    0.708
        84 -10.5357     25.8378     78.3625   1.1504488132e+02   5.7986751526e+01    0.7582342    0.4064148  71.04  0.002067879    2.392    0.582
        85 -10.1322     49.8832     53.6783   9.9047691191e+01   6.1211536438e+01     0.700941    0.3721794 -65.55  0.002298343    2.136    0.532
        86 -10.1222     34.5168     90.7267   1.1395103811e+02   5.4189711153e+01    0.5665894    0.2642075 -87.89  0.002299831    2.764    0.638
        87 -10.1327     36.8101     81.1160   1.1137874305e+02   5.6280711402e+01    0.6418265    0.3597625 -23.03  0.002724685    3.095    0.677
        88  -9.8589    139.4029    104.6334   8.5417800070e+01   3.3634265730e+01    0.6391265    0.2910002 -52.16 0.0007618424    2.700    0.630
        89  -9.2365    141.2795     99.3536   8.3590289400e+01   3.4239624607e+01    0.3932191    0.3039439  26.50   0.00192796    1.440    0.306
        90  -9.1784    245.6098    105.1979   6.6178958263e+01   1.1298702791e+01    0.1895159    0.1079787 -13.59 0.0003658774    1.729    0.422
        91  -9.6760    215.8357    103.6581   7.0141539658e+01   1.7289090631e+01    0.2587323     0.219013 -16.45 0.0004435681    1.079    0.073
        92  -8.3907    166.0230    104.2584   7.9359955699e+01   2.7901756179e+01    0.2699001    0.2052087 -47.49  0.000544379    1.420    0.296
        93  -8.4353     78.4902    105.0172   1.0220096592e+02   4.5107628701e+01    0.3683738    0.2539957  -1.97  0.001511549    2.559    0.609
        94  -9.4550     81.5630    100.4053   1.0024711627e+02   4.5673228930e+01     0.381883    0.2658048 -87.39  0.001036628    1.817    0.450
        95  -7.6892     81.8081     94.7519   9.8849512376e+01   4.6926711459e+01    0.3611516    0.2021815 -34.67  0.001224317    2.485    0.598
        96  -8.3233     73.9574    102.7622   1.0311785087e+02   4.6331238360e+01     0.251234    0.1747272 -77.94 0.0007635545    1.571    0.363
        97  -9.0017    243.8149    102.3629   6.5766544288e+01   1.1972540842e+01    0.1819873    0.1090679  38.75 0.0009043573    1.752    0.429
        98  -8.6582    159.0453    101.3715   8.0091061402e+01   2.9948853951e+01    0.3081431    0.2390082 -79.18 0.0005550336    1.819    0.450
        99  -7.7598    220.7903     99.8409   6.8445727138e+01   1.6793919077e+01    0.2021494    0.1678397   6.99  0.000496442    1.159    0.137
       100  -9.4551     94.4028     97.2944   9.5618263351e+01   4.4164420735e+01    0.3591456    0.2741093 -76.60 0.0006911962    1.503    0.335
       101  -8.6601     95.4944     91.5344   9.3819702690e+01   4.5240266317e+01    0.4500432    0.2846089 -19.88  0.001714679    2.818    0.645
       102  -9.3249    244.3155     97.6397   6.4600757543e+01   1.2449047161e+01    0.1973054    0.1440078 -50.64  0.001102228    1.712    0.416
       103  -8.2736     63.5031     82.0013   1.0181887771e+02   5.2746642235e+01    0.2929892    0.1899903 -89.07  0.001080986    2.125    0.529
       104 -10.3178     62.9473     95.6343   1.0513865025e+02   4.9612117743e+01    0.5568311    0.3308395  87.60  0.001588523    2.449    0.592
       105  -8.8758     65.0673     86.1657   1.0229101315e+02   5.1540932017e+01     0.668415    0.4065094 -13.32  0.002468898    3.691    0.729
       106  -8.2517    150.0567     96.8837   8.0886740535e+01   3.2760460064e+01    0.2410159    0.1806584  10.85 0.0009376853    1.704    0.413
       107 -10.2422      4.3211     89.4854   1.2445276315e+02   5.6837294448e+01    0.7906791    0.2782047  83.62  0.002520338    3.272    0.694
       108  -9.3325      5.6116     79.1902   1.2290553118e+02   5.9224100966e+01    0.5434048    0.2535872 -36.96  0.002580597    2.764    0.638
       109  -7.5517    171.1565     95.8411   7.6095539286e+01   2.8183684390e+01    0.2001999    0.1677891   6.02  0.000341055    1.282    0.220
       110  -8.6631    164.5317     94.6481   7.7129299587e+01   2.9889233484e+01    0.2761136    0.2419654 -66.26 0.0007917822    1.333    0.250
       111  -8.3611    139.2816     87.7281   8.0855035803e+01   3.6889560282e+01    0.4504296     0.243249  27.27  0.001549936    3.042    0.671
       112  -9.3791    140.6435     81.9841   7.8849423973e+01   3.7651077551e+01    0.7106001    0.3490397 -33.14  0.001828679    2.173    0.540
       113  -9.2667    139.9298     74.7579   7.6819564105e+01   3.9141393334e+01    0.6993968    0.3438285 -24.89   0.00222358    2.737    0.635
       114  -8.2581    157.7015     91.3500   7.7673546920e+01   3.2022961004e+01    0.2691618    0.1729876 -46.18 0.0005550508    1.641    0.390
       115  -9.2367    110.0513     90.2530   8.9222153716e+01   4.2689009807e+01    0.8385468    0.3896617  29.27  0.002628203    3.812    0.738
       116  -9.2642    138.6467     92.5794   8.2379397831e+01   3.6111511243e+01    0.3742093     0.284098 -66.10 0.0007295825    1.632    0.387
       117  -7.4503     78.2411     89.9487   9.8813089787e+01   4.8616817840e+01    0.1944663    0.1157735 -56.95 0.0008841798    1.616    0.381
       118 -10.1888     85.3403     86.6664   9.5682433502e+01   4.8159724850e+01    0.4925092    0.3467599  81.71  0.000968055    1.989    0.497
       119  -9.4969     87.2723     78.7572   9.2862202361e+01   4.9579971588e+01    0.6188444    0.3862164  18.26  0.001806064    2.568    0.611
       120  -9.6723    105.1913     71.0601   8.4902178497e+01   4.7688213955e+01    0.7961102    0.3867036 -33.39  0.002825209    2.468    0.595
       121  -9.7286    242.3931     86.5526   6.2214109959e+01   1.4158583519e+01    0.2483189    0.2088644 -44.96  0.001092102    1.319    0.242
       122 -10.2278     47.9276     84.4127   1.0795172340e+02   5.4243505520e+01    0.5629449    0.3414049  83.33  0.001690384    2.197    0.545
       123  -9.1721     48.9921     77.1583   1.0593733454e+02   5.5849311151e+01    0.5322469    0.4081902  -7.52   0.00287652    1.748    0.428
       124  -9.5459      6.7060    103.9935   1.2495753787e+02   5.3261856725e+01     0.478888    0.2289498  63.64  0.001516856    2.068    0.516
       125  -8.3350    163.3123     87.0567   7.5279295368e+01   3.1469052085e+01    0.2127335    0.1888075 -34.43 0.0004663584    1.120    0.107
       126 -10.4916    103.9471     83.4649   8.9065737828e+01   4.5357136726e+01    0.6696675      0.30128 -49.26  0.002549361    2.226    0.551
       127  -8.1801    170.5428     83.6850   7.2859128331e+01   3.0338747645e+01    0.2411569    0.1867346  85.61 0.0005542075    1.718    0.418
       128  -9.0143    157.9159     82.8836   7.5218557547e+01   3.3449433612e+01    0.5780492     0.214608 -33.77  0.001490261    2.751    0.636
       129  -8.7503    156.9228     76.3551   7.3496543929e+01   3.4803899129e+01    0.3947646    0.2101874 -30.57  0.001426474    1.931    0.482
       130  -9.3169    150.1389     89.9689   7.8959163222e+01   3.4002510079e+01    0.6955658    0.3053365 -26.38  0.002237876    3.326    0.699
       131  -8.4748    149.8654     80.7321   7.6346253364e+01   3.5723710031e+01    0.2855475    0.2111308 -45.87 0.0005014362    1.392    0.281
       132  -8.8802    118.9709     80.6053   8.3957483043e+01   4.2799799464e+01    0.3282917    0.2387562 -55.16 0.0006137824    1.475    0.322
       133  -8.1184    119.9132     75.8281   8.2235379284e+01   4.3541033273e+01    0.2997479    0.2637946  30.08 0.0009416915    1.196    0.164
       134  -9.0683    115.0963     72.2635   8.2431526301e+01   4.5309944577e+01    0.4841785    0.2475385 -42.84  0.001295491    1.923    0.480
       135 -10.2693    119.5010     65.3367   7.8939146103e+01   4.5657594954e+01    0.6198698    0.4952185  13.08   0.00298635    1.520    0.342
       136  -9.1595     74.1705     79.4830   9.7445057873e+01   5.1683810536e+01    0.6308792     0.262448 -55.48  0.001954556    2.320    0.569
       137  -8.1051     68.7276     79.2424   9.9269752428e+01   5.2604872962e+01    0.3325235    0.1132602 -53.65    0.0011294    2.678    0.627
       138  -8.3915    166.2250     78.8955   7.2334376427e+01   3.2149205692e+01     0.227701    0.1990663 -54.10 0.0006518638    1.233    0.189
       139  -8.0157    184.1773     78.0810   6.8715037576e+01   2.8005688247e+01    0.2326866    0.1919412  12.95 0.0009713375    1.308    0.236
       140  -7.3523    174.2585     78.6527   7.0697394097e+01   3.0271043941e+01    0.1510645    0.1127679 -58.25 0.0003226588    1.598    0.374
       141  -8.6251    129.9360     58.0784   7.3744647638e+01   4.4506878376e+01    0.3729854    0.2280484 -50.96 0.0004984572    1.841    0.457
       142  -7.7639    130.5033     54.0058   7.2169522700e+01   4.5065988047e+01    0.2766342     0.165445  18.99 0.0009741187    2.859    0.650
       143  -9.5385    127.3278     75.0935   8.0044505882e+01   4.2011745524e+01    0.4403916    0.2719121 -53.01 0.0008145501    1.826    0.452
       144  -8.1038    128.5132     69.4786   7.7946020776e+01   4.2794613723e+01     0.342822    0.2298297  10.51 0.0009944368    2.378    0.579
       145  -8.6719    130.7760     64.4345   7.5709714510e+01   4.3181304357e+01    0.6641974    0.2506405 -43.56  0.002224873    2.709    0.631
       146  -9.8250     62.9981     60.8827   9.6024055126e+01   5.7684195002e+01    0.6265541    0.3012346  33.03  0.001616996    2.380    0.580
       147 -10.6209     55.1861     71.0059   1.0203193878e+02   5.6498478156e+01    0.6632836    0.3996869  65.06  0.001394915    2.421    0.587
       148  -9.9143     81.5448     72.3151   9.2851611748e+01   5.2038118198e+01    0.4587346    0.3272406 -77.96  0.001014744    1.845    0.458
       149  -9.1677     83.6265     64.6189   8.9692177251e+01   5.3332709823e+01    0.5549109    0.3668465 -10.26  0.002237837    2.631    0.620
       150  -9.6892     15.9596     70.6990   1.1766300932e+02   6.0615393371e+01    0.5930054    0.2584891 -54.66  0.001280657    1.982    0.495
       151  -9.5589     17.2893     60.4704   1.1525154017e+02   6.2983648345e+01    0.7175637    0.2292584 -66.92  0.002953258    2.467    0.595
       152  -8.1056    162.7386     72.9645   7.1268229264e+01   3.3963543476e+01    0.2756464    0.1928561 -48.74 0.0007088292    1.534    0.348
       153  -8.1588    169.3524     71.1596   6.9422242020e+01   3.2642917134e+01    0.2193472    0.1305719 -41.01 0.0004947922    1.671    0.402
       154  -9.2717    146.9623     69.1863   7.3445373197e+01   3.8438949916e+01    0.3878877    0.2642632 -58.54 0.0007917588    1.803    0.446
       155  -9.5441     54.9649     62.7166   9.9767556793e+01   5.8452852075e+01    0.4851431    0.3559462 -58.10  0.002608358    1.251    0.201
       156  -8.3417    156.5329     70.0058   7.1634557342e+01   3.5964963270e+01    0.2310848    0.1472347 -34.51 0.0005343377    1.538    0.350
       157  -9.8270     94.8277     68.3706   8.7221904622e+01   5.0373180627e+01    0.5295869    0.3009548 -50.47  0.001518805    1.764    0.433
       158  -9.3912     97.3038     58.5512   8.3073069842e+01   5.1867799943e+01    0.7608254    0.4619238 -15.34  0.002823909    2.836    0.647
       159  -7.7820     23.2484     69.0022   1.1436777985e+02   6.0468471380e+01    0.1799512    0.1425586 -73.16 0.0003146296    1.082    0.076
       160  -9.0110    138.0540     66.4499   7.4611111410e+01   4.1074787386e+01    0.3670493    0.2332664 -42.72 0.0006017064    1.576    0.366
       161  -8.3426    138.1892     62.1421   7.3150958342e+01   4.1792213884e+01    0.2713612     0.225278  51.66 0.0006258899    1.213    0.176
       162  -7.8774    170.8361     64.7840   6.7201334454e+01   3.3269719908e+01    0.2057423    0.1757151 -66.88 0.0004196321    1.327    0.246
       163  -9.3217    109.7120     63.8143   8.1161135468e+01   4.8156064468e+01    0.3754221    0.2724151 -55.20 0.0005752401    1.501    0.334
       164  -8.9287    110.7186     58.1498   7.8886820871e+01   4.9013364754e+01    0.4104997    0.3081636   7.25  0.000879661    1.768    0.434
       165  -8.1606    157.3712     62.8198   6.9191143250e+01   3.6929077843e+01      0.26396    0.1781917 -37.07 0.0006734388    1.448    0.309
       166  -8.0689    147.0298     63.5098   7.1598868115e+01   3.9385887943e+01     0.239174     0.150578  53.82  0.001000387    1.595    0.373
       167  -9.5883     56.1298     43.5449   9.2717136930e+01   6.2527130717e+01     0.733389    0.4295191  -8.21  0.002602155    3.922    0.745
       168  -8.3350     10.0470     61.1373   1.1857076000e+02   6.3305355076e+01       0.2903    0.1566542 -78.96  0.001520622    1.630    0.387
       169  -9.0955     87.5389     57.3955   8.5858651221e+01   5.4092137866e+01    0.6355584    0.2439433 -43.26  0.001748458    2.500    0.600
       170 -10.4052     90.3757     37.9513   7.7235848230e+01   5.7210155289e+01     1.068457    0.4526958  34.49   0.00343911    3.605    0.723
       171 -10.1651     73.5272     56.7947   9.0630419936e+01   5.6836445701e+01     1.143425    0.3945275 -41.87  0.002625387    2.985    0.665
       172 -10.4551     85.1892     48.1532   8.3194986929e+01   5.6404368895e+01    0.5662366     0.420739  87.44  0.001015501    2.064    0.515
       173  -8.1911    164.6427     60.3643   6.6978910666e+01   3.5492184211e+01    0.2305586    0.1719088 -63.44  0.001061573    1.615    0.381
       174  -7.9102    152.7931     60.3715   6.9337419782e+01   3.8466277378e+01    0.2113899    0.1859187 -43.50  0.000528903    1.144    0.126
       175 -11.0123    168.6883    247.9750   1.0377774296e+02   6.5266215207e+00    0.5804098    0.1211016  41.47  0.002429943    3.645    0.726
       176 -10.7459     21.9417     53.5700   1.1162331578e+02   6.4270583669e+01    0.8655854    0.4122608  84.66   0.00301377    4.096    0.756
       177 -10.7013     23.2183     34.3509   1.0540612653e+02   6.8601361856e+01    0.6534672    0.4558281 -23.22  0.002924393    1.600    0.375
       178  -8.7349    218.0308    245.8330   9.5652311259e+01   3.3667383378e-01    0.1195801    0.1078801  18.76  0.001054054    1.581    0.367
       179 -10.1761     12.3525     45.7882   1.1442576406e+02   6.6814300681e+01    0.8244129    0.4018428 -10.06  0.003225368    3.189    0.686
       180 -10.1370      4.9161     41.9581   1.1738850076e+02   6.8148109281e+01    0.7177027    0.2914224 -72.13  0.002702745    2.050    0.512
       181  -9.5474      6.8784     32.5182   1.1403716541e+02   7.0232795952e+01    0.2790508     0.218713 -23.42 0.0007629404    1.386    0.279
       182 -10.0628      7.3131     28.4162   1.1261252982e+02   7.1142189682e+01    0.3931033    0.2768271  43.99  0.001648246    1.755    0.430
       183  -9.4879    147.0219     56.8260   6.9376744512e+01   4.0485439148e+01    0.7458827      0.28473 -25.62  0.002325908    3.236    0.691
       184  -9.0295    214.2700     55.1202   5.7660210346e+01   2.4078751542e+01    0.3688411     0.225174 -19.93 0.0009286934    1.598    0.374
       185  -8.7260    138.9988     56.7998   7.1146427304e+01   4.2496570228e+01    0.2992513     0.227066 -50.10 0.0004992748    1.397    0.284
       186  -9.0138    121.1229     47.0547   7.1956618717e+01   4.8530664913e+01    0.3641557    0.2668645 -40.66  0.000491968    1.358    0.263
       187  -9.2683    118.2506     55.5623   7.5863408213e+01   4.7747927273e+01    0.3823469     0.286238 -62.57 0.0007608926    1.613    0.380
       188  -8.0455    119.0611     51.2826   7.4080069171e+01   4.8310307342e+01    0.3641375    0.1759538  37.03  0.001258708    2.638    0.621
       189  -9.0200    162.9621     54.4624   6.5393061867e+01   3.6809631236e+01    0.2942372    0.1980151 -45.48 0.0005953681    1.531    0.347
       190  -7.4170    157.5122     55.5685   6.6801220432e+01   3.8029286604e+01    0.1497674     0.148265 -29.47 4.530873e-05    1.019    0.019
       191  -9.0595    105.4885     51.8193   7.8085266044e+01   5.1371516350e+01    0.5805416    0.2612868 -36.96  0.001918338    2.190    0.543
       192  -9.1373     79.9897     46.3112   8.4313501156e+01   5.7792122428e+01    0.3783923    0.2318055 -33.92 0.0005541029    1.659    0.397
       193  -9.4725    141.3510     48.8628   6.7839752739e+01   4.3182861613e+01    0.6698832    0.3924163  -9.23  0.001781418    2.454    0.593
       194  -7.6610     93.5695    243.5178   1.1625025795e+02   1.6833746537e+01    0.1034473   0.07649708  43.71 0.0001878452    1.061    0.057
       195  -9.6866    130.3616     46.6925   6.9543028954e+01   4.6303664460e+01     1.016515     0.439428 -18.75   0.00162504    3.866    0.741
       196  -8.7046    132.8694     35.8777   6.4870069958e+01   4.7304980324e+01    0.3410723    0.2064959 -36.47 0.0006005196    1.623    0.384
       197  -8.5210    167.6477    240.0131   1.0305596915e+02   7.5310179388e+00    0.1523627   0.07812224 -16.33 0.0007043484    4.570    0.781
       198  -9.1229    157.8309     49.5212   6.4718910275e+01   3.8855658538e+01    0.5351993    0.1703689 -42.56  0.001631777    3.309    0.698
       199  -9.0275    149.9502     47.7357   6.5645373835e+01   4.1151035552e+01    0.3762965    0.2233844 -46.31 0.0007305426    1.786    0.440
       200  -9.9045    152.9687     41.3580   6.2820091834e+01   4.1290705614e+01    0.5077215    0.4570859  64.27  0.001582446    1.129    0.114
       201  -7.4137    188.0509     46.9862   5.8856062376e+01   3.1471311440e+01    0.1717699    0.1640557 -29.20  0.000957731    1.004    0.004
       202  -8.6340    111.8332     46.9621   7.4404922798e+01   5.0775371554e+01    0.2840102    0.2232839 -52.29 0.0004932727    1.368    0.269
       203  -8.9704    113.8452     41.5036   7.1709553491e+01   5.1213360326e+01    0.6111825    0.3588578  -6.30  0.002219575    2.808    0.644
       204  -7.4816    166.7043     49.6854   6.3148148471e+01   3.6547778653e+01    0.1553919    0.1146561  22.36 0.0003608264    1.602    0.376
       205  -8.8516    161.4331    238.7524   1.0396590352e+02   8.5175407600e+00    0.1251205   0.09659177 -12.66 0.0009520354    1.623    0.384
       206 -10.1678    129.7730    237.5470   1.0933960734e+02   1.2957237840e+01    0.1845274    0.1551285  35.20 0.0002903283    1.153    0.133
       207 -10.2874    187.3441    235.1161   9.9176743790e+01   5.3826939778e+00     0.354401    0.2138764   6.19  0.002265838    2.044    0.511
       208  -8.3537    244.9655    227.4671   8.9100844159e+01  -1.4716902011e+00    0.1531412   0.07641212  33.05 0.0004631186    1.557    0.358
       209 -10.0641     76.2513     32.0541   7.9582885715e+01   6.1193919215e+01    0.4775255    0.3983372  66.31  0.001078746    1.463    0.316
       210  -9.9930     79.3258     24.1024   7.4662736921e+01   6.1895587262e+01    0.6816801    0.3675915  25.97   0.00208916    2.785    0.641
       211  -8.9215     84.7228     21.9396   7.1731965566e+01   6.1058948956e+01    0.2885002    0.2286581 -26.54 0.0006192848    1.216    0.178
       212  -8.1590    131.7493    223.0227   1.0747186492e+02   1.4617094050e+01    0.1965048    0.1204928  50.34 0.0007606397    1.493    0.330
       213  -7.6656      1.5355    222.4889   1.3152437863e+02   2.9795242631e+01   0.09843979   0.06704503  58.94 0.0001661066    1.013    0.013
       214  -8.4873    239.9876    210.7426   8.7345342643e+01   6.4306281786e-01    0.1651102     0.122475   2.56 0.0003921246    1.153    0.133
       215  -8.4849     41.9970     28.0600   9.2840307438e+01   6.7789664754e+01    0.3000486    0.2005113 -24.59  0.000330529    1.650    0.394
       216  -9.9760     11.5614    207.5037   1.2927124748e+02   3.1446451044e+01    0.5252991    0.2497717  27.21  0.003267425    2.288    0.563
       217  -8.9750    191.3556    193.0509   9.2522226559e+01   9.6291425565e+00    0.4448992    0.2695432 -60.75  0.001975021    4.429    0.774
       218  -9.3061    238.2549    192.7107   8.4708058706e+01   2.6203733641e+00    0.2311592    0.2260631 -89.92  0.001403263    1.926    0.481
       219 -10.2065     35.9085     37.9888   1.0005893188e+02   6.6470154718e+01    0.3515571    0.2385527 -34.34 0.0003458853    1.475    0.322
       220  -8.2814    122.7401     41.0067   6.9221720399e+01   4.9109621278e+01    0.4737118    0.2651432  23.83   0.00165836    2.940    0.660
       221  -7.9454    110.1390     26.6778   6.6478625628e+01   5.4382781803e+01    0.3533895    0.2437728 -48.16  0.001320276    1.596    0.374
       222  -9.1192    110.2808     33.2920   6.9292583853e+01   5.3376639830e+01    0.4418151    0.2618202 -43.19  0.001127569    1.751    0.429
       223  -9.1829    104.9175     41.1128   7.4048765774e+01   5.3395330199e+01    0.3985807    0.2687992 -53.11 0.0008656431    1.708    0.414
       224  -8.6838    106.4678     36.4802   7.1686099656e+01   5.3794921750e+01    0.3449558    0.2396838  34.41 0.0009401079    1.568    0.362
       225  -8.8913     53.4193     39.1938   9.2178515834e+01   6.3853486581e+01     0.356679    0.1896479 -40.61  0.001493636    1.774    0.436
       226  -8.9024     54.6419     35.1569   8.9926044941e+01   6.4489120188e+01    0.3095247    0.2267966 -31.67  0.001661427    1.324    0.244
       227  -8.7384    161.1312     36.8624   5.9785889204e+01   3.9755607287e+01    0.4377047    0.2569126   4.38  0.001657416    2.541    0.606
       228  -9.1982    144.2401     36.5544   6.2765952603e+01   4.4246670462e+01     0.303237    0.2289705 -53.97 0.0006670994    1.444    0.307
       229  -8.8600    118.9625     34.7865   6.7674315937e+01   5.1006190283e+01    0.3435148    0.2092255 -34.38 0.0007164732    1.607    0.378
       230  -7.7550    100.4636     36.4779   7.3430540255e+01   5.5201812910e+01    0.2268851    0.1819158 -63.12 0.0007191387    1.498    0.332
       231  -9.2533    101.0831     32.1194   7.1363881145e+01   5.5759190055e+01    0.4422498    0.2021635 -36.33 0.0008349253    2.106    0.525
       232  -8.4120    153.0572     34.7908   6.0462476252e+01   4.2160817114e+01    0.2791562    0.2157857 -88.41  0.001238378    1.494    0.331
       233  -7.4171     50.4071     35.4444   9.1993378668e+01   6.5080959568e+01    0.1365858    0.1196768 -34.65  0.000101549    1.025    0.025
       234  -9.9078    154.9364     26.2526   5.7044901164e+01   4.2734154835e+01    0.4021769    0.3717656  88.97  0.002186595    1.111    0.100
       235  -8.9700    226.3738    187.5443   8.5700254399e+01   4.8913130970e+00     0.225456    0.1717812  28.18   0.00103801    1.197    0.165
       236  -9.0554    227.1766    182.8125   8.4756820666e+01   5.2872608671e+00    0.1991356    0.1475048  10.66 0.0002380614    1.099    0.090
       237  -7.4017      8.4559    180.5794   1.2890499181e+02   3.6632081649e+01    0.1072055   0.08050687  65.14 -1.350063e-05    1.022    0.022
       238  -9.0955    227.4208    178.0294   8.3875817785e+01   5.7803752201e+00    0.1986168    0.1459383  33.97 0.0003340083    1.299    0.230
       239  -8.3149    148.0854    176.6245   9.8120481632e+01   1.9024336492e+01    0.1732265    0.1686642  78.35 0.0005591061    1.220    0.180
       240 -10.0935    195.4045    174.8291   8.8736234442e+01   1.1313037211e+01    0.2244192    0.2006085  12.14 0.0004795202    1.139    0.122
       241  -9.0682     81.3048    175.3016   1.1240415658e+02   2.9622164053e+01    0.2015597    0.1743917  54.42 0.0004168248    1.058    0.055
       242  -8.8976     91.6348     26.4884   7.1681472824e+01   5.8817236404e+01    0.3678837    0.2393192 -50.56  0.001280921    1.797    0.443
       243  -8.9398     92.0115     21.0083   6.8950973066e+01   5.9540939495e+01    0.4309345    0.2881095  10.51  0.001539547    1.908    0.476
       244  -8.3620     95.8610     16.8459   6.5786406878e+01   5.9200953593e+01    0.2192055    0.2076093  -2.65 0.0002920719    1.028    0.027
       245  -9.1375    230.2658    168.8023   8.1745553474e+01   6.3784562358e+00    0.3772481    0.1467145 -29.26  0.001801691    2.553    0.608
       246  -7.1242      8.2892    171.3389   1.2856199160e+02   3.8447381640e+01   0.09772936    0.0768885 -58.57 0.0007022065    1.641    0.391
       247  -8.8857     81.0116    160.0209   1.1063069783e+02   3.2679459670e+01    0.1822311    0.1592092  61.06  0.001181895    1.015    0.015
       248  -8.8181    144.3425     25.9135   5.8742088729e+01   4.5610002916e+01    0.2113277     0.188476 -20.80 0.0005107223    1.129    0.114
       249  -7.7815    149.6222     25.1997   5.7544516892e+01   4.4284206770e+01    0.2066932    0.1436355  -7.73 0.0009359893    1.615    0.381
       250  -8.7952    215.5089    157.9855   8.2102112517e+01   1.0097034186e+01    0.2121843    0.1610814  31.77   0.00131929    1.207    0.172
       251  -8.2355    201.0148    156.4565   8.4311185250e+01   1.2812449462e+01    0.2106843    0.1774471 -45.10 0.0005879516    1.531    0.347
       252  -8.6465    140.2109     22.5820   5.8203825177e+01   4.7117149843e+01    0.2919456    0.1427258 -46.31 0.0009184149    2.267    0.559
       253  -8.6780    111.7579     21.2855   6.3680970492e+01   5.4708356698e+01    0.4808394    0.2262231 -35.57  0.001695707    2.074    0.518
       254  -7.1999    125.4970    157.4411   9.9822960020e+01   2.6169997514e+01     0.132703    0.1183523  42.73 9.100618e-05    1.015    0.015
       255  -7.3150    143.5596    153.5812   9.5132416003e+01   2.3683034703e+01    0.1337512    0.1195267  33.95 0.0001999881    1.021    0.020
       256  -7.2947    148.4405    149.4927   9.3306724147e+01   2.3509176000e+01    0.1345899    0.1232285  36.54  5.17396e-05    1.027    0.026
       257  -8.3761    133.6387    145.9667   9.5924797183e+01   2.6862504854e+01    0.3981346    0.1635419 -51.08  0.001591084    2.763    0.638
       258  -9.4558    238.1471    145.4253   7.5973312610e+01   7.8063296377e+00    0.3562853    0.1477423  28.27  0.001474728    3.072    0.674
       259  -9.3060     66.8419    144.1945   1.1210957440e+02   3.7956583141e+01    0.4941466    0.2700777  60.81  0.002407321    1.967    0.492
       260  -8.7838    242.2128    137.2018   7.3672039780e+01   8.0884723889e+00    0.2164806    0.1118908  11.58 0.0009444319    2.759    0.638
       261  -8.6294    112.3800    133.9556   9.8713787388e+01   3.3045283012e+01    0.3202188    0.2238482  81.74  0.001164348    1.992    0.498
       262  -8.5666     40.9652     20.8214   8.9875086696e+01   6.9353695142e+01    0.2170121    0.1780469 -40.07 0.0003567376    1.112    0.101
       263  -8.4709    155.0308     17.7061   5.3890657732e+01   4.3680020856e+01    0.2131125    0.1922824  75.16 0.0006255729    1.106    0.096
       264  -8.2502    140.0887     18.1322   5.6470631649e+01   4.7664966590e+01    0.2077488    0.1710441 -56.03 0.0003996444    1.294    0.227
       265  -9.0311    132.6164     17.2223   5.7455447382e+01   4.9768664560e+01    0.2659314    0.2077758  67.22 0.0005757113    1.279    0.218
       266 -10.1685    117.1321    123.9776   9.5496035468e+01   3.4230838090e+01    0.9747983    0.5982523 -49.32  0.003055683    1.693    0.409
       267 -10.0198    133.6431    131.6213   9.3070265859e+01   2.9580632892e+01    0.5208862    0.4570046  32.11  0.002685138    1.119    0.106
       268  -9.0297    126.0138     83.8873   8.3061003605e+01   4.0601863156e+01    0.4738782    0.2984475  13.80  0.001714428    2.979    0.664
       269 -10.7941    132.0382    119.9377   9.0901910008e+01   3.2169050571e+01     1.024128    0.6342338  78.72  0.003684081    3.473    0.712
       270 -11.2334    133.7992    109.1575   8.7914917883e+01   3.3933924733e+01     1.011003    0.6781589 -57.58  0.003173171    1.731    0.422
       271 -10.2701    109.0088    112.8485   9.5176347630e+01   3.8081275492e+01     1.041203    0.4725536 -50.19  0.002379182    2.237    0.553
       272 -10.5024    108.5360     99.7828   9.2170045208e+01   4.0964572933e+01    0.9614145    0.5970379  68.91  0.003132287    2.422    0.587
       273 -10.1415    128.2548    101.1950   8.7279882279e+01   3.6672683762e+01    0.8652572    0.4824108 -26.38  0.002578694    2.649    0.623
       274 -10.0193     37.7922     41.9952   1.0058521997e+02   6.5364065394e+01    0.4133579    0.3300444  80.32  0.001469252    1.624    0.384
       275 -10.5180    120.8677    111.1088   9.1643131495e+01   3.6163665159e+01    0.8749434       0.5613 -77.52  0.002214262    2.627    0.619
       276  -8.5913     83.1829    131.5780   1.0588574698e+02   3.8387096563e+01    0.6269945    0.3319272  69.26  0.002439284    3.054    0.673
       277  -7.4103    172.1890    131.6582   8.4629741270e+01   2.1972879203e+01    0.1861024    0.1196287  36.05 0.0002239348    1.508    0.337
       278 -10.5379    123.0849     92.2845   8.6227812671e+01   3.9560239028e+01    0.8264687    0.5551774 -37.32  0.002133474    1.546    0.353
