#   1 NUMBER                 Running object number                                     
#   2 MAG_AUTO               Kron-like elliptical aperture magnitude                    [mag]
#   3 X_IMAGE                Object position along x                                    [pixel]
#   4 Y_IMAGE                Object position along y                                    [pixel]
#   5 X_WORLD                Barycenter position along world x axis                     [deg]
#   6 Y_WORLD                Barycenter position along world y axis                     [deg]
#   7 A_WORLD                Profile RMS along major axis (world units)                 [deg]
#   8 B_WORLD                Profile RMS along minor axis (world units)                 [deg]
#   9 THETA_WORLD            Position angle (CCW/world-x)                               [deg]
#  10 FWHM_WORLD             FWHM assuming a gaussian core                              [deg]
#  11 ELONGATION             A_IMAGE/B_IMAGE                                           
#  12 ELLIPTICITY            1 - B_IMAGE/A_IMAGE                                       
         1 -11.7988     90.9985     26.7241   4.1632707666e+01   5.8374185481e+01    0.2681354    0.2280387 -32.20 0.0002887145    1.252    0.201
         2 -10.4044      8.6964      9.1321   6.8523426146e+01   7.2023151875e+01     0.264858    0.1912523  63.56  0.001097428    3.522    0.716
         3 -10.5093     13.6742     12.1923   6.7214039715e+01   7.1172587736e+01    0.2135758    0.1932776 -53.10  0.000952796    1.539    0.350
         4 -11.9054     17.2368     20.4487   6.8722512027e+01   6.9545757443e+01    0.3462998      0.26214   2.36 0.0007924269    1.339    0.253
         5 -11.6393      2.9382     20.8549   7.5850543319e+01   7.0416607611e+01     0.276582     0.237157  83.75  0.002116551    1.815    0.449
         6 -12.3428    125.1637     17.5915   2.8987884955e+01   5.2045400682e+01    0.3969668    0.2695278 -10.89  0.000412597    1.711    0.416
         7 -11.8144    204.2057     17.9997   1.6159401814e+01   3.1845037134e+01    0.4085068    0.3118203 -85.10  0.002246045    1.211    0.174
         8 -11.9444    203.4719     12.2148   1.4723862869e+01   3.2699135309e+01    0.3230368    0.2384133 -51.04 0.0006478599    1.329    0.247
         9 -10.6594    207.9102     12.8433   1.4394849989e+01   3.1499486097e+01    0.2192496    0.1905635 -52.68 0.0004161765    1.178    0.151
        10 -10.8781     14.1132     15.9000   6.8492264195e+01   7.0539898129e+01    0.2138138    0.1599336 -35.17 0.0008410454    1.100    0.091
        11 -11.6973     35.3866     12.5046   5.6764872804e+01   6.9049307927e+01    0.3640585    0.2116239  42.82  0.002112224    2.326    0.570
        12 -11.7501     29.6998      7.8777   5.7311620909e+01   7.0344038253e+01    0.3749554    0.2710031  42.78  0.002501625    2.002    0.501
        13 -10.2327     16.3179      8.0154   6.4063269962e+01   7.1609702043e+01    0.1835032    0.1300829  -8.70 0.0003902953    1.240    0.194
        14 -13.1111     20.3516      2.2756   5.9303306463e+01   7.2082853933e+01    0.2647882    0.1867472  -3.59 0.0007629903    1.227    0.185
        15 -10.6288    153.1015     12.5410   2.1783851692e+01   4.5675823574e+01     0.235898    0.1822839 -51.43 0.0003509895    1.422    0.297
        16 -12.2163     55.3622      9.9217   4.6951269258e+01   6.6748947589e+01    0.3797568    0.2404729  19.73  0.002245354    1.566    0.362
        17 -10.1975    184.8548     11.8612   1.6873616574e+01   3.7535051265e+01    0.2014279    0.1504909 -68.39 0.0006535178    1.350    0.259
        18  -9.9346    171.8125     11.8458   1.8647954291e+01   4.0924259218e+01     0.193473    0.1506744 -66.54 0.0004444268    1.338    0.253
        19 -10.7127    165.1081     11.2863   1.9466153349e+01   4.2720499617e+01    0.3105167     0.194334 -57.84  0.001486288    1.825    0.452
        20 -12.3334    125.9356     10.6384   2.6271513243e+01   5.2604847635e+01    0.2956518    0.2795562 -56.34 0.0002136276    1.204    0.169
        21 -10.1849    176.8798     10.4310   1.7520480470e+01   3.9758326267e+01    0.2609823    0.1850425   8.18 0.0009961326    1.976    0.494
        22  -9.6392    134.8296     11.1352   2.4637192095e+01   5.0401005586e+01    0.1924558    0.1451994  37.09 0.0004581014    1.314    0.239
        23  -9.9867     64.5376     10.4941   4.3681197418e+01   6.5233281350e+01    0.2425254    0.1109902 -27.78  0.001192176    2.144    0.534
        24  -9.8104     97.0956     10.0595   3.3025545302e+01   5.9157977293e+01    0.2026853    0.1594961 -66.97  0.001136165    1.855    0.461
        25  -9.4323     86.0150     10.0556   3.6238751826e+01   6.1406279079e+01    0.1495524    0.1271076  25.01 0.0003225736    1.025    0.025
        26 -10.0539     45.5188      9.5599   5.0874703426e+01   6.8196524401e+01    0.1983263    0.1494213  11.60 0.0006317424    1.189    0.159
        27 -10.3911     42.2333      9.2142   5.2147797641e+01   6.8674774240e+01     0.188484    0.1402343  -0.86  0.000235333    1.164    0.141
        28 -10.0273     22.9743      9.1983   6.1217826769e+01   7.0835755958e+01     0.205403    0.1293285  -2.09   0.00108456    1.593    0.372
        29 -10.2645      3.5790      7.1712   7.0442199852e+01   7.2672292529e+01    0.2084277    0.1575664 -38.17  0.001628301    1.173    0.147
        30  -9.8476     88.6821      6.8338   3.4049385249e+01   6.1220329644e+01    0.1980788    0.1398077   6.91 0.0009687245    1.464    0.317
        31  -9.6798     69.7086      6.6246   4.0037237714e+01   6.4806731777e+01    0.2103152    0.1016828 -27.40  0.001064262    2.043    0.511
        32 -10.3683    247.1179      5.9546   9.1402557300e+00   2.2785695003e+01    0.1918099    0.1490677 -71.91 0.0003892688    1.047    0.045
        33 -11.6378    194.0076      4.7946   1.3816462793e+01   3.5918858332e+01    0.2489021     0.230684  66.49 0.0003266588    1.174    0.148
        34 -11.2152    151.6145      5.8959   1.9866238601e+01   4.6719725539e+01    0.2845156    0.2231032  83.17 0.0003420231    1.252    0.201
        35 -11.1105    148.3797      2.4466   1.9256966400e+01   4.7858878087e+01    0.2613645    0.2353779  39.56 0.0009034578    1.153    0.132
        36  -9.6723    111.6735      6.0304   2.7695216005e+01   5.6378141644e+01    0.1761538    0.1605991  16.24  0.000664384    1.104    0.094
        37 -11.2236    223.7526      3.8560   1.0601695468e+01   2.8553372381e+01    0.2179433    0.1565102  72.76 0.0003207711    1.292    0.226
        38 -10.1399    104.6321      4.2126   2.8659669763e+01   5.8121329620e+01    0.1998155    0.1587951  60.88 0.0003851674    1.268    0.211
        39  -9.9340     48.6363      4.2415   4.6993055690e+01   6.8436809513e+01    0.1952662     0.133696  -1.63 0.0008730142    1.353    0.261
        40 -10.2958     44.2602      4.3835   4.8933479978e+01   6.9030289038e+01    0.2599027    0.1427582  36.78   0.00107641    1.828    0.453
        41  -9.1185     39.2642      3.6405   5.0786528214e+01   6.9782602986e+01   0.09993239   0.08606476 -41.16 0.0006985042    1.634    0.388
        42 -10.4719     13.4149      2.9055   6.3257820514e+01   7.2612225959e+01    0.2260624    0.1621518  35.68  0.001617197    1.955    0.489
        43  -9.9094    161.5887      2.2220   1.7181924099e+01   4.4519059644e+01    0.1792594    0.1320742   4.72 0.0009516157    1.746    0.427
        44 -10.2154    138.3540      2.1711   2.0849890887e+01   5.0387418587e+01    0.2290969    0.1573588  54.79 0.0003980276    1.260    0.206
        45 -10.5986     29.7887      1.3280   5.4088105594e+01   7.1223121842e+01    0.2023529   0.09364797  35.07 0.0005833397    2.283    0.562
        46  -9.8091    208.4545    123.3325   4.2819952533e+01   1.3829107578e+01    0.1970227    0.1411915 -48.90 0.0006853567    1.436    0.304
        47 -10.3582    109.9613    250.5717   8.4644341898e+01   9.5073985037e+00    0.1775088   0.09074269  45.11 0.0003980927    1.524    0.344
        48 -12.7402     19.2830    248.0836   9.9713048291e+01   2.2071999231e+01    0.6204885    0.2770146  35.77  0.003697045    2.647    0.622
        49 -12.8208      4.8623    241.6731   1.0166435876e+02   2.4701469099e+01      0.63608     0.313814  81.53  0.004424653    1.535    0.348
        50 -11.0291      4.4401    232.4553   1.0135057695e+02   2.6383932115e+01    0.2093062    0.1090891  68.97 5.474437e-05    1.353    0.261
        51 -10.7745     27.6543    121.0635   8.7887839637e+01   4.7700790731e+01     0.428306     0.103164 -51.85  0.001522544    3.982    0.749
        52  -9.7302     82.5090    118.1132   7.2002268828e+01   4.1727984581e+01    0.2085161    0.1311383 -59.26 0.0004392664    1.480    0.324
        53 -11.7862     69.4396    116.4242   7.5378649808e+01   4.4061462440e+01    0.3183967    0.2785224 -65.54 0.0006525872    1.047    0.045
        54 -12.5553     23.3870    113.3220   8.8013280777e+01   4.9844211664e+01    0.2534937    0.2054824 -73.80 0.0002717678    1.019    0.019
        55  -9.3048     60.2714    114.6772   7.7680630610e+01   4.5695426046e+01    0.1344999   0.09665006  82.87 0.0001975983    1.572    0.364
        56 -12.5081     14.0788    106.9674   8.9786412379e+01   5.1996345291e+01    0.5859849    0.2266725 -73.43  0.002790983    2.147    0.534
        57 -11.5841      2.9435    112.1278   9.3490575489e+01   5.1563595355e+01    0.3768664    0.1884206  80.50  0.001634924    2.163    0.538
        58 -10.5895      6.0486    103.9533   9.1687020312e+01   5.3197827604e+01    0.1751746     0.135726 -73.09  0.000370022    1.015    0.015
        59  -9.3943      1.4012    103.7134   9.2971920147e+01   5.3522913654e+01     0.172514   0.07627958 -63.75 0.0009465708    1.683    0.406
        60  -9.8501    108.9911    103.0060   6.0977147401e+01   4.0565854717e+01    0.2241407    0.1830771 -12.43 0.0004859305    1.580    0.367
        61  -9.6569    112.7912    102.3657   5.9750278290e+01   3.9961345703e+01    0.2002835    0.1430294  34.39 0.0002944059    1.547    0.354
        62 -10.5624    247.4904    101.4906   3.1075442764e+01   8.9750125469e+00     0.140633    0.1281973 -44.30 -2.670108e-05    1.011    0.011
        63 -10.1131     65.3395    100.6748   7.3320993617e+01   4.8296412747e+01    0.1398854    0.1015679  78.41 0.0007051321    1.727    0.421
        64 -10.3352     23.9283     97.0618   8.5414906045e+01   5.3505589107e+01    0.5935274    0.2149303 -40.74  0.002357891    3.640    0.725
        65 -11.6884     17.7149     95.9777   8.7144684161e+01   5.4215764444e+01    0.4814845    0.2327206 -73.61   0.00148255    1.792    0.442
        66 -11.3347     20.9159     92.3690   8.5576446383e+01   5.4792329063e+01    0.2446861     0.166192 -61.50 0.0003064626    1.178    0.151
        67  -9.8703    217.8783     98.5104   3.5069809967e+01   1.6138348918e+01    0.2142762    0.1474381  55.55  0.000555507    1.494    0.331
        68 -10.3904     56.1543     96.7701   7.5318039933e+01   5.0367116165e+01     0.247294    0.1645575 -54.99 0.0002653295    1.313    0.238
        69 -10.8941     43.3846     94.7813   7.8927374497e+01   5.2256040232e+01    0.3317835    0.2345969 -33.81  0.001897512    1.592    0.372
        70  -9.5732     92.8588     93.7296   6.3253885390e+01   4.5620111240e+01    0.3776506    0.2402119 -88.29  0.001233813    2.947    0.661
        71 -10.0874     81.7124     94.6679   6.6876395663e+01   4.7269997354e+01    0.2360684    0.1756235  54.23 0.0008446624    1.505    0.336
        72 -10.7225     10.6880     93.9550   8.8985295096e+01   5.5138683566e+01    0.2187276    0.1609327 -77.86 0.0003390015    1.152    0.132
        73 -10.4660      7.8964     90.5131   8.9341907743e+01   5.6071102921e+01    0.3100233    0.1387277 -72.74  0.001632134    1.824    0.452
        74 -11.1282    125.2956     92.9906   5.3798275649e+01   3.9398744472e+01    0.2598338    0.2198091  49.03 0.0002239523    1.187    0.157
        75  -9.1474    142.2473     92.0120   4.9123596751e+01   3.5782720747e+01    0.1930934    0.1333331 -42.79 0.0002771519    1.462    0.316
        76 -10.7507    105.8430     92.0253   5.8967769082e+01   4.3602542038e+01    0.2835515     0.214583  56.91 0.0002805302    1.439    0.305
        77 -12.2318     66.6917     91.6401   7.0823639826e+01   5.0173297263e+01    0.2427246    0.2159095 -60.65 0.0002606956    1.039    0.038
        78 -11.4136     58.1663     91.4374   7.3496620143e+01   5.1332977271e+01    0.2616859    0.1815829 -38.63 0.0006823723    1.487    0.328
        79 -12.2667    159.5206     89.3881   4.4249398694e+01   3.2169361437e+01    0.4674658    0.3192774  35.54 9.117357e-05    1.688    0.408
        80  -9.8986     95.9537     87.4863   6.0640839359e+01   4.6439817225e+01    0.1988924    0.1438587  42.84 0.0003349551    1.444    0.308
        81  -9.8498     31.1967     87.2154   8.1354677844e+01   5.5120633318e+01    0.1508497    0.1272275 -88.16 0.0002746394    1.245    0.197
        82 -13.6314     65.5149     81.7610   6.8735344511e+01   5.2528363657e+01    0.3987241     0.373442 -71.90 0.0007219246    1.122    0.109
        83  -9.5704     26.4781     85.8738   8.2642448467e+01   5.5813175614e+01    0.1758337    0.1008356 -64.40 0.0003756208    1.432    0.302
        84 -10.1430     17.4107     84.7947   8.5411528163e+01   5.6727373802e+01    0.2061417    0.1134211 -59.65 0.0003233329    1.411    0.291
        85 -10.9549      3.3643     81.3182   8.9408771015e+01   5.8333210086e+01    0.3800829    0.1011905 -56.19  0.001745647    2.501    0.600
        86 -11.1495      4.6575     75.7798   8.8106804527e+01   5.9460892229e+01    0.2885132    0.1868844 -23.39  0.001426875    1.848    0.459
        87 -10.2920      7.2136     83.8305   8.8553642086e+01   5.7577826591e+01    0.2352131    0.1607394 -55.29 0.0008223279    1.208    0.172
        88 -10.7684      8.7642     79.8797   8.7415391982e+01   5.8349758241e+01    0.2803041    0.1985079  78.44  0.001203627    1.632    0.387
        89 -10.1242     86.7131     78.6547   6.1000822393e+01   4.9950151879e+01    0.2887195    0.1739428  25.61  0.001280923    2.104    0.525
        90 -10.6584     48.1319     78.8807   7.3859548459e+01   5.5303700884e+01    0.2474004    0.1673142 -40.27  0.000475954    1.407    0.289
        91  -9.5080     26.4321     79.4900   8.1412525062e+01   5.7226341344e+01    0.1225381   0.09932181 -58.99 0.0003052319    1.012    0.012
        92 -10.3135    177.0592     76.8454   3.6929728104e+01   3.0131454175e+01    0.2866408    0.2281377  58.55  0.001382033    1.229    0.186
        93 -10.3580     11.7660     76.8138   8.5885313726e+01   5.8836860766e+01     0.174988    0.1255503 -51.82 0.0005554928    1.171    0.146
        94  -9.3940     74.8895     76.6388   6.4245531676e+01   5.2279997708e+01    0.1726596     0.126135  49.44 9.579645e-05    1.568    0.362
        95  -9.0891     42.6811     76.7179   7.5215121580e+01   5.6355590651e+01    0.1276703   0.08578883 -32.20 0.0001888997    1.584    0.369
        96 -10.7956     17.8967     74.1571   8.3284347491e+01   5.9016393729e+01    0.2712724    0.1796724 -88.11  0.001611565    1.758    0.431
        97  -9.8358    116.2596     72.4481   5.0244045726e+01   4.5535536383e+01    0.2798592    0.2089857   8.73  0.001024714    1.808    0.447
        98 -10.4165     45.9617     70.2258   7.2442511650e+01   5.7405035564e+01    0.3781711     0.172822 -60.46  0.001730278    2.121    0.529
        99 -13.1520     80.9914     67.2478   5.9439760185e+01   5.3255094815e+01    0.4380279    0.3779117 -12.95 0.0006669927    1.202    0.168
       100  -9.7016     39.2588     70.2031   7.4834339669e+01   5.8100555820e+01    0.1589493    0.1411585  89.10 0.0005421268    1.328    0.247
       101 -11.0775      5.3445     68.9202   8.6688805461e+01   6.0888374842e+01    0.2319402   0.09322073 -74.86       0.0011    2.473    0.596
       102 -11.9314    211.9600     67.4069   2.8123936840e+01   2.2874986170e+01    0.2664853    0.2440537 -74.20 0.0003136747    1.026    0.025
       103 -10.3035     63.8501     66.6566   6.5107033379e+01   5.5959164641e+01    0.3344272    0.1582531 -56.49  0.001005714    2.214    0.548
       104  -9.0791    155.0000     66.9858   3.8741424151e+01   3.7478768848e+01    0.2420436   0.08864776 -36.56 0.0006465978    2.812    0.644
       105 -10.9882     15.1356     49.0675   7.8671230177e+01   6.4411884431e+01    0.5195906    0.2592432  54.13   0.00231732    4.265    0.766
       106 -11.7192     17.2063     63.2211   8.1250920137e+01   6.1387205613e+01    0.4159884    0.2896856 -58.71  0.002015299    1.160    0.138
       107 -13.5836     20.9543     58.5290   7.8746231970e+01   6.2100041728e+01    0.3663944    0.2236563 -50.48 0.0008058331    1.290    0.225
       108 -11.2729    128.4252     63.5021   4.4100156895e+01   4.4513997320e+01    0.2657268    0.2575329  53.71  7.43135e-05    1.029    0.028
       109 -10.9108     50.9798     62.0528   6.8370891178e+01   5.8538948710e+01    0.5427831     0.287933 -70.73  0.002204488    3.303    0.697
       110 -10.2961      7.5152     63.5057   8.4886998655e+01   6.1912745976e+01    0.2431603   0.08748344 -64.06 0.0009124462    2.120    0.528
       111 -10.4148      4.5021     61.4977   8.5599717714e+01   6.2488359138e+01    0.1879284    0.1361828 -21.73  0.001313956    1.532    0.347
       112 -11.5528     11.6427     59.7250   8.2567185370e+01   6.2465173781e+01    0.2185319    0.1784317 -36.31 0.0002537331    1.182    0.154
       113  -9.8172    119.9209     62.5920   4.6087073704e+01   4.6597229058e+01    0.1966768    0.1768875  44.65  0.001057087    1.099    0.090
       114  -9.6704     98.5151     60.9502   5.1791757873e+01   5.1341148551e+01    0.2091735     0.136227 -41.88 0.0004621976    1.506    0.336
       115 -10.2717     38.6562     60.3353   7.2472321068e+01   6.0220797402e+01    0.2286875    0.1846268 -37.24  0.001492567    1.086    0.079
       116 -11.2213     58.5581     58.9897   6.4673922095e+01   5.8213517044e+01    0.2360756    0.1826773  27.56 0.0005825904    1.407    0.289
       117 -10.1085    229.2071     56.3956   2.2838513987e+01   2.0354356729e+01    0.2194865    0.1879896 -34.76 0.0005911565    1.230    0.187
       118  -9.7098    131.1974     57.2919   4.1371297711e+01   4.4959405482e+01    0.2009576    0.1719772 -88.47 0.0009953816    1.372    0.271
       119 -10.1320     71.7419     56.8406   5.9262103781e+01   5.6761311746e+01    0.2145047    0.1699549  69.25  0.000635152    1.825    0.452
       120 -10.4398      4.1895     57.5747   8.4932774484e+01   6.3314253787e+01    0.1421457   0.09523321 -20.63 0.0009471829    1.664    0.399
       121 -12.0639     66.4290     52.6112   5.9743926119e+01   5.8356260773e+01     0.478224    0.2656154  30.93  0.001537549    1.967    0.492
       122 -10.8772     62.0886     49.8362   6.0391134412e+01   5.9494276435e+01    0.2034916    0.1688002 -13.73 0.0003092923    1.162    0.139
       123  -9.6201     33.7925     55.2074   7.2907559702e+01   6.1723504350e+01    0.1728626   0.09436014   8.04 0.0008716569    2.489    0.598
       124 -13.4560    114.7924     53.4652   4.4468876540e+01   4.9330059242e+01    0.3741652    0.3425891  42.58 0.0007010549    1.078    0.072
       125 -10.3901    225.4606     52.5172   2.2368195730e+01   2.1846644594e+01    0.2693185    0.2020566 -42.59 0.0008445383    1.277    0.217
       126  -9.2651    222.6231     50.7308   2.2295180005e+01   2.2808933427e+01    0.2065127    0.1562873 -70.84  0.000436677    1.311    0.237
       127  -9.8123     97.5682     51.8874   4.9003048506e+01   5.3162139575e+01     0.318886    0.1323333 -32.92 0.0007843933    2.700    0.630
       128  -9.6414    148.6960     51.9997   3.5488852903e+01   4.1579070310e+01    0.1987925    0.1926443 -47.76 0.0002841126    1.074    0.069
       129  -9.3092    128.5495     52.4622   4.0448256230e+01   4.6390994716e+01    0.1482635    0.1387286  26.03 5.792349e-05    1.066    0.062
       130 -12.3462    105.9435     49.7002   4.5705826487e+01   5.1850011430e+01    0.5222087    0.3314629 -52.65 0.0005739527    1.917    0.478
       131 -10.1770     81.1936     51.9807   5.4351272660e+01   5.6138421730e+01    0.1898849    0.1811219 -66.22 0.0003990867    1.249    0.200
       132 -11.8601     86.1302     54.0151   5.3403992789e+01   5.4912472470e+01    0.3389349    0.2402074  23.94 0.0002633468    1.560    0.359
       133 -10.3470    138.1731     50.2327   3.7335289483e+01   4.4458279068e+01    0.2236624    0.1933238  34.18 0.0005451575    1.180    0.152
       134 -10.2382     54.4587     48.4481   6.2792456863e+01   6.0773360721e+01    0.2953075      0.19867 -65.13 0.0008593322    2.062    0.515
       135  -9.7549    155.6414     46.7394   3.2326028059e+01   4.0640160922e+01    0.3613597    0.1728231  58.75  0.001337828    1.979    0.495
       136 -10.7262     67.2692     45.0775   5.6814452834e+01   5.9605707876e+01    0.2363107    0.1859739   1.20 0.0008241058    1.323    0.244
       137 -10.2643     23.4844     44.6086   7.4005116714e+01   6.4688164727e+01    0.1688712    0.1487502   4.34 0.0006481461    1.283    0.221
       138 -10.8397     26.6159     43.1347   7.2254947194e+01   6.4716869518e+01     0.455182    0.3159482  61.70  0.002614147    2.512    0.602
       139 -10.2332     17.1297     44.1173   7.6518220690e+01   6.5250937507e+01    0.2826232    0.2113582  81.54  0.001787806    2.077    0.519
       140 -10.5380     18.2195     39.4253   7.4694949741e+01   6.6073822714e+01    0.2471383    0.1025919 -43.93  0.000734256    1.882    0.469
       141 -10.2110    116.9835     41.2247   3.9595598406e+01   5.0819470210e+01    0.2390465    0.2081948 -49.45 0.0002034071    1.273    0.214
       142 -10.8178     37.7830     41.7247   6.7156304023e+01   6.3942476137e+01     0.334033    0.2422292  40.80  0.002093739    1.747    0.428
       143 -12.8661    141.4710     40.5556   3.3363875871e+01   4.5122770259e+01    0.2999359     0.284893  72.93 0.0005594189    1.061    0.057
       144 -11.4218    183.8798     40.1494   2.5132198417e+01   3.4264744793e+01    0.5835474    0.3242164  77.72  0.002396914    2.034    0.508
       145 -10.4020    110.3201     40.8153   4.1276460268e+01   5.2349408965e+01    0.2929129    0.2201807  79.78 0.0009621439    1.870    0.465
       146  -9.5659     10.1363     39.8463   7.8300108555e+01   6.6522234906e+01    0.1594498   0.09801218 -40.93 0.0004451743    1.292    0.226
       147 -12.0955    121.5126     37.1469   3.6955387790e+01   5.0393054004e+01    0.4987462    0.3198386 -39.32    0.0018429    1.647    0.393
       148  -9.7897    117.0130     32.7919   3.6542071167e+01   5.2035439102e+01    0.1999108    0.1641554  46.55 0.0003487851    1.144    0.126
       149 -10.6130     81.4019     38.7929   4.9486290122e+01   5.8360118134e+01    0.2319233    0.1953951  24.93 0.0005052667    1.155    0.134
       150 -10.8855     82.6045     34.6971   4.7506360034e+01   5.8791346463e+01    0.2768148    0.2371821  23.22 0.0009016606    1.114    0.102
       151 -10.2931     51.5143     39.0026   6.0626051404e+01   6.2860310587e+01    0.2017592    0.1666111  39.35 0.0006672883    1.461    0.316
       152  -9.5965    191.7778     38.2135   2.3341223526e+01   3.2471638591e+01    0.1861244    0.1589286  47.25 0.0002444228    1.269    0.212
       153  -8.9692      2.3224     45.3240   8.2988553801e+01   6.5871877394e+01    0.1198793   0.05945281 -40.27 0.0007047068    1.682    0.405
       154 -10.6336    177.2895     35.9513   2.4987629082e+01   3.6571038208e+01    0.2258719     0.194918  74.62 0.0004175381    1.074    0.069
       155  -9.7263     28.1961     33.5251   6.8435081897e+01   6.6357499358e+01    0.1773696       0.1041 -39.21 0.0005290633    1.390    0.280
       156  -9.7366     14.7483     34.5787   7.4738131868e+01   6.7223572100e+01    0.1891881    0.1045978   6.79  0.001126222    2.144    0.534
       157 -12.5023    144.4814     31.1110   2.9555633233e+01   4.5676222740e+01    0.3389399    0.2894293 -50.50  0.000431074    1.269    0.212
       158  -9.8880    127.7510     32.9626   3.3924860952e+01   4.9519926228e+01    0.1885093    0.1874343 -70.17 0.0008212481    1.092    0.084
       159  -9.9140     49.5854     33.0690   5.9181663255e+01   6.4124059504e+01    0.1841923    0.1066015 -42.60 0.0005899512    1.586    0.369
       160 -11.0342     45.2530     32.0030   6.0558752338e+01   6.4836603315e+01    0.2707447    0.1779197 -44.66  0.001119416    1.456    0.313
       161  -9.9682    213.0014     31.9634   1.8737605161e+01   2.7853387699e+01    0.2094136    0.1870238 -84.52 0.0003173109    1.024    0.023
       162 -11.1575     90.4570     30.5104   4.3304101371e+01   5.7948602510e+01    0.2721733    0.2299976  -0.28  0.001627125    1.136    0.120
       163  -9.5123    230.2112    247.3769   6.2744624850e+01  -9.4054635236e+00    0.1518086   0.08924956  41.42  0.000394602    1.512    0.339
       164 -10.8193     67.7318     26.7093   4.9554031985e+01   6.2526425452e+01    0.2794638    0.2322039  10.38 0.0008787497    1.103    0.093
       165 -12.4034     11.1082     29.8127   7.4887681841e+01   6.8337297296e+01    0.2284781    0.2133744 -20.10  0.001846924    1.275    0.216
       166 -11.0851    135.6915     29.0970   3.0747580682e+01   4.8116773871e+01    0.2433253    0.2047026  57.44  0.000281399    1.110    0.099
       167  -9.8441    227.0000     27.9065   1.6085906436e+01   2.4895746035e+01     0.218999   0.07522624 -31.47 0.0008033911    2.949    0.661
       168  -9.9980     80.8807     26.7121   4.4909029667e+01   6.0281552754e+01    0.2290023    0.1643431 -56.90 0.0008627229    2.059    0.514
       169  -9.7296     39.1855     29.8634   6.2309271555e+01   6.5895513676e+01    0.1677456    0.1182079 -16.10 0.0005059795    1.348    0.258
       170  -9.6460    109.8671     26.4021   3.6044487582e+01   5.4487710484e+01    0.2034594    0.1132491  42.68 0.0009416859    1.695    0.410
       171 -10.2208    100.8504     22.8223   3.7143741470e+01   5.6886924303e+01    0.2054761    0.1684441 -71.01  0.000789451    1.713    0.416
       172 -10.3356     51.6739     24.8028   5.5023705097e+01   6.5183966505e+01    0.2820345    0.1534228 -40.23   0.00153146    1.734    0.423
       173 -10.2450     59.9023     23.8261   5.1324782219e+01   6.4163831083e+01     0.226697    0.1613614 -27.14 0.0008630562    1.282    0.220
       174  -9.7553     57.1890     20.8473   5.1123254649e+01   6.4999364670e+01    0.1707749    0.1404556 -12.99 0.0004444344    1.054    0.052
       175  -9.5213     45.5059     25.5502   5.7901505348e+01   6.5863624098e+01    0.1209255   0.09923263 -15.03 0.0003292827    1.007    0.007
       176 -10.0325     25.8564     23.3907   6.5772375373e+01   6.8324852912e+01    0.2773313    0.1167544 -43.69  0.001470442    1.933    0.483
       177 -10.4780     33.2009     24.1686   6.2720978772e+01   6.7482810608e+01    0.1814561    0.1542122  11.88 0.0003086148    1.271    0.213
       178 -10.3005     31.4172     20.8102   6.2176750545e+01   6.8210846711e+01    0.1906016    0.1447452  -6.91  0.000461446    1.194    0.163
       179 -10.0755     84.0763     22.5459   4.2139898965e+01   6.0263663610e+01    0.2153537    0.1691512 -32.97 0.0006358956    1.341    0.254
       180 -10.1393    188.5774    246.2812   6.9912320405e+01  -2.7026564795e+00    0.2539202    0.1664861 -27.75  0.001540256    2.009    0.502
       181 -10.0699    115.9839    246.6966   8.3178599306e+01   9.1910841944e+00    0.1676347    0.1261175  54.90 0.0005434858    1.016    0.016
       182  -9.9581     21.5285     21.9661   6.7251063903e+01   6.8942891056e+01    0.2058913    0.1239336 -18.92  0.001104028    1.635    0.388
       183  -9.3508    170.4994    246.5145   7.3218328101e+01   2.5749412315e-01      0.12334   0.09577736  38.15 0.0001351875    1.066    0.062
       184 -10.6428     52.2697    244.6602   9.4183509597e+01   1.8756568699e+01    0.2103996    0.1603696  53.29  0.001052448    1.315    0.239
       185  -9.8652    147.4545    243.5055   7.7063163660e+01   4.5535308950e+00    0.1241556    0.0970189  48.26 0.0001444113    1.007    0.007
       186 -10.6643    238.5732     19.5209   1.2920392230e+01   2.3166613599e+01    0.2360071    0.1960116 -81.59  0.000892233    1.051    0.049
       187 -10.1320    232.9494     20.5318   1.3696406170e+01   2.4383829388e+01    0.1930577    0.1211238  75.35 0.0003086778    1.497    0.332
       188 -12.4484     10.3506    244.6469   1.0094291583e+02   2.3620946337e+01    0.6158243    0.1776614 -70.52   0.00331403    3.244    0.692
       189 -10.2365    131.4180    246.9201   8.0400967928e+01   6.6720016960e+00    0.1714532    0.1544889 -64.65 0.0007935475    1.420    0.296
       190 -10.5400      1.4669    233.4664   1.0186079171e+02   2.6493268432e+01    0.1833106    0.1133058  84.44 0.0006491707    1.214    0.177
       191  -9.8288    190.6874     20.6890   1.8587459335e+01   3.5014289396e+01     0.142021     0.102826  40.11 0.0004657413    1.630    0.387
       192 -10.0303    163.4702     19.9351   2.2407714434e+01   4.2193606332e+01    0.1938714     0.142504 -29.16 0.0003861551    1.499    0.333
       193 -10.4892     70.8738     18.7265   4.5034837456e+01   6.3128973523e+01    0.2045918    0.1522057  -9.51 0.0003954454    1.281    0.219
       194 -10.1926    224.4992     18.4614   1.4046836308e+01   2.6693023430e+01    0.1368377    0.1175258 -80.73 7.550357e-05    1.020    0.020
       195 -10.9720    139.9119     18.0150   2.6032724831e+01   4.8409835537e+01    0.2578452    0.1794967  56.09  0.000289817    1.281    0.219
       196 -10.1285    134.9451     18.0824   2.7059860046e+01   4.9628671106e+01     0.205732    0.1869043  57.60 0.0003473795    1.030    0.029
       197 -10.7457     71.2000     30.9059   4.9990291885e+01   6.1332412648e+01    0.3367292    0.1998553 -55.75  0.001257963    2.734    0.634
       198  -9.0703     37.6392     18.2866   5.8290630822e+01   6.7931638286e+01   0.09879716   0.09461886  75.58 0.0006392643    1.685    0.407
       199 -10.0127    215.2242     16.1851   1.4453969133e+01   2.9268295959e+01    0.1962432    0.1376567 -64.82 0.0003792129    1.346    0.257
       200 -10.1898    159.8081     15.9440   2.1756736110e+01   4.3590073544e+01    0.2110725    0.1760312  40.51 0.0004183676    1.254    0.202
       201 -11.4486      2.1705    248.3010   1.0232744444e+02   2.3823883917e+01    0.3533267    0.2043747  70.66  0.001979294    1.137    0.120
       202 -10.3458     26.6997    237.3215   9.7993848549e+01   2.3149689707e+01    0.1154692   0.05470723  66.80 0.0002378854    1.626    0.385
       203  -9.4756     59.0151    235.9890   9.2420326301e+01   1.9429905032e+01    0.1375187    0.0994441  68.84 0.0003440768    1.020    0.019
       204  -9.5035    204.4234    235.5088   6.5484756763e+01  -3.8884991167e+00    0.1224588   0.09826624  29.55 5.918537e-05    1.014    0.014
       205 -10.0836    174.2244    235.0012   7.0969178209e+01   1.2873926811e+00      0.13646    0.1057326 -44.79 0.0004222894    1.609    0.378
       206  -9.1524    239.2620    234.3275   5.9156064979e+01  -9.2701552009e+00    0.1164423   0.07539912   9.01 0.0005138596    1.565    0.361
       207  -9.5127    152.6405    233.6973   7.4853013764e+01   5.2050491399e+00     0.123758   0.09104985  20.52 0.0005151802    1.721    0.419
       208 -10.1199     32.3607    233.1492   9.6819079400e+01   2.3262006684e+01    0.1637996    0.1186024  57.24 0.0004103785    1.242    0.195
       209 -10.1600    246.0446    230.4707   5.7371865164e+01  -9.8395257831e+00    0.2300322    0.1207925  37.18 0.0004502718    1.631    0.387
       210 -10.3539     56.7820    228.8949   9.2285637773e+01   2.1034335041e+01     0.232266    0.1616395 -79.35  0.001051845    1.425    0.298
       211 -10.0210    140.0452    227.8668   7.6500994179e+01   8.3330995806e+00     0.225522     0.123332  61.18  0.001094872    2.042    0.510
       212 -10.8192      1.4832    227.1492   1.0159793043e+02   2.7637538136e+01    0.1719082    0.1363934 -78.57 0.0004644322    1.548    0.354
       213 -10.5937      7.6790    221.4584   1.0033224514e+02   2.8089127725e+01    0.2050108    0.0829114 -80.74  0.001209771    2.064    0.515
       214 -11.6526      3.1183    220.6266   1.0104868339e+02   2.8688844725e+01    0.4477918    0.1360227  69.81  0.001753298    3.131    0.681
       215  -9.8353    230.9377     10.5252   1.1530614561e+01   2.6064473212e+01    0.1902529    0.1169505  77.70 0.0003535148    1.486    0.327
       216  -9.7695    223.2947    226.3445   6.0648118034e+01  -5.7860656720e+00    0.1251544   0.08240815  10.61 0.0004386115    1.665    0.400
       217  -9.5706     90.9890     10.4925   3.4939866292e+01   6.0369191082e+01    0.1924903    0.1156249  49.37 0.0004127504    1.537    0.349
       218  -9.6748     85.7536    215.0057   8.5599189938e+01   1.9604587333e+01    0.1645679     0.132149  78.28 0.0003298044    1.099    0.090
       219  -9.7048    111.3304    214.6741   8.0489057042e+01   1.5596388613e+01    0.1380804   0.08463052  68.34 0.0003785941    1.706    0.414
       220  -8.8240    205.3463    211.3021   6.1424659814e+01  -6.5030138297e-01    0.1342627   0.09114553  15.30  0.000703924    1.687    0.407
       221 -10.6105      3.8610    211.1330   1.0048140890e+02   3.0422190515e+01    0.1770738    0.1017891  70.57  0.001233785    1.263    0.208
       222 -10.4030     39.2715    207.1764   9.3866826160e+01   2.7454129790e+01    0.1724128    0.1380959  61.10 0.0004364343    1.229    0.186
       223  -9.5139    229.7197    209.3464   5.6613885833e+01  -4.5858510685e+00    0.1100166    0.1015706  86.65 0.0007011383    1.639    0.390
       224  -9.5378     21.6622    180.1688   9.5273913531e+01   3.4994456942e+01    0.1964352   0.07344122  36.70 0.0009875291    2.671    0.626
       225  -9.1769    229.4952    165.5060   4.8266196902e+01   2.0266634679e+00    0.1380821    0.1241258   6.48 -8.071247e-05    1.032    0.031
       226 -10.3670     15.0807    163.4862   9.5349497023e+01   3.9222606482e+01    0.2416654    0.1706478 -14.30  0.001128928    2.741    0.635
       227  -9.5636     10.5057    161.4915   9.6174460414e+01   4.0055808565e+01    0.1161148   0.08763969  89.74 -0.0001661182    1.038    0.037
       228 -10.3359     28.8920    139.7470   8.9879177962e+01   4.3283625236e+01    0.3314833    0.1313775 -70.75 0.0008287402    2.064    0.515
       229  -9.2268    235.6789    138.3210   4.1345238037e+01   5.2985127115e+00    0.1391067     0.111051 -71.11 0.0007044692    1.672    0.402
       230  -9.1444     16.5112    137.5042   9.2680355239e+01   4.4888829503e+01    0.1205192    0.0933088 -85.61  0.000238036    1.005    0.005
       231 -10.0903     96.0006    133.7848   7.1491080974e+01   3.5820635237e+01    0.2518661    0.1975653 -62.96 0.0005853684    1.217    0.178
       232  -9.7905      1.5028    132.5122   9.5844081766e+01   4.7121113174e+01    0.1156815   0.08691825 -83.09 9.808682e-05    1.021    0.021
       233  -9.5829     52.9751    129.9798   8.2337239926e+01   4.2988666204e+01    0.1575021    0.1347632 -81.32  0.000378931    1.007    0.007
       234 -10.7241     11.2881    128.4778   9.3049851539e+01   4.7334960276e+01    0.3400649    0.1900015 -85.78  0.001075834    1.518    0.341
       235 -11.6257     11.0531    121.1580   9.2327558483e+01   4.9003541730e+01    0.4217016     0.273056 -32.08 0.0007472864    2.131    0.531
       236  -9.1972     65.0184    125.2614   7.8271447137e+01   4.2578460147e+01     0.150735    0.1179994  39.89 0.0002330653    1.405    0.288
       237  -9.3236     30.7101    124.2942   8.7496221184e+01   4.6677413007e+01    0.1236011   0.08224688  75.63 0.0001616699    1.551    0.355
       238  -9.1492    109.3167     12.6755   3.0874082637e+01   5.6234978048e+01    0.1287142    0.1035773 -69.11 0.0007043859    1.669    0.401
