#   1 NUMBER                 Running object number                                     
#   2 MAG_AUTO               Kron-like elliptical aperture magnitude                    [mag]
#   3 X_IMAGE                Object position along x                                    [pixel]
#   4 Y_IMAGE                Object position along y                                    [pixel]
#   5 X_WORLD                Barycenter position along world x axis                     [deg]
#   6 Y_WORLD                Barycenter position along world y axis                     [deg]
#   7 A_WORLD                Profile RMS along major axis (world units)                 [deg]
#   8 B_WORLD                Profile RMS along minor axis (world units)                 [deg]
#   9 THETA_WORLD            Position angle (CCW/world-x)                               [deg]
#  10 FWHM_WORLD             FWHM assuming a gaussian core                              [deg]
#  11 ELONGATION             A_IMAGE/B_IMAGE                                           
#  12 ELLIPTICITY            1 - B_IMAGE/A_IMAGE                                       
         1  -8.4585    247.9745      3.4824   2.3639848830e+01   2.6118438258e+01    0.1571096   0.06149364 -75.44 0.0008103373    2.651    0.623
         2  -9.3813    162.1801    243.3726   8.4597742082e+01   6.7849950512e-02     0.269206    0.2100907  17.53  0.001268994    1.117    0.105
         3 -10.4836    249.5563    244.1034   6.7658014179e+01  -1.0650371983e+01    0.7596738    0.2700554 -32.53  0.003737269    2.383    0.580
         4 -12.4560    248.2420    233.3093   6.6095476211e+01  -8.9651738391e+00       2.1577     1.045856 -23.18    0.0116542    1.903    0.474
         5 -11.9205    105.7105    244.5376   9.7423136878e+01   7.8089131953e+00     1.379358    0.9383615  23.30  0.007477382    1.426    0.299
         6  -9.3510    164.0289    239.0497   8.3525051114e+01   5.8932299534e-01    0.2968942    0.2336763 -12.25 0.0003275098    1.218    0.179
         7  -7.3231    175.4670    235.4634   8.0485541847e+01  -3.5860073535e-01    0.1337583    0.1124477   1.37 8.838338e-05    1.002    0.002
         8  -7.1271     52.7063    233.6655   1.0838635299e+02   1.7086709475e+01    0.1231767    0.0975933 -34.13 0.0007025995    1.641    0.390
         9  -7.4275    193.2429    232.3938   7.6261405560e+01  -2.2373493010e+00     0.164398    0.1129074  33.01 0.0003086204    1.516    0.340
        10  -7.3511     85.1095    232.1034   1.0069453622e+02   1.3274938757e+01    0.2165292    0.1405378 -35.57  0.001058962    1.990    0.498
        11 -10.3266    195.9767    244.2680   7.7663902522e+01  -4.5782803043e+00    0.2240631    0.1900553 -12.53 0.0002111959    1.151    0.131
        12 -10.0610    132.2114    226.8314   8.8820559686e+01   7.5958022170e+00    0.2573008    0.2274864 -44.15 0.0004712016    1.217    0.178
        13  -8.5653    165.0593    234.3286   8.2550262897e+01   1.3081774723e+00    0.2192633    0.1849325 -34.45 0.0002678209    1.249    0.199
        14  -8.6639     83.9919    219.6952   9.9441178322e+01   1.6214612421e+01    0.2401403     0.193779 -50.74 0.0005621734    1.328    0.247
        15  -7.0866     56.4993    215.4842   1.0568779636e+02   2.0805412491e+01    0.1396463    0.1181227  64.81 -8.14966e-05    1.103    0.094
        16  -8.5940    155.2933    213.6406   8.1291531150e+01   6.7909541453e+00     0.246063    0.2078622 -12.35 0.0003531618    1.139    0.122
        17  -7.6052     20.7005    214.6961   1.1412284014e+02   2.4920479523e+01    0.1202478   0.09211377 -45.75 0.0003554588    1.588    0.370
        18  -9.2550    221.4169    212.1760   6.7206846982e+01  -2.4796092117e+00    0.1976652     0.148009  25.64  0.001201638    1.424    0.298
        19  -7.7148    141.1598    210.1759   8.4007407797e+01   9.7329627972e+00    0.2563367    0.1683071 -60.75  0.001193766    1.840    0.456
        20  -9.1608    174.4238    249.5191   8.2927586868e+01  -2.6567733696e+00    0.3170298    0.2273337  48.80  0.001019822    1.920    0.479
        21  -9.7752    123.9978    205.9917   8.7479697917e+01   1.3378046141e+01    0.2045383    0.1941999  12.24  0.001158142    1.004    0.004
        22  -9.3514     15.9584    202.4163   1.1429443815e+02   2.8296282771e+01    0.2424408    0.2169995 -59.42 0.0003923791    1.253    0.202
        23  -9.2207    234.8097    201.8879   6.2926052396e+01  -2.4566706948e+00    0.2066955    0.1431571 -16.46 0.0008981444    1.300    0.231
        24  -8.6009     83.2105    196.3031   9.6442635388e+01   2.1919493317e+01    0.2441088    0.2050198 -75.19 0.0006488985    1.225    0.184
        25  -7.2131     64.0085    195.4836   1.0141194506e+02   2.4749687071e+01    0.1789034    0.1221074 -14.11 0.0003565807    2.138    0.532
        26  -9.0308     88.6672    192.5378   9.4423392018e+01   2.2056745847e+01    0.2854838    0.1808805 -64.31 0.0007717751    1.633    0.388
        27  -8.6083     19.0245    186.9290   1.1223846664e+02   3.1849938886e+01     0.193675    0.1707159 -81.60 0.0003042579    1.061    0.057
        28  -9.5422    100.9931    175.9958   8.8282365851e+01   2.4292014800e+01    0.2149368    0.2128697 -23.17            0    1.003    0.003
        29 -11.3552     79.8809    154.8562   9.0436533126e+01   3.3053683314e+01    0.8820479    0.3357506 -59.91  0.002980428    2.608    0.617
        30  -9.4761    164.7459    161.1823   6.8897341214e+01   1.6491161370e+01    0.2508014    0.2420613 -32.69 0.0003141279    1.075    0.069
        31  -7.3430    170.4212    158.4390   6.7020106788e+01   1.6042552346e+01    0.1503565    0.1379581 -26.89 7.663589e-05    1.009    0.009
        32 -11.4406     93.3058    153.1889   8.6089047793e+01   3.1369289700e+01    0.9592553    0.4767953 -70.24  0.003175313    2.992    0.666
        33 -11.1051    242.5598    145.9631   5.1059266844e+01   6.1894933980e+00    0.7795457      0.44259 -51.82  0.004026335    1.746    0.427
        34  -9.8308    249.8024    160.2111   5.2708831506e+01   2.6718662492e+00    0.4655369    0.1871852 -35.85  0.002091765    2.158    0.537
        35  -9.3093    108.1782    155.2644   8.2200461878e+01   2.8311378818e+01    0.2745271    0.2605995 -47.68 0.0002070408    1.037    0.036
        36 -12.0540     86.1056    159.1453   8.9395103602e+01   3.0981588989e+01    0.8934363    0.5855867 -56.02  0.003995704    1.469    0.319
        37  -8.1194     71.9726    143.4884   9.0666403879e+01   3.7198003807e+01    0.2238822    0.1163704  52.35 0.0008063421    2.541    0.606
        38  -8.9995     94.5438    139.9380   8.2896903122e+01   3.4547936939e+01    0.3269553    0.1920196 -11.10  0.001038254    3.475    0.712
        39  -9.0124    248.3844    129.9925   4.7127337029e+01   8.0628640536e+00    0.2143786    0.1860286  54.24 0.0007740869    1.447    0.309
        40  -7.4197    114.8220    130.1927   7.4613652473e+01   3.3269794824e+01    0.2089965    0.1804632 -15.40 0.0002959288    1.247    0.198
        41  -8.6070     58.8998    120.5369   9.0194127633e+01   4.4943740862e+01    0.2784191    0.2034447 -53.80 0.0004114576    1.270    0.213
        42  -8.9758    173.1508    114.8783   5.6455969091e+01   2.4672592867e+01     0.362067    0.2886201 -33.66  0.001124488    1.263    0.208
        43  -8.4646     93.4179    112.3700   7.6597911213e+01   4.1512278256e+01     0.332514    0.2388585  -2.18 0.0008777829    1.835    0.455
        44 -10.1657     78.0425    103.7776   7.9421966475e+01   4.6187212643e+01    0.2769176    0.2472463 -25.80 0.0002721756    1.069    0.064
        45  -7.3070     89.2800    103.9999   7.5704297578e+01   4.4196962071e+01     0.188202    0.1324341 -46.75 0.0005946523    1.394    0.282
        46  -7.3576    150.0145    102.0138   5.8253262213e+01   3.2186665568e+01    0.1755799    0.1663587  54.31 0.0009495284    1.075    0.070
        47  -7.4511     43.5424     91.9857   8.9095818485e+01   5.3813817095e+01    0.2050594   0.09473287 -36.17 3.270591e-05    2.284    0.562
        48  -7.3932    127.5728     85.5659   5.9212391967e+01   4.0312675935e+01    0.1449367    0.1430335  57.27 7.855798e-05    1.020    0.019
        49  -7.3756    104.4375     73.4637   6.1951785682e+01   4.7524217822e+01    0.1441884    0.1370021  20.70 8.984011e-05    1.007    0.007
        50  -7.4265     52.6556     73.7119   8.0229928644e+01   5.6671227485e+01    0.1463588   0.09890162 -12.07 0.0007022757    1.651    0.394
        51  -8.5853     70.9971     68.5982   7.1446596272e+01   5.4828503085e+01    0.3227661    0.1778089  -9.78  0.001084378    3.805    0.737
        52  -7.3144    113.1828     61.6279   5.5796188600e+01   4.7674214607e+01    0.1910825    0.1232912  41.20 0.0001425493    1.503    0.335
        53  -6.8612    151.7450     60.6811   4.6811312771e+01   3.9093706414e+01    0.1299821      0.10808  17.83 0.0001976764    1.537    0.349
        54  -7.5837    144.8742     58.6044   4.7579153499e+01   4.0982887544e+01    0.1873335    0.1601268  65.69 0.0003719272    1.107    0.096
        55 -10.5460     49.1958     53.7926   7.4999602448e+01   6.0980018713e+01    0.6278962    0.1990262 -41.11  0.002361815    3.080    0.675
        56  -8.1564    218.1550     52.3902   3.5221673390e+01   2.5855624115e+01    0.1805779    0.1506463 -46.95 0.0004002235    1.234    0.189
        57  -7.6711    230.7068     48.0392   3.3072813007e+01   2.4004130446e+01    0.1617891    0.1278724 -56.55 0.0003922487    1.110    0.099
        58  -8.7976     41.3884     46.2169   7.5646244021e+01   6.3383972137e+01    0.1699051    0.1193372 -47.33 0.0004905668    1.664    0.399
        59  -8.8450    114.1189     49.4107   5.1677524381e+01   4.9316042978e+01    0.2421388    0.2284318 -69.49  6.94531e-05    1.182    0.154
        60  -6.9597    181.7727     35.0382   3.5581468001e+01   3.5799064991e+01    0.1493604   0.09848221 -40.78 0.0008450544    1.543    0.352
        61  -7.9708    109.1729     33.8586   4.7806156856e+01   5.2449562586e+01    0.1805554    0.1403405  33.46 0.0002486626    1.292    0.226
        62  -8.2956    247.9870     33.5216   2.8883058648e+01   2.2685852191e+01    0.1369233   0.08339334  49.77  0.000809951    2.533    0.605
        63  -8.1463     84.3374     31.6791   5.3699985426e+01   5.8034126810e+01    0.1239778    0.1035226 -86.91 0.0007050168    1.711    0.415
        64  -7.1911    204.0190     32.7814   3.2572951758e+01   3.1301094097e+01    0.1508338   0.08835419  74.04  0.000237245    1.602    0.376
        65  -8.9777     71.6712     29.6536   5.6980388915e+01   6.0792536789e+01    0.2152899    0.1367683  19.74  0.001124757    1.725    0.420
        66  -8.3755     63.7582     26.9940   5.8697294937e+01   6.2600959277e+01    0.1530662    0.1037135 -24.78 0.0005233916    1.571    0.363
        67  -8.2714    105.8380     23.8316   4.5217717513e+01   5.4313844982e+01    0.1708262    0.1462466  87.07 0.0005277252    1.327    0.246
        68  -7.9776    159.9154     20.8116   3.4871914669e+01   4.2317976840e+01    0.1723405    0.1457894  63.01 0.0002977481    1.174    0.148
        69  -8.3904     70.4871     18.4853   5.2887284055e+01   6.2288675319e+01     0.126392    0.1045235  32.48 0.0008103267    1.015    0.014
        70  -8.1817     82.4689     16.4761   4.8473809802e+01   6.0077969300e+01    0.1258064    0.1059698  41.77 0.0004134961    1.031    0.030
