#   1 NUMBER                 Running object number                                     
#   2 MAG_AUTO               Kron-like elliptical aperture magnitude                    [mag]
#   3 X_IMAGE                Object position along x                                    [pixel]
#   4 Y_IMAGE                Object position along y                                    [pixel]
#   5 X_WORLD                Barycenter position along world x axis                     [deg]
#   6 Y_WORLD                Barycenter position along world y axis                     [deg]
#   7 A_WORLD                Profile RMS along major axis (world units)                 [deg]
#   8 B_WORLD                Profile RMS along minor axis (world units)                 [deg]
#   9 THETA_WORLD            Position angle (CCW/world-x)                               [deg]
#  10 FWHM_WORLD             FWHM assuming a gaussian core                              [deg]
#  11 ELONGATION             A_IMAGE/B_IMAGE                                           
#  12 ELLIPTICITY            1 - B_IMAGE/A_IMAGE                                       
         1 -13.0275     79.6726     58.9019   3.1609274042e+01   5.6482844917e+01     1.305657    0.9508364 -20.74  0.006013324    1.744    0.427
         2 -13.9637     62.1015     58.6446   3.8612972131e+01   5.9999137329e+01     2.446092     1.431256 -12.91  0.007655848    4.333    0.769
         3 -14.9479      6.9035     71.2509   7.0264955398e+01   6.3467115590e+01     1.459645       0.8396 -69.27  0.005415264    1.501    0.334
         4 -13.3306      6.1870     43.2092   6.4743636585e+01   7.0605543358e+01    0.9729089    0.5448064  10.84  0.004920536    1.945    0.486
         5 -13.1133      8.5074      2.7602   4.3429420811e+01   7.9000645042e+01    0.6103413     0.539905  27.87  0.002105871    1.297    0.229
         6 -15.8378     11.8411     22.2446   5.2571176666e+01   7.4932309609e+01     2.066041     1.174689 -31.63  0.009281635    1.772    0.436
         7 -14.0159     26.8424     12.9824   3.5263423867e+01   7.4797780496e+01    0.8556864    0.5653923  -3.18  0.004431169    1.916    0.478
         8 -12.5663    229.9673      2.7687   3.4972070760e+02   2.9060791858e+01    0.7186744    0.2437434  72.21  0.003483183    3.090    0.676
         9 -14.4294    189.7975     21.2547   3.5672873229e+02   3.5595466723e+01      1.59937    0.6787975 -41.31  0.007477815    1.909    0.476
        10 -13.4387    218.2319     29.3134   3.5654401727e+02   2.8537442855e+01    0.9251099    0.3811222 -62.53   0.00410651    2.637    0.621
        11 -13.0418    223.7007     20.8586   3.5417637714e+02   2.8402457876e+01    0.3898826    0.3342809 -80.30  0.001843531    1.225    0.184
        12 -14.6009    217.0172     12.9336   3.5271145888e+02   3.0616554880e+01     1.174681    0.8396345 -44.76  0.005369715    1.142    0.124
        13 -14.2808    166.9704     29.8793   1.4723249580e+00   3.9931848403e+01     1.020165    0.7558858  83.43   0.00362932    1.323    0.244
        14 -14.3328    147.9375     29.6368   3.8647970594e+00   4.4655819349e+01     1.324599    0.6354908  72.26  0.004506541    2.090    0.522
        15 -15.2115     98.9002     12.3774   5.6315668800e+00   5.9156012566e+01     1.684103    0.8071909  63.16  0.004614529    1.869    0.465
        16 -11.9186     60.5665     15.7679   1.8675681075e+01   6.7962680658e+01    0.4745268    0.3573969  22.73   0.00238273    1.445    0.308
        17 -11.6747     71.1521     16.3341   1.5070544697e+01   6.5498895151e+01    0.3095064    0.2563615 -11.89  0.001761049    1.306    0.234
        18 -14.0082     41.5000      5.2412   2.0641984784e+01   7.3286744666e+01    0.9132976    0.6188754   5.57   0.00413156    1.755    0.430
        19 -11.6575    175.9393     13.7596   3.5580863715e+02   3.9627517940e+01    0.2304911     0.161051 -46.81  0.000205114    1.251    0.200
        20 -11.7040     46.8274     13.0503   2.3206997887e+01   7.1211994536e+01    0.3483451    0.2540135  58.86  0.001391556    1.519    0.342
        21 -11.3809     74.2478     10.4661   1.0880050472e+01   6.5448410381e+01    0.2426558    0.1961798 -18.32  0.001091468    1.333    0.250
        22 -14.0985    122.3620     36.8301   1.0812952403e+01   5.0167370068e+01     1.062594    0.5377834  43.54  0.002610411    2.367    0.578
        23 -11.5790    152.7077      8.5165   3.5633222299e+02   4.5808826237e+01    0.2748501    0.2239273  38.17  0.001598309    1.522    0.343
        24 -12.1970    120.0011      3.1283   3.5813613420e+02   5.4613660822e+01     0.525291    0.2528049 -81.20  0.002032536    2.457    0.593
        25 -10.5060    192.8999      2.6751   3.5155114221e+02   3.6833932982e+01    0.1742677    0.1361105 -69.47 0.0005102536    1.078    0.073
        26 -10.9639     67.5216      3.0150   8.6790610996e+00   6.7792868904e+01    0.2826891    0.1554761  47.40  0.001377618    1.668    0.400
        27 -11.7164     80.8063      1.7459   4.4143720436e+00   6.4689415252e+01    0.6647978   0.09131235  61.93  0.001978194    4.275    0.766
        28 -11.5537     61.5377      1.5256   9.6748993694e+00   6.9330157971e+01    0.4410309    0.1478434  65.61  0.001632505    3.039    0.671
        29 -12.7986    131.4696     33.3390   7.7831139647e+00   4.8339286541e+01    0.5290207    0.4039421  31.78  0.001569187    1.641    0.391
        30 -13.4243    107.3675    247.2170   6.0629427707e+01   1.0076129333e+01    0.6782123    0.4196267  64.71  0.003834193    2.364    0.577
        31 -14.4908     92.9729    231.8644   6.2217671565e+01   1.4437895749e+01    0.7999313    0.6460755  85.38  0.005304483    1.510    0.338
        32 -13.3846     28.1618    246.5847   7.7266857882e+01   1.8847037079e+01    0.5810849     0.452815  22.00  0.003835537    1.389    0.280
        33 -12.1483      2.8568    249.6123   8.2515399309e+01   2.0570124693e+01     0.379408    0.1791524  43.96  0.001875718    1.454    0.312
        34 -14.0230      9.4980    245.5094   8.1076941390e+01   2.0749982815e+01    0.9035032    0.3432916  46.10  0.003747805    1.785    0.440
        35 -15.1920     15.5811    175.1026   7.6842060162e+01   3.5332157986e+01     2.465237    0.8971936  56.16   0.01015831    2.514    0.602
        36 -11.0741    212.6494    199.6638   3.3676390763e+01   4.2349719006e+00    0.1901617    0.1165145  -5.78  0.001112379    1.707    0.414
        37 -13.8304     40.3853    195.7145   7.1600148561e+01   2.8050666262e+01     0.847791    0.4106376  49.25  0.003896299    1.786    0.440
        38 -13.6455    164.7647    195.1277   4.1802383791e+01   1.1327153002e+01    0.6336306    0.4562601 -77.98  0.003149281    2.808    0.644
        39 -12.3939    200.8538    191.2065   3.4285928319e+01   6.9712723013e+00    0.3341687    0.2354499   8.14  0.001354308    1.368    0.269
        40 -10.3118    107.6456    192.6858   5.4222619410e+01   2.0122323742e+01    0.1382649    0.1021978  -9.95 0.0007045315    1.737    0.424
        41 -11.3412     80.5895    192.7761   6.0982338840e+01   2.3869879757e+01    0.4034783    0.1446514  35.61  0.001608156    2.335    0.572
        42 -12.9757     98.7836    186.6277   5.5573497086e+01   2.2690498877e+01    0.4667449     0.356164 -30.91  0.002520237    1.568    0.362
        43 -12.4405     48.4228    181.7492   6.8310048560e+01   3.0427191973e+01    0.4699083    0.3217523 -46.32  0.002461576    1.769    0.435
        44 -11.3258    122.8165    181.6810   4.8901672483e+01   2.0145123022e+01    0.4390649    0.2502665  67.71  0.001573638    3.831    0.739
        45 -12.2578    110.6105    182.8053   5.2057651917e+01   2.1769283893e+01    0.4816324    0.2503077  14.68  0.001806746    3.066    0.674
        46 -13.1871    197.6575    179.9921   3.2890542165e+01   9.1402131271e+00     0.508791    0.3974356 -69.09  0.002892792    2.273    0.560
        47 -12.8802    180.1121    197.2714   3.9124149417e+01   8.8263963834e+00    0.2667693    0.2583764   3.40  0.001876368    1.316    0.240
        48 -13.4080    124.2951    166.5112   4.5974732612e+01   2.3118004743e+01    0.6706789    0.4480172 -73.25  0.003082062    2.069    0.517
        49 -11.3262    101.9812    160.9933   5.0777674075e+01   2.7996976756e+01    0.3125658    0.1974455  35.04  0.001454426    1.526    0.345
        50 -12.8560    237.0955    159.5855   2.2764300773e+01   6.7993148251e+00    0.7010733    0.1587814  37.28   0.00245656    5.821    0.828
        51 -12.7213    112.1052    156.0824   4.7195659141e+01   2.7469226789e+01    0.5659598    0.3884888  71.22  0.002520199    2.031    0.508
        52 -12.8164     85.6192    152.9360   5.3996144210e+01   3.2519207269e+01    0.7265155    0.5841208  -8.35  0.003645658    1.588    0.370
        53 -12.6801     77.3108    156.9686   5.7068087467e+01   3.2767304791e+01    0.5533115    0.4372705  23.93  0.001792955    1.348    0.258
        54 -13.6527     73.9992    153.3111   5.7482511259e+01   3.4165458811e+01    0.7871266    0.5429966  28.04  0.001517924    1.499    0.333
        55 -12.3645     55.3331    155.8604   6.3481806720e+01   3.6038931439e+01    0.4997919    0.3391216 -14.62  0.002256338    2.211    0.548
        56 -12.8309    208.5595    154.2013   2.6146548420e+01   1.1658819439e+01    0.5958017    0.3865073  29.68  0.003376557    1.696    0.410
        57 -11.8416    103.7207    149.3956   4.8216727070e+01   3.0445782190e+01    0.4250835    0.2980236 -26.97  0.001549826    1.853    0.460
        58 -12.2490      9.4936    149.4530   7.7103983864e+01   4.2302897239e+01    0.6224163    0.3992053   2.30  0.003172023    2.020    0.505
        59 -12.6097    121.8624    156.0548   4.4658919569e+01   2.5817740638e+01    0.4267833    0.2974849   0.86  0.001903127    2.066    0.516
        60 -12.0237     59.8290    148.8899   6.1152507133e+01   3.7262358233e+01    0.2244408     0.203969 -39.43  0.001241498    1.248    0.199
        61 -11.7070     38.4707    145.6572   6.7534319402e+01   4.0680470830e+01    0.2546756    0.2319162  80.06  0.000641797    1.024    0.023
        62 -11.6831    150.2020    141.3561   3.4817176165e+01   2.3906186767e+01    0.3104898    0.1799886  63.78  0.001162787    3.023    0.669
        63 -12.9294     42.0878    138.2311   6.5435077548e+01   4.2262436070e+01     0.569554    0.3441615  37.60  0.002672041    1.600    0.375
        64 -11.5485     47.3422    133.5308   6.3008066419e+01   4.2911901956e+01    0.3758309    0.1140064 -63.21   0.00125837    2.873    0.652
        65 -12.5089    246.7565    133.9027   1.6548344092e+01   9.1295973650e+00    0.3811247    0.2867264 -44.82  0.002568419    1.368    0.269
        66 -13.1441    229.9851    119.3709   1.5805205932e+01   1.3756480753e+01    0.5203665     0.144456 -39.09  0.002024735    2.857    0.650
        67 -13.2999    233.9186    132.9101   1.8048874315e+01   1.1125261437e+01    0.5063739    0.3675046  28.93  0.003212452    1.636    0.389
        68 -10.1159     10.9516    134.1941   7.5575824345e+01   4.6226671133e+01    0.1662699     0.105591  23.22 0.0003920779    1.694    0.410
        69 -12.7436    138.5363    131.7030   3.5401756845e+01   2.8137444445e+01    0.5015774    0.3735374  10.12  0.002341609    1.775    0.437
        70 -12.4306    110.5600    131.8010   4.2718269310e+01   3.3426280249e+01    0.6125966    0.4152456  21.69  0.002678117    1.839    0.456
        71 -15.0011    106.1421    104.5178   3.7375317384e+01   4.0755944962e+01      1.51967       1.4743  18.35  0.007771043    1.110    0.099
        72 -10.8571      5.4903    128.6323   7.7046157589e+01   4.8084766922e+01    0.2944375    0.1440901 -50.46  0.001302678    2.196    0.545
        73 -13.6876    102.5565    118.3126   4.1939350563e+01   3.8165043961e+01     1.248302    0.5172783  32.29  0.004080991    3.010    0.668
        74 -13.3700     32.1635    112.1462   6.5354343939e+01   5.0423155031e+01    0.7442893    0.3949577 -55.69  0.003253839    1.775    0.437
        75 -11.1240     25.3972    126.7784   6.9822175390e+01   4.7064552679e+01    0.2657753    0.1878265 -53.06 0.0008344153    1.456    0.313
        76 -12.7375     28.6924    121.8230   6.8023633071e+01   4.8111812434e+01     0.516021    0.3304694 -62.62  0.002508879    1.457    0.313
        77 -11.1264     59.0086    124.5666   5.7512784500e+01   4.3808833924e+01    0.2855378    0.2018731 -88.22 0.0006081461    1.533    0.348
        78 -12.7896    223.4715    127.7863   1.8466362316e+01   1.3507230439e+01    0.4263652    0.3560497 -68.76  0.002703659    1.602    0.376
        79 -11.1760     73.7194    120.0461   5.1556649551e+01   4.2805863136e+01    0.4860955    0.3031759  15.87  0.001972115    2.189    0.543
        80 -12.0598     79.0009    118.8110   4.9513250924e+01   4.2262763886e+01    0.4311502    0.2912735 -54.63  0.001955888    1.444    0.307
        81 -13.5392     84.4615    113.8257   4.6565049904e+01   4.2601734430e+01     1.095079    0.8809032  24.78  0.003840318    1.388    0.280
        82 -12.6711      4.9719    118.8432   7.6510425062e+01   5.0752094938e+01    0.5990262    0.4277809 -19.59  0.003202062    1.747    0.427
        83 -11.6268     42.8452     90.1657   5.6792307113e+01   5.5184596663e+01    0.3927609    0.2520402 -65.46 0.0008962552    1.470    0.320
        84 -14.2683     18.1003    110.9358   7.0713957625e+01   5.2010083230e+01    0.8975564     0.780417 -42.96  0.003324199    1.249    0.199
        85 -13.0245     20.6011     86.2230   6.6035356353e+01   5.8545861910e+01    0.7710068     0.482532  -0.93  0.001704303    1.990    0.497
        86 -13.8268     11.2152    103.1553   7.2588011215e+01   5.4630251231e+01    0.8413297    0.5691307  42.86  0.004028424    1.525    0.344
        87 -13.6272      2.3887     97.0041   7.5656577810e+01   5.6806767461e+01     0.945408    0.4390312 -80.74  0.003111425    1.889    0.471
        88 -14.6257     25.1406     93.7407   6.5288344168e+01   5.6122787252e+01     1.769971     1.021341  -2.10  0.007639653    2.350    0.574
        89 -11.4941    194.7929    113.3990   1.9722873928e+01   2.0810924389e+01    0.1781479    0.1282214  35.27 0.0006678891    1.633    0.388
        90 -12.7532    121.2456    111.4136   3.4905738427e+01   3.6078532772e+01    0.5382601    0.3803783 -71.21  0.001562956    1.766    0.434
        91 -11.2773     45.9432    110.1940   5.9667774478e+01   4.9409142076e+01     0.397134    0.2144249 -40.33  0.001587346    2.223    0.550
        92 -10.9639     42.9460    107.0227   6.0246996590e+01   5.0635380851e+01    0.2263911    0.2086656 -77.21 0.0004822661    1.013    0.013
        93 -11.8280     63.1097    110.4490   5.3249171679e+01   4.6982322278e+01    0.8483835    0.4869976 -81.19  0.003285732    2.260    0.558
        94 -11.0528     64.6714    101.7089   5.0675498622e+01   4.9043137114e+01    0.2367958    0.1990903 -28.10 0.0004346247    1.360    0.265
        95 -12.1393     61.2436     97.9450   5.1077214145e+01   5.0559780714e+01    0.5929699    0.4207546  72.78  0.002136362    1.737    0.424
        96 -11.6013    222.6178    109.0890   1.4598957237e+01   1.6536794769e+01    0.2278458    0.1897656  33.21  0.001454185    1.445    0.308
        97 -12.2844     36.7249     92.6993   6.0007773289e+01   5.5233115090e+01    0.4562179    0.3139589  13.75  0.001630629    1.696    0.410
        98 -13.2694    135.1335    102.8365   2.9076524427e+01   3.5028832057e+01    0.9628503    0.3872541  50.35  0.002836156    2.661    0.624
        99 -13.5650    120.5330    102.3510   3.2699640233e+01   3.8259708360e+01    0.8576882    0.3624797  42.92  0.003033841    2.478    0.596
       100 -11.9978     46.1954     98.5991   5.7250987374e+01   5.2509462754e+01    0.3791046    0.3325304  64.19  0.001647143    1.172    0.147
       101 -11.2831     48.5929    101.2029   5.6833576342e+01   5.1500180856e+01    0.3227287    0.2349966 -41.67  0.001061001    1.467    0.318
       102 -11.8959     52.2405     97.9081   5.4637719167e+01   5.1887783094e+01    0.4319879    0.3156622 -24.48  0.001244503    1.718    0.418
       103 -11.5833     49.7231     94.6683   5.4919456471e+01   5.3093063319e+01    0.2868737    0.1965676 -48.57 0.0004758534    1.440    0.305
       104 -11.0230     48.3012     92.2867   5.4954769902e+01   5.3915564496e+01    0.2333214     0.213477   5.46  0.000352044    1.215    0.177
       105 -11.7777    249.4467     99.2068   9.2600398668e+00   1.3616206120e+01    0.2976025   0.07101087 -40.90  0.001147782    3.120    0.679
       106 -12.6572    181.5020    120.9189   2.3778032235e+01   2.1984723396e+01    0.4718262     0.364976 -83.42  0.002415597    1.854    0.461
       107 -12.5012    163.5082     97.6096   2.1457771747e+01   2.9944414148e+01    0.4170158    0.3224078  45.29  0.000921323    1.413    0.292
       108 -12.9474    137.2634     95.1264   2.6450082358e+01   3.6168983178e+01    0.4787195    0.3868124  73.21  0.001234207    1.398    0.285
       109 -10.5872     74.2989     95.4387   4.5487264513e+01   4.9051502188e+01    0.2964923    0.1567209  30.05  0.001065538    2.176    0.540
       110 -11.9575     90.9819     96.4145   3.9922975558e+01   4.5709540593e+01    0.3924304    0.3036136  20.38  0.001148875    1.582    0.368
       111 -14.2510    106.8356    123.7067   4.1951509391e+01   3.6054137283e+01      1.72981    0.9207737  27.43  0.006421192    2.462    0.594
       112 -10.4762     34.2891    129.6824   6.7011298707e+01   4.5414484508e+01    0.1527879   0.09849994  64.28 0.0001825727    1.595    0.373
       113 -10.4307     78.7849     86.8695   4.1419205108e+01   5.0355472202e+01    0.2108977    0.1791624  89.30 0.0004266941    1.313    0.238
       114 -13.4853    188.4204     84.0366   1.3606827102e+01   2.7042323060e+01    0.7093072    0.3861979  45.93  0.002201841    2.190    0.543
       115 -13.8735    197.5193     70.9139   8.9773197359e+00   2.7221942215e+01     1.269233     0.672314  35.86  0.005136965    3.290    0.696
       116 -11.8224    158.9111     64.9054   1.3187752798e+01   3.6796884471e+01    0.7266728      0.22079 -46.18  0.002310165    3.274    0.695
       117 -12.7652    152.3852     83.0667   1.9706002579e+01   3.5122406914e+01    0.8370295    0.3394229  38.67  0.002529361    4.175    0.760
       118 -13.3959    165.0165     70.8430   1.3849742883e+01   3.4386966924e+01     1.032498    0.5004162  51.06  0.003045789    2.238    0.553
       119 -13.6596    160.6716     80.7948   1.7444313682e+01   3.3654481940e+01     1.227319    0.6939903  27.08  0.003213056    3.648    0.726
       120 -14.1848    169.3221     77.0626   1.4851862281e+01   3.2356017006e+01     1.596273     0.484379  56.58  0.005336557    3.487    0.713
       121 -12.8475    242.5107     83.7389   6.7423326765e+00   1.6884064503e+01    0.3953057    0.2682101  70.33   0.00245062    1.929    0.482
       122 -13.1709    237.6955     79.8029   6.3877540513e+00   1.8250264623e+01    0.3894413    0.2858279  78.48  0.002156007    1.741    0.426
       123 -11.4170     98.1992     83.8810   3.3869085230e+01   4.7160258936e+01    0.2406713    0.2115273 -86.50 0.0005826087    1.227    0.185
       124 -11.8932    235.5272    248.0095   3.7288126663e+01  -4.1650626686e+00    0.2037469    0.1083465   9.36  0.001398465    1.635    0.388
       125 -13.9456    170.5750    241.8977   4.7479213249e+01   3.3737911251e+00    0.8915415    0.5469993  14.25  0.005658689    1.443    0.307
       126 -13.0698     65.6724     49.6446   3.3450504988e+01   6.1216588111e+01    0.6828368    0.6783082 -30.64  0.003980586    1.027    0.026
       127 -13.3947     91.6518     58.0009   2.7082750927e+01   5.4052903330e+01    0.6397829    0.5376962 -49.09  0.002759734    1.189    0.159
       128 -13.8008     74.6733     73.2871   3.8680962652e+01   5.4347056284e+01     1.503554    0.8707727  18.81  0.005333505    3.020    0.669
       129 -13.1993     87.3307     65.2800   3.1240399146e+01   5.3531480201e+01    0.5600451    0.4689324   8.33  0.001077572    1.480    0.324
       130 -13.3264     55.3531     80.6352   4.8900833107e+01   5.5916364984e+01    0.6445421    0.5352252 -37.46  0.001826583    1.249    0.199
       131 -13.9561     61.1877     75.7297   4.4933960181e+01   5.6194889839e+01    0.9360585    0.6552375 -51.09  0.002476731    1.372    0.271
       132 -13.6304    215.0244     78.5249   8.6325445179e+00   2.2566574994e+01    0.8708447    0.6400058  80.96  0.004831852    1.666    0.400
       133 -11.5976    214.4343     71.5230   7.0423019650e+00   2.3712085779e+01    0.2556302    0.2005686 -55.18 0.0006800661    1.158    0.136
       134 -11.9715    114.2816     80.1285   2.7901116541e+01   4.4440431842e+01    0.4643863    0.3332801 -51.19   0.00121898    1.377    0.274
       135 -12.8167    135.3693     79.2129   2.2263032692e+01   3.9772083494e+01    0.7919497    0.3927737  55.96  0.002829927    2.130    0.530
       136 -10.6205     90.0305     81.0290   3.5655024934e+01   4.9513305302e+01    0.2536927    0.1937291  89.57  0.001138761    1.689    0.408
       137 -11.8848     42.1756     77.5813   5.3958333642e+01   5.8560214862e+01    0.5308344    0.2780354 -70.20  0.001562452    2.092    0.522
       138 -12.6390    147.8976    238.9026   5.1462342516e+01   6.4930667374e+00     0.550359    0.3278202  54.60  0.002887326    2.762    0.638
       139 -13.9669      5.3332     63.7562   6.9837642852e+01   6.5503118569e+01    0.7387965     0.520535  16.03   0.00408342    1.578    0.366
       140 -11.4715     27.4170     76.3427   6.0754593966e+01   6.0562742381e+01    0.3178414    0.2437416  85.11  0.001048008    1.427    0.299
       141 -11.4803    241.2570     70.5735   4.0238275797e+00   1.8899587976e+01    0.1970656    0.1206199  76.33  0.001136134    2.141    0.533
       142 -12.0040     43.5630     65.6777   4.9784768545e+01   6.1358413891e+01    0.5611902    0.3549289 -73.98  0.002490408    1.922    0.480
       143 -11.6166     39.7605     67.9861   5.2387096768e+01   6.1300671877e+01    0.4877312    0.2822588  49.25  0.002128274    2.036    0.509
       144 -11.0490     34.1516     67.6047   5.5107731791e+01   6.2088005190e+01     0.394699    0.1986398  37.94  0.001248365    2.080    0.519
       145 -12.5838    135.4253     65.8037   1.8068146428e+01   4.2251723065e+01    0.5544273    0.4788987  10.65  0.001531966    1.463    0.316
       146 -12.0460    100.4290     64.6258   2.6742566332e+01   5.0758756205e+01     0.397434    0.3217161 -22.27  0.001361067    1.440    0.306
       147 -12.1802     35.6862     54.8573   5.0236127554e+01   6.5013011522e+01    0.3638006    0.2903101 -24.95  0.001472355    1.315    0.239
       148 -11.5261     34.6926     60.3265   5.2616564358e+01   6.3826776843e+01    0.4535294    0.2897634 -42.45  0.001404413    1.531    0.347
       149 -11.8203     38.8225     59.9792   5.0319686377e+01   6.3382982116e+01    0.3649566     0.263351 -89.35  0.001744918    1.846    0.458
       150 -13.5640    177.9969     57.3295   8.0147319638e+00   3.3554465646e+01     0.807371    0.5338196 -51.19   0.00208261    1.381    0.276
       151 -10.4227    163.3713     61.2728   1.1361505284e+01   3.6336756714e+01    0.1414135    0.1113012  28.78 0.0007001185    1.679    0.404
       152 -11.9544     24.8272     59.5017   5.7782004415e+01   6.5127189046e+01    0.4708213    0.2686728 -51.36  0.001712968    1.572    0.364
       153 -13.9991    101.3356     50.3652   2.1164617298e+01   5.3219611498e+01     1.091952    0.7546374  69.32  0.001938648    1.610    0.379
       154 -14.5308    119.9065     54.7309   1.7896568262e+01   4.7964509987e+01    0.9764457    0.5795973  45.32  0.001720234    1.827    0.453
       155 -12.7570    136.2599     50.1267   1.2731885464e+01   4.4682927314e+01    0.6196235    0.5280939 -30.19 0.0007707478    1.249    0.200
       156 -12.2188    247.9322     54.3364   3.5994372575e+02   1.9859775788e+01    0.4773833    0.2509736 -39.58  0.002770224    1.409    0.290
       157 -11.2771    248.6521     48.6858   3.5868165469e+02   2.0439177302e+01     0.240401    0.1886543  67.88  0.001690236    1.601    0.375
       158 -10.7034     47.3286     56.3294   4.4665812398e+01   6.3015395775e+01    0.2882262    0.1598265  53.87  0.001162495    2.431    0.589
       159 -11.1139     17.5960     54.9927   6.0698907563e+01   6.6908886429e+01    0.3388251    0.2169035 -78.28  0.001676501    1.685    0.407
       160 -11.3883    231.6067     55.2338   1.4996038680e+00   2.2681761434e+01    0.2093961    0.1702536  88.74  0.001398711    1.386    0.279
       161 -10.4903     23.5212     50.0105   5.5594748447e+01   6.7572395033e+01    0.2022149    0.1255009 -59.00 0.0004573207    1.491    0.329
       162 -12.0875    145.0569    232.1907   5.1192499369e+01   7.8711371107e+00      0.27545    0.2042469 -52.95  0.001795257    1.704    0.413
       163 -12.5529     25.2237    217.0999   7.6597956078e+01   2.4901568567e+01    0.7356417    0.3118577  45.81  0.003763886    1.805    0.446
       164 -12.5523      3.1180     34.4440   6.4414091586e+01   7.2861661887e+01    0.3309031    0.2102888 -63.26  0.000889781    1.409    0.290
       165 -14.1068     26.8763    225.5077   7.6620575808e+01   2.3016820546e+01     1.331141    0.3925478 -60.55  0.005581432    3.947    0.747
       166 -13.8856     20.7357    224.5874   7.7958221973e+01   2.3782850350e+01    0.5830461    0.4753566  68.27  0.002365005    1.139    0.122
       167 -12.4707    154.5349     46.5142   8.3152345130e+00   4.0719786619e+01    0.4597332    0.2681512  61.95  0.002129975    1.729    0.422
       168 -13.0508    158.7963     43.0926   6.5959092902e+00   4.0170667083e+01    0.6930183    0.4661717  55.35  0.003001636    1.588    0.370
       169 -13.1165    237.3513    229.5257   3.4380232813e+01  -2.2888017567e+00    0.3364613    0.3273637 -89.58  0.002703359    2.366    0.577
       170 -14.4637    212.6929     40.7942   3.5977421168e+02   2.8268343052e+01     1.930312    0.6731762  77.79  0.007476157    3.835    0.739
       171 -13.5540     57.0821    203.8096   6.8034100363e+01   2.4378824801e+01    0.7460841    0.5000998 -76.84  0.004212379    1.606    0.377
       172 -13.0577     64.2540    223.9493   6.7990141432e+01   1.9363654223e+01    0.8337162    0.3602078  42.35   0.00411146    1.854    0.461
       173 -12.3918     68.5266    221.1484   6.6771809072e+01   1.9420457469e+01    0.4968482    0.3222345  78.51  0.002809336    1.809    0.447
       174 -14.4549     62.5758    214.1325   6.7577029680e+01   2.1543571173e+01    0.9874268    0.5147018  32.54  0.005095825    1.622    0.383
       175 -12.5573    110.0066     41.8773   1.5536952357e+01   5.2514265448e+01    0.5230023    0.2390715  57.97  0.001015795    2.111    0.526
       176 -12.9832    113.6246     38.0316   1.3174154420e+01   5.2195434731e+01    0.4901593    0.3523296  79.85  0.001702731    1.496    0.332
       177 -12.8494     46.2716     33.5065   3.5252378912e+01   6.7969629063e+01    0.9025536    0.5123374  33.16  0.004186739    1.850    0.460
       178 -13.3298     57.2560     27.0113   2.6403583143e+01   6.7020961607e+01     1.027125    0.3635713  45.78  0.002673492    2.725    0.633
       179 -12.4566     40.6621     40.2714   4.1587741616e+01   6.7554475144e+01    0.6382694    0.3459514  40.26  0.002921804    1.909    0.476
       180 -12.7251     32.8048     40.3335   4.6207287920e+01   6.8680441586e+01     0.600816    0.3368958 -36.51  0.002134953    1.871    0.466
       181 -13.2088     74.8135     37.0096   2.4167659211e+01   6.1639132952e+01    0.7080821    0.3359512  54.75  0.001708976    2.167    0.539
       182 -13.1900    242.9916     35.2602   3.5618176790e+02   2.3066800052e+01    0.5337343    0.4771245  88.79  0.002763518    1.342    0.255
       183 -10.9594    104.5122     37.0110   1.4976813716e+01   5.4619224966e+01    0.2246668    0.1430299 -34.99  0.001036265    1.603    0.376
       184 -12.6260    140.2722     21.2999   2.1149140050e+00   4.7594090581e+01    0.6115787    0.3201292  71.58  0.001704847    1.825    0.452
       185 -11.3100    249.1277    224.8692   3.1934038841e+01  -2.9057468873e+00    0.1505887    0.1186316  -5.73  0.001247452    1.262    0.208
       186 -10.6325      5.5910    219.2601   8.1161275579e+01   2.6208874495e+01    0.1486999    0.1003683 -77.27 0.0007456094    1.609    0.378
       187 -12.0894    121.1042     26.3521   7.0796310037e+00   5.1888481698e+01    0.4463167    0.3071128  83.96  0.001621775    1.503    0.335
       188 -11.8540     30.5417     25.4923   4.0366535942e+01   7.2017537490e+01    0.3713723    0.2381819  23.86   0.00167091    1.641    0.390
       189 -11.5060     35.5938     23.4097   3.5946911041e+01   7.1620280657e+01    0.3323222    0.2605115 -12.91  0.001895971    1.334    0.250
       190 -10.7183    204.6823    217.6854   3.7898431876e+01   2.7051770346e+00    0.1185729   0.07247899  -4.11 0.0006825232    1.649    0.394
       191 -11.8379     48.6771     19.9753   2.6552017023e+01   6.9839741354e+01     0.687781    0.2529973  50.86  0.002623967    2.833    0.647
       192 -12.8428     57.3305    246.6524   7.1132816543e+01   1.5870676387e+01    0.4923707    0.2714923  23.73  0.002844509    1.699    0.411
       193 -12.3903      4.7050    211.6748   8.1132818881e+01   2.7871883941e+01    0.4561801    0.2234706 -73.91  0.002482336    2.133    0.531
       194 -11.1554    136.5150    210.9688   5.0158222919e+01   1.2525087813e+01    0.1759565    0.1254373 -49.11 0.0009509714    1.582    0.368
       195 -11.8479    135.1564     39.7431   9.3818319198e+00   4.6519175158e+01    0.5034493    0.2981263  84.20   0.00150919    2.011    0.503
       196 -11.0575     40.1796    210.8900   7.2708194513e+01   2.4718555654e+01    0.3349254    0.1484187  28.91  0.001609816    1.984    0.496
       197 -11.4322     27.9003    235.3442   7.6842545623e+01   2.0980271335e+01     0.201965    0.1301594  62.44 0.0009175757    1.346    0.257
       198 -11.6986     41.4978    249.9968   7.4647752831e+01   1.6921347961e+01    0.2125094    0.1619884  38.96  0.001524562    1.085    0.079
       199 -12.5357     46.6920    208.8822   7.0992921059e+01   2.4452058414e+01    0.5020404    0.2154629  66.86  0.002111603    2.861    0.651
       200 -11.2199    151.0066    206.6245   4.6444639992e+01   1.1288431182e+01    0.2798858    0.1781301  11.04  0.001491753    1.735    0.423
       201 -12.8031     94.3826    218.2706   6.0510821005e+01   1.6796578346e+01    0.3414277    0.2465908  27.19  0.001393516    1.239    0.193
       202 -13.4092     16.1205    197.2818   7.7841014981e+01   3.0060107464e+01    0.9912798    0.3269715 -53.75  0.003743302    4.188    0.761
       203 -14.9549     30.1897    168.7898   7.2292996882e+01   3.5554751013e+01     2.400867     1.196893 -40.35  0.008057092    2.963    0.662
       204 -14.1752     22.3450    180.9972   7.5344982224e+01   3.3302231792e+01     1.036762    0.5555175 -51.60  0.004741735    2.266    0.559
       205 -15.1181      8.3512    183.0813   7.9184965393e+01   3.4009258799e+01     1.239014     1.049352  70.09  0.008129234    1.061    0.058
