#   1 NUMBER                 Running object number                                     
#   2 MAG_AUTO               Kron-like elliptical aperture magnitude                    [mag]
#   3 X_IMAGE                Object position along x                                    [pixel]
#   4 Y_IMAGE                Object position along y                                    [pixel]
#   5 X_WORLD                Barycenter position along world x axis                     [deg]
#   6 Y_WORLD                Barycenter position along world y axis                     [deg]
#   7 A_WORLD                Profile RMS along major axis (world units)                 [deg]
#   8 B_WORLD                Profile RMS along minor axis (world units)                 [deg]
#   9 THETA_WORLD            Position angle (CCW/world-x)                               [deg]
#  10 FWHM_WORLD             FWHM assuming a gaussian core                              [deg]
#  11 ELONGATION             A_IMAGE/B_IMAGE                                           
#  12 ELLIPTICITY            1 - B_IMAGE/A_IMAGE                                       
         1 -14.0701      5.6395     75.5185   1.1659904940e+02   5.9650376938e+01     2.208391    0.7029418 -67.77  0.009839713    2.420    0.587
         2 -15.1400     44.2302     41.3727   9.1906794792e+01   6.3656928536e+01     2.980759      1.68788 -38.04   0.01602282    1.505    0.336
         3 -15.5288      9.1388     26.0357   1.0244571323e+02   6.9681681802e+01     2.681298    0.9563854 -48.18   0.01377065    2.011    0.503
         4 -13.4332     30.5942     10.5561   8.4775021556e+01   7.0325512425e+01     1.328961    0.4895465 -33.03  0.006300949    2.422    0.587
         5 -14.5889     37.0335     85.1018   1.0750301472e+02   5.5187216635e+01     2.110756     1.076622 -50.43   0.01059211    1.619    0.382
         6 -14.6409     96.5381     71.6423   8.3448282635e+01   4.9675652482e+01     1.781067     1.325143  -1.38  0.001830192    1.690    0.408
         7 -14.7609     79.2675     70.3644   8.8697927933e+01   5.3007050270e+01     3.029707     1.600068 -25.81   0.01163602    2.728    0.633
         8 -13.9455     23.9737     49.6007   1.0335487949e+02   6.4053099809e+01     1.204143    0.7111254 -27.78   0.00678485    1.679    0.404
         9 -14.1804     69.4466     55.5446   8.7167464979e+01   5.7539565679e+01     1.215965     1.083222 -55.01   0.00401841    1.307    0.235
        10 -14.7036     60.7207     71.4421   9.5533495757e+01   5.5549085983e+01     1.658708     1.132571  25.53   0.00252423    1.648    0.393
        11 -13.0433     80.4527     32.0501   7.4067459836e+01   5.9687997332e+01     0.763308    0.6469566  49.10  0.002632899    1.384    0.277
        12 -12.9484    138.6644      4.1469   4.8218930243e+01   4.9741132960e+01     1.214133    0.3404688  61.36  0.004388805    2.779    0.640
        13 -11.7835     73.1977      1.5653   6.2584890314e+01   6.4747262364e+01    0.2825116    0.1482649  50.43 0.0005994762    1.799    0.444
        14 -13.4034     83.7072     22.5794   6.8908764201e+01   6.0380290679e+01     0.846947     0.593006  46.33 0.0005616984    1.436    0.303
        15 -14.3271    120.6235     10.9118   5.4158697613e+01   5.3561488941e+01     2.297343    0.8803127  62.29  0.006062822    2.445    0.591
        16 -14.1447     86.3229     12.0388   6.3397489127e+01   6.1102473802e+01     1.480837    0.5597858  51.26  0.005509596    2.419    0.587
        17 -14.4198     84.5906      3.6777   6.0089808211e+01   6.2289961426e+01     3.009215    0.5185868  56.49  0.008736626    5.446    0.816
        18 -12.0471    149.8048     21.4118   5.2253190858e+01   4.5215976825e+01    0.5329679    0.4083673  27.41  0.002599779    1.438    0.304
        19 -11.6225    153.6690     20.6966   5.1335380074e+01   4.4303674814e+01    0.3954643    0.2665209  -1.36  0.001174009    1.882    0.469
        20 -13.2714    185.7705     12.7410   4.4208015739e+01   3.6854676622e+01     0.798483    0.6516261 -23.11  0.004104665    1.381    0.276
        21 -12.6592    193.2712      6.6407   4.1639835865e+01   3.5560534580e+01    0.6570469    0.4124956 -42.65  0.003251032    1.586    0.369
        22 -11.9319     64.9844     17.6912   7.3274181326e+01   6.4430828121e+01    0.4601421    0.3082308  19.72  0.001497257    1.451    0.311
        23 -12.6365     75.8242     13.4414   6.7399848355e+01   6.3008387696e+01    0.4284984    0.3748448   2.83  0.001298114    1.092    0.084
        24 -12.5793    176.2259     12.3793   4.5309157013e+01   3.9351167619e+01    0.6659816    0.3968058  17.70  0.002885825    2.585    0.613
        25 -11.6418    188.1516      5.2989   4.1825341945e+01   3.6992266433e+01    0.2951763    0.2565923  66.29 0.0008627786    1.125    0.111
        26 -11.9411    169.2615     10.6194   4.5709060423e+01   4.1327319028e+01    0.3776761     0.228177  72.30  0.001231459    1.527    0.345
        27 -11.2059    156.3242     10.1023   4.7412124590e+01   4.4713604156e+01    0.3067315    0.2133429 -89.75 0.0007449203    1.558    0.358
        28 -12.4218    149.6503      8.5223   4.7927701927e+01   4.6571915484e+01    0.6523162    0.3737984  73.89  0.002528704    1.713    0.416
        29  -9.5476     66.5031      8.5127   6.8300991220e+01   6.5276182794e+01     0.127832    0.1046352  10.77 0.0002868565    1.000    0.000
        30 -10.5730     49.0935      4.8339   7.3255539820e+01   6.8580697782e+01    0.3092677    0.1984081 -19.99  0.001882122    1.399    0.285
        31 -11.3975    168.2908      2.1536   4.3245483303e+01   4.2367555857e+01    0.3212297    0.2087249  68.24  0.001674058    1.351    0.260
        32  -9.6520    211.7892      1.5867   3.8515809226e+01   3.1446917464e+01    0.1818123    0.1109216 -88.62 0.0004218752    1.551    0.355
        33 -12.5397    141.4454     96.0569   7.8248668683e+01   3.5060004011e+01    0.9797903    0.7305692  78.42  0.003730779    1.799    0.444
        34 -11.3194    188.5893     94.5073   6.7215767876e+01   2.4001307048e+01    0.3608459    0.3076623 -76.69  0.001073109    1.336    0.252
        35  -9.1829    188.3087     90.3132   6.6121129707e+01   2.4838785133e+01    0.1588107     0.153672 -54.73 0.0002205885    1.022    0.022
        36  -9.9628    197.3190    167.6853   8.3177055479e+01   8.2887797843e+00    0.1377695    0.1173829  89.22 0.0004119709    1.652    0.395
        37 -10.8842    214.8416    163.3209   7.8805364762e+01   5.5969217072e+00     0.321239    0.1631596 -16.38  0.001101741    3.471    0.712
        38 -10.7902    249.2743     86.2360   5.5157548526e+01   1.1400405674e+01    0.3934197    0.2714552 -46.58  0.001881316    1.329    0.248
        39  -9.4396    152.4779     88.4754   7.3329651232e+01   3.3986901942e+01    0.1565768    0.1553746 -49.96 0.0008097299    1.012    0.012
        40 -12.4142    128.1669     81.9346   7.7504848397e+01   4.0983591925e+01    0.4574431    0.4208808 -35.49  0.001351056    1.070    0.065
        41 -12.7802    125.4754     72.7217   7.5316622807e+01   4.3398854809e+01    0.8000057    0.3885941  56.72  0.002888648    2.447    0.591
        42 -11.1218    112.8279     81.8095   8.1754045581e+01   4.4341794124e+01     0.348965    0.2771505  52.88 0.0008141969    1.356    0.263
        43 -12.8342    144.8142     76.1199   7.1431320803e+01   3.8214682160e+01    0.7441347    0.6062482  83.59  0.002812148    1.497    0.332
        44  -9.3434    234.3260     76.3084   5.4791619158e+01   1.6225365506e+01    0.1404797    0.1112355  15.97 0.0004084957    1.654    0.395
        45  -9.4890    250.3644     74.1805   5.2163901825e+01   1.3019261469e+01    0.2085521    0.1072317 -42.76 0.0006725331    1.698    0.411
        46 -11.8082    152.1446     72.3987   6.8536676810e+01   3.7105411265e+01    0.4939877    0.4373992 -61.95  0.001637922    1.213    0.176
        47 -10.1400    170.5610     72.6280   6.4600992727e+01   3.2442986772e+01    0.4505077      0.20626  69.11  0.001381981    3.431    0.709
        48  -9.7358    182.7380     71.9675   6.2008831891e+01   2.9468139362e+01    0.2081006    0.1966794 -52.18 0.0004349488    1.043    0.041
        49 -12.5172    117.2009     66.5016   7.5553398963e+01   4.6422706396e+01    0.7040086    0.4630187 -12.20  0.002940842    2.085    0.520
        50 -13.7826    119.2993     79.7050   7.9249212113e+01   4.3395537930e+01     1.107108    0.8450819 -76.12  0.005025273    1.811    0.448
        51 -10.7075    146.7402     66.5741   6.7954320719e+01   3.9478183035e+01    0.3084304    0.2468889  12.73  0.001457858    1.487    0.328
        52 -11.1650     24.3222     65.9329   1.0766093149e+02   6.0576644264e+01    0.2271187     0.176189 -15.26  0.001461968    1.415    0.293
        53 -11.3994    214.5068     60.6877   5.3598603903e+01   2.3323562320e+01    0.3754703    0.2653863 -26.52 0.0008994038    1.492    0.330
        54 -10.7955    169.6453     62.9349   6.1863372093e+01   3.4318949481e+01    0.4754507    0.2101415  57.99  0.001668872    2.249    0.555
        55  -9.7852    132.9725     61.4592   6.9633461437e+01   4.3711426746e+01    0.2223423     0.149447  53.72 -2.642817e-05    1.499    0.333
        56  -9.2776    190.1630     59.3764   5.7045154906e+01   2.9627265249e+01    0.2028562    0.1413729  78.84 0.0004078732    1.617    0.382
        57 -12.1737    124.8075     57.1335   7.0273054079e+01   4.6375072983e+01    0.3773097    0.3081893  36.80 0.0004663043    1.214    0.177
        58  -8.9960    203.2938     58.3108   5.4627806106e+01   2.6464228538e+01    0.1454099    0.1155483  22.96 0.0002964876    1.591    0.371
        59 -10.6377    227.2219     57.0270   5.0907949772e+01   2.0809903970e+01    0.2482782    0.2016398  86.48 0.0003928487    1.276    0.216
        60 -11.4918    174.5827     56.4864   5.8956055594e+01   3.4082162029e+01    0.2721994    0.2636457  89.31  0.000352431    1.011    0.011
        61 -12.5307    133.5282     53.7466   6.6878286373e+01   4.4874517952e+01    0.5284428    0.3384576  63.79 0.0009632651    1.761    0.432
        62 -11.3965    153.1191     53.4185   6.2270419920e+01   4.0067442491e+01      0.49372    0.2782453  40.73  0.001252633    1.928    0.481
        63 -11.4397    145.3551     50.5099   6.3005465698e+01   4.2477505766e+01    0.3673562    0.3260637 -48.33 0.0008508509    1.186    0.157
        64 -11.1972    137.6871     48.4521   6.4059258138e+01   4.4697702784e+01    0.4271388    0.3343121  87.42  0.002059757    1.611    0.379
        65 -11.0667    139.6556     43.6323   6.1944874813e+01   4.4932083378e+01    0.4541108    0.2835311  67.00  0.001990302    1.778    0.438
        66 -11.1831     97.0073     51.0006   7.6099458073e+01   5.3458103044e+01    0.2431594    0.2207437  47.49 0.0004000961    1.218    0.179
        67 -11.2522    100.5109     49.5069   7.4456172439e+01   5.3000831698e+01    0.3145085    0.2841544   7.49  0.001058587    1.045    0.043
        68  -9.6117    208.8301     55.4351   5.3016676039e+01   2.5514031076e+01    0.2056921     0.128692  49.73  0.000931523    1.708    0.415
        69 -10.9730    199.2007    154.5211   7.9952874791e+01   1.0287645476e+01    0.3565613    0.2015719 -55.80    0.0014026    2.531    0.605
        70 -10.9188    175.8880     45.3573   5.5344579749e+01   3.5405358596e+01    0.4317295    0.3527811   2.14  0.002182056    1.481    0.325
        71 -10.9761    181.7979     43.3811   5.3759126979e+01   3.4150630248e+01    0.3171258    0.2593651  58.65 0.0003349488    1.192    0.161
        72  -9.0889    243.4290     45.4836   4.6153515276e+01   1.8696027443e+01    0.1366892    0.1169375 -57.49  0.000109502    1.018    0.017
        73 -11.5861    157.3292     43.5447   5.8192950956e+01   4.0468273429e+01    0.3802654    0.2755502  47.15 0.0007904341    1.352    0.261
        74 -11.7048    122.2763     43.5097   6.6093926946e+01   4.9150609187e+01    0.3146463    0.2781131  23.79  0.000786278    1.103    0.093
        75 -10.9796    203.8939     43.2607   5.0404476471e+01   2.8499984495e+01    0.3423923    0.2408727  52.37  0.001701172    1.481    0.325
        76 -12.4257    216.4702     38.8748   4.7593994496e+01   2.5960317803e+01    0.7964167     0.278823  59.56  0.003001649    2.696    0.629
        77 -11.8500    203.5422     37.5844   4.8897698985e+01   2.9357210088e+01    0.6287849    0.3758923  62.33   0.00288278    1.619    0.382
        78 -10.9293    196.8813     41.6585   5.0949503843e+01   3.0501809985e+01      0.35085    0.2219341 -22.63  0.001606299    1.796    0.443
        79 -10.8396    160.0154     36.2448   5.5312217201e+01   4.0777545744e+01     0.232583    0.2118763 -39.65 0.0003003538    1.145    0.126
        80 -10.6399    190.4080    154.2029   8.1681465513e+01   1.2174561268e+01    0.2136311     0.139026 -50.11 0.0009554789    1.728    0.421
        81 -11.3096     19.0913    153.8113   1.2273314314e+02   4.0620436415e+01    0.1996231    0.1707929 -36.41  0.001375416    1.599    0.374
        82 -10.8849    233.7905    153.6099   7.3211643969e+01   3.5667854828e+00    0.1869285    0.1336332  53.45 0.0009555598    1.682    0.405
        83  -9.8365    139.0085    152.0134   9.2752261118e+01   2.3355393580e+01    0.1848279    0.1803957 -80.98  0.001013555    1.035    0.034
        84 -11.1272     59.1210    144.6550   1.1171645311e+02   3.8519869379e+01    0.4931686    0.3214552  71.69  0.002527985    1.691    0.409
        85 -12.2716     51.8597    141.7455   1.1318188903e+02   4.0106839036e+01    0.6070852    0.3534232 -81.33  0.002556853    1.715    0.417
        86 -12.7199     46.9175    142.1338   1.1452525112e+02   4.0585188617e+01    0.5296302    0.4901324 -87.89  0.003164895    1.135    0.119
        87 -10.0369    140.9969     34.6884   5.8545556865e+01   4.5838774909e+01     0.301616    0.1795713  11.28   0.00117228    2.641    0.621
        88 -10.0113    240.6470     34.0846   4.3732891288e+01   2.0844564103e+01    0.1871253    0.1560747 -46.77 0.0005528064    1.117    0.105
        89 -11.2308    176.7084     33.6270   5.1645468281e+01   3.6780323812e+01    0.3057186    0.2527776  75.84 0.0006337901    1.166    0.142
        90 -10.1976     97.3205     33.8920   6.9378591199e+01   5.6095667449e+01    0.2680959     0.190793  36.24 0.0007618845    1.343    0.255
        91 -10.9082    151.2039     31.7952   5.5496981740e+01   4.3622378366e+01    0.4368551    0.2688298  56.69  0.002022409    1.499    0.333
        92  -9.4249    249.7024     31.6864   4.2310317197e+01   1.9113775714e+01    0.1186897    0.1017258  26.24 0.0002627426    1.604    0.377
        93 -10.0394    104.0241     29.5131   6.5658452399e+01   5.5266434993e+01     0.212614    0.1302597  49.46 0.0006821042    1.559    0.359
        94 -10.2300    108.9012     27.9748   6.3704578110e+01   5.4385004896e+01    0.3386004     0.182419  42.80  0.001530549    1.747    0.428
        95  -9.7059    216.4754     28.5005   4.4902332982e+01   2.7296129403e+01    0.1368441    0.1252628 -77.73 0.0008098282    1.042    0.040
        96 -10.1012    196.2432     26.9641   4.6917455917e+01   3.2562948834e+01    0.1908169    0.1770805 -67.07            0    1.056    0.053
        97 -10.6285    167.3361     27.0834   5.1122478971e+01   4.0030561098e+01    0.3166497     0.193297 -88.97   0.00135777    2.064    0.516
        98  -9.2668    124.3471     27.2839   5.9571797559e+01   5.0875164794e+01    0.1521655    0.0990266  30.73  0.000701751    1.648    0.393
        99 -11.9087    240.9686     22.4500   4.0969301110e+01   2.2223437620e+01    0.5725234    0.3010516  86.40  0.001015525    2.050    0.512
       100 -11.3955    214.1715    142.7322   7.4355418439e+01   9.3087910189e+00    0.6347436    0.2746618  51.87  0.002378667    2.622    0.619
       101 -11.4788     76.1705    139.3473   1.0634446725e+02   3.7468583732e+01    0.5610966    0.1936253 -60.91  0.002035349    2.706    0.630
       102 -10.7978    139.3605     20.9447   5.4044076093e+01   4.7918511877e+01    0.2858024    0.2001612  59.07 0.0006323804    1.309    0.236
       103 -10.6418    143.4362     17.9773   5.2229299335e+01   4.7212061137e+01    0.2418154    0.1720605  52.01 5.894294e-05    1.277    0.217
       104 -10.9911    209.0568     18.9616   4.3239631940e+01   3.0271253761e+01    0.3456881    0.2661635 -58.86  0.001452237    1.224    0.183
       105 -11.2431     33.8908    135.7478   1.1707532977e+02   4.3477504581e+01    0.2581107    0.1821621  27.66  0.001109938    1.738    0.425
       106 -12.6430    202.3041    126.2062   7.2717048399e+01   1.4869368712e+01    0.8872011    0.5847191   0.57   0.00354644    2.371    0.578
       107 -10.9953    122.2512    127.3655   9.1482961382e+01   3.2293931288e+01    0.4024636    0.3604841  64.56  0.001395455    1.150    0.130
       108 -10.5232    194.9944    248.5129   9.7786057513e+01  -3.7227163426e+00    0.1763515   0.08325101  24.07 0.0008104178    2.569    0.611
       109 -10.3122    249.8051    243.4032   8.7446549073e+01  -1.1180742060e+01    0.1590266   0.08204041  25.95 0.0004106546    1.605    0.377
       110  -9.9445    124.0041    206.0039   1.0553472396e+02   1.4910757377e+01    0.1828929    0.1600056  54.28   0.00112838    1.021    0.021
       111  -9.3384    246.4775    183.5259   7.7244573106e+01  -3.2410355963e+00    0.1312773    0.1081532   0.60 0.0001913325    1.011    0.011
       112 -10.5478     34.4570    177.0210   1.2141922484e+02   3.3883000193e+01    0.2236705    0.1643544  -2.28  0.001283195    2.489    0.598
       113 -10.2617    100.9950    175.9985   1.0619436358e+02   2.5027694757e+01    0.1932002    0.1726502  73.77  0.001137299    1.005    0.005
       114 -10.6455    202.5254    173.9636   8.3439140332e+01   6.1675368703e+00    0.2030219    0.1186761 -13.77 0.0008099492    2.568    0.611
       115 -11.1226    133.5051     99.4912   8.1275973999e+01   3.6137805881e+01    0.2966694    0.2044389 -51.72 0.0009930985    1.500    0.333
       116 -10.9756    114.3062     97.1750   8.5871657998e+01   4.0747110123e+01    0.3455345    0.2702534 -45.80  0.001677888    1.237    0.192
