#   1 NUMBER                 Running object number                                     
#   2 MAG_AUTO               Kron-like elliptical aperture magnitude                    [mag]
#   3 X_IMAGE                Object position along x                                    [pixel]
#   4 Y_IMAGE                Object position along y                                    [pixel]
#   5 X_WORLD                Barycenter position along world x axis                     [deg]
#   6 Y_WORLD                Barycenter position along world y axis                     [deg]
#   7 A_WORLD                Profile RMS along major axis (world units)                 [deg]
#   8 B_WORLD                Profile RMS along minor axis (world units)                 [deg]
#   9 THETA_WORLD            Position angle (CCW/world-x)                               [deg]
#  10 FWHM_WORLD             FWHM assuming a gaussian core                              [deg]
#  11 ELONGATION             A_IMAGE/B_IMAGE                                           
#  12 ELLIPTICITY            1 - B_IMAGE/A_IMAGE                                       
         1  -9.0435    249.3118     10.4175   2.0666942273e+01   2.5073877917e+01    0.2991021     0.168137 -57.22  0.001793614    1.371    0.271
         2  -9.0151    247.5754      6.2118   2.0071576896e+01   2.5834193583e+01    0.2248457    0.1884735  87.42  0.001702443    1.358    0.264
         3  -7.8948    141.5945      6.9493   2.9806620917e+01   4.7572990064e+01    0.2230149    0.1529985  18.05  0.001301598    2.122    0.529
         4  -8.4059    191.5679      4.6917   2.3790713163e+01   3.6864837905e+01    0.1712596    0.1465774  77.18 0.0002748288    1.227    0.185
         5  -8.4715    120.1411      8.8773   3.3676182887e+01   5.2214097575e+01    0.2076037    0.1825855  32.51  0.001200001    1.253    0.202
         6 -10.1678    121.6986    233.5211   8.8300117034e+01   7.6373963129e+00    0.2786708    0.2393042 -45.38 0.0002688012    1.251    0.201
         7  -7.8746    250.4630    249.9496   6.4167034183e+01  -1.2154384296e+01    0.1704873   0.09181131 -34.25  0.001025574    1.582    0.368
         8  -7.5051    185.5235    250.5284   7.6703951936e+01  -4.6933811845e+00    0.1303977    0.1056253   1.78 4.069227e-05    1.004    0.004
         9  -8.5414    152.0048    250.5936   8.3909218176e+01  -1.2551344785e-01    0.1864283    0.1341279  25.65 5.937277e-05    1.219    0.180
        10  -9.1421    153.7038    246.5023   8.2919905644e+01   3.8324120015e-01     0.258869    0.2116674 -12.85 0.0004838493    1.201    0.167
        11  -8.4679    154.8741    242.0232   8.1971627286e+01   1.0491237224e+00     0.244748    0.1975318  -6.65 0.0003522244    1.202    0.168
        12 -12.0465     54.9079    233.7737   1.0400864549e+02   1.6827036338e+01     1.757296     1.075355  88.55  0.008981485    1.833    0.455
        13 -12.7105     23.5836    231.8013   1.1081158727e+02   2.0794685455e+01     2.997308    0.8394496  40.88   0.01248536    2.829    0.647
        14 -12.1132     10.4875    207.1487   1.1190556474e+02   2.7769782677e+01     1.459727    0.8376107 -60.57  0.007122991    1.691    0.409
        15 -10.2408     15.9031    249.5763   1.1358206200e+02   1.7715554152e+01    0.3070267    0.2596757  67.75 0.0009930736    1.078    0.072
        16 -13.1431      7.6986    245.4366   1.1496679515e+02   1.9385241826e+01     2.653159     1.247834  21.18   0.01336751    2.759    0.638
        17  -7.8223     75.6589    229.6975   9.8735948643e+01   1.5080128369e+01    0.1338323    0.1045365 -19.44 0.0004440003    1.675    0.403
        18  -8.7486     85.4359    227.5470   9.6138669578e+01   1.4225044158e+01    0.3814796    0.2262983 -13.41  0.001447798    3.412    0.707
        19  -8.6469     73.0737    224.8848   9.8787614325e+01   1.6526763979e+01    0.2130282    0.1875013  33.87 0.0004185882    1.131    0.116
        20  -7.7871     44.2110    250.1797   1.0781272021e+02   1.4528770864e+01    0.1787771    0.1209222  60.67 0.0009512406    1.334    0.250
        21  -8.4836     98.5064    223.5184   9.2436913634e+01   1.3263612692e+01    0.2739729     0.107242  42.03  0.001036917    2.422    0.587
        22  -8.6793    145.2983    221.0846   8.0785209910e+01   6.6396322865e+00    0.2320624    0.2104432  19.87 0.0002484189    1.063    0.059
        23  -9.6155     81.0024    221.6882   9.6471819762e+01   1.6185689594e+01    0.4137313    0.2208999  28.68  0.001855937    1.874    0.466
        24  -9.4547     49.2616    221.9767   1.0415191178e+02   2.0218438800e+01    0.2513829    0.2238139 -63.23 0.0008309751    1.202    0.168
        25 -10.4362     45.2300    219.6551   1.0487351245e+02   2.1238068352e+01     0.561859    0.4076276 -23.43  0.002973885    1.971    0.493
        26  -8.3448    249.8388    219.0367   5.9028435415e+01  -7.4662638961e+00     0.176874    0.1422186 -29.11 0.0006885705    1.246    0.198
        27  -7.8653    131.2491    217.1010   8.3473425508e+01   9.6928596680e+00    0.2580559    0.1691991 -47.87  0.001239156    1.574    0.365
        28  -7.5950     66.3158    216.3319   9.9416450823e+01   1.9427770966e+01    0.1387456    0.1045341 -29.94 0.0007046566    1.685    0.406
        29  -9.7923     57.2528    212.7046   1.0122855011e+02   2.1455132106e+01    0.3793717    0.2776064 -66.55   0.00205861    1.344    0.256
        30  -8.1844     35.2012    214.1660   1.0672183679e+02   2.3667490599e+01    0.1888121    0.1352387  63.03  0.000720082    1.323    0.244
        31  -9.4189     47.6344    209.9339   1.0329379325e+02   2.3290057585e+01    0.4003683    0.1910577 -42.37  0.001612811    2.842    0.648
        32  -9.8950     53.6491    206.3925   1.0140181453e+02   2.3438602638e+01    0.4531505    0.1985817  42.06  0.001625375    2.163    0.538
        33  -8.8482     39.0967    210.1391   1.0540109231e+02   2.4212464353e+01    0.3535642    0.1679512  36.57  0.001631313    1.989    0.497
        34  -8.4628     21.5072    210.4611   1.0961580413e+02   2.5959366908e+01    0.2369038    0.1239867  27.32 0.0009637143    2.052    0.513
        35  -7.5460     26.5265    209.5365   1.0835750051e+02   2.5685843697e+01     0.130968    0.1129897  80.21 -1.656329e-05    1.008    0.008
        36 -10.4013     20.9856    195.7059   1.0845684476e+02   2.9611347297e+01    0.6520662    0.3007818  50.69  0.002953147    2.212    0.548
        37 -10.8662     30.4686    196.0077   1.0611885419e+02   2.8613955793e+01    0.9859241    0.3431085 -49.66  0.001590959    3.222    0.690
        38 -11.5309     41.3295    188.0329   1.0243421802e+02   2.9486580985e+01     1.046107    0.7504982 -54.49  0.005212731    1.374    0.272
        39  -6.9592     67.7226    202.6115   9.7340978881e+01   2.2582010115e+01    0.1482997    0.1031942 -36.09 0.0006998865    1.731    0.422
        40  -7.6134     72.5942    201.2734   9.5896109686e+01   2.2257852196e+01    0.1877793    0.1297523 -53.98 0.0002651082    1.453    0.312
        41  -7.9407     53.5303    199.9336   1.0066859666e+02   2.5056493172e+01    0.2073866    0.1294016 -65.92 0.0009599516    1.527    0.345
        42  -7.2442    250.2856    199.6991   5.5509586453e+01  -4.3889515862e+00    0.1091554   0.09130735 -50.34 0.0003841978    1.555    0.357
        43  -7.5714     78.7941    198.1156   9.3823402019e+01   2.2181362444e+01    0.1966833    0.1667295 -31.71 0.0004303667    1.317    0.241
        44 -10.0773      5.4852    204.9299   1.1288971652e+02   2.8727565909e+01    0.3246551    0.2970006  17.73   0.00173808    1.369    0.270
        45 -10.1631      9.8424    188.5573   1.1058267639e+02   3.2363053970e+01    0.4111629    0.3115104  -3.95  0.002402053    1.772    0.436
        46  -7.7651    106.9736    186.7705   8.4457336109e+01   2.0706534977e+01    0.2079811     0.197129   9.89 0.0004302777    1.062    0.058
        47  -9.1706     48.5666    182.1411   9.9744229118e+01   3.0185743160e+01      0.33038    0.2158913  75.17  0.001246199    1.788    0.441
        48  -7.3582     16.3047    183.6385   1.0851149979e+02   3.3055879476e+01     0.143427   0.08688759  67.74 0.0007038444    1.731    0.422
        49  -8.9114     30.6751    180.9993   1.0446200765e+02   3.2404742444e+01    0.2023542    0.1622408 -79.02 0.0005541524    1.122    0.108
        50  -9.9365     24.1231    177.5828   1.0584186839e+02   3.3907006712e+01    0.5485603    0.2498995  69.78  0.002034127    3.195    0.687
        51  -9.8471     17.8977    169.5160   1.0665833781e+02   3.6529092159e+01    0.3839924    0.2806744  77.17  0.001093672    1.376    0.273
        52  -8.4942     35.6861    176.3421   1.0254978456e+02   3.3104034478e+01    0.2239106    0.1469826  68.39 0.0005268384    1.699    0.411
        53  -7.8828     11.4706    174.4767   1.0889471640e+02   3.5778276269e+01    0.2171801    0.1050904  38.24 0.0007794399    2.133    0.531
        54  -8.6832     58.6024    172.3095   9.5529757912e+01   3.1535044426e+01    0.3488416    0.2684876 -25.75  0.001590687    1.529    0.346
        55  -8.8031     64.1776    167.4477   9.3144245817e+01   3.2091502458e+01    0.3707657    0.2776105 -16.42 0.0009747056    1.656    0.396
        56  -7.5311    229.5249    171.4974   5.3716961964e+01   3.3483304079e+00    0.1358408    0.1112095 -29.29 3.965779e-05    1.018    0.017
        57  -9.4733    155.9814    168.8090   6.8298492590e+01   1.6381150809e+01    0.2723234    0.2101865 -44.51 0.0003468733    1.250    0.200
        58  -7.7509    161.6983    166.0441   6.6352188449e+01   1.5951262501e+01    0.2154025     0.190528 -37.42 0.0003026974    1.076    0.071
        59  -8.8848      3.0870    162.4621   1.0999183316e+02   3.9446804856e+01    0.4481009    0.2148389  57.93  0.002009763    2.448    0.592
        60  -8.8820     99.2449    161.0036   8.1713598996e+01   2.8488469971e+01    0.2515924     0.222034  19.31  0.000262623    1.178    0.151
        61  -7.2869    100.9891    175.9668   8.4119591655e+01   2.4389730688e+01    0.1774494    0.1701457 -47.49            0    1.029    0.028
        62  -9.5587     74.3713    158.6462   8.8585202571e+01   3.2993976345e+01    0.4646789    0.2871888 -62.07  0.001466787    1.585    0.369
        63 -10.4021     61.4553    154.2903   9.1716660069e+01   3.5917241020e+01    0.5189832    0.2835146 -42.51  0.001052868    1.900    0.474
        64  -8.5692     63.0398    148.3273   9.0140250611e+01   3.7277440338e+01    0.2240587    0.1905125 -30.64 0.0004955116    1.210    0.174
        65  -8.3223      9.1474    154.6180   1.0749112566e+02   4.1041249717e+01    0.3505573    0.1207076 -65.73  0.001420226    2.248    0.555
        66  -9.5475     81.4251    153.5384   8.5481524872e+01   3.3278574395e+01    0.4628029    0.2993166   6.22  0.001485605    2.117    0.528
        67  -7.4557      1.6910    152.6643   1.0941553463e+02   4.2032475683e+01    0.1401973   0.08038608 -47.65 0.0005995118    1.678    0.404
        68  -7.0728    148.7009    148.3978   6.5586705361e+01   2.2433534233e+01    0.1614096    0.1253256 -85.04 0.0007001866    1.814    0.449
        69 -10.2487     70.3256    145.8445   8.7378371425e+01   3.6924451021e+01    0.7531433    0.4729901  69.88  0.002937074    2.508    0.601
        70  -9.7166     67.3441    143.3064   8.7816184835e+01   3.8005376256e+01    0.4344454    0.3608963  47.03  0.002221647    1.312    0.238
        71  -7.1422    212.5037    143.4713   5.1020094722e+01   1.1406828069e+01    0.1408504    0.1225745 -37.50 0.0008099517    1.012    0.012
        72  -8.8334    240.4667    139.7296   4.5716114289e+01   7.4459747044e+00    0.2305065    0.1946874 -43.09 0.0004975752    1.044    0.042
        73  -9.5202      6.7234    137.5761   1.0622634731e+02   4.5576584409e+01    0.4679603    0.2391902 -34.21  0.002176753    2.188    0.543
        74  -9.4639     84.6697    137.8490   8.1194674722e+01   3.6809486460e+01    0.3187954    0.2640872 -51.05 0.0004636836    1.159    0.137
        75  -7.7793    106.8566    136.1481   7.4052284409e+01   3.3398754401e+01    0.2172624    0.2134307  83.76  0.000268804    1.098    0.089
        76  -9.8252      3.9764    129.3290   1.0605172697e+02   4.7837541284e+01    0.4298771    0.3351675  77.48  0.002446278    1.410    0.291
        77  -8.8145     51.0406    124.2206   8.9316490985e+01   4.5039760275e+01    0.2426834    0.1949025 -49.98 0.0004292797    1.127    0.113
        78  -8.7593    165.6852    123.0630   5.5654942917e+01   2.4561448521e+01    0.3812404    0.2529314 -31.15  0.001423353    1.648    0.393
        79  -7.8881     85.9454    117.6505   7.6011977804e+01   4.1596209611e+01    0.3343363    0.1881091  20.69  0.001290492    2.223    0.550
        80  -7.8103     82.7719    109.1469   7.4868421271e+01   4.4138815450e+01    0.2051481    0.1699885 -11.72 0.0007050838    1.265    0.209
        81 -10.1267     71.0644    108.2470   7.8618404582e+01   4.6233878303e+01    0.2643668    0.2442812 -15.84 0.0002952176    1.022    0.022
        82  -7.2782    121.4878     92.4074   5.8448615074e+01   4.0263690821e+01    0.1484072    0.1427036  29.45 -3.619347e-05    1.017    0.017
        83  -7.0436    146.6972     68.3001   4.5683556814e+01   3.8970769493e+01    0.1407075    0.1072316 -79.60 0.0003161577    1.587    0.370
        84  -7.0929    107.7850     67.9565   5.5003662305e+01   4.7643122009e+01    0.1747577    0.1162426 -35.49 0.0003111529    1.588    0.370
        85  -7.9691    139.5429     65.9111   4.6538924458e+01   4.0970638200e+01    0.2280814    0.1746513  47.54  0.001209244    1.262    0.208
        86  -8.4415    213.0666     62.0042   3.3579923903e+01   2.5451284359e+01    0.1808826    0.1582348 -71.77 0.0002827296    1.059    0.055
        87  -7.6868    225.6758     58.0110   3.1327041845e+01   2.3533850734e+01    0.1670054    0.1346049 -60.87 0.0004378406    1.063    0.059
        88  -8.9396    109.0102     55.6727   5.0815299269e+01   4.9324592825e+01     0.294308    0.2038781 -31.80  0.001525737    1.567    0.362
        89  -8.0676    201.5231     49.9579   3.2404420389e+01   2.9529957877e+01    0.1813066    0.1150641 -41.45 0.0009716384    1.551    0.355
        90  -7.2051     12.6933     48.6961   8.5565329862e+01   6.5619539701e+01      0.13098   0.07329875 -23.91 0.0002458924    1.603    0.376
        91 -10.2972    210.6645     44.2750   3.0156259254e+01   2.8399683158e+01    0.2793809    0.2518349 -49.57  0.001953332    1.277    0.217
        92  -6.9987    177.2828     43.6991   3.4121466319e+01   3.5600186765e+01    0.1297012   0.08806922 -72.06 0.0002094909    1.550    0.355
        93  -7.5343    199.5093     42.4694   3.1021233972e+01   3.0948805383e+01    0.1262374    0.1024082 -77.07 8.902362e-05    1.059    0.056
        94  -8.1871    221.6249     39.8657   2.8148153428e+01   2.6774769477e+01    0.1734924    0.1289248 -59.89  0.001153736    1.142    0.125
        95  -9.7573    220.6482     35.6321   2.7409478066e+01   2.7502374162e+01    0.2909496    0.2172076  39.11  0.001242158    2.128    0.530
        96 -10.2395    227.7599     30.9035   2.5863387630e+01   2.6698357390e+01    0.4968919    0.4247224 -59.38  0.003709525    1.230    0.187
        97  -8.3872    223.8289     27.4009   2.5534069952e+01   2.7879959058e+01    0.2343858    0.1380507  61.58  0.001438747    1.822    0.451
        98  -7.5748    105.1850     40.1401   4.6798228727e+01   5.2285062884e+01    0.1700794    0.1522082  83.03 0.0003846784    1.307    0.235
        99  -8.2374    156.0857     28.6861   3.3439434249e+01   4.2171324981e+01    0.1836606    0.1553873 -73.66 0.0002389739    1.173    0.148
       100  -7.3141    164.8250    243.4010   7.9990312716e+01  -6.2690670449e-01    0.1828699    0.1135373  17.14 0.0003891006    1.575    0.365
       101  -7.7428    183.0249    240.3112   7.5571375244e+01  -2.6085992605e+00     0.178895    0.1498862   8.27 0.0006085152    1.069    0.064
       102  -7.5735     73.8277    237.8571   1.0008841658e+02   1.3506424437e+01    0.1881246    0.1733112 -40.85 0.0006392545    1.254    0.202
       103  -7.6343     77.4645    236.0795   9.9047405681e+01   1.3412224844e+01    0.1839607    0.1307852 -68.02 0.0004543023    1.496    0.331
