#   1 NUMBER                 Running object number                                     
#   2 MAG_AUTO               Kron-like elliptical aperture magnitude                    [mag]
#   3 X_IMAGE                Object position along x                                    [pixel]
#   4 Y_IMAGE                Object position along y                                    [pixel]
#   5 X_WORLD                Barycenter position along world x axis                     [deg]
#   6 Y_WORLD                Barycenter position along world y axis                     [deg]
#   7 A_WORLD                Profile RMS along major axis (world units)                 [deg]
#   8 B_WORLD                Profile RMS along minor axis (world units)                 [deg]
#   9 THETA_WORLD            Position angle (CCW/world-x)                               [deg]
#  10 FWHM_WORLD             FWHM assuming a gaussian core                              [deg]
#  11 ELONGATION             A_IMAGE/B_IMAGE                                           
#  12 ELLIPTICITY            1 - B_IMAGE/A_IMAGE                                       
         1 -12.6087     74.7281     50.2538   8.6920349278e+01   5.7887265702e+01     1.370011    0.8359051 -55.65  0.006215974    1.836    0.455
         2 -12.6406     43.2141     46.4445   9.8529130053e+01   6.3534920123e+01    0.8596656     0.671452  83.02   0.00164503    1.755    0.430
         3 -10.2673     59.6219     24.2206   8.1550604057e+01   6.5490145386e+01     0.755462     0.322278 -30.50  0.002928131    2.595    0.615
         4 -11.1533    178.1587     21.6412   5.1494714766e+01   3.7385829741e+01    0.5624521    0.3736469  30.45  0.002013407    1.741    0.425
         5 -11.5927    182.9526     25.3146   5.2095712529e+01   3.5770147220e+01    0.6205738    0.3487921  46.75  0.002757627    1.874    0.466
         6 -11.1089      3.3110      1.7957   1.0281441541e+02   7.6859203546e+01    0.4096056     0.201719   6.17  0.002115136    2.591    0.614
         7 -10.7950      5.2451      9.4276   1.0522766511e+02   7.5178892511e+01    0.7716962    0.5766941 -63.75  0.003729568    1.336    0.251
         8 -10.5428      6.2693     32.8974   1.1307946150e+02   6.9987125562e+01     1.835816          nan -56.07  0.005861808    4.349    0.770
         9 -11.7549     26.4784     27.9809   9.9891349319e+01   6.9450886239e+01    0.5101307    0.4884013 -85.65  0.002312514    1.275    0.216
        10 -10.5180     14.0606     23.5603   1.0536742924e+02   7.1537180617e+01    0.5006455    0.3069834 -71.66   0.00270735    1.808    0.447
        11 -11.5126     19.8879     22.4360   1.0136213437e+02   7.1272795435e+01     1.435121     0.219137 -53.07  0.004593979    4.177    0.761
        12 -12.8183     17.3530     13.4966   9.8784489208e+01   7.3347689777e+01     0.627212    0.5108908 -20.58 0.0004706246    1.165    0.142
        13 -11.9383     22.8940     10.7526   9.3706193987e+01   7.3301358493e+01    0.4713375    0.3920449 -16.55  0.003100798    1.121    0.108
        14 -12.2780    104.5571     12.8060   6.0803941328e+01   5.7418039036e+01     1.566029    0.5272928 -39.95  0.005289266    3.223    0.690
        15 -11.8925    106.0402     20.1734   6.3879380305e+01   5.6170431388e+01    0.4964844    0.3058971 -34.75 0.0004634446    1.609    0.379
        16 -12.2889    105.7991     32.8500   6.9578160349e+01   5.4465425683e+01      1.14998    0.6172481   9.18  0.003467985    4.387    0.772
        17 -11.2582    165.2972     17.4785   5.1741523895e+01   4.1158718192e+01    0.4831164    0.2993717  33.56  0.001495806    1.842    0.457
        18  -9.4508    141.4595     12.2665   5.3282739339e+01   4.7974076309e+01    0.2479457    0.2089848 -22.36 0.0006604638    1.190    0.160
        19 -11.4289    138.0357     21.9915   5.7718665831e+01   4.7836003602e+01     1.405721    0.5170465  48.07  0.004935401    2.673    0.626
        20 -10.5542    145.9110     16.7997   5.4337916882e+01   4.6338288984e+01    0.5193728    0.4089624 -77.48  0.002635473    1.445    0.308
        21 -12.0198    132.4532     14.9389   5.5893573873e+01   5.0071836728e+01     1.268283     0.599671  78.90  0.002224281    2.804    0.643
        22 -12.4720    163.8737     27.8614   5.5580901585e+01   4.0408989367e+01    0.5418457    0.3862101  30.08 0.0004568895    1.562    0.360
        23 -11.1038    198.7464     28.8099   5.1307502291e+01   3.1440911906e+01    0.6697641    0.3976184  -7.70  0.003028475    1.906    0.475
        24 -10.0618     87.1645      7.4121   6.2673021873e+01   6.2191880458e+01    0.6058905    0.3535959  58.84  0.002523822    1.752    0.429
        25 -10.5587     91.0005     20.9562   6.8436436539e+01   5.9609987191e+01    0.6652196    0.4740184 -25.13  0.002390925    1.355    0.262
        26 -11.2450     86.0322     13.7480   6.6339950881e+01   6.1695454614e+01    0.4414476    0.3558561   6.35  0.001335612    1.235    0.191
        27  -9.7227     50.4106      6.6967   7.5847211718e+01   6.9922833351e+01    0.2852869    0.1712241  41.90 0.0005529801    1.733    0.423
        28 -11.5843     36.3590     18.9289   9.0158300014e+01   7.0086747043e+01    0.6982828    0.4014707 -44.28  0.002431858    1.535    0.349
        29 -10.9987     32.6080     12.5639   8.8794530017e+01   7.1764653445e+01    0.2370936    0.2179634  50.32 0.0004746889    1.444    0.307
        30 -10.5412     47.1442     19.2420   8.4719469094e+01   6.8449115089e+01    0.3583355    0.3026179 -24.88  0.001524591    1.033    0.032
        31 -12.2608     48.5593     12.9960   8.0540899316e+01   6.9277608335e+01    0.7507703    0.3870431  41.30  0.003596377    2.075    0.518
        32 -10.5867    121.9790     19.5474   5.9888900195e+01   5.2267810163e+01    0.7336426    0.5045603 -86.33  0.003312919    1.953    0.488
        33 -10.3488     64.1209     10.7061   7.2337023326e+01   6.6767687426e+01    0.6331733    0.3082171  36.21  0.002738661    2.263    0.558
        34 -10.1797     62.9111      6.4641   7.0313562165e+01   6.7580171647e+01    0.3789921    0.2496113  -9.99   0.00126445    1.563    0.360
        35 -11.9437     68.4046     18.0654   7.4735381382e+01   6.4847050869e+01    0.5447465    0.5054744  58.17  0.002462117    1.293    0.226
        36 -12.2414    238.1739     15.8521   4.4094387959e+01   2.3553489572e+01     0.608547    0.4980378  57.39  0.003647789    1.380    0.276
        37 -11.1962    244.5217     15.9853   4.3685236375e+01   2.2177910603e+01    0.4512028     0.197224 -23.34  0.002114925    1.970    0.492
        38 -11.9559    244.8594      6.8632   4.1366631838e+01   2.2914240089e+01    0.8734667    0.3764653 -41.59  0.003766762    1.930    0.482
        39 -11.0275    218.7675      3.2667   4.2086513354e+01   2.9044091448e+01    0.3299505    0.2929608  -8.23  0.001136905    1.179    0.152
        40 -11.2203    223.6742      1.8803   4.1380892977e+01   2.8021721216e+01    0.5405398    0.2582013  84.29  0.002473326    2.324    0.570
        41 -11.1792    205.3981      2.6936   4.2886897491e+01   3.2283806537e+01    0.6092649    0.3382796  66.18  0.001521171    1.820    0.451
        42 -10.0438    192.6752     17.5808   4.8528315999e+01   3.4098318648e+01    0.5030297    0.3109733 -60.59  0.002362346    1.801    0.445
        43 -10.6671    186.3994     15.1086   4.8414532869e+01   3.5924390476e+01    0.3440482    0.2587055  54.46 0.0005718673    1.362    0.266
        44 -11.4741    192.4324      7.7790   4.5503668427e+01   3.5065551032e+01    0.7110447    0.4119258  17.77  0.002004149    2.282    0.562
        45  -9.2078    194.0076      1.2621   4.3352994166e+01   3.5217986108e+01    0.1891346    0.1184608  61.72 0.0003309303    1.607    0.378
        46 -11.9070    233.9087      7.0267   4.2088704361e+01   2.5275948121e+01    0.8031821    0.4020311 -84.81  0.003769418    2.419    0.587
        47 -10.1751    225.9158     15.5847   4.4938302868e+01   2.6307381054e+01    0.3981319    0.1885191 -25.83  0.001828301    1.837    0.456
        48 -11.4069    211.9596      9.6585   4.4390441716e+01   3.0102915657e+01    0.5325719    0.3183142   8.57  0.001153837    2.157    0.536
        49  -9.8523    169.0885      9.8159   4.8593597908e+01   4.0899291491e+01     0.371025    0.1762249  43.01  0.001482412    2.319    0.569
        50 -10.1502    163.1831      5.0206   4.7596657086e+01   4.2875967054e+01    0.4612418    0.2521858  -6.60  0.001755825    2.071    0.517
        51  -9.2855    157.4841      2.5219   4.7358241032e+01   4.4593506776e+01    0.2615716    0.2035804  19.53  0.001366589    1.394    0.283
        52  -9.4007    161.0300      1.0000   4.6400824607e+01   4.3776140660e+01    0.3613501   0.07671284  69.91  0.001060967    4.032    0.752
        53  -9.9607    184.6658      6.1996   4.5733367247e+01   3.7175799233e+01    0.5396737      0.16239 -32.28  0.001953142    2.761    0.638
        54  -9.9993    152.1309      7.6688   4.9943970105e+01   4.5575045143e+01    0.5186766    0.2315028  65.14  0.001386803    2.098    0.523
        55 -11.3600     40.7727      5.7007   8.0036972104e+01   7.1709732648e+01    0.4669313    0.2447421 -19.43  0.002101738    2.293    0.564
        56  -9.5167      1.2492      7.3334   1.0725210203e+02   7.5872070499e+01    0.1930829   0.08446451 -60.26 0.0003879236    1.892    0.471
        57 -10.6299    176.0979      5.5414   4.6368760499e+01   3.9444063513e+01     0.420946    0.2913311 -89.40 0.0009540688    1.536    0.349
        58 -11.2077     75.5388      3.3147   6.3928165973e+01   6.5287476652e+01    0.7116823    0.3629678  52.50  0.003262103    1.896    0.472
        59 -10.6036    142.4768      3.1519   4.9518994755e+01   4.8533483396e+01    0.3912367    0.3067464  46.65  0.001636953    1.246    0.197
        60 -11.7139    133.3842      2.7650   5.0688112803e+01   5.0979580950e+01    0.4499621    0.3045557  61.66  0.001342554    1.402    0.287
        61  -9.5569     78.2374      7.4108   6.5387297503e+01   6.4220647170e+01    0.2882103    0.1838007  67.70  0.001019636    1.953    0.488
        62  -9.2534    123.0636      1.0000   5.1584027314e+01   5.3845081380e+01    0.4464841   0.09579682  71.01  0.001160485    5.169    0.807
        63  -9.6886    117.0233      2.5226   5.3332534692e+01   5.5288510201e+01    0.3035405     0.194438  56.95 0.0009444774    1.461    0.316
        64 -10.2080    111.4374      2.1154   5.4207679008e+01   5.6761488143e+01    0.4794126    0.2654045  84.17  0.001986921    2.348    0.574
        65 -10.6307    105.2179      1.8262   5.5338082107e+01   5.8366009653e+01    0.3981721    0.2158098  71.93 0.0007795237    2.020    0.505
        66  -9.8454     13.5435      1.7837   9.4820560483e+01   7.5973954172e+01    0.2467096    0.1873196  -5.42  0.001321775    1.330    0.248
        67 -10.5908     82.1991      1.3271   6.0762255097e+01   6.3988792734e+01    0.2152891    0.1217631  56.62  0.000319063    1.731    0.422
        68 -11.1969     47.1426    146.8970   1.1693686327e+02   3.9848050687e+01    0.4457266    0.4000292  86.76  0.002462593    1.088    0.081
        69  -9.7955    234.5957    150.2451   7.6990216479e+01   8.7066745557e+00    0.1776896    0.1021437 -14.02 0.0009546222    1.689    0.408
        70  -9.6885    239.8383    146.8549   7.5501967458e+01   8.2504161448e+00    0.1907828    0.1401363   7.29 0.0006379249    1.172    0.147
        71 -10.7305    249.4964    142.6265   7.3216181938e+01   7.1797695368e+00    0.5145272    0.1998083 -27.18  0.002436472    2.286    0.562
        72  -9.8855    214.8347    151.1772   8.0374133860e+01   1.1900144393e+01    0.2240091    0.2006945 -15.31 0.0008246696    1.243    0.196
        73 -10.7611     33.1105    144.2176   1.2028081567e+02   4.1878458071e+01    0.2625019    0.2122955  68.12 0.0007432868    1.072    0.067
        74  -9.9805    133.3071    140.3549   9.4387817436e+01   2.8416657360e+01    0.2833078    0.2424342  -2.72 0.0008257556    1.319    0.242
        75 -12.2414     23.4603    135.8336   1.2207047946e+02   4.4608769216e+01    0.7618593    0.3775196  47.01  0.002154165    1.855    0.461
        76 -12.2400     29.8932    132.9783   1.2006961673e+02   4.4670525551e+01    0.3958181    0.2715456  79.95 0.0003190281    1.330    0.248
        77 -10.3412     80.2040    136.5552   1.0690775965e+02   3.7914689180e+01    0.3804409    0.3197143  -7.88  0.002223665    1.575    0.365
        78 -10.1333     47.4239    135.4197   1.1555805998e+02   4.2340807998e+01    0.4176595    0.1597639 -64.67  0.001381151    2.376    0.579
        79  -9.1756     44.1554    133.1867   1.1618340639e+02   4.3197536481e+01    0.2344975    0.1424237  52.94 0.0007748266    1.586    0.369
        80  -9.0086     40.4873    137.9883   1.1772150297e+02   4.2511801474e+01    0.1760998   0.08830367  76.64 0.0008080578    2.380    0.580
        81  -9.0239    216.6158    135.1869   7.6725427209e+01   1.3679737510e+01    0.1805179    0.1117027 -15.32 0.0006222428    1.615    0.381
        82 -10.3387     92.7334    128.9164   1.0225868602e+02   3.7671941466e+01    0.3130769     0.254617  77.77  0.001762619    1.342    0.255
        83  -9.1703     87.3074    135.3221   1.0483336904e+02   3.7135066543e+01    0.1297758    0.1043964 -21.03 0.0007034157    1.643    0.391
        84 -10.1878     68.1385    134.6411   1.0983461821e+02   3.9997560220e+01    0.2096998    0.1447242  55.46  0.000572576    1.427    0.299
        85  -9.7122    107.7753    145.9612   1.0149295064e+02   3.1716418734e+01    0.2170807    0.1792156  44.91 0.0004018455    1.133    0.117
        86 -10.0674     74.3178    132.7281   1.0786905934e+02   3.9581336207e+01    0.2661795    0.2232891  -4.84  0.001551896    1.581    0.367
        87  -9.7830     62.3912    131.5596   1.1094694809e+02   4.1426705800e+01    0.4006162    0.2036474 -45.79  0.001836392    2.373    0.579
        88 -10.3293     82.5591    125.1312   1.0432167626e+02   4.0066090252e+01    0.4270933    0.3152817   3.88  0.001724257    1.981    0.495
        89  -8.9322    223.8513    126.8198   7.3714623296e+01   1.3462625309e+01    0.1698176     0.145371 -33.20 0.0004530076    1.328    0.247
        90  -9.3909     22.9449    126.7704   1.2139844542e+02   4.6689199856e+01    0.1619415    0.1338674  69.58  0.001090392    1.091    0.083
        91 -11.1152      3.5556    122.4487   1.2649742041e+02   4.9112544202e+01     1.178312    0.1425179 -60.60  0.003754191    5.747    0.826
        92 -10.7230     17.3618    100.8757   1.2039831468e+02   5.3153782722e+01    0.5077847    0.3084785  18.44  0.001575645    2.018    0.504
        93 -11.7855      9.5377     97.3787   1.2259282272e+02   5.4525853584e+01     1.101386    0.5110959  83.75  0.005279649    2.208    0.547
        94 -11.9416      6.9927     88.6526   1.2253299991e+02   5.6753093724e+01      1.04387    0.5822796   7.23   0.00567405    2.416    0.586
        95 -11.5480     36.3170     92.7405   1.1283900222e+02   5.3452036811e+01     1.480452    0.8160945  71.25   0.00204259    2.393    0.582
        96 -12.2355     23.8972     94.7406   1.1742995602e+02   5.4101367137e+01    0.7900344    0.4104619  11.77  0.003006466    2.677    0.626
        97 -12.3650     18.3254     90.2426   1.1874381889e+02   5.5614717240e+01    0.5002086    0.3727344 -33.64 0.0004439718    1.605    0.377
        98 -11.6692      2.4685    112.1022   1.2609506236e+02   5.1533412900e+01    0.3318909    0.2125219 -87.26 0.0005706839    1.281    0.219
        99 -11.7277      3.8753    105.7421   1.2517887316e+02   5.2917482189e+01    0.5014988    0.3403246  72.06  0.002225179    1.328    0.247
       100 -11.0232     37.3593     85.8244   1.1122188269e+02   5.5003743004e+01    0.3067472    0.2726098  69.24 0.0009724175    1.171    0.146
       101 -11.9926     43.4217     85.1090   1.0889158048e+02   5.4530419174e+01    0.5956747    0.4220376  15.49  0.001957965    1.761    0.432
       102 -13.3248     24.2472    109.5114   1.1920464784e+02   5.0569308291e+01     1.382704    0.9950736 -45.09  0.008366836    1.581    0.367
       103 -12.2802     18.7456    106.2209   1.2055725142e+02   5.1786772983e+01     0.283734    0.2467023 -64.88 0.0002702229    1.180    0.152
       104 -10.8029     55.7243    123.3328   1.1160929848e+02   4.4113669258e+01    0.4831662      0.36462   6.35  0.002078454    1.818    0.450
       105 -10.9740     45.8194    120.6108   1.1409868369e+02   4.5882930166e+01    0.5999287    0.3235542  78.78  0.002393651    2.347    0.574
       106 -10.3315     18.5623    124.2533   1.2240518589e+02   4.7622451992e+01    0.3084984    0.1618741 -67.57  0.001697591    1.690    0.408
       107 -11.8033    104.2687    122.0096   9.7828926446e+01   3.7238434322e+01     0.429949    0.4063227  41.38   0.00104011    1.058    0.055
       108 -11.0706     10.7530    127.2374   1.2483296833e+02   4.7542252974e+01    0.4761452    0.2228185 -62.99  0.001854902    1.984    0.496
       109 -10.7827     33.3867    119.5504   1.1762249404e+02   4.7405212323e+01    0.2993098    0.2438311  74.80 0.0006474861    1.120    0.107
       110  -9.0938    221.2214    120.4142   7.2687240028e+01   1.4785188733e+01    0.1662829     0.129034  57.09 0.0007128991    1.629    0.386
       111  -9.3411    148.0990    119.9317   8.6563748567e+01   2.9398611985e+01    0.2287955    0.1711686   2.12  0.000589561    1.683    0.406
       112 -10.2343    113.2345    115.9792   9.4153821538e+01   3.6907885217e+01    0.2667392    0.2000475  35.80 0.0002491705    1.354    0.261
       113 -10.6934    107.7615    112.1832   9.4741752272e+01   3.8700401328e+01    0.6811042    0.5086843 -87.14  0.003321945    1.802    0.445
       114 -11.0397    101.1474    109.5657   9.5951114521e+01   4.0441516013e+01     1.048556    0.4186553  28.03  0.003022855    4.903    0.796
       115  -9.9318    103.1188    106.0844   9.4586426425e+01   4.0838421997e+01    0.3201649    0.2721375  16.15 0.0004222795    1.349    0.258
       116  -9.5859     67.7778    114.1978   1.0656369465e+02   4.4653819582e+01    0.3401144    0.2164591  74.13  0.001614788    2.024    0.506
       117  -9.7028     66.8262    110.6238   1.0618680316e+02   4.5606037943e+01    0.3176374    0.1846285  39.03   0.00155816    1.747    0.428
       118 -11.0886    170.6314    110.3447   7.9378420852e+01   2.6440461748e+01    0.4661549    0.3888481  22.50  0.001734941    1.192    0.161
       119  -9.7369     48.9667    112.0826   1.1189410703e+02   4.7512288046e+01    0.2450989    0.1791869  38.18  0.001179522    1.430    0.301
       120 -10.6147     90.8704    103.2472   9.7423190386e+01   4.3598474099e+01    0.4487957    0.3616023  36.16  0.001596882    1.294    0.227
       121 -11.4200     79.6672    108.3610   1.0187628248e+02   4.4258346727e+01    0.6846993    0.4054638  40.67  0.002366513    1.710    0.415
       122  -9.9663     85.8737    103.9107   9.9054495197e+01   4.4279591875e+01    0.3131983    0.2101239 -43.45 0.0006306839    1.548    0.354
       123  -9.9420    120.2619    109.2408   9.0739761578e+01   3.6969997082e+01    0.2732342    0.2171348 -16.06 0.0007535586    1.517    0.341
       124 -10.5911    157.5995    106.3718   8.1114082780e+01   2.9877453471e+01     0.394682    0.2768869  -8.28  0.001379504    1.810    0.447
       125  -8.8971    161.8331    104.8730   7.9816968674e+01   2.9236523743e+01    0.1876131    0.1717782 -68.85 0.0003754211    1.300    0.231
       126  -9.4359     58.3359    108.0559   1.0831826355e+02   4.7322846754e+01    0.1927488    0.1498899 -71.87 0.0003682734    1.202    0.168
       127 -10.8501    143.6430    106.1143   8.4194984319e+01   3.2865887381e+01    0.3512873    0.2908874  52.66  0.001127151    1.261    0.207
       128 -11.9185    145.3609    100.4902   8.2325428233e+01   3.3547166771e+01     0.534841    0.4751358 -15.76  0.001211232    1.142    0.124
       129  -9.5329     46.4108    104.7972   1.1151598107e+02   4.9514427137e+01    0.3443722    0.1829168 -39.06  0.001540101    2.492    0.599
       130  -9.9652     57.7733    102.6841   1.0749944097e+02   4.8651385804e+01    0.3486142     0.213209 -61.64  0.001769671    1.503    0.335
       131 -10.4978     58.3094     97.4101   1.0628720736e+02   4.9820890995e+01    0.4162107    0.3168627  37.80  0.002338637    1.399    0.285
       132  -9.5113     61.0000    101.0136   1.0614014274e+02   4.8623596805e+01    0.2433767    0.1687376 -64.42 0.0005319364    1.346    0.257
       133 -10.1802     64.3046     99.1890   1.0470604388e+02   4.8604323284e+01    0.2683158    0.2315006  21.00 0.0005723254    1.335    0.251
       134 -10.5475     68.7932     95.4720   1.0245109099e+02   4.8835262127e+01     0.392408     0.329006  27.72  0.001581936    1.328    0.247
       135  -9.4180     82.0184    102.7929   9.9959166086e+01   4.5150873509e+01    0.2056794    0.1843048 -24.43 0.0005393456    1.262    0.208
       136 -10.7661     51.6655     97.1843   1.0843747341e+02   5.0704867046e+01      1.00852    0.2708123 -64.38  0.003343311    3.592    0.722
       137  -9.9844     48.1409     90.3037   1.0827972380e+02   5.2755515846e+01    0.3581527    0.1738977 -52.52  0.001638801    1.890    0.471
       138  -9.3409    120.8175    101.4092   8.8627844829e+01   3.8452025546e+01    0.2089362    0.1368611  31.89   0.00094236    1.701    0.412
       139 -12.4540     77.8585     97.0352   9.9920302519e+01   4.7112066908e+01     0.567306    0.3278181 -58.24 0.0003915646    1.678    0.404
       140 -10.9692     82.2983     93.4407   9.7663158241e+01   4.7216558108e+01    0.5159087    0.3492306  55.25   0.00148348    1.671    0.401
       141  -9.8702    210.4762     97.9311   6.9006023610e+01   1.9948483425e+01    0.2589477    0.2416817  35.99   0.00083774    1.178    0.151
       142 -10.1481    117.4882     93.0232   8.7272538526e+01   4.0822410612e+01    0.4633228    0.3199232  36.72  0.002182535    1.517    0.341
       143 -10.3446    120.8153     89.2193   8.5317052825e+01   4.0906383904e+01    0.4341398    0.2731511  45.28  0.001964833    1.610    0.379
       144 -10.8016    120.3716     85.3190   8.4309307676e+01   4.1774476785e+01    0.4522486     0.339647  63.34  0.002173751    1.568    0.362
       145 -10.2347    126.0476     93.4781   8.5142756568e+01   3.8972625173e+01    0.3515542    0.3163802  39.57  0.001185417    1.117    0.105
       146 -10.3921    122.4906     93.5434   8.6085750799e+01   3.9696712478e+01    0.3113579    0.2692129 -35.88   0.00103166    1.150    0.131
       147 -10.7311    153.4000     91.7734   7.8121363156e+01   3.3367406403e+01    0.5939944    0.3547497  53.48  0.002603275    1.769    0.435
       148  -9.3947    138.0353     93.2510   8.2087859750e+01   3.6470405995e+01    0.3728267    0.2303858  22.62  0.001494243    2.321    0.569
       149 -12.6799    101.9166     90.1982   9.0865480437e+01   4.4462146573e+01    0.4409451    0.3850501 -18.06 0.0004759401    1.265    0.209
       150 -10.2330    104.8596     76.6201   8.6040499648e+01   4.6725665886e+01    0.4616365    0.4343191 -53.72  0.002567613    1.075    0.070
       151 -10.9482    113.3333     84.4372   8.5970879483e+01   4.3411467224e+01    0.6725076    0.3615787 -35.54    0.0020746    1.998    0.500
       152 -11.0918    108.8560     80.9262   8.6193104938e+01   4.5037973185e+01    0.4730622    0.3557791  -9.40  0.001563697    1.741    0.426
       153 -10.9388     89.5282     90.2320   9.4593826869e+01   4.6709337246e+01    0.5841753    0.2792172 -45.62  0.002390896    2.053    0.513
       154  -9.1191     92.7059     85.6770   9.2379261574e+01   4.7141429358e+01    0.2211057    0.1501456  36.67 0.0006140532    1.563    0.360
       155  -8.8177    246.3221     90.3008   6.2041669749e+01   1.3822042234e+01    0.1326282   0.08936203  12.68 0.0003692532    1.629    0.386
       156  -9.7310     66.9211     88.4627   1.0144028767e+02   5.0730031708e+01    0.2689123     0.205003 -29.47     0.001097    1.548    0.354
       157  -9.0545    211.3335     88.3062   6.6413242205e+01   2.1089200871e+01    0.1460191     0.100529  16.17 0.0003824265    1.666    0.400
       158  -9.1443    200.2798     88.0452   6.8104223484e+01   2.3505103191e+01    0.2074922    0.1773099 -17.56 0.0008358153    1.079    0.073
       159 -10.4290    183.5194     85.4937   7.0309762448e+01   2.7607387137e+01    0.6826671    0.2840608 -42.66  0.002520481    2.559    0.609
       160  -8.4177    135.3177     86.3197   8.0772959793e+01   3.8364854057e+01    0.1544937    0.1174398   7.25 0.0007041584    1.661    0.398
       161 -10.1800     65.8955     74.3400   9.8127483877e+01   5.4129084339e+01    0.3146805    0.2695034  12.62  0.001182918    1.350    0.259
       162  -9.8446     60.4743     83.3967   1.0242853943e+02   5.2818013527e+01    0.2691574    0.2461638  89.52 0.0009283383    1.120    0.107
       163 -13.0043     52.5802     73.7463   1.0287687216e+02   5.6122159147e+01    0.5479747    0.2940363 -62.18 0.0009836103    1.760    0.432
       164 -10.6627     46.9763     74.4763   1.0518744410e+02   5.6645946565e+01    0.3432139    0.2169759 -65.42 0.0003075626    1.472    0.321
       165 -10.6679     67.0543     81.8933   9.9756201866e+01   5.2227412063e+01    0.4352898    0.3682893  15.94  0.002452927    1.375    0.273
       166 -10.9032     79.6467     83.3179   9.5885594574e+01   4.9928686448e+01    0.6150177    0.5220584 -88.48  0.003361401    1.338    0.252
       167 -11.4249     73.7518     77.7859   9.6335526170e+01   5.2131034657e+01     0.630564     0.510335 -22.25  0.003377021    1.431    0.301
       168 -10.3878    165.7147     83.6944   7.3215441618e+01   3.1955298502e+01    0.3944637    0.3310237 -75.54  0.001670991    1.518    0.341
       169 -11.2121    143.0747     83.9232   7.8212175479e+01   3.7080656097e+01    0.3855951    0.3281028 -53.15  0.001172412    1.271    0.213
       170 -10.4918    127.5193     82.8991   8.1719627144e+01   4.0717750566e+01    0.4334241    0.2757649 -38.28  0.001950601    1.551    0.355
       171  -9.8585    127.1011     77.1782   8.0083552354e+01   4.1896991671e+01    0.2940112    0.2656092  64.59  0.001559663    1.207    0.172
       172 -11.9494     14.0985     74.7791   1.1807280136e+02   5.9625269465e+01    0.5095962    0.4019878 -59.68  0.001821947    1.146    0.127
       173 -10.0746     14.4307     67.3461   1.1671031196e+02   6.1386731368e+01    0.3092182    0.2790086 -23.46   0.00157419    1.292    0.226
       174  -9.3632    170.5119     77.9651   7.0601882287e+01   3.1766573081e+01    0.2237556    0.2030232  42.23 0.0005143538    1.126    0.112
       175 -10.4474     94.0453     76.3731   8.9249241413e+01   4.8890705453e+01    0.4813195    0.3427812  29.67  0.001605823    1.591    0.372
       176 -10.1482    142.8485    249.1951   1.0788292416e+02   1.0315581665e+01     0.159558    0.1125184  43.47 0.0008128296    1.221    0.181
       177 -10.0413     85.8640     67.7320   8.9167742403e+01   5.2245275268e+01    0.3381986    0.2441747  64.91  0.001047828    1.804    0.446
       178 -10.2247     98.8794     61.6577   8.2916891507e+01   5.0946372081e+01    0.5067759    0.3132031 -13.77  0.001839523    2.643    0.622
       179 -11.5831     85.7364     73.8230   9.1135239643e+01   5.0968175333e+01    0.6625185    0.5377583  53.63  0.003214859    1.349    0.259
       180 -10.6847     79.2020     67.5440   9.1371580520e+01   5.3479423483e+01    0.5496158      0.46846  81.07  0.002512837    1.428    0.300
       181 -10.9543     91.3341     62.9136   8.5748905954e+01   5.2207131169e+01    0.3777052    0.3565204  40.60  0.001003481    1.115    0.103
       182 -11.7817     89.0789     57.7832   8.4681691154e+01   5.3680001336e+01    0.7638459    0.6549823  -7.86  0.003376537    1.267    0.211
       183  -8.5574     38.3268     78.6572   1.0942759051e+02   5.6619448225e+01    0.1376982   0.09469464  73.05 0.0007051048    1.740    0.425
       184 -11.7393      1.9944     71.5372   1.2239535870e+02   6.1106003700e+01    0.6097482    0.1590777 -72.48  0.002434974    2.839    0.648
       185 -12.5906      6.4235     62.3039   1.1924880239e+02   6.3081500512e+01    0.7915004    0.4601758 -39.39  0.003726999    1.818    0.450
       186 -10.0938    242.1068     75.6155   5.8998413850e+01   1.6363181000e+01    0.2380038    0.1565329 -32.62 0.0006288298    1.347    0.258
       187 -12.0462    186.5354     70.5274   6.5531717422e+01   2.9132635264e+01    0.9032067    0.6153719 -28.41   0.00329044    1.385    0.278
       188  -9.7440    184.4047     61.7371   6.3291389153e+01   3.0882687913e+01    0.2919427    0.2346348  -8.49 0.0008645194    1.269    0.212
       189 -11.8136     40.7749     70.5781   1.0664871066e+02   5.8278460276e+01    0.5163954    0.2912953 -55.12  0.002356775    1.532    0.347
       190 -11.3786     32.3477     72.1676   1.1035999016e+02   5.8768916581e+01    0.5432642     0.313304  27.26  0.002366364    1.977    0.494
       191  -8.9872    151.1687     73.6152   7.3262474485e+01   3.7017855313e+01     0.221736    0.1344822  41.39 0.0009462333    1.720    0.419
       192 -10.0364    123.6988     72.9730   7.9640068881e+01   4.3442583209e+01    0.3991316    0.3097055  84.06  0.001425434    1.763    0.433
       193 -11.4799    123.8498     68.1579   7.8032425920e+01   4.4304344019e+01    0.7717738    0.4731795  31.32  0.002779145    1.991    0.498
       194 -10.6882    120.2989     68.6787   7.9143056653e+01   4.5003070433e+01    0.3159836    0.2716427  72.26 0.0006519485    1.350    0.259
       195  -9.8214    161.8604     70.7362   7.0136509101e+01   3.4955542318e+01    0.3070188    0.2698619 -81.65  0.001100537    1.359    0.264
       196  -9.9534    172.3282     68.3337   6.7386916038e+01   3.2824761106e+01    0.4397961    0.2857489  15.64  0.001577161    2.084    0.520
       197 -10.0928    172.0000     65.2727   6.6513534055e+01   3.3362387806e+01    0.4406529    0.4084674   8.80  0.002425666    1.070    0.065
       198  -9.3305    115.5739     69.2398   8.0613356804e+01   4.5937090720e+01    0.2102333    0.1424519 -28.60 0.0007304097    1.564    0.361
       199 -11.4316    220.1376     66.2963   5.9350065465e+01   2.2059230415e+01    0.6430414    0.3733073  51.40  0.002420954    1.825    0.452
       200  -9.1107    208.2838     68.5577   6.1588207738e+01   2.4398196790e+01    0.1943244    0.1279503  44.19 0.0009502181    1.599    0.375
       201 -10.2086     53.3139     49.4527   9.5154032454e+01   6.1520189083e+01    0.4980777    0.3424177  81.70   0.00223817    2.592    0.614
       202 -10.6065     58.2241     62.5270   9.7515400420e+01   5.7929293403e+01    0.6803902    0.5085902  89.58  0.003458608    1.809    0.447
       203 -10.7426     33.9705     42.7137   1.0157229526e+02   6.5449622992e+01    0.7527856    0.4060208 -31.54  0.003481373    2.201    0.546
       204 -10.8218     22.8881     37.0557   1.0524707484e+02   6.7820845946e+01    0.4633056    0.2980666  58.11  0.001537667    2.248    0.555
       205  -9.7279    175.0300    246.6976   1.0224549453e+02   6.4539280031e+00    0.1573146    0.1038908  31.17 0.0009226433    1.090    0.083
       206 -11.7677     21.0906     47.1230   1.0922966215e+02   6.5680283688e+01    0.5824754    0.4932482 -15.71   0.00231239    1.322    0.244
       207 -11.4540     40.0297     56.4398   1.0317222215e+02   6.1664138559e+01    0.6623935    0.4178245  64.25   0.00310672    2.361    0.577
       208 -11.5546     32.9230     58.8007   1.0692668438e+02   6.1878194822e+01      0.62638    0.3532212   3.39 0.0003596335    2.721    0.633
       209 -11.6159     27.0684     54.2305   1.0832709856e+02   6.3507804067e+01    0.8643506    0.4652337 -37.43   0.00362542    2.004    0.501
       210 -11.0492     20.4873     54.8301   1.1148994542e+02   6.3926219215e+01    0.4092954    0.3050739   4.77  0.001450789    1.640    0.390
       211 -11.3087     50.9883     61.2505   1.0000851141e+02   5.9214438565e+01    0.3474872     0.290121  52.79  0.001049405    1.372    0.271
       212 -11.4407     46.0883     58.1553   1.0109665057e+02   6.0547816965e+01    0.4661409    0.3139448 -53.86  0.001366435    1.305    0.234
       213 -10.6173     21.3386     65.5578   1.1347985669e+02   6.1310721906e+01    0.2962646    0.2039301  70.97 0.0008309608    1.692    0.409
       214 -10.4444     25.9626     65.2752   1.1147341903e+02   6.0996361877e+01    0.2242403    0.1817773 -60.96 0.0003618049    1.053    0.051
       215 -10.0343    192.5765     65.6430   6.3128707087e+01   2.8401513761e+01    0.2838126    0.2385512 -59.56  0.000744106    1.356    0.263
       216 -10.5107     58.1187     77.8564   1.0188494146e+02   5.4430849331e+01    0.3691273    0.2704527 -72.16 0.0006091461    1.411    0.291
       217 -10.0449    106.4414     63.5159   8.1282828992e+01   4.9002522432e+01      0.33044    0.2595373 -25.28  0.001480433    1.318    0.242
       218  -9.6028    197.7701     62.8392   6.1520639284e+01   2.7564165389e+01    0.2697996    0.1875188 -71.59  0.001242382    2.013    0.503
       219 -10.7211    159.5056     61.7295   6.7774547429e+01   3.6934233362e+01    0.5638642    0.3940511  15.71  0.002515676    1.802    0.445
       220 -10.2452    162.4400     43.8744   6.1326869295e+01   3.8779925695e+01     0.600085    0.4040926 -15.75  0.002758252    1.567    0.362
       221 -11.4663    155.9952     41.9532   6.1820681663e+01   4.0679644347e+01    0.4900263     0.373849 -33.87 0.0009668061    1.277    0.217
       222 -11.0997    153.1002     36.0841   6.0273973922e+01   4.2198381126e+01     0.332656    0.2824348 -40.74 0.0004046715    1.185    0.156
       223 -11.1407    157.5138     55.2676   6.6057993984e+01   3.8402630562e+01    0.5593061    0.5228609 -69.85  0.003040062    1.172    0.147
       224 -10.6859    155.3593     49.4349   6.4516713943e+01   3.9795247345e+01    0.4640487    0.3184197  -5.31 0.0007168703    1.728    0.421
       225  -9.8790    146.2792     62.0195   7.0618139496e+01   4.0105886111e+01    0.4590851    0.3016033  21.15  0.001926188    2.021    0.505
       226 -11.4193    120.5445     57.3737   7.5192762173e+01   4.6998896866e+01     1.254745    0.8384796  55.40  0.005744235    1.586    0.369
       227 -10.7172    109.3233     42.6064   7.2647625456e+01   5.2107150322e+01    0.4026527    0.2964256 -25.67  0.001382976    1.349    0.259
       228 -11.1429    113.2303     49.6969   7.4332974972e+01   5.0016477191e+01    0.6882138    0.3834499  34.31  0.002500267    2.174    0.540
       229 -12.8543    116.9399     41.9892   7.0359389377e+01   5.0415615630e+01     1.051314    0.7452211 -84.40   0.00455161    2.168    0.539
       230 -12.6865    119.9224     38.3104   6.8144344266e+01   5.0263181281e+01    0.8217696    0.6421055  83.67  0.002255927    1.615    0.381
       231 -10.8465    140.2388     43.0162   6.5297740199e+01   4.4528509657e+01    0.8840021    0.4556648  31.92  0.002968035    2.677    0.626
       232 -10.8956    136.2551     55.4856   7.0647906745e+01   4.3595117396e+01    0.9598143    0.8358955  17.25   0.00461757    1.205    0.170
       233 -11.4628    146.1511     47.2884   6.5602562187e+01   4.2419965150e+01    0.8642996    0.3849984 -24.77  0.003148356    2.392    0.582
       234 -10.7081    146.1690     43.1542   6.4127295024e+01   4.3011885587e+01    0.3824821      0.29821  57.21 0.0006873477    1.303    0.232
       235  -9.8332    104.5439     57.4925   7.9712630797e+01   5.0553145124e+01    0.4215776    0.2898009   8.08   0.00179492    2.138    0.532
       236  -9.2994      1.9635     56.4173   1.2026797772e+02   6.4709819133e+01    0.1878674    0.1334348 -71.71 0.0004592208    1.129    0.115
       237  -9.8233    188.0121     55.4890   6.0837687186e+01   3.0863599364e+01    0.2686229    0.2281235  27.04 0.0007154896    1.234    0.190
       238  -9.7765    234.2766     44.9978   5.2053183022e+01   2.1469390701e+01    0.3019578    0.1943399 -44.66   0.00122668    1.503    0.335
       239 -10.7430    231.5247     39.2346   5.0805245137e+01   2.2688388620e+01    0.5799804    0.2888825 -56.18  0.001707615    2.505    0.601
       240 -11.4804    240.3898     50.3502   5.2820564822e+01   1.9588796850e+01    0.5573486    0.3870782  86.76  0.003039277    1.882    0.469
       241  -9.8899     67.0364     54.6325   9.1449956249e+01   5.8302598594e+01    0.2728029    0.1888831 -61.75 0.0008165902    1.618    0.382
       242 -10.9384    127.4889    241.5153   1.0976744505e+02   1.3217357490e+01    0.1866937    0.1433822  37.91  0.001284887    1.037    0.036
       243 -11.2740     57.2376     30.8660   8.5814939814e+01   6.4695646830e+01    0.4898511    0.3559256  -3.54  0.001750156    1.665    0.399
       244 -11.4436     48.0154     30.6800   8.9946383693e+01   6.6177405548e+01     0.672531    0.3121435  29.66  0.002740376    2.627    0.619
       245 -11.6431     60.6012     35.8408   8.6612406544e+01   6.3187787119e+01    0.4506084    0.2566776 -39.28   0.00159679    1.612    0.380
       246 -12.0845     60.2887     44.8874   9.0503947643e+01   6.1431546230e+01     1.021662    0.5270685 -51.42  0.004525177    1.887    0.470
       247 -10.0047     63.4668     40.4617   8.7398570311e+01   6.1804198524e+01    0.2304628    0.2238269  32.19 0.0005585343    1.156    0.135
       248 -10.3180    232.7692     77.1022   6.0524796257e+01   1.8061136871e+01    0.4907323     0.254215 -35.93   0.00233398    1.750    0.429
       249 -10.2911    211.3964     53.1953   5.6889146448e+01   2.5627885651e+01    0.3513362    0.2307417  78.69  0.001698546    1.917    0.478
       250 -10.4628    208.4990     46.6348   5.5392768278e+01   2.7085501721e+01    0.4291614    0.2270031 -73.91  0.001554753    3.493    0.714
       251 -11.1687    202.0887     47.3480   5.6415254448e+01   2.8513998988e+01    0.6689097    0.4258761 -43.79  0.003227265    1.560    0.359
       252 -10.7699    174.2223     48.1811   6.0751985530e+01   3.5231941918e+01    0.5500455    0.4245168  85.04  0.002343278    1.542    0.352
       253  -9.6787    176.4473     43.6943   5.8952727800e+01   3.5260040048e+01     0.291912    0.2421233 -78.72  0.001159987    1.389    0.280
       254 -10.3098     90.8692     47.4618   8.0183592477e+01   5.5307389840e+01      0.29194    0.2345336 -37.93 0.0002751822    1.189    0.159
       255  -9.6163      2.3647     48.7007   1.1874644279e+02   6.6516983650e+01    0.2492041    0.2170765  32.82  0.001735956    1.396    0.284
       256  -8.8456      2.6936     44.6775   1.1780222036e+02   6.7446962949e+01     0.241892    0.1223658 -33.31  0.001119541    2.167    0.539
       257  -9.6953      6.1618     43.2694   1.1573812968e+02   6.7598331722e+01    0.4853875    0.2419139 -87.06  0.002298411    2.339    0.572
       258  -9.9589     14.4588     46.0229   1.1220790742e+02   6.6439731993e+01    0.4162997    0.1546718 -40.44  0.001731091    2.857    0.650
       259 -10.2976     17.4704     41.8078   1.0955147997e+02   6.7194924233e+01    0.6056529    0.2367563 -35.45  0.002417509    3.212    0.689
       260  -9.2524    193.4615     45.9790   5.7168575933e+01   3.0758406073e+01    0.2628987     0.168837 -75.95 0.0008851585    2.182    0.542
       261  -9.0817    132.1722     45.5837   6.8021473510e+01   4.6156406590e+01    0.2212962     0.133752  43.98 0.0006162353    1.694    0.410
       262 -10.8247     97.5326     41.5239   7.5656627639e+01   5.4947786326e+01    0.6905028    0.4493083  85.43   0.00240783    3.103    0.678
       263 -10.6792    189.1834     41.2252   5.6306601284e+01   3.2388213259e+01    0.5740117    0.2563137 -18.64  0.001165854    2.410    0.585
       264  -9.3500    193.5576     39.1249   5.5074571544e+01   3.1559608846e+01     0.234613    0.1869745  47.60 0.0002853067    1.311    0.237
       265  -9.6275     86.4771     30.9295   7.4590020471e+01   5.9106446298e+01    0.5894644     0.230757 -24.88  0.001889079    3.506    0.715
       266 -10.3471     80.9961     39.6481   8.0342685346e+01   5.8736874914e+01    0.6138286    0.4401707  43.58    0.0030809    1.465    0.317
       267 -10.7066     77.5061     34.2443   7.9229845196e+01   6.0391829139e+01    0.4381935    0.2894594  48.67 0.0009542471    1.637    0.389
       268 -10.5073     81.7821     31.3368   7.6377317921e+01   6.0025291844e+01    0.4504207    0.2894402 -53.51   0.00205142    1.946    0.486
       269 -11.6535    176.5678     34.9745   5.6100902416e+01   3.6306784309e+01    0.9195738    0.6885667  78.44  0.003885749    1.476    0.323
       270  -9.4413    199.0343    244.5227   9.8101671101e+01   3.5908993842e+00    0.1644258   0.07576323  35.77  0.001038558    1.615    0.381
       271 -10.0696    176.7383     29.9097   5.4412233181e+01   3.6852028907e+01    0.3962016    0.2406289  58.29  0.001774127    1.641    0.391
       272  -9.1912    163.2471    243.4238   1.0383215910e+02   8.3396522348e+00    0.1527211   0.07498735  42.31 0.0009498631    1.668    0.401
       273  -9.9270    206.8456     36.8873   5.2775752628e+01   2.8596667571e+01    0.2317223    0.2213464 -16.06 0.0006968701    1.041    0.039
       274  -9.5135    133.0960     36.8554   6.4516792203e+01   4.7206256325e+01    0.4050819    0.2553678 -81.37  0.001562752    2.638    0.621
       275 -10.8711    138.6030     32.7807   6.1804590975e+01   4.6358837432e+01    0.5331784    0.4597917  85.93  0.002047961    1.301    0.231
       276 -10.5771     92.4836     41.3167   7.7160133007e+01   5.6075225996e+01    0.4378064    0.3086043  43.02  0.001594627    1.461    0.315
       277  -9.4207     68.2178    240.5704   1.2012367756e+02   2.0502828583e+01    0.1371604   0.08091033  30.28 0.0009465537    1.635    0.388
       278 -10.2538    150.5869    237.2156   1.0530107066e+02   1.0730009039e+01    0.2000232    0.1462621  -9.05  0.001449542    1.783    0.439
       279 -10.3134    144.0933    235.6559   1.0626141312e+02   1.1784150216e+01    0.3070275    0.1059467  43.63  0.001556439    2.389    0.581
       280  -9.6300    167.5048    237.5103   1.0243355290e+02   8.4429989772e+00    0.1081445    0.0795047  29.50 0.0008105889    1.001    0.001
       281 -10.7281    198.4881    232.4866   9.6645755382e+01   4.8559047217e+00    0.3317622    0.2019889  30.48  0.002335135    1.224    0.183
       282  -9.8619     15.0485    233.6320   1.2904178608e+02   2.6865705213e+01    0.1724976    0.1190051  78.39  0.001032591    1.320    0.242
       283  -9.5534     23.6577    231.8599   1.2749542393e+02   2.6365431843e+01    0.1369939   0.09322532  61.65  0.001125314    1.110    0.099
       284  -9.7239    247.4019    231.2785   8.8909929790e+01  -1.2559265460e+00    0.1174183   0.08385393 -17.42 0.0005594555    1.550    0.355
       285 -10.4888    242.5699    231.1492   8.9601717631e+01  -6.5856212452e-01    0.2168838    0.1030674  45.24  0.001246064    2.820    0.645
       286  -9.5202    108.3583    230.1930   1.1210892177e+02   1.7192786646e+01    0.1275272   0.09775656 -88.71   0.00071109    1.689    0.408
       287  -9.3750    181.3108    228.3198   9.8954497966e+01   7.6151534639e+00    0.1101796   0.06921616  13.52 0.0006139145    1.645    0.392
       288 -11.8155    115.0851     24.9242   6.3761267337e+01   5.3336093671e+01    0.5143163    0.2817381  50.75  0.001278215    1.766    0.434
       289  -9.1441     10.9985     35.4973   1.1117465085e+02   6.9102583168e+01    0.1663045   0.08841693  48.59 0.0008105687    2.563    0.610
       290  -9.7582    248.9730     33.4842   4.7757214292e+01   1.9573807907e+01    0.2673473       0.1417 -36.94  0.001374312    1.586    0.370
       291 -10.0802    234.3206    222.9167   8.9645804668e+01   1.0961878528e+00    0.1485629    0.1052475  10.02 0.0006069587    1.079    0.074
       292 -11.4672    153.9633     25.3753   5.6250421495e+01   4.3281024355e+01     1.502964    0.4401822  61.47  0.004911696    3.094    0.677
       293 -10.2401    157.4601     20.3120   5.3861493379e+01   4.2923599467e+01    0.5079342    0.2543443  62.94  0.002035447    1.933    0.483
       294  -9.3295      9.8673    217.8275   1.2944620523e+02   2.9845376840e+01    0.1433038   0.08055293  59.87 0.0007684433    1.306    0.234
       295 -10.4005    165.4870    212.5579   9.9633553484e+01   1.1734549852e+01    0.2360824    0.1533323  50.54 0.0008821583    1.724    0.420
       296  -9.1906    204.5126    208.4929   9.2247654057e+01   6.5849814140e+00    0.1146842   0.08666207  19.18 -9.296726e-05    1.003    0.003
       297  -9.6473    153.0620    207.8684   1.0128175643e+02   1.4168273106e+01    0.1775651      0.13848  47.24  0.001154557    1.295    0.228
       298  -9.5028     60.9929    206.9758   1.1917328730e+02   2.6616544254e+01    0.1675034    0.1272447  55.19 0.0004606553    1.039    0.037
       299 -10.2733     68.3025     33.0345   8.2188658304e+01   6.2361929268e+01     0.421939     0.329746  35.02  0.002302806    1.348    0.258
       300  -9.5894    238.5256    204.4994   8.6172571147e+01   2.2743216846e+00    0.2082251   0.09537386 -25.75  0.001218902    2.199    0.545
       301  -9.6404    221.6912     29.6350   4.9155798041e+01   2.5900272267e+01    0.2829683    0.1709038 -17.42 0.0008418325    1.601    0.375
       302 -10.4566    189.1662     28.2937   5.2276754850e+01   3.3876793351e+01    0.5161652    0.2993414   0.60  0.002178622    2.213    0.548
       303 -11.7580    124.5260     27.8824   6.2832403148e+01   5.0586328184e+01    0.6694325    0.4672436  45.28  0.001795861    1.419    0.295
       304  -9.2043     36.1503     31.4142   9.6149712021e+01   6.7633449163e+01    0.1755289    0.1200883  45.28 0.0009436112    1.816    0.449
       305  -9.2665    148.5188     31.9483   5.9600036775e+01   4.3909328406e+01    0.2195998    0.1453902 -23.28 0.0004293593    1.501    0.334
       306 -10.2752     98.5735     27.9034   6.9444025260e+01   5.6883545054e+01    0.5169961     0.257483 -43.61  0.001128096    2.186    0.543
       307  -9.1699    234.7091     29.0640   4.7819723027e+01   2.3042462942e+01    0.1862115    0.1466192 -27.24  0.000462165    1.117    0.105
       308 -10.2161    230.6877     27.3739   4.7719888028e+01   2.4098129140e+01    0.4048061    0.1920608 -30.07  0.001447053    1.771    0.435
       309  -9.3470     41.1933     28.0668   9.2093024005e+01   6.7662494285e+01    0.3618801    0.1352484 -36.67  0.001161502    2.991    0.666
       310  -9.3192    216.3604     32.2812   5.0421740380e+01   2.6855332124e+01     0.260056    0.1641841   1.40  0.001229281    1.903    0.475
       311  -9.9502    250.5537     26.5958   4.5914424777e+01   1.9923285516e+01    0.2598252    0.1059905 -23.97 0.0006033309    2.063    0.515
       312 -10.7165    214.5287     23.3964   4.8086757474e+01   2.8197655734e+01    0.4764293    0.3327202   1.15  0.002469787    1.620    0.383
       313  -8.4810    206.2490     25.6304   4.9548319194e+01   2.9947116006e+01    0.1482356   0.09015273 -47.38 0.0003810496    1.627    0.385
       314 -10.0042    161.5290     23.4641   5.4386392502e+01   4.1514848742e+01    0.2436047    0.2124853  66.19 1.930601e-05    1.160    0.138
       315 -11.1043      4.8213    203.3745   1.2991513940e+02   3.2723847762e+01     0.451252    0.1144096 -69.50  0.002230339    3.899    0.744
       316 -12.1600      4.7462    184.4391   1.2927921738e+02   3.6162161914e+01    0.5505664    0.3545497  60.21  0.003221929    1.183    0.154
       317  -9.2551     86.3871     23.5638   7.1149016149e+01   6.0266677025e+01    0.2132446    0.1717498  36.41 1.712659e-05    1.240    0.194
       318 -10.6242     83.3664     19.3135   7.0033490361e+01   6.1542520281e+01    0.6894067    0.2664077  53.98  0.002605553    2.675    0.626
       319  -8.7369    207.4518    201.4606   9.0667041792e+01   6.9483709948e+00    0.1163331   0.08828491  17.24 0.0002594797    1.019    0.019
       320 -10.8437    243.0221     22.1722   4.5364081851e+01   2.1920744171e+01    0.3548593    0.2004843  66.18  0.001476434    1.961    0.490
       321  -9.4753    223.0493     22.4853   4.7060252976e+01   2.6306124373e+01     0.228908    0.2052017 -30.03 0.0005754695    1.024    0.023
       322  -8.6820    220.6219     19.4446   4.6429934911e+01   2.7159771323e+01    0.2026128    0.1716226 -34.23 1.532164e-05    1.063    0.059
       323 -10.7102    245.3690    200.8931   8.4551809748e+01   1.7036218755e+00    0.1772118    0.1251629  29.12 0.0006842484    1.321    0.243
       324 -10.2959    234.3156    197.0612   8.5610725785e+01   3.5876376848e+00     0.339402    0.2072058  10.68   0.00163361    1.466    0.318
       325  -8.6954     83.7372    196.0045   1.1360516082e+02   2.5761049255e+01    0.1280174   0.09770519 -74.02 0.0005319499    1.469    0.319
       326  -8.4762    141.2847    194.6775   1.0173633829e+02   1.7830014026e+01    0.1136019   0.08706849  62.80 0.0002977194    1.596    0.374
       327  -9.9198    169.7773    191.5083   9.5785224850e+01   1.3896888603e+01    0.3027161    0.1610992  28.52  0.001003718    1.794    0.443
       328  -9.8853    239.8900    184.6485   8.2637139167e+01   4.0753194729e+00    0.1915171    0.1280864  -3.43 0.0005670724    1.294    0.227
       329 -10.3503    213.0899    182.2652   8.6527249244e+01   8.3251483696e+00    0.3112782    0.1970385 -27.96  0.001912067    1.639    0.390
       330 -10.0259    250.2376    179.7050   8.0204279162e+01   3.1118344207e+00    0.3004334    0.1310911 -18.03   0.00157142    2.304    0.566
       331 -10.3226     74.1122     19.6964   7.3439111972e+01   6.3450166138e+01    0.2833548    0.2194013  22.82 0.0007850764    1.333    0.250
       332  -9.4759     27.9275    176.3021   1.2395299622e+02   3.5725525333e+01    0.2094668      0.14879 -81.10  0.001463686    1.361    0.265
       333  -9.9995     51.9720    173.6127   1.1837537154e+02   3.3780335661e+01    0.3269161     0.156174  88.26  0.001602605    2.584    0.613
       334  -9.2938    230.0882    175.4978   8.2538076004e+01   6.5055955466e+00    0.1691708    0.1003748  34.94 0.0005580636    1.515    0.340
       335  -9.0528     57.3227    174.9915   1.1729020826e+02   3.2899931167e+01    0.1585317    0.1336607  75.65 0.0004676926    1.083    0.076
       336  -8.8979    196.3356    204.6985   9.3055816501e+01   8.1974936504e+00    0.1030536   0.08564544  51.42 0.0007035948    1.660    0.398
       337  -9.8367    247.5078    173.8865   7.9559955444e+01   4.0968566425e+00    0.3880778     0.121768  31.10  0.001571088    3.655    0.726
       338  -8.6112      1.4823     20.5607   1.1225333558e+02   7.3018162952e+01    0.1238183   0.09402248 -49.59 0.0002262293    1.059    0.056
       339 -10.2728    211.3213     18.7511   4.7055138933e+01   2.9413809938e+01    0.2299975    0.2129496   3.72 0.0002686543    1.141    0.124
       340  -9.8877    206.2974     18.1464   4.7345032612e+01   3.0680589719e+01     0.434727    0.2189614 -65.32  0.001787396    2.553    0.608
       341  -9.8126     39.4959    173.5081   1.2118578352e+02   3.5139348802e+01    0.2272795    0.1482395  67.39 0.0007509487    1.356    0.262
       342 -10.5525     35.3894    170.2506   1.2187093033e+02   3.6203028889e+01    0.3240715     0.190479  83.02  0.001964572    1.629    0.386
       343 -11.8207      9.5164    166.9211   1.2751486626e+02   3.9183839642e+01    0.4858451    0.3322377 -81.72  0.002605156    1.359    0.264
       344 -10.8642     13.9691    158.7234   1.2606336767e+02   4.0493398098e+01    0.3631545    0.2002354 -83.50   0.00165802    1.611    0.379
       345  -9.0305    197.8549    167.8832   8.6576759061e+01   1.2576565645e+01    0.1536796    0.1466377  -1.27 0.0008274916    1.302    0.232
       346  -9.8404     40.5150    164.4867   1.2023207739e+02   3.6850235752e+01    0.2711849    0.1014668 -70.87  0.001302933    2.548    0.608
       347  -9.9123    188.8792    164.2746   8.7535018388e+01   1.4584030893e+01    0.2371639    0.1722265 -13.09 0.0007977329    1.425    0.298
       348  -9.5963    220.0531     12.6141   4.4581835439e+01   2.7929212876e+01    0.2833129    0.1275404  75.11  0.001242886    2.404    0.584
       349 -10.3187     18.7480    164.8454   1.2531302591e+02   3.8838868099e+01    0.2464844    0.1627128  20.66   0.00159416    1.864    0.464
       350  -8.5955     94.4581     12.4425   6.3230987704e+01   5.9901347610e+01    0.1424546    0.1317429  13.28 0.0002139618    1.003    0.003
       351 -10.2485     28.0050    162.1298   1.2298809071e+02   3.8564490126e+01    0.3929175    0.2087188 -66.11  0.002299461    1.870    0.465
       352  -9.9338    204.9943    162.9926   8.4391954392e+01   1.2030493677e+01    0.2409558    0.1589664  29.46 0.0006068243    1.353    0.261
       353  -9.4602     79.2959    160.4133   1.1056595742e+02   3.3046536780e+01    0.2141794    0.1427424  82.93  0.001174139    1.758    0.431
       354 -10.1801    246.4408    158.7973   7.6881780379e+01   5.8650326902e+00     0.291629    0.1031088 -24.92  0.001313862    2.700    0.630
       355  -9.4999    215.4062    158.2546   8.1687429957e+01   1.0898499048e+01    0.2303868    0.1116603 -24.81  0.001123705    2.105    0.525
       356  -9.3755    224.1453    157.1107   8.0017420261e+01   9.5938398742e+00    0.1570565    0.1430785 -15.82 0.0007063508    1.335    0.251
       357 -10.5736    104.6905    154.3160   1.0362177258e+02   3.0553581623e+01      0.37781    0.3077616 -71.21  0.002275536    1.342    0.255
       358 -10.1613      8.9273    156.2228   1.2711011295e+02   4.1410534402e+01    0.2449618     0.134059 -75.16  0.001508888    1.671    0.402
       359 -12.3141     22.8352    149.3954   1.2331241710e+02   4.1705417642e+01    0.5822046    0.3689426 -46.05  0.001708918    2.067    0.516
       360 -10.6404     15.3529    147.8262   1.2506204483e+02   4.2671301684e+01    0.3444563    0.1945714  44.34  0.001389508    1.595    0.373
       361 -11.2214    240.5080     31.9299   4.8069208639e+01   2.1502456183e+01    0.5920604    0.4132786 -14.14  0.003343758    1.375    0.273
       362 -11.8481     12.9421    139.7439   1.2513398200e+02   4.4607880159e+01    0.8220222     0.391342 -89.96  0.004429914    1.898    0.473
       363 -10.8078     31.4641    152.9877   1.2145630809e+02   4.0149436906e+01    0.4325799    0.2677407  86.21  0.002614658    1.496    0.332
       364 -11.9349      3.6222    147.3762   1.2792322116e+02   4.3656577616e+01    0.6520237    0.3905096  85.57  0.004200098    1.389    0.280
       365 -11.0425      5.3532    141.9353   1.2720429711e+02   4.4695229817e+01    0.3056809    0.2168494  38.92  0.001200574    1.431    0.301
       366 -12.4765      4.0018    137.1398   1.2727810212e+02   4.5827871908e+01    0.2864597     0.206325 -73.03 0.0003939494    1.322    0.244
       367 -10.1538     72.0391    152.0358   1.1125025065e+02   3.5739455125e+01    0.5001279    0.1890263  51.05  0.002033195    2.860    0.650
       368 -11.1394     62.9969    150.0699   1.1326775542e+02   3.7311431548e+01    0.4257917    0.3451402  32.93  0.001911922    1.314    0.239
       369  -9.8080     47.7477    151.9554   1.1731457348e+02   3.8695580019e+01    0.2542243    0.2217048  10.76  0.001016132    1.478    0.324
