#   1 NUMBER                 Running object number                                     
#   2 MAG_AUTO               Kron-like elliptical aperture magnitude                    [mag]
#   3 X_IMAGE                Object position along x                                    [pixel]
#   4 Y_IMAGE                Object position along y                                    [pixel]
#   5 X_WORLD                Barycenter position along world x axis                     [deg]
#   6 Y_WORLD                Barycenter position along world y axis                     [deg]
#   7 A_WORLD                Profile RMS along major axis (world units)                 [deg]
#   8 B_WORLD                Profile RMS along minor axis (world units)                 [deg]
#   9 THETA_WORLD            Position angle (CCW/world-x)                               [deg]
#  10 FWHM_WORLD             FWHM assuming a gaussian core                              [deg]
#  11 ELONGATION             A_IMAGE/B_IMAGE                                           
#  12 ELLIPTICITY            1 - B_IMAGE/A_IMAGE                                       
         1 -14.9912     68.5375    144.1409   1.0518997195e+02   3.7255725181e+01     5.567825     2.863207  70.72  0.003425637    3.531    0.717
         2 -14.4931    198.2188     38.5688   4.6416091196e+01   3.0931852745e+01     1.772597     1.459614   6.12  0.005163111    1.586    0.369
         3 -14.6853    208.6560     27.6161   4.2288281429e+01   2.9811375268e+01     1.778244     1.311046  21.84  0.002239505    1.985    0.496
         4 -11.6181     22.2182     33.8064   9.3723556815e+01   6.7278637042e+01    0.3268811    0.1891138  33.88  0.001446879    2.124    0.529
         5 -13.1052    233.1709      3.5734   3.4355405742e+01   2.6904506645e+01    0.8260781     0.402234  75.67  0.004312766    1.931    0.482
         6 -10.4273     60.9761      7.6891   6.5069129140e+01   6.5870264357e+01    0.1737006    0.1392101  23.63 0.0004085044    1.095    0.087
         7 -11.9680    193.3716    195.4987   8.5423292505e+01   4.2290065360e+00     1.226592     0.613805 -59.58  0.004080927    4.765    0.790
         8 -11.8032    139.8799    248.1874   1.0419893346e+02   4.3492852145e+00    0.4193607    0.2646442 -61.83  0.002465302    2.058    0.514
         9 -14.3250     49.0144    220.9808   1.1887796289e+02   2.2311444080e+01     4.107865     1.111812  38.42   0.01757258    3.134    0.681
        10 -15.0089     50.6480    197.8028   1.1648310193e+02   2.6982512410e+01     2.738779     2.251415  52.42   0.01814696    1.226    0.184
        11 -16.7969      6.4925    208.1058   1.2602398208e+02   2.9490814182e+01     8.078703    0.8946428 -71.01   0.02826133    5.260    0.810
        12  -9.9669     71.1684    185.7036   1.1063333584e+02   2.7008910776e+01    0.2085624    0.1599831  87.49 0.0004064652    1.216    0.177
        13 -11.1722    109.0200    202.7185   1.0447983140e+02   1.7571040553e+01    0.2667748    0.2395714 -28.10   0.00162013    1.401    0.286
        14 -11.6704    144.8916    179.9301   9.2773726544e+01   1.6082218182e+01    0.5637441    0.3562948 -71.38  0.001984982    2.324    0.570
        15 -11.2057    139.4660    171.5963   9.2436780926e+01   1.8865876654e+01    0.4903754     0.332458  60.09  0.001891955    1.719    0.418
        16 -10.8274     99.0914    180.8921   1.0350437799e+02   2.3907047376e+01    0.3435146    0.2590526  23.19  0.001793583    1.639    0.390
        17  -9.9205    150.2284    178.8601   9.1376450895e+01   1.5306281974e+01    0.2875724    0.1989115 -63.11 0.0009066144    1.733    0.423
        18  -9.6934     40.8340    178.1136   1.1664662045e+02   3.2559182736e+01    0.1906609    0.1396917  76.76 0.0003349569    1.206    0.171
        19 -10.2041    204.5575    176.0441   7.9389361039e+01   5.6036573008e+00    0.2990487    0.2307778 -59.10  0.001151821    1.723    0.419
        20 -10.0012    196.8064    176.0057   8.0912048679e+01   7.0441350537e+00    0.2929154    0.2657106  54.95  0.001685587    1.298    0.230
        21 -12.1923     70.2238    175.3405   1.0950340206e+02   2.9524566263e+01    0.3924364     0.284795 -36.53  0.001885214    1.874    0.467
        22 -12.1348     74.4171    170.2216   1.0778434857e+02   3.0136581533e+01    0.3554086    0.2809555 -35.85  0.001059883    1.628    0.386
        23  -9.7798    188.3359    174.5117   8.2321233259e+01   8.9118079276e+00    0.2694863    0.2175861 -68.88  0.001059623    1.681    0.405
        24 -12.9686     54.9282    146.4437   1.0919411940e+02   3.8462473495e+01      2.28827    0.9174446 -46.47  0.008786495    2.936    0.659
        25 -11.2610    125.1273    244.7918   1.0659084625e+02   7.1623528537e+00    0.3469529    0.2021065 -69.94  0.001837671    2.344    0.573
        26  -9.1813     42.2322    167.3994   1.1515567597e+02   3.4900276268e+01    0.1696145    0.1080498  50.22 0.0005180084    1.559    0.358
        27  -9.2977    187.0000    165.9690   8.0813812622e+01   1.0783870134e+01    0.2398776   0.08110301 -42.09  0.000801927    2.939    0.660
        28 -13.1874     82.7403    161.3294   1.0436484484e+02   3.1027446996e+01     1.468804    0.5852607  57.26 0.0002661984    4.179    0.761
        29  -9.8106     32.2173    165.0900   1.1726970511e+02   3.6516255142e+01    0.2018714    0.1640398 -48.21  0.000537248    1.482    0.325
        30  -9.8999     36.5164    162.3557   1.1594700291e+02   3.6715438132e+01    0.2561198    0.2038685  -0.32  0.001532308    1.877    0.467
        31 -10.4129    158.0229    160.8789   8.6012940720e+01   1.7551456426e+01    0.3498464    0.2782293 -82.73 0.0009580984    1.660    0.398
        32  -9.2526     49.0413    160.7592   1.1270191350e+02   3.5698390118e+01     0.177887    0.1550256  88.52 0.0005176646    1.045    0.043
        33 -16.9752      8.5159    243.8835   1.2747327602e+02   2.2364544568e+01     9.505363      1.68169 -78.10   0.02098608    5.168    0.807
        34 -12.3115     89.6219    154.3562   1.0142563706e+02   3.1632942810e+01    0.6264441    0.4626471 -25.11  0.003027655    1.900    0.474
        35  -9.8160    188.4858    152.9692   7.7668943237e+01   1.3001261552e+01    0.2139342    0.1274708 -61.69 0.0008102888    2.623    0.619
        36 -11.3735    133.7291    144.7986   8.8271530901e+01   2.5938874346e+01     1.149702    0.3086775 -54.40  0.002841217    5.127    0.805
        37  -9.3382    112.5713    150.8045   9.4864261813e+01   2.8571235143e+01     0.203976    0.1406492 -68.20  0.000304766    1.585    0.369
        38 -13.8515     71.2410    156.3266   1.0647959476e+02   3.3908228446e+01     0.602936    0.5146107 -46.78   0.00221482    1.299    0.230
        39 -10.7356    174.4630    148.8016   7.9700182929e+01   1.6712487943e+01    0.3147288    0.2832192  74.69 0.0009171723    1.294    0.227
        40 -10.6451     40.2123    146.9160   1.1312349370e+02   4.0033434754e+01    0.2522787    0.2069932 -62.34 0.0007785236    1.176    0.150
        41 -10.6893     43.7222    143.9498   1.1179470989e+02   4.0375648946e+01    0.2168536     0.202145   9.08 0.0003506099    1.368    0.269
        42 -10.4275    143.8477    145.4004   8.5939278434e+01   2.3767651092e+01      0.35443    0.1771226 -60.55  0.001221883    2.764    0.638
        43 -11.0330    103.2880    139.5056   9.4950676853e+01   3.2917163842e+01    0.5671608     0.360753 -26.89  0.002304809    2.359    0.576
        44 -12.4529     90.6489    139.5866   9.8364331083e+01   3.5043140077e+01    0.2926884    0.2606376 -52.24 0.0005065762    1.113    0.101
        45 -12.4070     39.2807    123.7767   1.0995766943e+02   4.5788398540e+01    0.4739982    0.2835765  46.97  0.002444433    1.888    0.470
        46 -12.4261     44.4420    129.7859   1.0945388058e+02   4.3768914580e+01    0.4768484    0.3260349  77.28  0.001840082    1.658    0.397
        47 -11.1795     33.0273    130.8943   1.1283061013e+02   4.4667458020e+01    0.2863258     0.190596 -75.65  0.001009601    1.293    0.227
        48 -16.6064     39.2958    248.9621   1.2262343225e+02   1.8134676192e+01     9.891181     3.147955  28.10   0.02593245   11.919    0.916
        49 -10.4785    112.0415    130.1323   9.0534123151e+01   3.3556575466e+01    0.3261262    0.2720035  -1.50  0.001174271    1.509    0.337
        50 -10.8190    135.8586    128.2769   8.3885666849e+01   2.9256494299e+01    0.4984498    0.2051604 -49.41  0.001713653    2.430    0.588
        51 -10.1651    160.8658    128.0722   7.7812126818e+01   2.3948587858e+01    0.3697233    0.2636724 -61.53   0.00162854    1.652    0.395
        52 -11.0968     99.2621    126.2076   9.3128028242e+01   3.6819078991e+01    0.3115796    0.2603844 -21.30 0.0007490545    1.412    0.292
        53 -11.4712    119.2544    122.9549   8.6887026792e+01   3.3847042201e+01     0.669325    0.4036978 -17.88  0.002244225    3.341    0.701
        54 -10.7165    105.9523    130.7424   9.2318403385e+01   3.4537375218e+01    0.3592291    0.3141054 -78.73  0.001227349    1.190    0.160
        55 -10.5410    135.1185    119.8453   8.1963139855e+01   3.1306926921e+01    0.4902668   0.09791231 -47.36  0.001148845    5.058    0.802
        56  -9.9624    108.1145    119.0518   8.8961735136e+01   3.6906849367e+01    0.2165478    0.2090274 -52.51 0.0003351292    1.018    0.018
        57 -12.4324    202.6355    199.6935   8.4392434054e+01   1.9201865116e+00    0.6495076    0.3200676  30.38  0.002903518    2.115    0.527
        58 -10.0692     84.2320    173.8004   1.0594461150e+02   2.7857517746e+01     0.175901    0.1597442 -41.36 0.0003228014    1.309    0.236
        59  -9.7471    168.2522    113.1433   7.2329742361e+01   2.5415277427e+01    0.3603436     0.237002 -71.01  0.001235062    2.360    0.576
        60 -10.2245    134.8588    104.7644   7.8016365065e+01   3.4680732649e+01    0.5676054    0.2077219 -38.78   0.00178054    2.910    0.656
        61 -11.7725    117.9083    108.5043   8.3537844446e+01   3.7425662668e+01    0.8647691    0.6068642 -47.95   0.00397426    1.370    0.270
        62 -10.2282    205.3153    110.0674   6.4109218323e+01   1.7632939173e+01    0.3269871    0.2242215  47.08 0.0009458189    1.562    0.360
        63 -10.0439     47.7005    172.2462   1.1442469847e+02   3.3133145040e+01    0.4091076    0.1824869 -45.48   0.00167073    3.195    0.687
        64 -11.2681    132.3089    172.0615   9.4189154979e+01   2.0101593210e+01    0.5160666    0.2078992  37.92  0.001885851    2.534    0.605
        65 -10.0424    241.6702    102.3079   5.6338050870e+01   1.1281054007e+01    0.1419285    0.1006248 -62.90 0.0003863827    1.661    0.398
        66 -10.5306     33.1985    100.4623   1.0766903256e+02   5.2028597807e+01    0.3168053    0.2115175  53.97  0.001712025    1.863    0.463
        67 -11.0991     51.5383     92.1900   9.9745716732e+01   5.2053385815e+01    0.5435211     0.372896  44.52  0.002876815    1.728    0.421
        68  -9.6009     37.2744    167.9508   1.1638723007e+02   3.5314011014e+01    0.2651576    0.1121151  57.30  0.001139509    2.668    0.625
        69  -9.0365     75.5941     85.2140   8.9790078910e+01   5.0331999289e+01    0.1918065     0.123489 -39.79 0.0002160171    1.457    0.313
        70  -9.9213    157.9619     81.3222   6.5735607810e+01   3.4073834352e+01    0.2192017    0.2009028  51.75 0.0005919751    1.111    0.100
        71  -8.8947    184.3949     77.2689   5.9261487821e+01   2.8403192007e+01    0.1554935    0.1153688  26.03 0.0006982901    1.726    0.421
        72 -10.1639     58.7845     67.4744   9.0272560432e+01   5.6608180089e+01    0.2245333    0.2136706  52.46  0.000546584    1.300    0.230
        73 -11.4522     13.1593     59.6692   1.0589320928e+02   6.2855146634e+01    0.2704348    0.2316137  87.10 0.0006262597    1.508    0.337
        74 -10.8911    111.8009    197.5134   1.0312309678e+02   1.8204090656e+01    0.2857245    0.2738432 -35.98  0.001779682    1.226    0.184
        75 -11.5361    207.7119    194.0392   8.2347153776e+01   1.9778074145e+00    0.3545969    0.2527121  -6.37  0.001322613    1.534    0.348
        76  -9.0429     72.4886     53.9855   8.0674532436e+01   5.7181259140e+01    0.1727338    0.1192037 -63.39 0.0008030558    2.225    0.551
        77 -11.9083    146.3257     50.6446   5.8749271180e+01   4.2085761389e+01    0.5729258     0.367864 -79.93  0.002302805    2.530    0.605
        78 -13.7559    188.1970     46.0485   4.9875608532e+01   3.2368665666e+01      1.29805    0.7770792  42.93 0.0009584433    1.956    0.489
        79 -10.8970    147.9243     44.1200   5.6299908390e+01   4.2646199388e+01    0.2869097     0.261725 -78.11 0.0004207732    1.170    0.146
        80 -12.9038     16.6320    191.2240   1.2298264317e+02   3.2117746442e+01    0.2893975    0.2224572  61.23 0.0004769887    1.209    0.173
        81  -9.7326    189.6505     14.8889   4.1087192480e+01   3.5852367844e+01     0.221728    0.1706986  63.59  0.000672852    1.255    0.203
        82 -10.2137    113.6990    207.4926   1.0413891726e+02   1.5837403391e+01    0.2733596    0.1875539  76.60  0.001004543    1.775    0.437
