#   1 NUMBER                 Running object number                                     
#   2 MAG_AUTO               Kron-like elliptical aperture magnitude                    [mag]
#   3 X_IMAGE                Object position along x                                    [pixel]
#   4 Y_IMAGE                Object position along y                                    [pixel]
#   5 X_WORLD                Barycenter position along world x axis                     [deg]
#   6 Y_WORLD                Barycenter position along world y axis                     [deg]
#   7 A_WORLD                Profile RMS along major axis (world units)                 [deg]
#   8 B_WORLD                Profile RMS along minor axis (world units)                 [deg]
#   9 THETA_WORLD            Position angle (CCW/world-x)                               [deg]
#  10 FWHM_WORLD             FWHM assuming a gaussian core                              [deg]
#  11 ELONGATION             A_IMAGE/B_IMAGE                                           
#  12 ELLIPTICITY            1 - B_IMAGE/A_IMAGE                                       
         1 -17.3785    126.4227    154.1562   9.9580017054e+01   2.5625899519e+01     4.171375     3.516428  55.50   0.02283554    1.168    0.144
         2 -18.6606    194.2435    163.1858   8.6672510716e+01   1.0325121024e+01     7.719125     5.018825  26.44   0.03633757    1.673    0.402
         3 -17.3389    191.1711    115.2777   7.5935725279e+01   1.9723331892e+01     4.944559     2.367182  63.84   0.01575045    3.480    0.713
         4 -18.9663    178.8930    138.1443   8.4208105651e+01   1.8152854961e+01     8.163956     5.325951  65.67   0.03414233    2.130    0.531
         5 -17.4441    183.7986     91.6197   7.0992079549e+01   2.5827531062e+01     5.253534     4.486989 -69.43   0.02584787    1.364    0.267
         6 -16.4986    226.8232    125.2958   7.1737757203e+01   1.0011394724e+01     4.024506     2.310001 -16.16   0.01662985    2.139    0.532
         7 -11.1059     47.0732     24.2103   8.6261665476e+01   6.5685527225e+01    0.3237194    0.1626597 -22.61  0.001548293    2.127    0.530
         8 -12.6774    238.9823     16.8971   4.2454769857e+01   2.3055077487e+01    0.4105231     0.277704 -58.99   0.00200625    1.390    0.281
         9 -10.3491     12.4373     15.7220   9.8463608554e+01   7.0667687649e+01    0.2752848   0.08372191 -47.32  0.001281518    2.490    0.598
        10 -10.6289     89.7501     15.1908   6.6802783610e+01   5.9735588496e+01    0.3103026    0.1102438 -23.48  0.001189269    2.863    0.651
        11 -10.8711    205.9320     13.2877   4.4764094386e+01   3.1504440882e+01    0.2471774    0.2045735 -12.62 0.0006375095    1.374    0.272
        12  -9.9065     76.7257     11.9017   6.9338372748e+01   6.2640486506e+01    0.1827212    0.1427477  -5.92 0.0005345537    1.129    0.114
        13 -10.8539     23.6395     11.6903   9.1028938597e+01   7.0338202034e+01    0.1910011     0.108495 -15.84  0.001102146    1.731    0.422
        14 -12.6004    238.4330      4.0195   3.9390378616e+01   2.4559732952e+01    0.5563288    0.3011267  -8.52  0.002511958    2.781    0.640
        15 -11.0938    197.0218      9.2741   4.4617844636e+01   3.4174545595e+01    0.2202912    0.1963232 -37.80 0.0005284123    1.164    0.141
        16 -12.0040    125.2740      8.5495   5.5217155337e+01   5.2484195299e+01    0.2447145    0.2231765  23.72 0.0002429553    1.047    0.045
        17 -12.1365    248.7998      5.2035   3.8885341943e+01   2.2067746973e+01    0.4152217    0.2120142 -22.30  0.002023698    2.184    0.542
        18 -11.4728    227.8369      5.8502   4.0699320359e+01   2.6873174634e+01    0.1937694    0.1353722 -59.72 0.0005430646    1.341    0.254
        19 -10.0575    178.5117      6.0110   4.5830890258e+01   3.9241742361e+01    0.1981259     0.135736 -25.38 0.0006850613    1.552    0.356
        20 -11.2701    212.2800      5.1093   4.1907194312e+01   3.0742029064e+01    0.2412003    0.1698393  63.61 0.0008235947    1.376    0.273
        21  -9.4887    185.2970      5.2944   4.4797253366e+01   3.7559211901e+01    0.1392231   0.09653415  40.12 0.0002457228    1.564    0.361
        22 -10.7281    202.0101      3.9739   4.2604283686e+01   3.3420926163e+01    0.1637615    0.1470154  89.83 0.0003804754    1.018    0.018
        23 -10.2211    107.2700      4.5959   5.7516306689e+01   5.7039966645e+01    0.1941662    0.1054827  46.42   0.00053845    1.604    0.377
        24  -9.6952      7.9719      4.8007   9.5766112165e+01   7.2791523703e+01    0.1294587   0.07907651  13.84 0.0008601589    1.754    0.430
        25 -10.5901     39.6535      2.6084   7.8780342927e+01   6.9721716517e+01    0.2017736    0.1315953  33.20  0.001266653    1.612    0.380
        26 -10.7204    141.2709      1.7015   4.9710062620e+01   4.9137626956e+01    0.2195138    0.1718611  77.35 0.0008552737    1.317    0.241
        27 -10.6637    208.0038      1.5422   4.1360484235e+01   3.2146229338e+01    0.2073076     0.121447  74.53 0.0006963354    1.590    0.371
        28 -12.3421    142.5280    229.5893   1.0821640825e+02   8.6382457732e+00    0.4205082    0.2802872  52.95  0.002560148    1.334    0.250
        29 -11.5937    214.2016    249.1962   9.8221427653e+01  -5.4391143314e+00    0.2706742    0.1485075  35.63  0.001183032    1.404    0.288
        30 -12.6270    192.9690    249.6336   1.0190472126e+02  -2.2307107835e+00    0.3410066      0.19553  38.41 0.0004671226    1.346    0.257
        31  -9.9228    113.2552    249.9940   1.1571255529e+02   1.0028785986e+01    0.1467244     0.118918  60.64 0.0002210783    1.083    0.077
        32 -10.9615    228.0692    232.0952   9.3225302276e+01  -5.6360120225e+00    0.2012782    0.1687089  14.52 0.0004315862    1.148    0.129
        33 -11.6478    175.4115    231.4392   1.0244660020e+02   2.9449753027e+00    0.3376042    0.2805569 -15.21  0.001916201    1.434    0.302
        34 -11.4096    214.1664    230.1425   9.5319287654e+01  -3.2216705605e+00    0.2678082    0.1686554  46.64  0.001561015    1.637    0.389
        35 -10.5013     97.7844    230.7678   1.1650984843e+02   1.5383504913e+01    0.2174096    0.1564098  66.89  0.001457095    1.222    0.182
        36 -10.6999     69.7626    230.3990   1.2142471467e+02   1.9324674520e+01    0.2728769    0.1235822  51.36  0.001406694    1.772    0.436
        37 -11.4009    207.4358    228.9619   9.6317447483e+01  -1.9916089722e+00     0.352139     0.193899   9.76  0.001631247    2.868    0.651
        38  -9.5643    187.6076    230.7301   1.0013593353e+02   1.0261613154e+00    0.1271403   0.08060083  20.58 0.0006986314    1.722    0.419
        39 -10.7396     82.4036    230.0030   1.1917579624e+02   1.7695890169e+01    0.2557343     0.139996  40.73  0.000951115    1.699    0.411
        40 -13.9058    240.3318    222.1940   8.9477701191e+01  -6.3887735342e+00     0.709494    0.4067401  43.28  0.004083965    1.775    0.437
        41 -11.6722    196.0451    226.9162   9.8031753775e+01   1.4133800860e-01    0.3988656    0.2085006  43.45  0.002027515    1.651    0.394
        42 -10.9727    194.3016    223.0539   9.7740394028e+01   9.5270708892e-01    0.2348253     0.144627  28.33 0.0003932038    1.495    0.331
        43 -12.7517    203.7654    224.4934   9.6258939240e+01  -8.1667510593e-01    0.5193663     0.294958  24.45  0.002093238    1.790    0.441
        44 -11.2580    198.9993    220.4133   9.6461426897e+01   5.2270934077e-01     0.340368    0.2144379  38.35  0.001437967    1.331    0.249
        45 -10.6197    219.4713    225.9913   9.3716997158e+01  -3.5629865861e+00    0.2371929    0.1433111  32.32 0.0005801942    1.356    0.263
        46 -11.6273    216.5540    221.9121   9.3555158555e+01  -2.5852049913e+00    0.2206909    0.1905324  16.24 0.0003666335    1.127    0.113
        47 -10.1572    201.9793    249.0099   1.0027306862e+02  -3.5522088174e+00    0.1385087    0.1087356  26.86 0.0005031361    1.045    0.043
        48 -16.6873    211.7808    137.4127   7.7403739165e+01   1.1165035361e+01     3.216396     1.401254  56.57   0.01123431    3.116    0.679
        49 -10.1082    132.8630    246.6278   1.1198281487e+02   7.5825857771e+00    0.1705044      0.11323  48.81  0.001074118    1.183    0.154
        50 -10.7415     30.6695    213.9105   1.2697404001e+02   2.6995009437e+01    0.1579654    0.1298651  60.74 0.0004302677    1.283    0.221
        51 -11.9573    237.2661    213.4770   8.8476486156e+01  -4.8800570711e+00    0.2384851    0.1809815  24.85 0.0004361316    1.115    0.103
        52 -10.2810    227.4442    207.7901   8.9172537126e+01  -2.5704042824e+00    0.2590988    0.1127122 -24.09  0.001136107    2.820    0.645
        53  -9.9133     44.3282    209.2867   1.2423493456e+02   2.6353106281e+01   0.09409966   0.08545406 -55.69 0.0003276978    1.612    0.380
        54 -10.0819     11.8385    208.1598   1.2984583898e+02   2.9972768328e+01    0.1292078    0.1059635 -87.04 0.0004708107    1.322    0.243
        55 -11.7519     12.5814    203.5962   1.2946288076e+02   3.0770864757e+01    0.4195838    0.1609808  74.15  0.002174742    2.578    0.612
        56 -10.6648    175.0996    245.2637   1.0441460955e+02   1.1272046606e+00    0.3352049    0.1717929  25.56  0.001670424    2.428    0.588
        57 -11.8259    104.7718    206.2555   1.1246182387e+02   1.8721771540e+01    0.3656411    0.2475486  18.18  0.001784861    2.459    0.593
        58 -10.9949    233.3322    203.5485   8.7360382575e+01  -2.9976353170e+00    0.2059113    0.1847365  -7.60 0.0004401017    1.258    0.205
        59 -11.2147     68.9376    202.9645   1.1908440276e+02   2.4530312653e+01    0.2627268    0.1881814  82.87  0.001216965    1.246    0.197
        60 -11.0485    139.0808    223.1795   1.0802454147e+02   1.0224524921e+01    0.2539988    0.1622759 -70.61  0.001403252    2.150    0.535
        61 -10.5796     44.8936    202.1288   1.2356272892e+02   2.7677895007e+01    0.2366348    0.1842823 -41.32  0.001579889    2.058    0.514
        62 -10.8444    102.3490    200.4121   1.1221206986e+02   2.0211279384e+01     0.235314    0.1866836 -56.27  0.001427705    1.432    0.302
        63  -9.4474     76.5237    200.5232   1.1735717486e+02   2.3984204681e+01    0.1222795   0.09965825  72.62 0.0001156434    1.006    0.006
        64  -9.6405    123.6162    199.7138   1.0782823709e+02   1.6904372962e+01    0.1253727    0.1007067  10.97 7.610409e-05    1.741    0.426
        65 -11.4811     95.8499    196.0402   1.1297220799e+02   2.2065707335e+01    0.1996448    0.1823533  81.34  0.001340368    1.121    0.108
        66 -10.1675     91.5445    196.4998   1.1390189048e+02   2.2623364826e+01    0.2071461    0.1124049  41.92 0.0008941859    1.729    0.422
        67 -11.2471    101.1413    194.6762   1.1171753227e+02   2.1520000402e+01    0.3069311    0.1727052  45.05 0.0006623358    1.610    0.379
        68 -10.7628     70.0395    194.3757   1.1798208990e+02   2.6095248150e+01     0.340442     0.208498  18.33  0.001635918    3.158    0.683
        69 -11.6313     52.1413    191.9646   1.2128485739e+02   2.8860801769e+01    0.3082998    0.1633399  36.34 0.0006940616    2.048    0.512
        70 -10.8206    239.5538    190.2664   8.3746576851e+01  -2.2919306092e+00     0.271124    0.2036773  23.57 0.0008581781    1.166    0.142
        71 -11.2488     96.9613    190.1511   1.1198454959e+02   2.3072780362e+01     0.472759    0.1151729  47.24  0.001599756    3.855    0.741
        72 -11.8898     91.0063    188.0364   1.1294863863e+02   2.4409375387e+01    0.3996199     0.300666  76.92  0.001784982    1.276    0.216
        73 -17.2873    172.3146    154.1883   8.9272374880e+01   1.6469833083e+01     2.615042     1.397164  24.56   0.00932842    2.984    0.665
        74 -10.3543     46.8788    194.8737   1.2257228866e+02   2.8893375172e+01     0.162546    0.1380975 -82.72 0.0003088415    1.237    0.192
        75 -10.7275     92.3329    183.7074   1.1209789655e+02   2.5100945114e+01    0.1834884    0.1445116  69.50 0.0006840326    1.166    0.142
        76 -11.2689    105.9684    190.3585   1.1013748221e+02   2.1614524934e+01    0.3213126    0.1429862  41.29  0.001454534    2.097    0.523
        77 -10.9031    244.9145    191.0440   8.2971842268e+01  -3.2932614528e+00    0.2239056    0.1849251  19.18 0.0005470648    1.125    0.111
        78  -9.6344     81.5175    187.5456   1.1486303053e+02   2.5902506285e+01    0.1267983    0.1063174  75.10  8.31671e-05    1.014    0.014
        79 -11.0700     96.3629    185.4731   1.1148271121e+02   2.4118284591e+01    0.2142686    0.1879995  77.40 0.0001623782    1.022    0.021
        80 -10.0153    248.0094    185.4840   8.1346789090e+01  -3.0780048945e+00    0.1828796    0.1146485  36.18 0.0005084141    1.514    0.339
        81 -11.1621    155.8235    245.3284   1.0780825989e+02   4.1807254956e+00    0.2590046    0.1574193  34.75 0.0008581625    1.456    0.313
        82 -11.4158    125.8849    205.0995   1.0813053356e+02   1.5530867209e+01    0.3758623    0.2378848  69.62 0.0004372275    1.954    0.488
        83  -9.5539     17.4597    184.5214   1.2737047020e+02   3.4089157636e+01    0.1119504   0.08318648  83.84 2.184021e-05    1.017    0.017
        84 -10.2454     24.9961    181.9670   1.2573511304e+02   3.3891645748e+01    0.1681341    0.1279835  84.17  0.001209962    1.018    0.018
        85 -10.9183     85.5737    180.6639   1.1313374530e+02   2.6748598663e+01    0.2721016     0.197183 -81.43 0.0008993766    1.344    0.256
        86 -10.9179     51.1555    180.1155   1.2032034209e+02   3.1443511198e+01    0.2602737    0.1792265  21.43   0.00151935    2.175    0.540
        87 -10.3303     13.5162    176.5042   1.2755873564e+02   3.6098934024e+01    0.1134661    0.0829398  83.90 0.0008103974    1.017    0.017
        88  -9.7984     68.7062    175.0199   1.1604180869e+02   3.0321200205e+01    0.1719318     0.141507 -82.99 0.0001519454    1.093    0.085
        89 -10.0638     79.4891    170.5893   1.1310547272e+02   2.9790553894e+01    0.2043309    0.1181643 -65.13 0.0004958684    1.643    0.392
        90 -11.1694     76.9692    168.0404   1.1331761286e+02   3.0705685149e+01    0.2021531    0.1682991 -87.15 0.0009311692    1.068    0.064
        91  -9.9826     33.5891    169.7268   1.2294890879e+02   3.5615048255e+01    0.1627722   0.09255923 -86.99 0.0003991869    1.540    0.351
        92 -11.7771     65.9107    164.2347   1.1529167224e+02   3.3050384455e+01    0.4033995    0.2487353  82.14  0.001341608    1.779    0.438
        93 -11.6746     42.2019    160.5327   1.2015177959e+02   3.6715404849e+01    0.5624546    0.1690206 -74.92  0.002077012    3.602    0.722
        94 -10.9664    249.3140    160.2684   7.5890599971e+01   1.7769985681e-01    0.3139224    0.2581972 -50.05  0.001261994    1.645    0.392
        95 -11.9749     81.4021    144.3381   1.0863394278e+02   3.5406085119e+01    0.3867039    0.2504518  26.21 0.0007997026    2.000    0.500
        96 -13.6775     81.6598    151.3602   1.0973895022e+02   3.3761476520e+01    0.7859712    0.4770184 -62.59  0.003519204    1.533    0.348
        97 -11.3431     79.8256    158.6154   1.1130717141e+02   3.2389542052e+01    0.3227544    0.1906681  79.79 0.0005916286    2.237    0.553
        98 -10.7907     16.3529    161.1741   1.2579968005e+02   3.9098163249e+01    0.1627294    0.1537736  49.52 0.0007756206    1.423    0.297
        99 -11.7851     75.8839    159.4597   1.1234953215e+02   3.2761837619e+01    0.2651821    0.2239665 -51.14 0.0003317093    1.335    0.251
       100 -10.0024     56.8467    157.8195   1.1652053835e+02   3.5631322759e+01    0.1782814    0.1277088  80.28 0.0005464549    1.328    0.247
       101  -9.6922     49.3031    165.6261   1.1915568146e+02   3.4791794938e+01     0.133644   0.07861614  74.91 0.0007030063    1.759    0.432
       102 -10.8923     15.5281    156.0903   1.2554103451e+02   4.0272290453e+01    0.1781797   0.09033308 -78.13 0.0005073583    1.560    0.359
       103 -11.9497    242.7360    243.2438   9.2547856184e+01  -9.0242117885e+00    0.2781796     0.153366  42.76  0.001677748    1.808    0.447
       104 -11.5714    157.0899    222.1886   1.0450567125e+02   7.3781762315e+00    0.1885699    0.1518285  28.15 0.0005356211    1.230    0.187
       105 -10.6008     86.2068    147.0502   1.0791549537e+02   3.4065072057e+01    0.2494032    0.1653454  59.04  0.001259956    1.617    0.382
       106 -12.3699     71.1180    138.6053   1.1023686838e+02   3.8191810645e+01    0.6172369    0.3401037  79.40  0.001886276    2.966    0.663
       107 -10.4776     37.0558    142.5478   1.1923730841e+02   4.1308094996e+01    0.2951833    0.1377798 -89.10  0.001300603    2.578    0.612
       108 -11.0785    249.0736    138.4300   7.1073099129e+01   3.4445113991e+00    0.3599737    0.2353761  55.16    0.0017996    1.911    0.477
       109  -9.6182     23.2635    137.6396   1.2196495473e+02   4.3717836027e+01    0.1245587   0.07523302  79.41 0.0004730554    1.635    0.388
       110 -13.0907    123.1513    214.8093   1.0996366306e+02   1.4244308582e+01    0.5393668    0.4332348  81.14  0.001813612    1.318    0.242
       111 -11.9240     75.2752    128.5983   1.0737983470e+02   3.9949462592e+01    0.2976128    0.2883588 -26.65   0.00150333    1.213    0.175
       112 -10.0634     47.8888    132.4852   1.1518412264e+02   4.2486585972e+01    0.1662844    0.1267336  38.90 0.0003224799    1.506    0.336
       113 -11.4128     68.5035    131.4798   1.0968414473e+02   4.0207144228e+01    0.2233513    0.1877662 -72.88 0.0006905299    1.046    0.044
       114 -11.8872     63.9765    126.9214   1.1007224971e+02   4.1868849223e+01    0.3510385    0.2440431  68.14 0.0004425088    1.657    0.396
       115 -11.3415     78.0310    131.9118   1.0727548154e+02   3.8780281510e+01    0.2480503    0.1806772 -55.67 0.0004076929    1.271    0.213
       116  -9.6772     19.4869    123.4540   1.2123568708e+02   4.7265295283e+01     0.121812   0.09477699 -76.38 0.0001583498    1.012    0.012
       117 -11.4049     69.6018    121.4378   1.0753900637e+02   4.2414920706e+01    0.2753639    0.2086815  73.79  0.001115408    1.501    0.334
       118 -10.0923     27.5078    117.9622   1.1840827911e+02   4.7867158460e+01    0.2039176   0.09687112 -65.97 0.0001587741    1.644    0.392
       119 -11.9734     68.2492    114.3525   1.0650556150e+02   4.4260456698e+01    0.3466112    0.2265042 -40.71  0.001752421    1.637    0.389
       120 -11.9447    128.5737    211.3173   1.0845303520e+02   1.3970160258e+01    0.3138239     0.265036  82.34 0.0008056217    1.251    0.201
       121 -10.6839    223.9361    216.6289   9.1353510243e+01  -3.1227072185e+00    0.2368142    0.1764827  22.69 0.0009084906    1.095    0.087
       122 -11.0635    230.2675    219.9344   9.0816002420e+01  -4.5496380877e+00    0.2667706    0.1729279  41.91 0.0008321338    1.518    0.341
       123 -10.4231     73.6037    110.2591   1.0411856455e+02   4.4481240755e+01    0.2056865    0.1142756 -48.80 0.0007329067    1.641    0.391
       124 -10.7448     57.8939    109.8539   1.0854755659e+02   4.6636352104e+01    0.1936382    0.1612347 -47.21 0.0002751307    1.180    0.153
       125 -11.1734     33.3132    109.2506   1.1547866370e+02   4.9375824091e+01    0.2177727    0.1773504 -78.12 0.0002880355    1.094    0.086
       126 -10.7082     66.8345    109.1138   1.0581717072e+02   4.5676153134e+01    0.1860333    0.1515286 -36.85 0.0004715296    1.309    0.236
       127 -10.1683     24.1687    108.8250   1.1799091213e+02   5.0258346867e+01    0.1892322    0.1453298  89.56  0.001218155    1.253    0.202
       128 -11.2043     85.0741    107.5476   1.0021603094e+02   4.3400639891e+01    0.3891955    0.1886055 -48.33 0.0009952781    1.881    0.468
       129 -11.7027     84.8720    100.9290   9.8661902086e+01   4.4952610762e+01    0.4269305    0.1815703 -48.78  0.001173993    2.106    0.525
       130 -10.9460     79.4556    106.4259   1.0156826408e+02   4.4521253127e+01    0.2823362    0.1398115  37.19  0.001216363    2.237    0.553
       131 -10.1025    241.3299    104.3628   6.4188690273e+01   1.0301964366e+01    0.2506405    0.1602711 -21.29 0.0006911001    1.567    0.362
       132 -12.6916     92.1145     92.9988   9.4446243115e+01   4.5551842087e+01    0.7347544    0.3339579 -59.64            0    2.824    0.646
       133 -12.1475     87.6124     89.1207   9.4721229457e+01   4.7165710621e+01    0.4625572    0.3608032 -32.26  0.001466845    1.279    0.218
       134 -12.6220    101.1711     98.2637   9.3247692705e+01   4.2792394089e+01     0.663676    0.3128587  48.06  0.002583408    2.427    0.588
       135 -12.3037    103.7307     94.9984   9.1620940590e+01   4.3045822714e+01    0.4451814    0.3010375 -43.56  0.001193649    1.382    0.277
       136 -12.7704     73.0069     97.3915   1.0131570302e+02   4.7545873313e+01    0.5276838    0.3528486 -55.33    0.0012076    1.330    0.248
       137  -9.7936    227.9516     98.4543   6.4824324730e+01   1.4184793947e+01    0.2045767    0.1478399  53.09 0.0005713936    1.495    0.331
       138 -11.0341     60.9626     97.5113   1.0500151067e+02   4.9132898279e+01    0.2590364    0.1764659 -57.50 0.0003135675    1.265    0.210
       139  -9.5512     33.3161     95.9773   1.1314600984e+02   5.2451742230e+01    0.2086746   0.09423301 -84.95 0.0007048239    4.296    0.767
       140  -9.3817     17.2860     95.6830   1.1794399614e+02   5.3797025867e+01    0.1179573   0.08162135  82.35 0.0006998204    1.588    0.370
       141 -12.1932    227.4713     90.8871   6.2946635028e+01   1.5517113312e+01    0.4160025    0.3541666  76.70  0.002206882    1.379    0.275
       142 -10.2625     46.1046     93.3754   1.0866897109e+02   5.1805984685e+01    0.2376114    0.1445306 -51.30 0.0006259031    1.378    0.274
       143 -12.0640     98.2188     91.7727   9.2309523357e+01   4.4756778563e+01    0.4063722    0.2746741 -39.22  0.001707416    1.415    0.293
       144 -11.2459     65.8054     89.9578   1.0168490243e+02   5.0235020739e+01     0.365038     0.211525  43.41  0.001228272    2.017    0.504
       145 -11.0272     78.8799     89.0948   9.7384320173e+01   4.8558849335e+01    0.3366339    0.1757921 -48.13 0.0004045388    1.693    0.409
       146 -11.4954    248.5228     87.8305   5.9034576787e+01   1.1314627325e+01    0.2692049    0.2199397 -13.69 0.0004800644    1.235    0.190
       147 -13.0725    104.2386     84.5766   8.8457420630e+01   4.5197705543e+01    0.7133809    0.4808634  58.81  0.003226649    1.907    0.476
       148 -11.1796    239.8051     85.8455   5.9778243364e+01   1.3523818250e+01    0.2619548    0.2308627  73.84 0.0004605845    1.300    0.231
       149 -11.2146    239.5383     82.0462   5.8852427266e+01   1.4165829730e+01    0.2993296    0.2237686 -40.23  0.000716102    1.228    0.186
       150 -10.3733    230.8102     85.3987   6.1001758960e+01   1.5624303521e+01    0.2521572    0.1727572  47.47 0.0008314262    1.568    0.362
       151 -10.6608      8.4926     81.1188   1.1826000640e+02   5.7651220066e+01    0.1912506    0.1495821  55.55 0.0008338713    1.599    0.375
       152 -11.9080     98.4153     77.4599   8.7996836441e+01   4.7776337679e+01    0.3926432    0.2860608 -72.70  0.001795873    1.994    0.499
       153 -10.2267    248.0494     77.9100   5.6637439564e+01   1.2903363847e+01    0.2086116    0.1882353 -24.49 0.0004933767    1.064    0.060
       154 -10.1017    230.8930     74.4801   5.8144594947e+01   1.7295757851e+01    0.2547702    0.1950146 -32.15  0.000531741    1.208    0.172
       155 -11.4071     87.6409     73.4737   9.0059113861e+01   5.0515680122e+01    0.3685241    0.2286158 -23.14  0.001171913    1.999    0.500
       156 -11.9339     86.1429     68.2141   8.8839366474e+01   5.1846639821e+01    0.3859591     0.312828 -46.65  0.001041235    1.205    0.170
       157 -10.2067    225.8064     72.5067   5.8368159230e+01   1.8791595581e+01    0.2900658     0.192837  -9.69  0.001114581    1.881    0.468
       158 -10.7707    235.9919     71.9512   5.6765622774e+01   1.6497067769e+01    0.3995522    0.2259595 -43.03 0.0003298961    1.652    0.395
       159  -9.6399    236.1205     68.0000   5.5728245617e+01   1.7053708873e+01    0.2256651   0.08296699  61.03  0.000804603    2.957    0.662
       160 -11.9123     93.2124     71.1716   8.7578684241e+01   5.0011008538e+01    0.3589228    0.2667051 -69.17   0.00111774    1.868    0.465
       161 -11.3221     24.0907     71.3334   1.1106011933e+02   5.8782739316e+01    0.2218097    0.1544377 -55.45 0.0003273186    1.112    0.101
       162 -11.1962     53.1505     69.7769   1.0043251760e+02   5.6296293511e+01    0.2863193    0.1496322 -42.64 0.0009614473    1.658    0.397
       163 -10.7471     43.5784     68.8057   1.0352965209e+02   5.7575448759e+01    0.2105156    0.1528179  -7.93  0.001031449    1.661    0.398
       164 -11.4386      6.7255     68.1058   1.1646741263e+02   6.0623998023e+01    0.2100885    0.1605732 -40.53 0.0002209972    1.262    0.208
       165 -10.2380    244.3588     66.7026   5.4313287527e+01   1.5364177951e+01    0.2353884    0.1649895 -83.87 0.0007318695    1.833    0.454
       166 -10.5592    241.0861     63.7398   5.3982368146e+01   1.6533115035e+01    0.3891515    0.1916369 -44.19 0.0008316248    1.899    0.473
       167 -11.3758    121.0265     66.3408   7.7852848620e+01   4.5389254509e+01    0.3500787    0.2679047  70.82  0.001162965    1.734    0.423
       168 -10.8606    121.6359    243.9374   1.1364988107e+02   9.7000728525e+00    0.2239319     0.136324  50.57 0.0007967236    1.306    0.234
       169 -11.0896     95.2415     65.9943   8.5232714248e+01   5.0670587832e+01    0.2101463    0.1805322 -29.50 0.0008607846    1.063    0.059
       170  -9.5498     37.4408     65.4583   1.0481536980e+02   5.8912750442e+01    0.1286408    0.1037633 -47.52 0.0002073922    1.022    0.021
       171 -11.0102     29.9254     62.6531   1.0681298175e+02   6.0196397617e+01    0.2167881    0.1342684 -47.20 0.0004484614    1.270    0.212
       172 -10.6224     10.1669     59.4748   1.1338887093e+02   6.2294602908e+01    0.2652634   0.09407799 -50.10  0.001304699    1.991    0.498
       173 -12.4448    138.7486     57.8768   7.0419466820e+01   4.2808064153e+01    0.4794078    0.3202081  18.62  0.001674606    1.947    0.487
       174 -10.9793     35.1213     57.8058   1.0350812786e+02   6.0754137693e+01      0.34455    0.1742789 -36.45  0.001732688    1.859    0.462
       175 -10.3739     13.4328    216.7489   1.3004224311e+02   2.8221526317e+01    0.1329052   0.07815874 -75.53 0.0009408388    1.567    0.362
       176 -10.7738     18.3917     58.0547   1.0994265645e+02   6.2070536798e+01    0.1773088    0.1712381 -14.91 0.0002465833    1.288    0.224
       177 -10.1393      1.3821     57.7243   1.1628710123e+02   6.3132014359e+01    0.1679515    0.1216595 -64.91  0.000404768    1.140    0.123
       178 -11.6686    210.5532     54.3092   5.5650015207e+01   2.5219405476e+01    0.4954987    0.3031915  72.13  0.002044627    1.833    0.454
       179 -12.9990    200.9697     52.3364   5.6531181343e+01   2.7919932966e+01    0.4593773    0.4143151   9.13  0.002478102    1.219    0.179
       180 -11.6369    206.1559     50.1630   5.5125711419e+01   2.6914408599e+01    0.3423863    0.2305113 -34.10 0.0009160375    1.428    0.300
       181  -9.5579    241.2373     56.6064   5.2151227238e+01   1.7509717687e+01    0.1504332   0.09147175 -51.91 0.0006917606    1.657    0.396
       182  -9.3164    225.5998     56.7111   5.4188566175e+01   2.1178339123e+01     0.150881    0.1071393  28.98 0.0001332239    1.792    0.442
       183 -10.6833    114.3013     56.3260   7.6224591695e+01   4.8640215761e+01    0.2543215    0.2079306  22.84 0.0008814229    1.254    0.203
       184 -10.7510    111.1202     54.8534   7.6591559846e+01   4.9573334896e+01    0.2390591    0.2110932  38.27 0.0003929568    1.171    0.146
       185 -12.2919    249.3689     52.9626   5.0282056078e+01   1.6167319841e+01    0.2624928    0.2131668 -45.20 0.0003583527    1.097    0.089
       186 -11.6538    129.0781     49.1961   6.9750265245e+01   4.6499942479e+01    0.3430288    0.3180876 -83.72  0.001140859    1.289    0.224
       187 -12.2163    123.9928     53.5946   7.2626429956e+01   4.6961794588e+01    0.4764111    0.3425207  11.86  0.001416231    1.671    0.402
       188 -12.0373    118.6071     50.7911   7.3044423410e+01   4.8632835891e+01    0.5312536     0.322255 -52.72  0.001424124    2.165    0.538
       189 -10.9988    114.4342     47.5226   7.2974932250e+01   5.0081976304e+01    0.2491269    0.2133382 -28.24 0.0005737414    1.145    0.126
       190 -10.3946    108.2503    219.7558   1.1340213692e+02   1.5726220120e+01    0.1439054    0.1393969  31.62 0.0006015008    1.333    0.250
       191 -10.3534     66.0012     50.9855   8.9722802110e+01   5.8409487656e+01    0.2083282    0.1753791 -26.66 0.0003957303    1.012    0.012
       192 -12.9715    147.3507     46.1680   6.4419575812e+01   4.2538474016e+01    0.4847108    0.3802395 -25.24 0.0008989536    1.281    0.220
       193 -11.7235    242.3686     48.3076   4.9920173462e+01   1.8386969136e+01    0.2920292    0.2741254  67.52 0.0007123754    1.161    0.139
       194 -12.9554    140.4255     46.6699   6.6137774254e+01   4.4172803790e+01    0.6506404    0.3702166 -32.02  0.002790926    1.740    0.425
       195 -10.4634    230.5913     47.4311   5.1091951230e+01   2.1269915096e+01     0.298887    0.1784517 -54.84  0.001228206    1.763    0.433
       196  -9.5499      3.5004     46.5200   1.1287365831e+02   6.5373391057e+01    0.1179784    0.0852225 -50.35 0.0008103378    1.010    0.010
       197 -12.9439    191.9700     43.0798   5.5202284828e+01   3.1519513050e+01    0.5748618    0.3094068 -30.03  0.001336397    1.836    0.455
       198 -12.3734    156.6908     44.4072   6.1866357832e+01   4.0440626429e+01    0.6368769    0.3437474  64.82  0.002566136    2.023    0.506
       199 -12.0098    119.1621     43.7489   7.0295009916e+01   4.9621406806e+01    0.3578161    0.2358169 -11.70  0.001627715    1.722    0.419
       200 -10.9930    186.5056     44.0273   5.6353596334e+01   3.2802668401e+01    0.2769307    0.2076435  89.99 0.0006422525    1.544    0.353
       201 -11.1382    130.5337     44.1943   6.7584130840e+01   4.6923136288e+01    0.3076762    0.2117316  57.62 0.0007992891    1.529    0.346
       202 -10.4404    100.4867     44.4974   7.5826804408e+01   5.3506802451e+01    0.1446075    0.1299985  -4.57 0.0001579584    1.005    0.005
       203 -10.9096    124.5533     43.0327   6.8638991130e+01   4.8497048617e+01    0.3274406    0.1408329 -31.16 0.0006331509    2.288    0.563
       204 -10.6402     89.9848     43.4987   7.8686865346e+01   5.5719482344e+01    0.1994594    0.1368973  42.43  0.000496152    1.536    0.349
       205 -12.2168    176.2660     39.6473   5.6691124330e+01   3.6050903684e+01    0.5050216    0.4132681 -40.47  0.001635224    1.238    0.192
       206 -11.6572    181.4285     37.1248   5.5049767657e+01   3.5040810394e+01    0.3042377    0.2788965 -45.74 0.0002641567    1.104    0.094
       207 -11.2742    115.4776     41.7917   7.0535503116e+01   5.0742944568e+01    0.2811561      0.20279   4.16   0.00135363    1.571    0.363
       208 -10.7859     56.6399    217.8687   1.2270587012e+02   2.3259171609e+01    0.2792792    0.1477941  86.40  0.001598855    1.935    0.483
       209  -9.8336    105.1802     41.6125   7.3331229313e+01   5.2995885827e+01    0.2062454    0.1253139  36.66 0.0009444373    1.675    0.403
       210 -11.7323     92.8295     38.3394   7.5739632884e+01   5.6001477931e+01    0.4184768    0.2336525 -41.45  0.001222632    1.879    0.468
       211 -11.3762    165.2234     38.1507   5.8148217055e+01   3.9111306770e+01    0.3076392    0.2752637 -79.08 0.0004145876    1.222    0.182
       212 -11.3520    153.7434     38.0193   6.0286514207e+01   4.2073059487e+01    0.4267505    0.2149212  41.98 0.0009239114    2.083    0.520
       213 -11.7843    132.8356     33.2539   6.3023593470e+01   4.7904109538e+01    0.3138375      0.24844  41.71 0.0005382188    1.201    0.167
       214 -10.1168     18.8019     39.3888   1.0439091005e+02   6.5855076474e+01    0.1503465   0.09960315 -10.46 0.0003381551    1.659    0.397
       215 -10.5174     29.6682     49.1721   1.0301453581e+02   6.3025090391e+01    0.1907846    0.1415054 -61.52  0.001183457    1.416    0.294
       216 -11.2200     55.2073     38.5205   8.9023178718e+01   6.2207410415e+01    0.2374532    0.1790064 -35.88 0.0002810667    1.179    0.152
       217  -9.3693    104.5271     37.5069   7.1908979681e+01   5.3754675153e+01    0.1438679    0.1292752   2.50 -1.222419e-05    1.005    0.005
       218 -11.9741     94.7385    214.1291   1.1532095946e+02   1.8777511650e+01    0.4806168    0.2693064  27.51  0.002296838    2.638    0.621
       219 -11.1094    219.8177     35.2801   4.9175723202e+01   2.5482193805e+01    0.2560562    0.2220941 -48.46 0.0002939509    1.088    0.081
       220 -12.5134    214.5377     31.4995   4.8785840862e+01   2.7265131703e+01    0.5037246    0.2390531  62.59  0.002146642    2.042    0.510
       221 -12.1510    216.5200     25.9057   4.7033425514e+01   2.7444378792e+01    0.3594026    0.2589041 -50.74 0.0004106056    1.339    0.253
       222 -12.7726    187.8894     33.1232   5.2825483231e+01   3.3871371097e+01    0.3240987    0.2921317 -31.46 0.0005403419    1.131    0.116
       223 -11.4976    199.6936     32.7301   5.1033706435e+01   3.0874095333e+01    0.2697373    0.2343631 -64.26 0.0005710452    1.151    0.131
       224 -11.2804    139.7536     31.9112   6.1009977674e+01   4.6384141445e+01    0.3668551    0.2626841 -87.00  0.001679066    1.968    0.492
       225 -10.2683     98.8499     32.3573   7.1483162471e+01   5.5683048287e+01    0.3648997    0.1982517   9.01  0.001335363    3.177    0.685
       226 -11.2340     94.8328     47.9387   7.8871488755e+01   5.4053161569e+01    0.2194327    0.1780484  -1.10   0.00048002    1.226    0.184
       227 -10.9948    195.3229     28.3943   5.0361592716e+01   3.2525610421e+01     0.207755    0.1837624 -38.86   0.00074347    1.136    0.120
       228 -10.8859    166.4081     30.7112   5.5491506152e+01   3.9752704494e+01    0.4092449    0.2216518  43.72 0.0008983795    1.899    0.473
       229 -10.7992    203.9346     29.6648   4.9594386521e+01   3.0165601107e+01    0.1998953    0.1791306  82.59 0.0003760349    1.089    0.081
       230 -11.0763     60.0109    215.9894   1.2194552551e+02   2.3188447913e+01    0.2717883    0.2285081 -75.81  0.001948805    1.350    0.259
       231 -10.0014      6.7769     29.0034   1.0630869749e+02   6.8661027327e+01    0.1527492   0.07231157 -53.37 0.0004286218    1.613    0.380
       232 -10.9579    141.5532     27.3215   5.8971216471e+01   4.6504419151e+01    0.2471274    0.1519692  39.14 0.0004741108    1.630    0.387
       233 -11.0641    209.3923     25.1562   4.7655259134e+01   2.9317502577e+01    0.3649375    0.1941922  77.16  0.001249606    2.007    0.502
       234 -10.4211     47.4825    243.5591   1.2608712670e+02   1.9833922473e+01     0.223034   0.09969858  72.46  0.001283189    2.228    0.551
       235  -9.7369    235.8110    209.6573   8.8043537552e+01  -4.1775211018e+00    0.1537536    0.1335887  26.63 0.0004261658    1.270    0.213
       236 -10.1224    228.6701     23.6753   4.5137920249e+01   2.4729049851e+01    0.1364895     0.101645  33.07 0.0006913215    1.701    0.412
       237 -11.2502    175.1719     22.2006   5.1337971896e+01   3.8468224775e+01    0.2434162    0.2230984 -85.82 0.0003421025    1.107    0.097
       238 -10.9180    222.8313     21.8118   4.5257484464e+01   2.6362986243e+01    0.1994391      0.18408  39.67 0.0005853414    1.239    0.193
       239 -10.7769    213.7918     20.0054   4.5743361284e+01   2.8802615652e+01     0.246685    0.1947593   5.29  0.001097267    1.585    0.369
       240  -9.9252     98.6350     21.3113   6.6917742168e+01   5.7181964882e+01    0.1319266    0.1091657 -65.81 0.0007039062    1.757    0.431
       241 -10.0499    200.9739    243.5090   9.9657640104e+01  -2.7486205135e+00    0.1863548   0.09141387  37.20  0.001025854    1.608    0.378
       242 -10.7259     16.3064     18.8429   9.7880361365e+01   6.9830640221e+01    0.1663161    0.1429115  -8.66 0.0004700017    1.274    0.215
       243  -9.8192    153.2684     17.6621   5.3345717052e+01   4.4621892969e+01    0.1430869     0.105347 -57.63 0.0003542598    1.597    0.374
       244 -10.7079    189.9124    241.4927   1.0129641866e+02  -7.5045752739e-01    0.1668801    0.1360727  28.56 0.0004911246    1.055    0.052
       245  -9.7476    137.7940     16.5874   5.5789511915e+01   4.8638983105e+01    0.1877281    0.1343772  75.69 0.0002216645    1.567    0.362
       246 -10.2058    223.5156    241.5277   9.5493430103e+01  -6.0019201681e+00    0.1181602   0.08820657  22.55 0.0001300996    1.019    0.019
       247 -10.2570    208.0226    240.9035   9.8053524400e+01  -3.5428505734e+00    0.2207246    0.1291276  33.16  0.001113396    1.358    0.263
       248 -11.9534    201.8017     23.1059   4.7996214514e+01   3.1480616545e+01    0.3433266    0.2632642 -20.71  0.001821691    1.404    0.288
       249 -10.3779    151.0685    240.4996   1.0805000704e+02   5.6206486697e+00    0.1622679    0.1442412  48.95  0.000358519    1.124    0.111
       250 -11.8206    183.1492    237.4316   1.0191339468e+02   8.6199264899e-01    0.3786742    0.2259796  32.88  0.001648659    1.431    0.301
       251 -12.2482    232.4316    235.9502   9.3105318371e+01  -6.7343022194e+00     0.330034    0.2335701   3.15  0.001570474    1.321    0.243
       252 -12.0963    193.8776    236.8161   9.9920430091e+01  -7.9363568242e-01    0.3738256    0.3104916 -37.18  0.002626665    1.515    0.340
       253 -10.6165    191.9877    230.9745   9.9384967770e+01   2.7233766842e-01    0.1942569    0.1528371  31.74 0.0006131781    1.019    0.019
       254 -11.8550    126.4726    236.6881   1.1199595376e+02   1.0081385671e+01     0.345943    0.2336668 -87.84  0.001251916    1.983    0.496
       255 -11.0230    103.6613    237.1466   1.1610455475e+02   1.3459427592e+01    0.3305746    0.1740175  66.85  0.001768463    2.211    0.548
       256 -10.0837     43.0000    236.9510   1.2639124256e+02   2.1476476789e+01    0.1567358   0.05158263 -73.60 0.0008070024    2.974    0.664
       257 -10.4008    163.7612    235.4302   1.0511300130e+02   4.2970264564e+00    0.2085079    0.1422197   9.99 0.0008398793    2.120    0.528
       258 -11.4288    165.2347    231.2378   1.0427090549e+02   4.6575953050e+00    0.2780678    0.1982126  57.36 0.0008211771    1.493    0.330
       259 -10.4350     33.1603    236.1473   1.2792269605e+02   2.2722330624e+01    0.1485336    0.1173332  75.43  0.001005188    1.188    0.158
       260 -11.1123    149.1695    234.1019   1.0758143622e+02   6.8680505410e+00    0.1910715    0.1531543  43.47 0.0003147055    1.024    0.023
       261 -10.7188    118.5275    235.1028   1.1324380154e+02   1.1560367799e+01    0.2227101    0.1456411  40.79  0.000617152    1.357    0.263
       262 -10.1414    245.6267    233.6086   9.0513702426e+01  -8.4426810777e+00    0.1720722     0.104664  12.06 0.0006990463    1.524    0.344
       263 -11.1238    201.2730    233.2186   9.8071668035e+01  -1.5310184164e+00    0.2066885    0.1716982  36.51 0.0002862552    1.175    0.149
