#   1 NUMBER                 Running object number                                     
#   2 MAG_AUTO               Kron-like elliptical aperture magnitude                    [mag]
#   3 X_IMAGE                Object position along x                                    [pixel]
#   4 Y_IMAGE                Object position along y                                    [pixel]
#   5 X_WORLD                Barycenter position along world x axis                     [deg]
#   6 Y_WORLD                Barycenter position along world y axis                     [deg]
#   7 A_WORLD                Profile RMS along major axis (world units)                 [deg]
#   8 B_WORLD                Profile RMS along minor axis (world units)                 [deg]
#   9 THETA_WORLD            Position angle (CCW/world-x)                               [deg]
#  10 FWHM_WORLD             FWHM assuming a gaussian core                              [deg]
#  11 ELONGATION             A_IMAGE/B_IMAGE                                           
#  12 ELLIPTICITY            1 - B_IMAGE/A_IMAGE                                       
         1 -13.8453    168.3259     65.3577   9.0060507336e+01   3.4542643341e+01     4.007697     1.278371 -41.33  0.007663674    3.289    0.696
         2 -12.8772    208.6224      2.7455   6.4808056337e+01   3.2099992309e+01     1.485775     1.179896 -86.29  0.004393168    1.325    0.245
         3 -15.4833    204.2167     60.4397   8.2331764398e+01   2.6830752581e+01     7.793166     5.610123  77.48    0.0383936    1.825    0.452
         4 -14.4157    192.2606     44.5252   7.9353430403e+01   3.1705900600e+01     6.375966     2.716065  -8.42   0.01926637    4.038    0.752
         5 -15.0048    246.4171     92.8916   8.4902246423e+01   1.3895987259e+01     10.22098     1.289466 -28.45   0.02628096    5.998    0.833
         6 -14.6478    233.0477      4.5863   6.3505595664e+01   2.6337467871e+01      1.40943    0.9144757  50.89  0.006946841    1.739    0.425
         7 -14.6227    248.0309     23.9930   6.7415895960e+01   2.1357194920e+01    0.8799382    0.5766077 -29.49  0.002248194    1.273    0.214
         8 -15.8118    246.4320     13.7699   6.4947336914e+01   2.2654208527e+01     3.364483    0.9559997  55.20   0.01188936    3.729    0.732
         9 -13.8999    249.5417      2.6060   6.1957698898e+01   2.2992247239e+01    0.5796514    0.4823542  39.84  0.002379233    1.426    0.299
        10 -10.6991    130.7733     19.7780   8.1284503788e+01   5.0299544815e+01    0.8252633    0.2620573 -33.23  0.002773403    2.888    0.654
        11  -9.7686    142.9814      8.5574   7.4410458891e+01   4.8323081410e+01    0.7852122    0.2830521  -8.20  0.002397913    3.900    0.744
        12  -9.7942    125.6815     14.2727   8.0017099994e+01   5.2221421386e+01    0.3585417    0.2567584 -44.30   0.00120139    1.546    0.353
        13 -11.2178    119.2629     10.0590   7.9525086804e+01   5.4301417502e+01    0.7490729    0.4668824  43.17   0.00285086    1.534    0.348
        14  -9.0665    183.5135      5.7483   6.8053703732e+01   3.8040737048e+01    0.7116312    0.3678296 -35.34  0.003201504    1.817    0.450
        15  -8.1858    186.5750      2.4710   6.6679651502e+01   3.7542814530e+01    0.2373477    0.1973924 -87.90 0.0006163508    1.250    0.200
        16  -8.1670    194.4545      4.4661   6.6557945109e+01   3.5404165851e+01    0.1336863    0.1287332 -34.12 9.379387e-05    1.009    0.009
        17  -8.2287    171.6274      2.7454   6.8337958635e+01   4.1343144240e+01    0.2024952    0.1186467 -31.26 0.0004473141    1.640    0.390
        18  -9.2394     71.0871    243.6529   1.4341503410e+02   1.8604080406e+01    0.1459912    0.1313241  73.43 0.0004163743    1.279    0.218
        19 -11.4607    246.4599    247.1768   1.1419704089e+02  -2.8325498062e+00    0.5896422    0.3207972  14.15  0.004305603    1.377    0.274
        20  -8.6489     95.9903    239.5019   1.3872748942e+02   1.6428249494e+01    0.1349961   0.08108843  14.51 0.0004385964    2.389    0.581
        21  -8.2741      6.0052    233.5084   1.5408304987e+02   2.6199690552e+01     0.129383   0.07184484  37.11 0.0004882621    1.498    0.332
        22 -11.3052    199.1124    124.9490   1.0028504976e+02   1.8458870019e+01     0.417421    0.2659997  48.84  0.001337738    1.766    0.434
        23 -10.0982    160.6846    128.9720   1.0910062763e+02   2.5169778222e+01    0.3385895    0.2579486 -43.77  0.001776525    1.416    0.294
        24  -9.5593    135.1141    136.1769   1.1659495538e+02   2.8536362362e+01    0.2226265    0.2131897 -24.40 0.0002600102    1.080    0.074
        25 -12.0784    185.4648    121.6535   1.0214885242e+02   2.1614070994e+01    0.6814713    0.4873306 -24.08  0.003532043    1.336    0.252
        26  -9.1871    132.0758    121.1646   1.1407161198e+02   3.2056642887e+01    0.2711018    0.1953689  20.33 0.0002968214    1.564    0.361
        27 -10.7419    135.2317    119.9884   1.1301226250e+02   3.1702826764e+01    0.7003478    0.1436341 -45.59  0.001862551    4.964    0.799
        28 -10.0429    206.5989    123.6947   9.8611563146e+01   1.7226633176e+01    0.2496039    0.1619444 -35.78  0.001267538    1.556    0.357
        29 -10.0768    214.2151    116.5061   9.5562770983e+01   1.6823807292e+01     0.331066    0.2470787  41.34  0.001588689    1.426    0.299
        30 -11.0844    167.9543    114.3181   1.0400481689e+02   2.6341382588e+01     0.427941    0.3688901 -22.86  0.001070352    1.115    0.103
        31 -10.2526    220.2924    114.4236   9.4035210754e+01   1.5965149011e+01    0.2958164    0.2510937  65.03  0.001218788    1.684    0.406
        32 -10.4434    214.2220    111.7172   9.4405289926e+01   1.7505791613e+01    0.3148834    0.2561399  65.87  0.001419639    1.758    0.431
        33 -11.7410    206.8366    110.4341   9.5375893245e+01   1.9135577419e+01    0.6361372    0.3988077  48.64  0.003129924    1.752    0.429
        34  -9.8167    220.8048    119.0171   9.5039164649e+01   1.5232638738e+01    0.2241621    0.1851082  21.74 0.0004649819    1.174    0.149
        35  -9.5499    151.4092    106.5593   1.0577002002e+02   3.1122255458e+01    0.3919897    0.2468787 -67.67  0.001433929    3.195    0.687
        36  -9.7346    220.5730    104.4693   9.1567555460e+01   1.7292757752e+01     0.190854    0.1640903 -10.57 0.0005596987    1.053    0.051
        37  -8.5563    140.2491    104.3913   1.0790599274e+02   3.3809312624e+01    0.2059782    0.1419827  50.37 0.0009176545    1.580    0.367
        38  -9.8420    146.6917     99.8603   1.0511816232e+02   3.3362435418e+01      0.36821    0.2790322 -41.93 0.0009116047    1.332    0.249
        39  -8.4184     48.8974    222.6818   1.4614586085e+02   2.4095987450e+01    0.1424791    0.1010128  47.66 0.0006630069    1.093    0.085
        40  -9.0484    195.6736     97.1729   9.4000700379e+01   2.3412919882e+01    0.3695977    0.1744536  41.74  0.001242487    2.184    0.542
        41 -10.2894      2.7408    212.0901   1.5409224195e+02   2.9917152040e+01    0.2318268    0.1407483 -85.23   0.00178881    1.591    0.371
        42  -9.3876    133.2625     96.5575   1.0757887083e+02   3.6775956745e+01    0.2479153    0.2252958 -66.85    0.0002524    1.288    0.224
        43 -10.9418    155.8382     92.6027   1.0095011985e+02   3.2765810365e+01     0.546299    0.3753352   7.08  0.002380443    1.896    0.473
        44  -8.2130     18.4904    151.4379   1.4826261615e+02   4.0319542349e+01    0.1128542   0.09464052  79.14 0.0008070043    1.039    0.037
        45  -8.6604    123.9743    206.0171   1.3014884142e+02   1.7889107925e+01    0.1621564    0.1343304  30.20            0    1.061    0.057
        46  -9.7564    139.6743     89.4149   1.0392527513e+02   3.6839813721e+01     0.368744    0.3099052 -44.10 0.0008361954    1.227    0.185
        47 -10.4838     69.9828    146.1595   1.3480144905e+02   3.6344661622e+01    0.3953412    0.3028779  61.45  0.001477654    1.289    0.224
        48 -11.0056    153.3919     82.6418   9.8617897378e+01   3.5097525533e+01    0.4557354    0.3712753   0.91  0.001594802    1.296    0.228
        49  -9.8322     66.4941    144.5236   1.3548956582e+02   3.7126324747e+01    0.3893796    0.2450401 -84.91   0.00143661    1.761    0.432
        50  -8.8383    145.5287     72.0650   9.7194998590e+01   3.8761371569e+01    0.3686897    0.1313924 -41.41  0.001197471    2.804    0.643
        51 -12.9459     19.7471    193.2675   1.5022434056e+02   3.1882766141e+01    0.7475852    0.5804099  62.19  0.003751345    1.016    0.016
        52 -10.0507    190.7020    188.9971   1.1469933817e+02   1.0626602839e+01    0.2325913    0.1894003  -7.25 0.0004781672    1.186    0.157
        53  -8.5722    147.6694     57.9154   9.2010690634e+01   4.0669825967e+01    0.2205155    0.1919597 -29.90 0.0006243861    1.118    0.105
        54  -9.6915     42.5575    189.7172   1.4537763898e+02   3.0476436983e+01    0.1981524   0.09430055 -69.79  0.001145212    2.127    0.530
        55 -11.4456    209.3032    135.1005   1.0072851812e+02   1.5071311878e+01    0.5023214    0.4267854  88.37  0.002767027    2.113    0.527
        56 -10.2792    221.2701    135.2039   9.8652100004e+01   1.2928572056e+01    0.3609741    0.1391622 -36.68  0.001494585    2.590    0.614
        57 -11.7222    216.0530    130.9509   9.8602075909e+01   1.4441696557e+01    0.5634731    0.3747041  17.80  0.002146497    1.508    0.337
        58 -10.5126    109.9574     42.7496   9.6107355982e+01   5.2032477843e+01    0.3298327    0.2533062  87.15  0.001499702    1.995    0.499
        59  -8.9700    112.4816     29.5037   8.9842965871e+01   5.3539353163e+01    0.1510308    0.1397633   0.79  0.000217392    1.014    0.013
        60 -10.4910    125.6216     19.7832   8.2400624010e+01   5.1604783716e+01    0.7557257    0.3459639 -54.23  0.002352596    3.995    0.750
        61 -10.0937    133.6973     20.3319   8.0906331775e+01   4.9488431511e+01     0.406639    0.2404991 -34.31  0.001492047    1.680    0.405
        62  -9.5266    220.8313    177.7103   1.0731559045e+02   7.4986045819e+00    0.2024702    0.1258128  18.94 0.0008250248    1.418    0.295
        63 -11.7455     60.4536    162.8335   1.3912500144e+02   3.3916234187e+01    0.6552297    0.5375357  67.04  0.002425005    1.108    0.098
        64 -11.2988    192.5074    125.5235   1.0167918080e+02   1.9632721170e+01     0.400915    0.2787799   8.29  0.002016944    1.556    0.357
        65 -11.7473     48.8970    172.8838   1.4274660523e+02   3.3106849894e+01    0.4469106    0.4297289   9.46  0.001658811    1.309    0.236
        66 -11.7317     55.3893    168.0215   1.4082875065e+02   3.3406846506e+01    0.6855388    0.4815474  69.16  0.002583488    1.361    0.265
        67  -9.9157    224.1841    172.0053   1.0568084253e+02   7.6859891674e+00    0.2507787    0.2059716  49.63  0.001595883    1.832    0.454
        68  -7.6473    191.2605    173.6961   1.1192344288e+02   1.2632396773e+01    0.1049707    0.1023487  58.96 0.0001490204    1.518    0.341
        69 -10.3361     74.9955    154.6842   1.3464430112e+02   3.3893797518e+01    0.2417334    0.1677815  75.18  0.001353688    1.611    0.379
        70 -11.4548    197.5267    133.3525   1.0251530586e+02   1.7481109058e+01    0.4786514    0.4191367 -51.73   0.00278593    1.550    0.355
