#   1 NUMBER                 Running object number                                     
#   2 MAG_AUTO               Kron-like elliptical aperture magnitude                    [mag]
#   3 X_IMAGE                Object position along x                                    [pixel]
#   4 Y_IMAGE                Object position along y                                    [pixel]
#   5 X_WORLD                Barycenter position along world x axis                     [deg]
#   6 Y_WORLD                Barycenter position along world y axis                     [deg]
#   7 A_WORLD                Profile RMS along major axis (world units)                 [deg]
#   8 B_WORLD                Profile RMS along minor axis (world units)                 [deg]
#   9 THETA_WORLD            Position angle (CCW/world-x)                               [deg]
#  10 FWHM_WORLD             FWHM assuming a gaussian core                              [deg]
#  11 ELONGATION             A_IMAGE/B_IMAGE                                           
#  12 ELLIPTICITY            1 - B_IMAGE/A_IMAGE                                       
         1 -13.8526    230.5245     90.4713   8.6083261486e+01   1.7593247182e+01     5.018799     1.397133 -25.81    0.0167745    3.472    0.712
         2 -13.8403    245.8182    153.5652   9.7920838974e+01   7.0957409220e+00     3.277156    0.8325748 -32.44   0.01280095    3.554    0.719
         3 -12.8247    248.3445     87.6213   8.2999364254e+01   1.4546072233e+01     2.833641    0.4778455 -26.99  0.008069184    5.073    0.803
         4 -14.1516    247.7354     44.3315   7.2414718255e+01   1.9577852177e+01     4.456079     1.168176 -26.04    0.0164331    3.026    0.670
         5 -10.7496    224.4006     23.0034   6.9007642595e+01   2.6740933729e+01    0.4873845    0.1272101 -29.59  0.001784618    2.889    0.654
         6  -9.9800     15.1765     12.0684   1.2331497084e+02   7.3428612962e+01    0.3000017    0.1713417 -38.66  0.001232681    1.453    0.312
         7  -8.9157     12.0080     10.0230   1.2449986275e+02   7.4101165000e+01    0.1524404    0.1376079 -62.95            0    1.325    0.245
         8  -9.1811    132.8583      8.1626   7.5484720096e+01   5.1006808377e+01    0.2690528    0.1573401 -29.56 0.0009290188    1.694    0.410
         9  -9.5271     84.0159      9.0786   8.7526183511e+01   6.2823804824e+01    0.2088097    0.1842146   9.66  0.000340779    1.015    0.015
        10  -8.4174    232.3029      6.3521   6.3929218084e+01   2.6510615894e+01    0.1277159    0.0910453  25.72 0.0007039841    1.703    0.413
        11 -10.3880     12.1862      5.5551   1.2208733380e+02   7.4980043327e+01     0.218198    0.1721263 -40.95 0.0002660959    1.086    0.079
        12  -8.1957    110.5931      5.4664   7.8654629877e+01   5.6921598305e+01    0.1447192    0.1274184  23.26 7.333393e-05    1.062    0.058
        13  -8.6660     64.5195      5.0084   9.2173620123e+01   6.7428880828e+01    0.1999922    0.1231063 -24.88 0.0004240537    1.516    0.340
        14  -9.8694     96.4880      3.6999   8.1134637002e+01   6.0534472646e+01      0.28986    0.2269833  23.66 0.0001645838    1.215    0.177
        15  -9.5572     69.0052      4.0269   8.9856424867e+01   6.6643895431e+01    0.2074191    0.1823815   1.60  0.000338716    1.034    0.033
        16  -9.8089     50.9166      3.7307   9.7341022303e+01   7.0150454517e+01     0.226217    0.1765845  -5.64 0.0002839715    1.146    0.127
        17 -10.2928     24.3065    242.2692   1.5049723948e+02   2.4131103735e+01    0.2015861   0.09117713 -64.74  0.001370342    2.735    0.634
        18 -10.3107    226.1586    249.4681   1.1678989447e+02  -7.9756683336e-02    0.4527674    0.1510378  37.26  0.002536075    2.412    0.585
        19 -11.0874    208.9957    247.3037   1.1919892858e+02   2.1734305376e+00     0.434382     0.318028  -4.43  0.003547007    1.346    0.257
        20  -9.2996    202.3790    249.8294   1.2057307375e+02   2.7404172212e+00     0.267941     0.135989  14.14  0.001637942    2.127    0.530
        21 -10.8496    193.4607    246.9045   1.2165772507e+02   4.1266902090e+00    0.4235207    0.2333703 -31.85  0.002945369    2.210    0.547
        22 -10.4750    186.1820    247.9814   1.2298342961e+02   4.9235118706e+00    0.3790251    0.2099069   0.58   0.00226528    2.568    0.611
        23 -10.2650    168.4279    249.7640   1.2614479795e+02   6.9512970050e+00    0.2861401    0.1412457  22.25 0.0004450881    2.009    0.502
        24  -8.9356    151.2179    249.8165   1.2906433247e+02   9.0912060068e+00    0.1404503   0.09845152  18.43 0.0007048913    1.332    0.249
        25  -9.0711    201.5773    221.2441   1.1690595227e+02   5.7806038312e+00    0.1823957   0.09456117 -19.71  0.001052722    2.320    0.569
        26  -8.4035    142.7423    242.9716   1.2981867084e+02   1.0970334318e+01    0.1104037   0.09228832 -40.39 0.0008932124    1.573    0.364
        27  -8.5603    174.3606    227.3068   1.2243341257e+02   8.7463552470e+00    0.1149664   0.07064367  12.69 0.0007039894    1.734    0.423
        28  -9.6487    216.8901    223.1971   1.1464265689e+02   3.5482992131e+00    0.2642607    0.1654926 -39.25  0.001755163    2.263    0.558
        29  -8.7887    180.8963    221.1864   1.2047196982e+02   8.5914756338e+00    0.2122582    0.1273779  -4.93  0.001240656    2.197    0.545
        30  -9.7158    193.2924    217.5097   1.1779087927e+02   7.3257812687e+00    0.3509789    0.1519145 -34.34  0.001929325    2.664    0.625
        31  -9.3470    210.9921    217.9914   1.1485163324e+02   4.8716617035e+00    0.2698559     0.144007 -26.13  0.001649666    2.023    0.506
        32  -9.5928    224.5494    207.8312   1.1105921828e+02   4.1291817316e+00    0.2775195    0.1852297 -39.90  0.001803876    2.186    0.542
        33  -9.7507    227.9670    216.5674   1.1186372670e+02   2.7767298781e+00    0.2415269    0.1461549 -27.33  0.001395608    1.789    0.441
        34  -8.9577    225.7855    212.9994   1.1166689765e+02   3.4254112832e+00    0.1841043    0.1147496 -17.80 0.0009910167    1.571    0.364
        35  -9.2165    219.4485    216.9423   1.1329908389e+02   3.8567731086e+00    0.2094171    0.1533845 -29.55  0.001520366    1.686    0.407
        36 -10.5242    206.4395    236.8399   1.1824966297e+02   3.5091320346e+00    0.3028436    0.2421114 -13.56  0.002370271    1.420    0.296
        37  -8.7158    200.5963    215.2714   1.1620700135e+02   6.5801974623e+00    0.1797497    0.1040221 -36.84  0.001123398    2.092    0.522
        38  -8.5933    179.6081    216.2042   1.2001418883e+02   9.3727207399e+00    0.1472898   0.09763366 -18.16  0.000951079    1.726    0.421
        39  -9.6450    216.8962    211.7926   1.1293557239e+02   4.7420629054e+00    0.2475706    0.1496841 -21.96  0.001561571    1.694    0.410
        40  -9.5967    192.6977    209.0593   1.1665758388e+02   8.4053636790e+00    0.2467941    0.1952574 -38.24  0.001745408    1.669    0.401
        41  -9.1128    206.2751    206.6819   1.1393470573e+02   6.7726607381e+00    0.2634261    0.1225094 -21.44  0.001359289    2.635    0.620
        42  -9.2381    197.3262    203.6880   1.1502298967e+02   8.3939235283e+00    0.3036123    0.1240503 -24.34  0.001362878    3.433    0.709
        43  -9.5649    223.5612    201.2811   1.1016923441e+02   4.9668719032e+00    0.2354617    0.1005448 -27.60  0.001254158    2.424    0.588
        44 -11.7116    226.5180    177.2545   1.0553412835e+02   7.2631422397e+00     1.133361    0.8084777  -4.21  0.007406269    1.208    0.172
        45  -9.3214    202.1520    196.9819   1.1310950914e+02   8.5085767687e+00    0.2568447    0.1589363 -28.75  0.001587556    1.718    0.418
        46  -9.0733    176.2110    197.0854   1.1783016865e+02   1.2328657663e+01    0.2269409    0.1319072 -36.83   0.00131636    1.951    0.488
        47  -8.6358    219.5871    194.2379   1.0966414849e+02   6.3107072885e+00    0.1570876   0.09570011 -13.63 0.0009524452    1.618    0.382
        48  -8.7756    209.3176    194.0043   1.1137248739e+02   7.8216104666e+00    0.1662346    0.1290296  -1.32 0.0009591964    1.146    0.127
        49  -9.0634    184.9911    193.7068   1.1566815850e+02   1.1467326148e+01    0.1917775    0.1446877  -2.62 0.0005158001    1.301    0.232
        50  -9.1959    215.0000    191.9645   1.1005596847e+02   7.2350658255e+00    0.1722659   0.06197463 -32.79 0.0007975689    2.909    0.656
        51  -8.5558    198.6015    190.8358   1.1272731721e+02   9.7956960291e+00    0.1495461     0.110039 -37.73 0.0009522583    1.677    0.404
        52  -8.5667    178.6325    188.7769   1.1605804210e+02   1.3100237082e+01    0.1531552    0.1140156 -45.27 0.0009488126    1.723    0.420
        53  -8.9979    215.3450    187.2416   1.0918954723e+02   7.7427891440e+00    0.1897124    0.1369283 -30.41  0.001028257    1.562    0.360
        54  -8.7835    217.9752    183.4166   1.0807312389e+02   7.8086914055e+00    0.1848073    0.1352221 -15.40  0.001118385    1.290    0.225
        55  -9.6672    210.9434    181.3225   1.0891154273e+02   9.1229352284e+00     0.357111    0.1602008 -27.39  0.001779579    2.336    0.572
        56  -9.5347    210.6334    175.2346   1.0786977450e+02   9.9346083478e+00     0.277728    0.1428424 -26.87  0.001239323    1.966    0.491
        57  -8.8706    203.3421    183.2101   1.1058112160e+02   1.0045991119e+01    0.1571084    0.1067726 -37.01 0.0009462017    1.731    0.422
        58  -9.1041    218.7745    178.0193   1.0697227955e+02   8.3379499872e+00    0.2434692    0.1261137 -31.54   0.00132748    1.964    0.491
        59  -8.7643    204.8877    177.1493   1.0923143344e+02   1.0585190388e+01    0.1742585    0.1564531   0.82 0.0008352926    1.247    0.198
        60  -8.6164    197.5910    176.7741   1.1047861473e+02   1.1780412816e+01    0.1560268    0.1139305 -38.40 0.0009445114    1.638    0.389
        61  -8.7278    215.5056    172.9823   1.0660945743e+02   9.4601995523e+00     0.174266    0.1103802 -27.37   0.00102128    1.568    0.362
        62  -9.2476    205.0441    169.3916   1.0777837373e+02   1.1576029313e+01    0.2923455    0.1628633 -41.27  0.001522521    2.170    0.539
        63 -10.0849    102.0189    169.9963   1.2922859313e+02   2.7861807654e+01    0.1770128    0.1600831  44.89  0.001174098    1.008    0.008
        64  -9.2846     30.5916    249.2643   1.4970409083e+02   2.2540605606e+01    0.1091257    0.0803477 -75.72 0.0009530594    1.657    0.397
        65 -10.0064    212.8097    162.7357   1.0513514398e+02   1.1197876943e+01    0.4071305    0.1840104 -31.47  0.001691326    2.188    0.543
        66  -9.3704    205.0817    161.1922   1.0620459542e+02   1.2669581856e+01     0.274918    0.1760427 -25.18  0.001548318    1.527    0.345
        67  -8.2445    176.4972    159.4901   1.1128908489e+02   1.7742342661e+01    0.1331871     0.113295  13.07 6.723727e-05    1.026    0.025
        68  -9.2518    216.1954    156.3017   1.0328005672e+02   1.1484712991e+01     0.271682    0.1824996 -35.26  0.001555976    1.627    0.385
        69  -9.1853    197.4422    155.9059   1.0655717865e+02   1.4688358035e+01    0.3672462    0.1926786  -9.60  0.001510997    2.977    0.664
        70  -8.7097    199.4792    164.5372   1.0786745169e+02   1.3137384933e+01    0.2478013    0.1183795 -32.77 0.0009924251    2.133    0.531
        71  -9.2097    215.2760    148.8126   1.0191689269e+02   1.2628411972e+01    0.2717369    0.1604138 -33.86  0.001363648    1.712    0.416
        72  -8.9614    207.6362    144.9684   1.0245684809e+02   1.4468876606e+01    0.2793309    0.1157869 -32.15  0.001213429    2.347    0.574
        73  -8.9013    214.2230    142.5115   1.0077901379e+02   1.3658517090e+01     0.227686    0.1433169 -37.08  0.001211269    1.702    0.413
        74  -9.4729    208.1575    137.2470   1.0070983801e+02   1.5459136238e+01    0.3398479     0.167484 -36.41  0.001583885    2.037    0.509
        75  -9.9945    205.3978    129.4885   9.9480362316e+01   1.7069049590e+01    0.4852965    0.2283206 -37.47  0.002163979    2.137    0.532
        76  -8.5786    133.0430    138.3199   1.1655570938e+02   2.9026860820e+01    0.2324941    0.1092111  21.98 0.0007041364    4.457    0.776
        77  -9.5068    221.0728    129.4933   9.6781075567e+01   1.4209387267e+01     0.382444    0.1672815 -37.42  0.001685637    2.317    0.568
        78  -9.0361    203.3629    122.5163   9.8245552660e+01   1.8464920846e+01    0.3459462    0.1410086 -41.63  0.001312777    2.749    0.636
        79  -8.9929    135.3303    127.3214   1.1368747144e+02   3.0734209047e+01    0.1461823     0.109029  -0.42 0.0007049081    1.695    0.410
        80  -8.9176    179.5344    124.3228   1.0320201809e+02   2.2794273281e+01    0.2790742    0.1293525 -40.39  0.001157244    2.215    0.549
        81 -10.7536    175.4908    246.5105   1.2458925933e+02   6.4190372446e+00    0.2781472    0.1827647  22.69  0.001312593    1.198    0.165
        82 -10.4266    177.0366    243.4679   1.2397193767e+02   6.5538785943e+00    0.2811372    0.1395112  21.49  0.001345414    2.006    0.502
        83  -8.3872    185.6050    114.8224   9.9726932758e+01   2.3120418992e+01    0.2008515    0.1261739 -41.16 0.0009491325    1.676    0.403
        84  -8.4201    194.5065    113.0061   9.7590542984e+01   2.1618255980e+01    0.1947374    0.1129221 -51.53 0.0008099827    2.490    0.598
        85  -8.6510    237.8216    245.0138   1.1441893718e+02  -1.0621983008e+00    0.1229856    0.1104479 -20.84   0.00105259    1.972    0.493
        86 -10.4714      3.4959    242.4988   1.5393419213e+02   2.5835762285e+01    0.2350989   0.03763765  49.41  0.001278563    2.903    0.656
        87  -8.3546    160.4988    108.4859   1.0334639267e+02   2.9309242505e+01      0.14476    0.1374235  -1.74 8.819109e-05    1.051    0.048
        88  -8.8925    171.2848    107.6457   1.0081830630e+02   2.7222990723e+01    0.1413697    0.1154028 -65.31 0.0003541379    1.666    0.400
        89  -9.3355    239.9657    240.4297   1.1346607210e+02  -9.2232360609e-01    0.1581981    0.1282567 -14.13 0.0009512083    1.613    0.380
        90  -8.9822    214.1572    240.9258   1.1754755537e+02   2.1449899647e+00    0.1491946    0.1176469  21.47  0.001014158    1.273    0.215
        91  -8.4945    205.4928    105.0196   9.3649707812e+01   2.0599951695e+01    0.2170815    0.1266205 -30.49  0.001027466    1.588    0.370
        92  -9.2238    149.5180    102.5235   1.0428888942e+02   3.2659796400e+01    0.1472489    0.1393069  -1.35 0.0008099045    1.014    0.014
        93  -8.3185    209.0000     99.9785   9.1790652381e+01   2.0614183217e+01    0.2267983   0.07328912 -30.34 0.0007893594    2.853    0.649
        94  -8.4664    166.6952    100.3574   9.9884842062e+01   2.9426103863e+01    0.1461944    0.1172498 -67.74  0.000704002    1.721    0.419
        95  -8.7641    160.2926    100.6551   1.0134964280e+02   3.0733701445e+01    0.1446907    0.1180115 -69.10 0.0005559005    1.662    0.398
        96 -10.1222    183.5567    238.8123   1.2230543274e+02   6.2273341404e+00     0.301336    0.1593017 -27.90  0.001921872    2.348    0.574
        97  -9.0020    152.8804    233.6346   1.2700835677e+02   1.0824708912e+01    0.1691399    0.1360994  -3.22  0.001271594    1.394    0.282
        98  -9.2091    195.0760     96.7921   9.3383331427e+01   2.3962580503e+01    0.2658624    0.1919779 -27.89  0.001043601    1.293    0.227
        99  -8.8350    153.4840     96.4861   1.0174985583e+02   3.2923306387e+01     0.147812    0.1407217  -6.71 0.0003752322    1.037    0.035
       100  -9.3644    183.4222     93.0202   9.4538611231e+01   2.7033988028e+01    0.5010379    0.1339992 -33.19  0.001534886    3.534    0.717
       101 -11.0126    240.7336    232.2018   1.1218598540e+02  -2.9626093903e-01    0.2531819    0.1635502 -35.98  0.001443563    2.337    0.572
       102  -8.7512    188.5161     93.0155   9.3579979908e+01   2.5934715125e+01    0.2258478    0.1347013 -30.51 0.0008846544    1.580    0.367
       103  -8.8871    196.4801     91.9771   9.1865916848e+01   2.4384008713e+01    0.2229189    0.1318001 -29.75  0.001025683    1.573    0.364
       104  -9.2163    141.3692     91.7776   1.0329803321e+02   3.6371043643e+01    0.2189011    0.1373187 -28.00 0.0009501147    1.701    0.412
       105  -8.7527    210.1364     91.1706   8.9352429534e+01   2.1622120153e+01    0.1959244    0.1530968 -41.17  0.001056892    1.365    0.268
       106  -9.2139    157.5774     90.7864   9.9245100268e+01   3.3049671971e+01    0.2173832    0.1355776 -44.48 0.0009564536    1.684    0.406
       107  -8.6192    192.6203     88.7555   9.1686922123e+01   2.5694491653e+01    0.2030147    0.1251844 -37.03 0.0009383007    1.573    0.364
       108  -9.2815    188.0068     87.0302   9.2050163728e+01   2.6961313864e+01    0.2792763     0.173989 -51.14  0.001031347    2.027    0.507
       109  -9.2486    185.4561     83.0265   9.1407447577e+01   2.8134503312e+01    0.3454156    0.1675257 -33.44  0.001418057    1.926    0.481
       110  -8.9856    151.0000     87.9899   9.9935317567e+01   3.4983649491e+01    0.2531248   0.08320627 -36.85  0.000806333    2.970    0.663
       111  -8.5338    197.6163     86.8184   9.0288631050e+01   2.4899120349e+01    0.2077097    0.1219964 -37.54 0.0009443391    1.652    0.395
       112  -9.0755    219.5502    239.5931   1.1651212985e+02   1.6067444649e+00    0.1779535   0.09374268 -29.40  0.001201269    2.170    0.539
       113  -8.6108    170.4640     83.5064   9.4435218314e+01   3.1417172587e+01    0.1489988    0.1388371  -8.98 7.349803e-05    1.020    0.019
       114  -8.8179    159.0000     82.0031   9.6401989659e+01   3.4247929160e+01    0.2527214   0.08288345 -34.58 0.0008040884    2.954    0.661
       115  -9.3649    142.6212     81.2122   9.9913053511e+01   3.8047505268e+01    0.2226033    0.1397116 -25.42 0.0009542761    1.712    0.416
       116  -9.8196    200.7386     77.4516   8.7212047095e+01   2.5559518099e+01    0.4014632     0.219553 -36.57  0.001218415    1.728    0.421
       117  -9.3384    119.5437     78.7188   1.0511742195e+02   4.3484383497e+01    0.3030559    0.1432536 -36.33  0.001150357    2.152    0.535
       118  -8.5438    188.7783     78.0411   8.9405349055e+01   2.8138846613e+01    0.1990597    0.1125514 -29.77 0.0008680904    1.653    0.395
       119  -8.9664    183.6409     77.7383   9.0241864423e+01   2.9343602472e+01    0.2599873    0.1729182 -38.30 0.0008377943    1.479    0.324
       120  -9.1275    174.4191     77.7956   9.1995625242e+01   3.1432737426e+01    0.2864495    0.1332854 -35.20 0.0007514797    2.027    0.507
       121  -9.2908    166.5093     77.5087   9.3488403677e+01   3.3287139565e+01    0.3131916    0.1422917 -32.37  0.001040984    2.115    0.527
       122 -10.5840    206.2266    225.7612   1.1676680197e+02   4.6767671882e+00    0.4257015    0.2019045 -41.56   0.00244401    2.968    0.663
       123  -9.4549    113.0889     75.1150   1.0581848068e+02   4.5527716497e+01    0.2249991    0.1929319  -4.13 0.0002791055    1.248    0.199
       124  -9.9729    202.3652    232.6313   1.1835513409e+02   4.4594741061e+00    0.2359403    0.1730566 -19.02  0.001122881    1.500    0.333
       125  -8.7566    205.8454     73.8602   8.5413077694e+01   2.4931735773e+01    0.1970742    0.1576169 -41.95 0.0009337072    1.298    0.229
       126  -8.5169    139.6923     74.3478   9.8511160360e+01   3.9935703302e+01    0.1534579    0.1203201 -68.76 0.0007043587    1.704    0.413
       127  -8.8955    150.4696     78.9930   9.7403217492e+01   3.6688588900e+01    0.2359021    0.1445771 -33.56 0.0007423796    1.585    0.369
       128  -9.6074    163.1692     71.0139   9.2210985623e+01   3.5104032283e+01    0.3658704    0.2127621 -30.70  0.001436794    1.655    0.396
       129 -11.6681    190.7332    234.0863   1.2049259449e+02   5.8121225036e+00    0.5526798    0.3489549 -19.80  0.003856645    1.811    0.448
       130  -8.8727     70.8384     71.3988   1.1842647153e+02   5.3928952053e+01    0.1826705     0.136465  15.93 0.0003968607    1.587    0.370
       131  -8.7524    170.4762     70.0107   9.0443279633e+01   3.3555358646e+01    0.2370028    0.1418123 -29.15  0.001035562    1.602    0.376
       132  -9.3487    195.0528     67.0327   8.5199892501e+01   2.8289559195e+01    0.4217923    0.2866379   1.97  0.001972457    1.730    0.422
       133  -9.5059    190.5397    225.2918   1.1935368319e+02   6.8097648810e+00    0.2763602    0.1443925 -22.53  0.001625147    2.385    0.581
       134  -9.1454    203.3314     66.4533   8.3739216961e+01   2.6489745351e+01    0.2891413    0.1620755 -31.69  0.001314663    1.619    0.382
       135  -8.4667    212.4482     66.0527   8.2288580961e+01   2.4513708370e+01    0.2155797    0.1263267 -25.87  0.000765628    1.542    0.352
       136  -8.7009    208.4361     64.0531   8.2310694517e+01   2.5661449964e+01    0.2250049    0.1273298 -26.61  0.001028611    1.604    0.376
       137 -10.1027     18.4881    232.5263   1.5115029317e+02   2.6125708984e+01    0.1774351   0.08271706 -83.18  0.001222872    2.212    0.548
       138  -8.6016     30.6274     62.2107   1.3188976246e+02   6.0913314254e+01    0.1826118    0.1000421 -54.58 0.0001792571    1.513    0.339
       139 -10.2123    215.5826    233.3655   1.1629582961e+02   2.6979035073e+00    0.3448039    0.1925575 -28.02  0.002354608    2.005    0.501
       140 -12.0436    247.8252    213.3555   1.0826421097e+02   5.4950586559e-01     1.267254    0.3114392 -34.89  0.005397957    4.908    0.796
       141  -9.0847    206.5478     59.2264   8.1226037747e+01   2.6707907212e+01    0.3278227    0.1332046 -23.90  0.001130044    2.370    0.578
       142  -8.4498    182.3714     58.1626   8.4663530127e+01   3.2480422593e+01    0.2130997    0.1242113 -37.13 0.0007509427    1.644    0.392
       143  -8.6471     33.1174     57.8808   1.2973236582e+02   6.1711018613e+01    0.1801891    0.1316132 -41.10  0.001024441    1.280    0.219
       144  -8.5641     95.4474     52.5038   1.0344178606e+02   5.3526209455e+01    0.1495849    0.1359862 -13.28 4.216628e-05    1.046    0.044
       145  -8.4634     72.6912     47.7209   1.0970541455e+02   5.8713167495e+01    0.1421461    0.1064889  -8.63 0.0001871118    1.559    0.358
       146  -8.8981    170.6559    233.8175   1.2390055139e+02   8.4694407776e+00    0.1856762   0.09200805 -30.69  0.001086198    2.645    0.622
       147  -9.1556    132.0000     42.0254   8.9190962713e+01   4.7088608361e+01    0.2556572   0.08368093 -29.89 0.0008083418    2.984    0.665
       148  -8.2304    185.3088     39.3451   7.8352931724e+01   3.4212282412e+01    0.1532754    0.1055046  22.65 0.0006706397    1.700    0.412
       149 -10.1630    228.1942     37.1729   7.2481524608e+01   2.4447999240e+01    0.2015257     0.171563  -1.15 0.0008814182    1.191    0.160
       150  -8.8368    223.2904     37.3456   7.3038960449e+01   2.5512340966e+01    0.1376529    0.0974914  18.13 0.0004262204    1.658    0.397
       151  -8.9307    133.5081     35.5097   8.6358837369e+01   4.7654786235e+01    0.1497179    0.1418443   5.84 0.0002168347    1.000    0.000
       152  -8.8058    149.4628     34.0171   8.2508766748e+01   4.3857671895e+01    0.2310489    0.1429086 -25.07  0.001017331    1.581    0.368
       153  -8.3029      1.4419     31.5117   1.3877340568e+02   7.0003366134e+01    0.1237345   0.09645608 -58.52 8.778881e-05    1.008    0.008
       154 -12.8066    244.9908    189.0204   1.0467048250e+02   3.3206761542e+00     2.343164    0.7912857 -41.47  0.008028295    7.009    0.857
       155  -8.6684    221.1613     28.8894   7.0931180372e+01   2.6880938550e+01    0.1846052    0.1500611   9.25 0.0006002812    1.333    0.250
       156  -9.5370     42.0982     27.9944   1.1501400941e+02   6.7314559318e+01    0.1985396    0.1689556 -29.85 0.0003512461    1.006    0.006
       157  -9.7803    136.7241     25.0515   8.1596232598e+01   4.8203242798e+01    0.2890119    0.2164279 -18.74 0.0003006615    1.327    0.246
       158  -9.4052     57.8353     25.8651   1.0643923551e+02   6.5398100546e+01     0.208272    0.1676688  -9.47 0.0005039138    1.208    0.172
       159  -9.7401    157.0711    245.9223   1.2764964678e+02   8.8091214549e+00    0.2105687    0.1283406 -10.69  0.001311443    2.537    0.606
       160  -9.2791     84.6981     21.9437   9.3887128829e+01   6.0953925837e+01    0.2361385    0.2064156 -76.00 0.0008175637    1.555    0.357
       161  -8.1797    155.6509     21.6623   7.6905676811e+01   4.3741221957e+01    0.1616362    0.1022106  30.26 0.0007046444    1.787    0.440
       162  -9.1560     28.0460     17.2708   1.1769660574e+02   7.1136342536e+01    0.1722309    0.1458751 -26.01  0.000229765    1.049    0.047
       163  -8.9291    155.5152     15.9737   7.4844366106e+01   4.4372591934e+01    0.2232801    0.1405175 -19.38  0.001032135    1.589    0.371
       164  -9.3450     23.3143     15.8402   1.1987681920e+02   7.1917925031e+01    0.1860246    0.1670837  12.31 0.0005649698    1.279    0.218
       165 -13.5662    246.0637    125.3031   9.1965640955e+01   1.0400199560e+01     2.244602     1.259596 -28.51   0.01217215    1.572    0.364
       166 -10.0007    218.4983    247.7616   1.1775693591e+02   9.8171459292e-01     0.299632    0.1860439 -34.35  0.002224214    2.168    0.539
       167  -9.7709      3.5210    249.6763   1.5409011561e+02   2.4778423152e+01    0.1591182   0.06203976  33.54  0.001095999    2.036    0.509
       168  -9.4804    225.2179    242.1228   1.1596297218e+02   6.8403155472e-01    0.3077904    0.1271976 -27.07  0.001871285    2.705    0.630
       169  -8.1903     34.2949     10.3433   1.1027854593e+02   7.1678647394e+01    0.1360059    0.0870093 -16.65 0.0004599086    1.663    0.399
       170  -9.6397     29.7282     13.0146   1.1448773936e+02   7.1764877694e+01    0.1966359    0.1656647  -7.29 0.0003189406    1.144    0.126
       171 -10.1208    201.9429    241.9080   1.1964585881e+02   3.5685778010e+00    0.2817313     0.163596 -32.62  0.001702494    2.095    0.523
       172 -10.7726    220.5154    161.9235   1.0365056112e+02   1.0060405791e+01     1.283327    0.3526133 -26.94  0.004326489    4.602    0.783
       173 -12.1631    223.8937    144.0334   9.9459236425e+01   1.1797638438e+01     1.898421     1.187833 -38.78   0.01032101    1.818    0.450
       174 -11.8945    228.7744    195.7934   1.0840765152e+02   4.8401438862e+00     1.507697    0.7411098 -22.32  0.008583913    2.041    0.510
       175 -13.1896    239.3056    214.2065   1.0970884665e+02   1.5462846027e+00     2.459235    0.8547192 -36.74   0.01214682    3.732    0.732
       176  -8.5951    178.6908    230.6970   1.2211352656e+02   7.7718133420e+00    0.1096841   0.06919371  12.23  0.000319813    1.606    0.377
       177  -8.7250    145.9479    230.4779   1.2789056535e+02   1.2135577487e+01     0.164503     0.085076  34.08 0.0003688653    1.500    0.333
       178 -11.0375    170.0074    241.1529   1.2489303549e+02   7.7090018746e+00    0.2965227     0.195706  -2.50  0.002046549    1.836    0.455
       179  -9.3525    242.6337    248.3097   1.1414168875e+02  -1.8902211571e+00    0.1643762    0.1176837  20.91 0.0008509587    1.262    0.207
       180  -9.5575    211.7535    227.5433   1.1610547504e+02   3.7707775452e+00    0.2063565    0.1542095 -14.79  0.001329883    1.408    0.290
       181  -9.6456    198.9673    226.0409   1.1802207559e+02   5.6042900287e+00    0.2809418    0.1454507 -24.10  0.001705461    2.258    0.557
