#   1 NUMBER                 Running object number                                     
#   2 MAG_AUTO               Kron-like elliptical aperture magnitude                    [mag]
#   3 X_IMAGE                Object position along x                                    [pixel]
#   4 Y_IMAGE                Object position along y                                    [pixel]
#   5 X_WORLD                Barycenter position along world x axis                     [deg]
#   6 Y_WORLD                Barycenter position along world y axis                     [deg]
#   7 A_WORLD                Profile RMS along major axis (world units)                 [deg]
#   8 B_WORLD                Profile RMS along minor axis (world units)                 [deg]
#   9 THETA_WORLD            Position angle (CCW/world-x)                               [deg]
#  10 FWHM_WORLD             FWHM assuming a gaussian core                              [deg]
#  11 ELONGATION             A_IMAGE/B_IMAGE                                           
#  12 ELLIPTICITY            1 - B_IMAGE/A_IMAGE                                       
         1 -13.7732    229.6650     24.6623   3.1774836033e+01   2.6527543869e+01    0.8154967    0.7626183  66.92  0.002600725    1.409    0.290
         2 -14.1820    212.2187     39.9577   3.6646692415e+01   2.8244041302e+01     1.839985     1.459452  25.37  0.008698777    1.973    0.493
         3 -11.4768    250.0000      5.9896   2.6809030476e+01   2.4702583989e+01     0.308046    0.1857072 -37.97  0.001394413    1.673    0.402
         4 -11.7366    249.3184      2.3257   2.6193945098e+01   2.5217958511e+01    0.3134531    0.2493839  68.02  0.001647879    1.563    0.360
         5 -15.1603      9.0417    208.1514   1.1932641152e+02   2.8073336365e+01      1.91727     1.132096 -78.69  0.008481427    1.475    0.322
         6 -12.5862     82.8591    215.9051   1.0316143972e+02   1.7700795657e+01    0.8220927    0.5245715  87.00  0.003964311    1.977    0.494
         7 -16.5970     22.4985    243.2626   1.1875601212e+02   1.9165246303e+01     8.747618     2.580243  24.32   0.03055828    5.488    0.818
         8  -9.6457    146.7513    187.0863   8.3091103905e+01   1.3919668732e+01    0.2928602    0.1861692 -73.91  0.001145415    2.677    0.626
         9  -9.5918     99.4686    181.0048   9.3903582587e+01   2.3417211330e+01    0.2157781    0.2010937  37.74 0.0004462297    1.074    0.069
        10 -16.1539     35.1666    187.5325   1.1154021611e+02   3.0430343855e+01     9.751997     4.050413  81.15   0.02877118    4.107    0.757
        11 -10.0034    187.2338    175.8352   7.1715587843e+01   9.1156975604e+00    0.2781055    0.2587816 -71.37   0.00120098    1.339    0.253
        12 -12.1414     58.2128    174.5436   1.0396832792e+02   3.1013249174e+01    0.4607652    0.3137139 -25.71  0.002161284    2.045    0.511
        13 -12.0107     63.5128    169.5163   1.0178966261e+02   3.1609602101e+01    0.3604542    0.2811481 -32.65  0.001388279    1.508    0.337
        14 -10.2056    119.1861    173.6219   8.7394885772e+01   2.1883772695e+01    0.2193063    0.1449418  23.64  0.000400636    1.712    0.416
        15 -13.6206     68.6266    130.3633   9.3293209623e+01   4.1002847797e+01     4.328449     2.380913  76.36   0.01257786    4.888    0.795
        16 -12.7547     80.8721    154.4126   9.4309976192e+01   3.3025337124e+01     1.194601    0.8817675 -49.48  0.001143573    1.317    0.241
        17 -14.1384     68.2075    144.5352   9.6229232819e+01   3.7419036850e+01     3.855475     1.857993  66.91  0.003214869    6.311    0.842
        18 -10.1296     86.0105    172.5891   9.6084703198e+01   2.7618072010e+01    0.3871503    0.2686639   2.16  0.001703011    2.066    0.516
        19 -10.9201     47.1417    169.4925   1.0629951295e+02   3.3638966052e+01     0.413965    0.2891418 -74.14  0.001006877    1.328    0.247
        20 -10.1273    230.5699    167.3403   6.1680831598e+01   3.4899384078e+00    0.2678664    0.1062675 -50.80 0.0009593561    3.352    0.702
        21  -9.0336    110.5338    167.4974   8.8504097380e+01   2.4876361506e+01    0.1521414    0.1472658  80.32 0.0001357185    1.061    0.058
        22  -9.5765     40.9724    165.0167   1.0741383055e+02   3.5473659820e+01    0.2149318    0.1699118  73.72 0.0005179183    1.271    0.213
        23 -11.8213     34.3151    158.5356   1.0844195653e+02   3.7831056588e+01    0.7414232    0.3739672  62.78  0.002837189    2.568    0.611
        24 -13.5204     60.7909    156.2051   1.0048034305e+02   3.5394099376e+01    0.5601828    0.3591187 -40.89  0.001476563    1.713    0.416
        25  -9.6709    174.8484    149.1049   6.8637542380e+01   1.6935656002e+01    0.2293426    0.2080696 -70.58 0.0006945601    1.263    0.208
        26 -10.4318    133.9258    145.5251   7.7628071890e+01   2.5843164696e+01     0.935237    0.2182213 -53.94  0.001945099    6.795    0.853
        27 -11.5633     57.5203    145.0238   9.9571217408e+01   3.8713497078e+01    0.5163898    0.3217048  79.01  0.002168705    2.254    0.556
        28 -10.0570     28.5325    143.1917   1.0808972504e+02   4.2334777031e+01    0.2536881    0.2107474 -43.56 0.0009529522    1.242    0.195
        29 -10.5565     96.4105    140.7971   8.6994745707e+01   3.3969728400e+01    0.4002201    0.2905342 -37.05 0.0009896787    1.449    0.310
        30  -9.8191     99.3213    138.0127   8.5522759494e+01   3.4159267314e+01    0.3381009    0.2258083 -34.63  0.001456507    1.664    0.399
        31 -12.4701     84.2870    139.2133   9.0278587812e+01   3.6380303056e+01    0.3296664    0.2752613 -46.61  0.000530579    1.154    0.133
        32  -9.5744    110.8577    203.5837   9.4687874429e+01   1.6271975519e+01    0.2038306    0.1233159  45.63 0.0004625513    1.627    0.385
        33 -10.8652    106.9347    130.6714   8.1594706496e+01   3.4588571035e+01    0.4634121     0.344355  21.46   0.00171795    1.533    0.348
        34  -9.9105    136.0000    129.4668   7.3278828629e+01   2.9151299313e+01    0.3582517   0.08822955 -46.79 0.0009379719    3.961    0.748
        35 -10.0872     47.8173    145.9299   1.0267115392e+02   3.9646848814e+01    0.2290341    0.1794312 -45.61 0.0006775056    1.271    0.213
        36  -8.8602     96.4996    125.4344   8.3447207546e+01   3.7763568238e+01    0.1566219    0.1462436 -23.30 1.780892e-05    1.075    0.069
        37  -9.1392    115.2506    124.5900   7.7714547006e+01   3.4458405043e+01    0.2157347    0.1516922  25.63 0.0005056501    1.616    0.381
        38 -11.9034     73.7102    160.5529   9.7475464801e+01   3.2505946631e+01    0.3743806    0.3448818 -45.65 0.0003111039    1.112    0.101
        39 -10.3596    161.2701    118.5253   6.4402533895e+01   2.6208506119e+01    0.5112936    0.3041973 -68.08  0.001825547    2.843    0.648
        40  -9.4364    135.0000    119.9785   7.1158318176e+01   3.1503319943e+01     0.262511   0.08809043 -45.68 0.0007692411    2.913    0.657
        41  -9.9397    105.8494    119.0115   7.9043273228e+01   3.7589538851e+01    0.2235634    0.2129695 -23.97 0.0003420758    1.031    0.030
        42 -10.6919    249.5238    114.0044   4.7908863755e+01   9.6508004442e+00    0.2059851    0.1063056 -40.14 0.0008771976    1.588    0.370
        43 -10.2694    205.2961    110.5460   5.3791788874e+01   1.8490708663e+01    0.3119951    0.2510965  28.55   0.00103328    1.527    0.345
        44  -9.3848     75.1044    110.8454   8.6699481407e+01   4.4899579814e+01    0.2198164    0.1990524  72.64 0.0004709433    1.292    0.226
        45  -9.6967    134.6104    105.7897   6.7525507528e+01   3.4680910655e+01    0.2248533    0.1443066 -53.29 0.0007130531    1.669    0.401
        46  -9.7109     66.9777    104.4918   8.7875994513e+01   4.7655605768e+01    0.2215264    0.1461691  30.04 0.0008228507    1.600    0.375
        47 -11.3838     53.2282     93.6099   9.0031496942e+01   5.2109858172e+01     0.716195     0.217639 -57.12  0.002332094    3.326    0.699
        48 -10.0494     46.0676     91.5236   9.2193639318e+01   5.3472686452e+01    0.2040184    0.1369196  25.08  0.001031739    1.596    0.373
        49  -9.7513    161.7439     83.9597   5.5291716309e+01   3.2867702513e+01    0.2055769    0.1916157 -49.66 0.0004682495    1.058    0.054
        50  -9.4453     22.8773     67.1154   9.5196263311e+01   6.1258508728e+01    0.1760163    0.1737884 -37.21 0.0005710045    1.279    0.218
        51 -11.0991      3.7886     64.7279   1.0310085486e+02   6.3075462585e+01    0.3229516    0.1504097  35.09    0.0015764    2.761    0.638
        52 -10.2907     30.6803     61.0586   8.9940463569e+01   6.1796109768e+01    0.3993644    0.2087066  43.17  0.001835596    2.698    0.629
        53 -11.5604     13.1997     60.1277   9.7630781391e+01   6.3481697665e+01    0.2938496    0.2694455 -75.39 0.0005214782    1.402    0.287
        54 -11.0942    193.4804    195.8973   7.4386046731e+01   4.1736910341e+00    0.9945318    0.5213414 -63.78  0.002829651    6.371    0.843
        55 -13.5134    203.6402     45.6637   3.8906080703e+01   2.9340200256e+01    0.8453704    0.6595312  44.97  0.001974411    1.608    0.378
        56  -9.5745    122.3393    199.4222   9.1210695480e+01   1.5348237618e+01     0.238488    0.1780651 -82.51  0.001147463    1.757    0.431
        57 -10.5351     33.4232     55.1354   8.6782816862e+01   6.2681231577e+01    0.2237063    0.1885376  14.89  0.000580819    1.241    0.194
        58 -10.9074      9.0053     51.4684   9.7154350231e+01   6.5539967743e+01    0.1716973    0.1410086 -22.34 0.0007077935    1.090    0.083
        59 -10.4933     15.9567     54.4744   9.4702926815e+01   6.4439910264e+01    0.2664543    0.1392179  23.90 0.0009956685    2.045    0.511
        60  -9.8592      1.5058     48.9735   1.0013066617e+02   6.6485078111e+01     0.180359    0.1012671 -57.20  0.001024214    1.578    0.366
        61 -10.4849    130.1727     37.6276   4.8308890554e+01   4.7411877798e+01    0.2642329    0.2163962 -84.61 0.0007193931    1.386    0.278
        62 -12.3517    220.7092     32.7975   3.4243119839e+01   2.7368637613e+01    0.3898912    0.3242443  59.99  0.001139656    1.432    0.302
        63 -10.5305    198.0316     23.9599   3.4534203989e+01   3.3287704998e+01    0.2527125    0.1844612 -24.83 0.0009996553    1.707    0.414
        64  -9.2952    189.4186     15.2906   3.3406705817e+01   3.6154936256e+01    0.1620211    0.1020417 -48.81 0.0006120545    1.520    0.342
        65 -13.2727     28.8842    200.4823   1.1428285999e+02   2.7957724989e+01    0.5155142     0.428737 -38.27  0.001287341    1.536    0.349
