#   1 NUMBER                 Running object number                                     
#   2 MAG_AUTO               Kron-like elliptical aperture magnitude                    [mag]
#   3 X_IMAGE                Object position along x                                    [pixel]
#   4 Y_IMAGE                Object position along y                                    [pixel]
#   5 X_WORLD                Barycenter position along world x axis                     [deg]
#   6 Y_WORLD                Barycenter position along world y axis                     [deg]
#   7 A_WORLD                Profile RMS along major axis (world units)                 [deg]
#   8 B_WORLD                Profile RMS along minor axis (world units)                 [deg]
#   9 THETA_WORLD            Position angle (CCW/world-x)                               [deg]
#  10 FWHM_WORLD             FWHM assuming a gaussian core                              [deg]
#  11 ELONGATION             A_IMAGE/B_IMAGE                                           
#  12 ELLIPTICITY            1 - B_IMAGE/A_IMAGE                                       
         1 -19.5755    225.1159    110.3843   4.8589771536e+01   1.3912750494e+01     6.571469     5.128919 -11.38   0.02991094    1.196    0.164
         2 -12.6403    210.8182     28.4064   2.8047792114e+01   2.8252507704e+01     1.336485    0.7786604  42.37  0.005747696    2.030    0.507
         3 -14.4856    237.4225      4.4707   1.9162656135e+01   2.4324324993e+01     2.570544    0.9830703  76.90   0.01083832    2.801    0.643
         4 -13.7371    237.0244     15.5737   2.2122931703e+01   2.3337929239e+01     1.870392     0.718467  87.22  0.006964192    3.565    0.720
         5 -13.4799    234.7659     25.5761   2.4983206165e+01   2.2813285364e+01     1.297204    0.5010367  68.92  0.003472124    2.767    0.639
         6 -12.8946    225.3848     24.4143   2.5484386088e+01   2.5141602456e+01    0.6628222    0.5347731 -48.96  0.002109633    1.137    0.120
         7 -13.7892    119.3229      9.4158   3.4190341835e+01   5.4367719491e+01     0.802153    0.5829898  14.32   0.00318957    1.480    0.325
         8 -15.2074     69.8787      5.7872   4.5255117585e+01   6.6342068072e+01     5.047043        0.567  53.74   0.01308344    6.557    0.847
         9 -10.6835    166.6017      1.9785   2.4230893616e+01   4.2461727257e+01    0.2959637    0.1710233  52.57  0.001339578    1.718    0.418
        10 -10.1200    187.2568      1.5343   2.2050262303e+01   3.7007056010e+01    0.1950305    0.1227697  59.92 0.0009342789    1.591    0.371
        11 -12.0989    141.8148    116.1216   6.6145792181e+01   3.0816028659e+01    0.4244998    0.2596103 -53.83  0.001137491    1.794    0.443
        12  -9.9896    110.8583    167.8799   8.3503646338e+01   2.6160454034e+01    0.1743792    0.1393524  70.15 0.0003371434    1.259    0.206
        13 -12.2908    175.3711     97.7939   5.4056180685e+01   2.6815221262e+01    0.6312589    0.3068951 -47.96  0.001980709    2.339    0.572
        14 -11.6575    171.5384     89.9699   5.2627157841e+01   2.9076475351e+01    0.5566835    0.2715434 -29.29  0.002098826    2.155    0.536
        15 -10.7899    162.4058    177.4070   7.4319282153e+01   1.5643429690e+01    0.2662389    0.1891111  77.34 0.0008492718    2.352    0.575
        16 -10.8179    157.1988     92.4686   5.6336210070e+01   3.1991066705e+01    0.3651915    0.2057268 -31.69 0.0005675678    1.830    0.454
        17 -12.0058    185.5725    181.5530   7.0648944931e+01   1.0991421431e+01    0.3565987    0.2210698 -56.52  0.001783541    2.582    0.613
        18 -11.2918    154.0023    159.4594   7.2795920500e+01   2.0176455911e+01    0.2222399    0.1892003 -71.46 0.0004045053    1.429    0.300
        19 -11.1551    134.9422     88.0087   6.0183347350e+01   3.7963011191e+01    0.3527642    0.2166307 -38.04  0.000772136    1.599    0.375
        20 -12.2440    119.2025     88.4052   6.4331916753e+01   4.1333251407e+01    0.7600358    0.2820411  35.32  0.002085035    4.628    0.784
        21 -12.9448    185.3854    170.3276   6.8657466033e+01   1.2670511216e+01    0.3341413    0.2613502 -16.39  0.001484284    1.350    0.259
        22 -10.1006    146.2222     86.0415   5.6912019406e+01   3.5757869400e+01    0.2159014    0.1918404 -37.82 0.0004137376    1.090    0.083
        23 -12.2987    183.1200     79.0865   4.7261746723e+01   2.8139163380e+01    0.5376878    0.3747251  43.90  0.002360048    1.507    0.336
        24 -12.0804    132.6440     73.5011   5.6235200495e+01   4.1325234117e+01    0.3794314    0.3228711 -15.47   0.00105855    1.265    0.209
        25 -10.1972    139.0091     78.2144   5.6199872522e+01   3.8936285288e+01    0.2361978    0.1666587  51.73 0.0006136092    1.470    0.320
        26 -11.1794    134.5184     77.9685   5.7208934121e+01   4.0031113634e+01    0.3496522    0.2242864  45.67  0.001221833    1.621    0.383
        27 -10.8227    176.5226     75.2352   4.7327627507e+01   3.0375373653e+01    0.3496882    0.2268577  -7.76  0.001133843    2.021    0.505
        28  -9.9614     88.0033     74.9522   6.9337150872e+01   5.0450843264e+01     0.183416    0.1558505 -49.13 0.0004336747    1.085    0.078
        29 -10.0451     60.6510    148.6829   9.2534365266e+01   3.7592689015e+01    0.1211142   0.09743955 -35.49 0.0007047869    1.731    0.422
        30 -11.2503    152.3340     67.1989   4.9628561554e+01   3.7716663816e+01    0.6201379    0.2933597 -18.41  0.001897659    3.464    0.711
        31 -11.8792     68.1839    144.1697   9.0060630955e+01   3.7604492249e+01    0.6210539    0.3503458  75.66   0.00289652    2.204    0.546
        32 -11.1445    183.8698     63.8302   4.2539698701e+01   3.0355589162e+01    0.3023551    0.2285796   9.30 0.0004848882    1.589    0.371
        33 -11.3557    180.1754     62.7592   4.2838858079e+01   3.1446658130e+01    0.2792511    0.2402576   2.40 0.0003966772    1.249    0.200
        34 -11.3853    183.4162     59.7315   4.1345711034e+01   3.1086506164e+01    0.4821818    0.2673021  44.95  0.001206585    1.955    0.488
        35 -13.0722    158.8175    143.5875   6.8629478904e+01   2.2097166080e+01    0.3551236    0.2840115  80.07  0.001531139    1.666    0.400
        36 -10.4259    174.0305     63.9854   4.4311289238e+01   3.2805022821e+01    0.3115742    0.2155997  56.12  0.001423528    1.499    0.333
        37 -15.0822     40.3689    119.0607   9.3990513969e+01   4.6827079481e+01     1.120438     0.909784  35.94  0.005113593    1.427    0.299
        38 -12.1227    143.9078     61.0362   4.9399933170e+01   4.0869074184e+01    0.4639094    0.2880114 -38.01  0.001991373    1.540    0.350
        39 -10.6571    119.2987     65.3463   5.6921403952e+01   4.5967424963e+01    0.1578514     0.121311   2.09 0.0007036038    1.679    0.404
        40 -10.7806    219.0550     56.1848   3.5121881176e+01   2.2832334729e+01    0.3014423    0.2161743  26.89 0.0009438279    1.674    0.403
        41 -10.4815    223.5253     54.5338   3.4107863191e+01   2.1998948304e+01    0.2537967    0.1323449  57.14  0.001028035    2.051    0.512
        42 -10.1931    207.5146     54.4660   3.6135355507e+01   2.5830782419e+01      0.21502    0.1683496  15.34 0.0005923424    1.481    0.325
        43 -10.5283    207.8328     50.8338   3.5027452422e+01   2.6237091907e+01    0.2224572    0.1882752  20.68  0.001176791    1.316    0.240
        44 -15.7475      7.4346    120.8664   1.0343212660e+02   4.9337711731e+01     1.507816     1.301265  84.16   0.01099236    1.149    0.130
        45 -11.3773    229.6459     50.2742   3.2219566126e+01   2.1121202332e+01    0.3662111    0.2781413 -85.30  0.001251143    1.576    0.366
        46 -10.8684    214.7025     47.7170   3.3249698864e+01   2.4968450994e+01    0.3133078    0.1907449  44.00  0.001429859    1.865    0.464
        47 -10.5264    176.1492     40.8318   3.6417745952e+01   3.5637909596e+01    0.2355161    0.1990264 -55.62 0.0007517794    1.211    0.174
        48 -10.9617    193.4167     39.3609   3.3455509569e+01   3.1345643214e+01    0.4476095    0.2398814  37.51 0.0009572866    2.361    0.576
        49 -11.7646    203.0571     36.2200   3.1262804757e+01   2.9281496760e+01    0.5657095     0.223466  61.68  0.002148017    2.525    0.604
        50 -11.3952    209.3561     33.9170   2.9838635151e+01   2.7978829315e+01    0.3408447     0.194345  55.91  0.001054457    1.844    0.458
        51 -14.8570      6.6619    100.2241   1.0174645976e+02   5.4236191926e+01     1.309338     1.094003 -76.34  0.009187684    1.131    0.116
        52 -11.3419    220.0576     38.1610   2.9893431913e+01   2.4855522577e+01    0.4411643    0.2832072  30.55  0.002042984    1.999    0.500
        53 -11.3317    216.4752     38.5420   3.0395560603e+01   2.5675866898e+01    0.3524138    0.2265233 -28.36  0.001064732    1.405    0.288
        54 -10.1041    135.0774    224.3291   8.6097351051e+01   1.2898845261e+01    0.1586185    0.1159037  42.95 0.0003324469    1.077    0.071
        55 -12.7025    192.7319    194.7038   7.1591267441e+01   7.9871696029e+00    0.7961616    0.4212802 -58.24  0.003041189    5.332    0.812
        56 -11.3816    199.0311    241.3423   7.7340642087e+01   1.6076283734e+00    0.1605592    0.1412384   9.48 0.0003223621    1.283    0.220
        57 -13.0439     75.8098    118.5191   8.3820376731e+01   4.2403420745e+01    0.6429263    0.5864664 -39.78  0.002150921    1.278    0.217
        58 -13.1702     70.0311    115.5366   8.4890737470e+01   4.3950151812e+01    0.7752327    0.4968997 -31.15  0.003547524    2.387    0.581
        59 -11.2687    185.5760     26.5468   3.0372312456e+01   3.4935266094e+01    0.5572184     0.303367  46.32   0.00206098    2.005    0.501
        60 -12.2500    193.5745     23.9660   2.8580971819e+01   3.3138309092e+01    0.5187142     0.237602  56.09  0.001211391    2.190    0.543
        61 -11.8999    198.3617     20.4215   2.6942560610e+01   3.2287598171e+01    0.3791646    0.2596411  47.59 0.0008134351    1.591    0.372
        62 -12.1582    203.4864     18.5059   2.5829479676e+01   3.1178835795e+01    0.5931873    0.2201084  51.79  0.002178704    2.883    0.653
        63 -11.3118    160.6523     25.9907   3.3669853143e+01   4.1625641762e+01    0.4599961    0.2088179 -52.76  0.001599194    2.798    0.643
        64 -13.7946     60.9352    117.2480   8.7808410119e+01   4.4798031334e+01    0.6070004    0.5265943  23.86  0.001935361    1.428    0.299
        65 -11.5531    179.3697     23.8650   3.0275406294e+01   3.6878690331e+01    0.4829292    0.3588383  73.43  0.002402176    1.387    0.279
        66 -12.2366    201.4479    188.4070   6.9003068266e+01   7.3848211958e+00    0.5130957    0.2262641  47.39  0.002424654    2.334    0.572
        67 -11.9391    125.4148    107.3547   6.7918945503e+01   3.6034277202e+01    0.3570356    0.2745221 -70.63  0.001585804    1.519    0.342
        68 -10.8396    195.3577     12.9639   2.4922528484e+01   3.3832941977e+01    0.2975762    0.1743816  53.07 0.0008610146    1.790    0.441
        69 -11.5359    146.6497    104.8344   6.2128797693e+01   3.2015875893e+01     0.318437    0.2490866 -61.34 0.0008575462    1.445    0.308
