#   1 NUMBER                 Running object number                                     
#   2 MAG_AUTO               Kron-like elliptical aperture magnitude                    [mag]
#   3 X_IMAGE                Object position along x                                    [pixel]
#   4 Y_IMAGE                Object position along y                                    [pixel]
#   5 X_WORLD                Barycenter position along world x axis                     [deg]
#   6 Y_WORLD                Barycenter position along world y axis                     [deg]
#   7 A_WORLD                Profile RMS along major axis (world units)                 [deg]
#   8 B_WORLD                Profile RMS along minor axis (world units)                 [deg]
#   9 THETA_WORLD            Position angle (CCW/world-x)                               [deg]
#  10 FWHM_WORLD             FWHM assuming a gaussian core                              [deg]
#  11 ELONGATION             A_IMAGE/B_IMAGE                                           
#  12 ELLIPTICITY            1 - B_IMAGE/A_IMAGE                                       
         1 -13.5775    179.3258     29.8883   7.1870557814e+01   3.6564348062e+01     1.026466    0.8814774  15.65  0.003417643    1.139    0.122
         2 -13.3968    185.2090     19.9280   6.7548358144e+01   3.6106853150e+01    0.8957636     0.666455  16.90   0.00136577    1.416    0.294
         3 -11.6235    249.7800    224.7744   1.0576037105e+02  -2.4826199540e+00    0.3893521    0.2024917 -16.48   0.00250524    2.061    0.515
         4 -10.8609    248.8451    249.8777   1.0950517975e+02  -4.3099303451e+00    0.3096059    0.1769959  32.24  0.002295383    1.226    0.184
         5 -12.2019    245.4194    242.2798   1.0897983057e+02  -3.2812293272e+00    0.5966603    0.3318702  42.06   0.00405749    1.729    0.421
         6 -19.3273     30.7076    138.8882   1.3712164630e+02   4.2239714171e+01      16.5745     1.676733 -73.23   0.04084195    9.948    0.899
         7 -10.5121    191.5335    192.0563   1.1041871563e+02   9.9344358103e+00    0.3811125    0.2218027 -63.80  0.001273978    7.447    0.866
         8 -11.5969     87.3071    181.8231   1.2923864991e+02   2.7694109362e+01    0.3024437    0.2467131 -62.92  0.001428318    1.386    0.278
         9 -11.2562     90.1627    176.5490   1.2808403669e+02   2.8254091279e+01    0.2774859    0.2046617 -45.51  0.001406439    1.722    0.419
        10 -12.4362    112.7622    210.6340   1.2740741446e+02   1.9563976134e+01    0.3667112    0.1684356  38.71  0.001372708    1.808    0.447
        11 -11.5867    114.8195    172.0046   1.2242113732e+02   2.5545768059e+01    0.4883086    0.3115301 -84.03  0.002591301    2.286    0.563
        12 -11.7887    106.6100    172.2543   1.2416532892e+02   2.6722732412e+01    0.4555598    0.1378096  41.85  0.001890575    2.808    0.644
        13 -10.0724    227.6093    170.7809   1.0019856798e+02   6.3499840367e+00    0.1614087    0.1132399 -32.72 0.0007297354    1.702    0.412
        14 -10.0030    137.6766    170.6674   1.1747921964e+02   2.2152298561e+01     0.124729   0.09549804   6.49 0.0007050422    1.705    0.413
        15 -11.9114     96.4680    167.3316   1.2566516534e+02   2.9067428857e+01    0.4527945    0.2598125  61.44 0.0008929637    1.937    0.484
        16 -12.7582     85.1070    162.2560   1.2746744617e+02   3.1568672648e+01    0.3236222    0.3066605 -31.62 0.0009987251    1.337    0.252
        17 -11.4667    100.7129    159.1795   1.2366335774e+02   2.9982101462e+01    0.4475838    0.2596191 -43.65  0.002358552    2.141    0.533
        18 -13.6131     68.3825    144.6600   1.2904372619e+02   3.7158317106e+01    0.7528633    0.4871353 -78.10  0.003939592    1.532    0.347
        19 -10.7282    110.5842    142.5279   1.1886826883e+02   3.1686169152e+01    0.4147263     0.186989 -38.23  0.001619055    3.359    0.702
        20 -11.3940     99.6176    143.3551   1.2156494537e+02   3.3211038970e+01    0.2337972    0.2113033  38.12 0.0004775006    1.145    0.126
        21 -16.5930     86.8760    223.7787   1.3313912489e+02   2.0985962443e+01     5.285667     1.567362  47.92   0.02713325    2.574    0.612
        22  -9.3402    134.3038    148.6506   1.1453196658e+02   2.6574366399e+01    0.1328534    0.1020226  76.93   0.00050491    1.698    0.411
        23 -10.0938    116.9551    132.0643   1.1548546075e+02   3.2707194772e+01    0.2124714    0.1655849  -7.91  0.001127272    1.742    0.426
        24 -10.6256    105.3803    129.5469   1.1783275692e+02   3.5107395814e+01    0.3470207    0.2405682 -65.15  0.001038582    1.555    0.357
        25 -14.6043    161.2176    110.9865   1.0035092653e+02   2.8258832367e+01     2.030162     1.794403  15.40  0.007526414    1.087    0.080
        26  -9.0191    111.5379    120.5312   1.1455578411e+02   3.5945277464e+01    0.1323927    0.1305648  66.56  0.000202506    1.007    0.007
        27 -13.0464    168.8272     40.9629   7.7600429054e+01   3.7919127661e+01    0.7471073    0.6470143 -12.64  0.002032834    1.123    0.109
        28 -10.2307    190.8281    230.5196   1.1610364894e+02   5.5866036964e+00    0.2031445    0.1544622 -65.41  0.001367129    2.576    0.612
