#   1 NUMBER                 Running object number                                     
#   2 MAG_AUTO               Kron-like elliptical aperture magnitude                    [mag]
#   3 X_IMAGE                Object position along x                                    [pixel]
#   4 Y_IMAGE                Object position along y                                    [pixel]
#   5 X_WORLD                Barycenter position along world x axis                     [deg]
#   6 Y_WORLD                Barycenter position along world y axis                     [deg]
#   7 A_WORLD                Profile RMS along major axis (world units)                 [deg]
#   8 B_WORLD                Profile RMS along minor axis (world units)                 [deg]
#   9 THETA_WORLD            Position angle (CCW/world-x)                               [deg]
#  10 FWHM_WORLD             FWHM assuming a gaussian core                              [deg]
#  11 ELONGATION             A_IMAGE/B_IMAGE                                           
#  12 ELLIPTICITY            1 - B_IMAGE/A_IMAGE                                       
         1 -15.2230     10.8083     75.1441   6.1021323372e+01   6.2404528976e+01     3.162313     2.694919 -36.69   0.01781243    1.150    0.131
         2 -14.7811     10.4396     25.0553   4.6182282086e+01   7.4294176376e+01     3.094606     1.886695 -39.69   0.01673447    1.563    0.360
         3 -13.5664    119.5550     10.4190   3.5516022499e+02   5.3409362681e+01     2.229237     0.902799  80.24  0.006503132    2.530    0.605
         4 -12.8634     76.2160     12.8531   4.7891676252e+00   6.3831513831e+01    0.4997981    0.3686663  66.73  0.001698824    1.234    0.189
         5 -14.2973     84.4143      6.2376   3.5962101674e+02   6.2514076535e+01     2.384673     1.008374  65.43   0.01052133    2.021    0.505
         6 -10.9403    233.2073     21.0243   3.4819988946e+02   2.7493638284e+01    0.2431139    0.1376103 -66.21  0.001274566    1.509    0.337
         7 -10.7248    208.2418     16.9440   3.4876482198e+02   3.2618979736e+01      0.22062    0.1681304 -71.77 0.0006347817    1.127    0.112
         8  -9.9022    178.3612      8.4180   3.4867845650e+02   3.9750946881e+01     0.204115    0.1289199  72.51 0.0008467114    1.590    0.371
         9 -12.6333    184.5780     11.8907   3.4912406683e+02   3.8041220032e+01    0.7631046     0.638213 -43.32  0.003747188    1.251    0.200
        10 -11.1146    174.9556     13.5094   3.5025911130e+02   3.9968371974e+01    0.3238709    0.1993975 -79.19 0.0009439549    1.476    0.323
        11 -14.5656     44.2683     44.0315   3.2737759923e+01   6.5786091325e+01     1.760808     1.378161  19.37  0.006330437    1.354    0.261
        12 -10.2470    202.0554     11.4518   3.4788606635e+02   3.4447277085e+01    0.1732835    0.1422225 -47.15 0.0004159838    1.214    0.176
        13  -9.6437    155.4717     10.0128   3.5095037705e+02   4.4771452456e+01    0.1813237    0.1111533 -39.16 0.0009122684    1.535    0.349
        14 -11.9321    148.6891      6.7217   3.5060064634e+02   4.6694039567e+01     0.491225    0.2735733 -68.96   0.00122057    1.690    0.408
        15 -15.1803     63.3388     40.2992   2.2198500182e+01   6.2845261071e+01     3.630888     1.904093  36.95   0.01536334    2.107    0.525
        16 -11.8292    137.7554      4.5749   3.5099178031e+02   4.9513362771e+01    0.3799938    0.2456297 -70.06 0.0007041889    1.412    0.292
        17 -10.7421     38.0262      5.6859   1.5193628890e+01   7.3148411474e+01    0.1836905    0.1642395  39.09 0.0005213055    1.041    0.040
        18 -10.4171    215.6609      2.4741   3.4517325386e+02   3.2698525720e+01    0.1916395    0.1329443 -58.71 0.0002541221    1.052    0.049
        19  99.0000     67.1107     21.0388   1.1669940158e+01   6.4977014786e+01     1.341023    0.8896266  49.54  0.007030714    1.381    0.276
        20 -11.8820    139.8119    126.9785   2.5828277604e+01   2.8795577493e+01    0.4628616     0.348044  59.20  0.001279108    1.523    0.343
        21 -12.7424     13.1439    120.4906   6.6349231511e+01   4.9855209013e+01    0.6216126    0.2743635 -87.65  0.002381207    2.370    0.578
        22 -11.1615    164.4713    118.5166   1.8625441025e+01   2.5835313136e+01    0.5939876    0.4075349  29.43  0.002925422    1.857    0.462
        23 -12.6608      3.5835    115.8300   6.9722105898e+01   5.1776459743e+01    0.6164919    0.3991616 -65.46   0.00308079    1.417    0.294
        24 -11.6388    125.6053    112.2272   2.5770297804e+01   3.4782614515e+01    0.6394823    0.4073311  75.07  0.002475887    2.561    0.609
        25 -11.6974    112.1124     95.5637   2.4976659618e+01   4.1239916803e+01     0.558082    0.3604176 -66.51  0.002354857    1.894    0.472
        26 -14.0804     98.9415    102.8192   3.0787737138e+01   4.2305075855e+01      2.28765     1.686706  44.24   0.01079768    1.370    0.270
        27 -13.6116     76.0404    106.1942   3.9229077875e+01   4.5801188608e+01     1.730149    0.8974832  38.92   0.00530825    1.915    0.478
        28 -10.4077     54.4553     95.4368   4.4810936754e+01   5.2120707345e+01    0.2944095    0.2601137 -45.32 0.0009161343    1.146    0.128
        29 -10.0003    206.1815     93.8442   6.3185636910e+00   2.2479992543e+01    0.2709437    0.1635883 -60.48  0.001413456    1.830    0.454
        30 -11.8058    144.2988     91.5195   1.6071605757e+01   3.5158289813e+01     0.383449    0.2636204  56.15  0.001867294    1.534    0.348
        31 -10.7019    243.9818    250.0000   2.8119882882e+01  -4.9114083344e+00    0.1425426   0.04634199  25.48 0.0008067796    2.973    0.664
        32 -12.5507    193.4690    248.8966   3.6049582591e+01  -3.8778960917e-01    0.3619218    0.2723258   5.31  0.002769863    1.093    0.085
        33 -10.5392    200.7948    236.3942   3.3078864598e+01   5.7303616272e-01    0.1529042   0.08541025  12.14  0.000571711    1.667    0.400
        34 -10.9456    163.7094     78.1140   8.8693878892e+00   3.3427167104e+01    0.4378638    0.2888084  82.74  0.002109728    1.895    0.472
        35  -9.9207    214.3296    231.6905   3.0146042045e+01  -1.1281854231e-01   0.08893384   0.08345408  12.55 0.0005106929    1.665    0.399
        36 -11.7642    234.9309     75.7459   3.5927857646e+02   2.0274403959e+01    0.2457538    0.2170523 -58.83 0.0008141826    1.182    0.154
        37  -9.9419    212.9822     76.6909   1.7389618670e+00   2.3901594427e+01    0.1626407    0.1372377 -55.79 0.0003161916    1.069    0.065
        38 -10.4685    206.6681     76.0648   2.3236826665e+00   2.5147308919e+01    0.3095324    0.1842352 -53.88  0.001174418    1.504    0.335
        39  -9.4694    122.1387     76.5888   1.6882329615e+01   4.2956718021e+01    0.1984243    0.1388995  42.72 0.0004700642    1.580    0.367
        40 -10.3245    250.1968     74.6271   3.5769296012e+02   1.8023743758e+01    0.1974064    0.1103775 -45.26 0.0005856008    1.307    0.235
        41 -11.2832     75.3339     71.9495   2.9613286822e+01   5.4107259466e+01    0.4333376    0.3096447  19.51   0.00159505    1.853    0.460
        42 -10.3899     85.9157     69.1709   2.4913981817e+01   5.2510275048e+01    0.2731138    0.2325526 -29.05  0.001087066    1.320    0.242
        43 -11.8065     64.1959     67.4545   3.2477690483e+01   5.7258165588e+01    0.6022142    0.4392676 -79.18  0.002771348    1.821    0.451
        44  -9.6361    124.0033    206.0076   4.4100457152e+01   1.4604782132e+01    0.1482556    0.1344995   8.82 0.0009241087    1.019    0.019
        45 -10.2902    175.0042     80.9228   7.7543393544e+00   3.0577295089e+01    0.2988918    0.1772211 -37.18 0.0009727936    1.589    0.371
        46 -11.7388    214.7631     60.9146   3.5808751568e+02   2.5846940904e+01    0.3771873    0.2788133 -79.67  0.001333974    1.404    0.288
        47 -10.0425    169.8586     61.4709   3.5535153319e+00   3.4813357619e+01    0.2203747     0.179023  88.60  0.001026541    1.233    0.189
        48  -9.9412    246.4908     60.4365   3.5523188143e+02   2.0467217276e+01     0.115091   0.08271515 -49.92 0.0001030389    1.032    0.031
        49 -10.6444    134.3749     59.3209   8.9375554596e+00   4.3229447374e+01    0.3395683    0.3074408  39.22  0.001810209    1.310    0.237
        50 -11.7403    125.2349     57.3681   1.0217218664e+01   4.5712237744e+01    0.3676472    0.3019134  71.32 0.0007659088    1.188    0.158
        51  -9.1928    164.0101     56.0027   2.9374316550e+00   3.6940274089e+01    0.1586688    0.1374723 -65.71            0    1.002    0.002
        52 -10.0698    128.6304     82.1974   1.6977740084e+01   4.0406646501e+01    0.2429863    0.1952052  68.90 0.0006424285    1.293    0.227
        53 -10.6233    209.9805     54.1761   3.5705081874e+02   2.7671100460e+01    0.2283386    0.1682349  78.61 0.0007696663    1.490    0.329
        54  -9.4951    170.8725     52.7631   1.1162337390e+00   3.5902028106e+01    0.1797545    0.1733914 -69.34 0.0006364912    1.200    0.167
        55  -9.7754    133.7438     52.0320   6.8077916582e+00   4.4557482495e+01    0.1906169     0.171985 -66.41 0.0002119164    1.045    0.043
        56  -9.5949    213.6835     50.1027   3.5579683514e+02   2.7519971260e+01    0.1684818    0.1252826 -48.27 0.0003934746    1.084    0.078
        57 -11.0886    194.8502     79.0892   4.4781240355e+00   2.6915205966e+01    0.5468602     0.385515   7.83  0.002650658    2.729    0.634
        58 -12.2951    120.8499     44.1934   6.8089254267e+00   4.8863760385e+01    0.3703135    0.3394317  76.52  0.001384873    1.073    0.068
        59 -11.1689    157.0679     42.6482   2.0456675324e-01   4.0461909278e+01    0.2727439    0.2156167  87.40 0.0005485291    1.205    0.170
        60 -10.7531    247.2843     42.1856   3.5159967820e+02   2.2625826223e+01    0.1565043    0.1372921 -74.19 0.0003948429    1.301    0.232
        61  -9.8236    180.2719     41.3451   3.5700402342e+02   3.5448211171e+01    0.2352716     0.123753 -53.61  0.001172604    1.690    0.408
        62 -10.5669    105.3742     41.2484   9.2204275202e+00   5.3060587884e+01    0.3373746    0.2797806 -75.71  0.001319709    1.232    0.188
        63 -11.4253    228.7096     40.3015   3.5247395972e+02   2.6025205266e+01    0.3355293    0.2062349 -88.16 0.0007996007    1.760    0.432
        64 -13.2399    213.3673     39.2011   3.5339777657e+02   2.8991012378e+01    0.2921809    0.2380806 -79.37 0.0006582718    1.205    0.170
        65  -9.3995    197.5591     40.2314   3.5499376381e+02   3.1971363033e+01    0.1672623    0.1130552 -24.76 0.0009446897    1.754    0.430
        66 -10.9665    136.0583     38.2276   2.0395834714e+00   4.6041978525e+01    0.4969025    0.2669324 -50.12  0.002244831    1.810    0.448
        67 -11.3364    130.5330     37.3211   2.6814584163e+00   4.7504335269e+01    0.4474123    0.3392369 -68.70 0.0006572863    1.285    0.222
        68 -12.1782    240.9812     34.3632   3.5044730499e+02   2.4610471275e+01    0.2586426    0.2434066 -81.23  0.000665695    1.403    0.287
        69 -10.6089    248.6003     31.2429   3.4939118043e+02   2.3703845451e+01    0.2637477    0.1325561  78.63  0.001657551    2.296    0.565
        70 -10.8497    160.1425     35.6136   3.5780283394e+02   4.0702970586e+01     0.239075    0.2056419 -54.64 0.0004362376    1.111    0.100
        71 -11.4347    151.5078     31.2482   3.5763402046e+02   4.3277994996e+01    0.3968909    0.1989801  62.24  0.001021003    1.955    0.488
        72 -10.6869    228.8846     29.7547   3.5025541878e+02   2.7265585921e+01    0.2106919    0.1249176 -46.35  0.000387945    1.254    0.203
        73  -9.8921    137.9522     30.0252   3.5913198600e+02   4.6671315660e+01    0.2033579    0.1613307  34.70 0.0008035323    1.662    0.398
        74 -10.6717    158.2281     78.9010   1.0023589173e+01   3.4471564659e+01    0.4318185    0.2365785 -33.40  0.001637146    1.956    0.489
        75  -9.4842    216.3280     27.0715   3.5049729969e+02   2.9900990458e+01    0.1637255    0.1170983 -52.32 0.0003869162    1.069    0.065
        76 -10.8596    168.5916     26.9398   3.5443590816e+02   3.9865431636e+01    0.3806979    0.1744179  74.67  0.001789091    2.158    0.537
        77 -10.4503    249.2179     85.4874   3.5986975822e+02   1.6700821728e+01      0.22143    0.1061165 -56.21  0.001191419    2.192    0.544
        78 -11.8449    241.8117     23.2057   3.4818252476e+02   2.5753952080e+01    0.4178304    0.1867777 -58.00  0.002082586    1.790    0.441
        79  -9.0991    136.3152     23.2925   3.5720598714e+02   4.7891931300e+01    0.1286823   0.09908102  43.18 0.0007007424    1.597    0.374
        80 -10.8881    237.1795    196.1716   2.1203155285e+01   2.4119188424e+00    0.1405947    0.1170087 -30.83  0.001067892    1.359    0.264
        81 -10.7362    243.8553    181.5618   1.7887061169e+01   3.7247592678e+00    0.1913743    0.1070509 -37.74  0.001231263    1.457    0.314
        82  -9.8524    227.0904    178.8356   1.9832956585e+01   5.9756397264e+00    0.1662404      0.14061 -33.61  0.001207796    1.275    0.216
        83 -10.2143    100.9833    176.0006   4.5320947411e+01   2.4294618335e+01    0.1963198    0.1874352  31.33  0.001133047    1.008    0.008
        84 -10.9369     47.9949    167.0063   5.9410830192e+01   3.3721599601e+01    0.3295615    0.1995309 -11.93  0.001334486    2.570    0.611
        85  -9.4295    139.4043     16.5222   3.5463120613e+02   4.7909776105e+01    0.1307695    0.1133573 -77.64 9.869508e-05    1.028    0.028
        86 -10.1532     36.5021     15.1279   2.2114280931e+01   7.2197310521e+01    0.2371044    0.1652377  45.16 0.0007103378    1.339    0.253
        87 -10.8573    244.7372     14.2285   3.4628126109e+02   2.6239624841e+01    0.1298425    0.1131008 -49.86  0.000593379    1.332    0.249
        88  -9.7662    169.5176    157.4786   2.5856164187e+01   1.7441806694e+01    0.1341468    0.1208146 -25.13 0.0001730161    1.006    0.006
        89  -9.6933    138.3263    152.6506   3.1655200935e+01   2.3547170308e+01    0.1449622    0.1146322  83.49 0.0007048976    1.756    0.430
        90 -11.1616     59.5528    145.0073   5.2726161108e+01   3.8106144609e+01    0.4857129    0.3103808  51.86  0.001876633    1.611    0.379
        91 -12.0702     51.6041    142.9581   5.5085861816e+01   3.9702284515e+01    0.4520678    0.3306454  33.52  0.001455268    1.347    0.258
        92 -12.7724      3.2368    139.1873   7.1644581195e+01   4.5356689400e+01    0.8981983    0.3867826 -83.06   0.00368234    2.147    0.534
        93 -10.3800    150.8451    134.8628   2.5096583037e+01   2.5092849372e+01    0.1911861    0.1697468 -80.64 0.0004433938    1.298    0.229
        94 -13.1219      8.7560    127.7386   6.8751047099e+01   4.8150801539e+01    0.7566059    0.4739806  54.19  0.003654439    1.577    0.366
        95 -11.4493    155.7017    126.9402   2.2306700639e+01   2.5815562455e+01    0.3760057    0.2966458 -56.24  0.002005869    1.275    0.216
