#   1 NUMBER                 Running object number                                     
#   2 MAG_AUTO               Kron-like elliptical aperture magnitude                    [mag]
#   3 X_IMAGE                Object position along x                                    [pixel]
#   4 Y_IMAGE                Object position along y                                    [pixel]
#   5 X_WORLD                Barycenter position along world x axis                     [deg]
#   6 Y_WORLD                Barycenter position along world y axis                     [deg]
#   7 A_WORLD                Profile RMS along major axis (world units)                 [deg]
#   8 B_WORLD                Profile RMS along minor axis (world units)                 [deg]
#   9 THETA_WORLD            Position angle (CCW/world-x)                               [deg]
#  10 FWHM_WORLD             FWHM assuming a gaussian core                              [deg]
#  11 ELONGATION             A_IMAGE/B_IMAGE                                           
#  12 ELLIPTICITY            1 - B_IMAGE/A_IMAGE                                       
         1 -10.6301     34.0414     62.1314   1.0731030096e+02   6.0983745860e+01     3.116514    0.6966883 -43.66   0.00760141    7.324    0.863
         2 -10.4077      9.9080     19.0849   1.0621101594e+02   7.2815635516e+01     1.353582    0.3874126 -34.22  0.003932613    6.361    0.843
         3 -11.1086     23.7429     32.4169   1.0314528401e+02   6.8768053551e+01      1.56706    0.4616423 -46.31  0.003806408    2.823    0.646
         4 -10.8126     22.0462     53.7283   1.1050377366e+02   6.4060141900e+01    0.8977561    0.4588423  84.51  0.002835495    3.524    0.716
         5 -10.1048      4.7397     41.9424   1.1617242793e+02   6.7983829588e+01    0.7343228    0.3007148 -70.01   0.00254615    1.998    0.499
         6 -10.1894     69.3443     41.1976   8.5350942942e+01   6.0641276219e+01     1.353963    0.3369949 -44.98  0.002052964    3.819    0.738
         7 -10.2982     73.4878     17.7998   7.2677104631e+01   6.3859959364e+01     1.393761    0.3786072 -28.47  0.003628657    4.256    0.765
         8  -8.9547     72.1842      8.4231   6.8001220754e+01   6.5412414139e+01    0.1979099    0.1342032  50.45 0.0003107298    1.509    0.337
         9  -9.8998     79.4938     24.1620   7.3764435136e+01   6.1654002496e+01    0.6591648    0.3299525  28.05  0.001930785    2.994    0.666
        10  -9.3521     77.6167      4.6295   6.4018733346e+01   6.4679136909e+01     0.594422    0.3924037   1.29  0.001991893    1.631    0.387
        11  -8.7621    106.1967     13.7509   6.0855007713e+01   5.6906381985e+01    0.7648537    0.2507282  36.60  0.002029789    5.170    0.807
        12  -9.3046    102.8584     22.0041   6.5551965680e+01   5.6700561341e+01    0.5504468    0.3022899 -23.10  0.001737469    1.839    0.456
        13  -8.2404     57.9905      7.3117   7.2842659292e+01   6.8432044948e+01    0.2312068    0.1688334 -12.76 0.0002402901    1.304    0.233
        14 -10.2110     62.8317      3.0051   6.8229250542e+01   6.8030602734e+01    0.7000212    0.4585712 -17.65  0.003682629    1.452    0.311
        15  -9.5012     63.3521     21.6107   7.8633017088e+01   6.5255455291e+01    0.4182639    0.3167241 -50.62   0.00100687    1.529    0.346
        16 -10.0263     64.4314     13.6804   7.3906712461e+01   6.6282271118e+01    0.5122623    0.3357526 -12.08  0.002552921    1.645    0.392
        17 -10.1940     46.2573     29.5411   9.0267518501e+01   6.6658609832e+01    0.5828017    0.2846864 -55.38  0.001460313    2.375    0.579
        18  -9.8922     51.7394     13.9877   7.9595471502e+01   6.8576600733e+01    0.6536952    0.3765725  21.46   0.00298611    2.295    0.564
        19  -8.7254    126.8232      9.1694   5.4486874514e+01   5.2127372910e+01    0.3321066    0.2024772  31.05 0.0008319423    1.803    0.445
        20  -9.2705    125.7097      5.3021   5.3016634129e+01   5.2780244971e+01     0.498832    0.2629293  22.65  0.001738711    2.404    0.584
        21  -9.5253    118.8997     21.4828   6.1391915399e+01   5.2817157332e+01    0.7115979    0.2868105 -20.41   0.00252029    2.717    0.632
        22  -8.5572    120.4415     15.9174   5.8645110107e+01   5.3076247424e+01    0.4981323    0.2389779  30.36  0.001793209    2.804    0.643
        23  -8.8478    128.5865     25.1715   6.0847961675e+01   4.9899198290e+01    0.5158035    0.2887058 -12.98  0.001491048    2.043    0.511
        24  -8.7192    112.3767     15.6187   6.0271425427e+01   5.5154023835e+01    0.3191935    0.2147504 -44.20 0.0006677965    1.621    0.383
        25 -10.0600    137.4706      6.7286   5.1689829467e+01   4.9552138775e+01    0.6686897    0.4054664  19.91  0.002941953    1.959    0.490
        26  -8.3876    131.1292      5.8372   5.2331703346e+01   5.1308114986e+01    0.4226058    0.2300155 -27.17  0.001562803    1.802    0.445
        27  -8.8695    135.4137      2.2576   5.0172126902e+01   5.0484278706e+01    0.5040469    0.2512373  31.36   0.00199838    2.380    0.580
        28  -9.3321     96.2653     14.8588   6.3935984116e+01   5.9182366863e+01    0.6284559    0.2948437 -12.44  0.002336933    2.717    0.632
        29 -10.6453     37.2807      9.6523   8.4416997359e+01   7.1612438063e+01    0.9578525    0.3013219 -44.65  0.002521188    3.131    0.681
        30  -9.1450     18.8006      9.3302   9.5599265991e+01   7.4017763605e+01    0.3837878    0.2253127 -20.69   0.00201634    1.949    0.487
        31  -9.7703     17.8862      3.6420   9.2845507782e+01   7.5176526549e+01     0.396049    0.3599831  32.10   0.00172658    1.408    0.290
        32  -9.8255      2.3827     14.3650   1.0941080516e+02   7.4319296629e+01    0.8022107    0.2432746 -69.04  0.002938315    3.847    0.740
        33 -10.1774      6.3303      5.1860   1.0228479681e+02   7.5961224746e+01     0.431242    0.2947583 -16.10  0.001260438    1.509    0.337
        34  -9.5992     85.3167     13.1247   6.6236173430e+01   6.1936296131e+01    0.4661555    0.2685115 -53.06  0.001626496    2.480    0.597
        35  -7.9732     80.5470     12.3772   6.7351967896e+01   6.3097302683e+01    0.2542322    0.1255523 -31.48  0.001099536    1.926    0.481
        36  -8.3502    141.1296     12.5462   5.3446243763e+01   4.8033684421e+01    0.2301008     0.195877 -14.95  0.001012775    1.185    0.156
        37  -9.9899      2.5897      3.2834   1.0420273596e+02   7.6613450570e+01    0.3343905    0.1674522 -40.13  0.001306087    1.638    0.390
        38  -8.8253    114.1031     10.0174   5.7339969785e+01   5.5326764097e+01    0.2701437    0.2045214  38.47 0.0003120381    1.289    0.224
        39  -9.0334    102.2256      8.4300   5.9252084991e+01   5.8469618892e+01    0.3117424    0.2151791 -45.60 0.0005817644    1.634    0.388
        40  -8.7796    115.1525      3.9490   5.4340301339e+01   5.5644681891e+01    0.3419707     0.227902 -32.24  0.001083846    1.526    0.345
        41  -7.7187    108.7026      2.3203   5.4853170549e+01   5.7440462055e+01    0.2311667    0.1397231  80.58 0.0006551276    1.984    0.496
        42  -8.6792    110.2765      7.6587   5.7059534857e+01   5.6536768053e+01    0.2418006    0.2132796  24.09 0.0004656174    1.089    0.082
        43  -8.7775    111.3193      4.3296   5.5275726663e+01   5.6591832997e+01    0.2905158    0.1930285  27.67 0.0007625176    1.580    0.367
        44  -7.7268    178.4765      7.4858   4.6770466972e+01   3.8658798271e+01    0.1360237    0.1358142  17.34 0.0001650676    1.035    0.033
        45  -8.0874    170.6635      7.0254   4.7451978666e+01   4.0734821512e+01    0.1891135    0.1728005 -16.57 0.0003542345    1.106    0.095
        46  -9.1135     96.6913      4.6723   5.8711443097e+01   6.0210986356e+01    0.5053888    0.2701329 -39.59  0.001534573    2.023    0.506
        47  -7.8896     85.0855      6.7262   6.2906628798e+01   6.2749811568e+01    0.3758837    0.1497921  43.57  0.001450912    2.480    0.597
        48  -8.6636     89.1093      3.1283   5.9841457103e+01   6.2189315309e+01    0.3184622    0.2167309   6.13 0.0008439561    1.558    0.358
        49  -8.2902    151.8026      2.6132   4.8080977850e+01   4.6095998145e+01    0.3489918   0.09855338 -40.39  0.001106867    3.528    0.717
        50  -8.0976    104.3379      2.0679   5.5644792757e+01   5.8565556351e+01    0.2429844    0.1807103  45.11 0.0005773474    1.264    0.209
        51  -9.6781    132.5897     17.3449   5.6856624983e+01   4.9777964557e+01    0.6734357    0.3093401 -17.38  0.002414583    2.344    0.573
        52 -10.0464     28.3050     11.1266   9.0529376486e+01   7.2584912611e+01     0.852014    0.4208313  34.69  0.004257434    2.265    0.558
        53  -7.4747    128.7224     16.3193   5.7161279340e+01   5.0896412206e+01    0.2135732    0.1286629 -77.58 0.0004413308    2.487    0.598
        54 -10.4535    200.4711    249.1758   9.8447197538e+01   2.9678224872e+00    0.3931237    0.2209064  47.16  0.002572657    2.199    0.545
        55 -10.5529    186.7842    247.5412   1.0043055143e+02   4.8579451618e+00    0.4231202    0.2549818   1.23  0.002846104    2.080    0.519
        56 -10.4291    140.7865    117.8517   8.7755825496e+01   3.1244356391e+01     0.801654    0.3689277 -47.84  0.001901186    2.346    0.574
        57 -10.6142    131.7096    119.4366   9.0288345375e+01   3.2722704594e+01    0.9196528    0.5673688  74.52  0.002300638    3.393    0.705
        58 -10.7719    133.6035    109.3979   8.7423294653e+01   3.4301811305e+01    0.8698527    0.4265099 -41.53  0.002316771    2.069    0.517
        59  -8.4393    129.2407    123.7822   9.1870414059e+01   3.2346892588e+01    0.1984806    0.1683706   1.97  0.001073911    1.350    0.259
        60  -9.2290    157.0715    121.5745   8.4960661772e+01   2.7303862693e+01    0.3431451    0.2392525  82.58  0.001446542    2.704    0.630
        61  -8.5853      1.5494    116.7035   1.2668535440e+02   5.0538112353e+01    0.3407613    0.1139101  89.84  0.001338148    2.843    0.648
        62 -10.1633     91.8945    113.0980   9.9332327869e+01   4.1251819838e+01    0.5381422    0.4020327  87.46  0.001629221    1.673    0.402
        63  -7.5628    152.3047    122.2994   8.6175543206e+01   2.8129284460e+01    0.1434531    0.1085887   7.11 0.0003917509    1.589    0.371
        64  -8.1634    247.3236    249.3227   9.1413115197e+01  -2.6805518549e+00    0.1035397   0.05261772  13.60 0.0004802761    1.682    0.405
        65  -9.7434    193.3586    249.0145   9.9552873966e+01   3.8780278259e+00     0.293158    0.1629958   9.57  0.001874621    2.147    0.534
        66 -10.7740     25.2888     78.3432   1.1433122077e+02   5.7922195369e+01    0.8300131    0.5698594 -88.63  0.003305203    1.450    0.311
        67 -10.9062     14.3745    110.0558   1.2231886312e+02   5.1215832272e+01    0.9244332    0.4467455  81.28   0.00376999    2.122    0.529
        68 -11.0134     21.1216    101.5745   1.1925242588e+02   5.2698452322e+01     1.381673    0.5738073  83.67  0.003744996    3.222    0.690
        69  -9.9273    139.7662    103.2498   8.4368802223e+01   3.4214290962e+01    0.7548321    0.4112267 -26.27  0.001774779    2.415    0.586
        70  -9.8992     16.0367     70.4332   1.1658763149e+02   6.0536015088e+01    0.7158225    0.2789131 -56.87  0.002484843    2.063    0.515
        71  -9.8468     16.8041     61.9800   1.1469711152e+02   6.2505660741e+01     0.648174    0.3128684 -64.55  0.003156406    1.664    0.399
        72  -7.6694     91.4915    244.7487   1.1633723813e+02   1.7241338530e+01    0.1099168   0.09622051 -43.42  0.000933277    1.620    0.383
        73 -10.1314     12.2563     45.7032   1.1322649236e+02   6.6663445125e+01    0.7579097    0.3866216  -7.94  0.003049438    2.863    0.651
        74 -11.0884    171.3478    248.3744   1.0304092093e+02   6.7512872216e+00    0.5065829    0.2038482  34.75  0.002994483    1.830    0.453
        75 -10.1696     34.5030     90.6336   1.1310978047e+02   5.4134844492e+01    0.5778566    0.2658255 -86.27  0.001900303    2.919    0.657
        76  -9.8835     36.9081     81.1127   1.1046649607e+02   5.6178218137e+01    0.6795331    0.3654083 -23.23  0.002787125    3.294    0.696
        77  -9.4976      6.7982     32.6739   1.1271617457e+02   7.0007458067e+01    0.2809268    0.2106652 -36.18 0.0007283409    1.283    0.221
        78 -10.0454      7.3114     28.2746   1.1110633353e+02   7.0971044728e+01    0.3307239    0.2566197  59.59  0.001056115    1.654    0.395
        79  -8.3275    244.7578    114.7248   6.7901423330e+01   1.1207622786e+01    0.2042732   0.08123557 -35.78 0.0008897478    2.384    0.581
        80 -10.2349     78.2443    113.0335   1.0325140710e+02   4.3416930835e+01    0.5219394    0.3309521  89.39  0.001688011    2.242    0.554
        81  -7.4377    167.3628    114.2342   8.1013767354e+01   2.6469655387e+01    0.1995252    0.1285047 -45.93 0.0003967612    1.700    0.412
        82 -10.3998     65.8826    108.8419   1.0613672063e+02   4.6146408466e+01     1.041393    0.5675014 -58.02  0.003057881    1.715    0.417
        83  -9.4714     58.9455    109.1537   1.0832681965e+02   4.6989309889e+01     0.311159    0.1837056 -64.41 0.0007729973    1.582    0.368
        84 -10.3602     62.9554     95.5979   1.0438233894e+02   4.9627178383e+01    0.6940753    0.3689218 -75.75  0.001577832    2.425    0.588
        85  -9.1721     65.1605     85.6287   1.0134995480e+02   5.1640646565e+01    0.6092539    0.4351408 -36.00  0.003141976    1.557    0.358
        86  -9.0692     30.1289    109.8965   1.1741872394e+02   4.9963023017e+01    0.4599309    0.2703441 -60.66  0.002519097    1.556    0.357
        87  -9.0696     35.2122    110.4772   1.1591215808e+02   4.9346698571e+01    0.2941832    0.1714002  67.48  0.001094744    1.898    0.473
        88  -8.2682    149.5660    110.0846   8.3840171804e+01   3.0899668532e+01    0.2366553    0.1975617  11.25 0.0007571168    1.295    0.228
        89 -10.9005     44.6233    102.3059   1.1167603021e+02   5.0302359361e+01    0.8451207    0.4088708  67.98     0.002892    3.319    0.699
        90  -8.4895    244.5014    106.9505   6.6171685468e+01   1.2180153734e+01    0.1961077    0.1102204 -23.98 0.0006215813    1.538    0.350
        91  -9.7064      6.3630    103.8773   1.2424141560e+02   5.3199694338e+01    0.5123735     0.225449  56.96  0.001766314    2.344    0.573
        92  -9.1390    214.3564    105.5535   7.0273731565e+01   1.8111238135e+01    0.2461457    0.2007975   7.45 0.0002497829    1.168    0.144
        93  -7.9657     77.6593    105.6641   1.0190804635e+02   4.5177270211e+01    0.2852358    0.1947798 -10.55  0.001267146    2.480    0.597
        94  -9.5362     81.6448    100.1984   9.9481630532e+01   4.5796627289e+01    0.5532865    0.3021989 -62.70  0.001055232    1.950    0.487
        95  -8.4372    166.0499    104.0309   7.8712143312e+01   2.8476425970e+01    0.2691505    0.2036137 -41.63 0.0005206217    1.362    0.266
        96  -9.5736    149.4922    103.3726   8.2138083034e+01   3.2138284484e+01    0.4040691    0.2829264 -48.50 0.0009809305    1.539    0.350
        97  -9.1012     92.8952    103.2989   9.6842480969e+01   4.3242671823e+01    0.6607282    0.3411604  29.02  0.002668783    2.463    0.594
        98  -8.3287    219.1613    102.3550   6.8741418223e+01   1.7582662305e+01    0.2578911    0.1876933   3.01 0.0006115729    1.412    0.292
        99  -7.8788     73.8053    102.5639   1.0242362908e+02   4.6465140577e+01    0.2304486    0.1542423 -63.50 0.0007750081    1.460    0.315
       100  -8.5112    158.9690    101.2283   7.9477023330e+01   3.0485928802e+01    0.2446042    0.1963864 -59.57 0.0004222495    1.509    0.337
       101  -8.8373     40.0078    106.7461   1.1386872028e+02   4.9744259457e+01    0.2510826    0.1715358 -82.63 0.0007023583    1.384    0.277
       102  -9.4181     94.3574     97.2865   9.4950112221e+01   4.4310396641e+01    0.3345445    0.2454002 -63.83 0.0006467153    1.454    0.312
       103  -8.7101     95.8585     91.0505   9.2887834306e+01   4.5402255874e+01    0.4697162    0.3067752  -9.00  0.001837619    2.879    0.653
       104  -8.4673    149.8421     96.5296   8.0231399001e+01   3.3302844471e+01     0.301475    0.1798388 -21.73  0.001238248    2.099    0.524
       105  -8.9518    150.5845     89.7969   7.8191726551e+01   3.4344496290e+01    0.4626686    0.2605715 -23.60  0.001852606    2.154    0.536
       106  -7.3697    171.2596     95.4075   7.5365245703e+01   2.8780565161e+01    0.1539975    0.1097482   2.67 0.0004396274    1.734    0.423
       107 -10.3866      4.2600     89.2303   1.2354924987e+02   5.6773979099e+01    0.7678484    0.3094324  79.69  0.002317059    2.847    0.649
       108  -9.5978      6.1226     78.7634   1.2169764543e+02   5.9162015277e+01    0.5626228    0.2339372 -36.58  0.002461941    3.200    0.688
       109  -8.0557    164.2071     94.2282   7.6482970707e+01   3.0540152125e+01    0.2154572    0.1953366   2.79 0.0007345322    1.084    0.078
       110  -8.8855    139.9880     75.5731   7.6407419431e+01   3.9280602728e+01      0.45566    0.2158101 -36.75  0.001557796    2.062    0.515
       111  -9.6308    138.9915     91.9468   8.1492500559e+01   3.6508076775e+01     0.631116    0.3202565 -39.15  0.001858536    1.953    0.488
       112  -9.2800    140.4341     82.2011   7.8322399366e+01   3.7987081663e+01     0.606045    0.2962942 -37.44  0.001826252    2.010    0.503
       113  -8.2670    107.6108     91.5966   8.9610394777e+01   4.3075524777e+01    0.4599815    0.2419239  32.37  0.001820374    2.326    0.570
       114  -9.1074    112.4953     88.9731   8.7509314393e+01   4.2655655344e+01    0.3933896    0.2841094  11.38  0.001600346    1.931    0.482
       115  -7.8700    157.5222     91.1523   7.7047490057e+01   3.2556289518e+01    0.2230015    0.1428854 -36.40  0.001009307    1.532    0.347
       116  -8.7763    163.3959     87.2332   7.4701614469e+01   3.1898779651e+01    0.2640734    0.1774815 -42.42 0.0006204185    1.517    0.341
       117 -10.5421     48.1653     82.9444   1.0671533740e+02   5.4500974143e+01     1.123044    0.4080688 -57.60  0.003209586    2.337    0.572
       118  -9.6181    241.6978     89.2619   6.2380350687e+01   1.4822754150e+01     0.210648    0.1829413  24.64  0.001013483    1.200    0.167
       119  -8.6768    102.6039     88.0806   9.0078765961e+01   4.4781086859e+01    0.2898125    0.2166213  68.64  0.001311327    1.691    0.408
       120 -10.3320    103.8952     82.4999   8.8099726453e+01   4.5703597386e+01    0.5575485    0.3028489 -54.35  0.001004761    2.025    0.506
       121  -9.5193    105.0037     71.4177   8.4350206082e+01   4.7749762055e+01    0.7201187    0.3767114 -32.33  0.002513192    2.185    0.542
       122 -10.2511     85.3332     86.5381   9.4921360128e+01   4.8252536361e+01    0.5136814    0.3638163  89.48 0.0009177875    2.064    0.515
       123  -9.4629     87.6466     78.5158   9.1922735445e+01   4.9609599115e+01    0.5694754    0.3581932  18.41  0.001686092    2.390    0.582
       124  -8.7209    157.7550     83.1382   7.4706320524e+01   3.3876370574e+01    0.5034266    0.2380828 -29.71  0.001682524    2.224    0.550
       125  -8.5308    157.0564     76.5709   7.2904081176e+01   3.5141306594e+01    0.2574725    0.1954017 -41.17 0.0006108561    1.323    0.244
       126  -7.3638    170.4841     83.5436   7.2221481572e+01   3.0884431433e+01    0.1468357    0.1407723 -37.59 9.690633e-05    1.102    0.092
       127  -8.3572    150.0019     80.9252   7.5741363177e+01   3.6036836850e+01    0.3126659    0.2055828 -47.69 0.0007047414    1.635    0.388
       128  -8.9554    119.0527     80.5210   8.3233191264e+01   4.3000111943e+01    0.3710757    0.2519982 -56.00 0.0006503037    1.677    0.404
       129  -8.2420    119.8039     76.1489   8.1681874995e+01   4.3690980657e+01    0.2784912    0.2141956  27.75 0.0005993498    1.446    0.309
       130  -8.9651    115.0148     72.5935   8.1861253830e+01   4.5412282649e+01    0.4367769    0.2451341 -44.49 0.0006243048    1.760    0.432
       131 -10.3303    117.0293     67.0577   7.9487664687e+01   4.6031352603e+01    0.2606821    0.2405652 -21.60  0.001402392    1.063    0.059
       132  -9.4971    121.1578     66.1262   7.8062964362e+01   4.5284511275e+01     0.771464    0.3407151 -33.34  0.002527343    2.376    0.579
       133  -9.0747     74.2143     79.4412   9.6639010179e+01   5.1684104396e+01    0.5860119    0.2723332 -53.30  0.002089845    2.021    0.505
       134  -8.1216    240.3136     80.0176   6.0302720628e+01   1.6196852314e+01    0.2194727   0.09895343  -4.20 0.0007044871    4.241    0.764
       135  -9.6643    158.4922    110.5815   8.1987951562e+01   2.8948375836e+01    0.4069193    0.2587792 -34.36 0.0009965631    1.585    0.369
       136  -8.1509    166.2367     78.6774   7.1650217097e+01   3.2650391565e+01    0.2550157    0.1864727 -39.75 0.0006607739    1.362    0.266
       137  -7.9261    184.1481     78.0952   6.8119725521e+01   2.8579960855e+01    0.2281695    0.1881205  13.97 0.0006259662    1.274    0.215
       138  -7.1958    174.2874     78.6953   7.0093162228e+01   3.0772641826e+01    0.1455507    0.1145395 -61.79 0.0003638075    1.566    0.361
       139  -9.4732    127.3783     75.2496   7.9409029008e+01   4.2197441102e+01    0.4154391    0.2608247 -53.88  0.000863675    1.865    0.464
       140  -8.4918    130.0625     58.0373   7.3012821845e+01   4.4656259822e+01    0.3830525    0.1990082 -43.79 0.0006361031    1.982    0.496
       141  -7.9217    130.5144     54.0037   7.1478324032e+01   4.5222196331e+01    0.2914551    0.2041883  26.55  0.001018466    1.683    0.406
       142  -9.0005    129.2890     68.8547   7.6868587828e+01   4.2941236437e+01    0.5360401    0.2947299  26.19   0.00188341    2.941    0.660
       143  -8.7670    130.4824     64.9813   7.5286558381e+01   4.3356949005e+01     0.412309    0.2469506 -29.88  0.001523869    1.710    0.415
       144  -8.4903     43.8562     54.2115   1.0083076691e+02   6.1719934268e+01    0.2643835    0.1909462 -29.72 0.0006663117    1.496    0.332
       145  -9.9500     62.7840     60.7793   9.5187039868e+01   5.7643498478e+01    0.6875286    0.2941529  34.30  0.001387436    2.628    0.619
       146 -10.2520     49.8322     54.0550   9.8217694255e+01   6.0990011925e+01    0.8105912     0.402806 -64.17   0.00245597    2.358    0.576
       147  -9.7615     56.3099     43.3901   9.1591352247e+01   6.2362150366e+01    0.8479078    0.4804862  -7.43  0.002798819    4.548    0.780
       148 -10.5922     54.8737     70.7733   1.0121616155e+02   5.6512015497e+01    0.6992608    0.4431092  72.78  0.002531444    2.513    0.602
       149  -9.5152     55.1527     63.1686   9.8920026308e+01   5.8216890949e+01    0.5164236    0.3256823  18.31  0.002471813    2.065    0.516
       150  -9.0930     83.5165     64.6734   8.8949261085e+01   5.3320161447e+01    0.5526232    0.3723255   0.61  0.002291606    2.448    0.592
       151  -8.2232    162.8242     72.9755   7.0627610349e+01   3.4368878166e+01    0.2644585    0.1931489 -36.79 0.0005554613    1.337    0.252
       152  -7.2476    175.9907     72.7418   6.8033313004e+01   3.1287938939e+01    0.1858848     0.128355  53.95 0.0005810726    1.500    0.333
       153  -7.7280    169.4738     71.0265   6.8737013909e+01   3.3095261732e+01    0.2250003    0.1415324 -32.11 0.0004218234    1.523    0.344
       154  -9.2131    147.0528     69.3604   7.2831847261e+01   3.8706175104e+01    0.3842993     0.263022 -57.04 0.0008187355    1.803    0.445
       155  -8.2152    156.5102     70.0796   7.1026114566e+01   3.6337435268e+01    0.2227075    0.1450436 -32.34 0.0004665221    1.490    0.329
       156  -9.7186     94.8501     68.3972   8.6467966869e+01   5.0400532198e+01    0.4590461    0.2608692 -52.51 0.0008349299    1.860    0.462
       157  -9.4215     97.6590     57.9865   8.1990047829e+01   5.1912711029e+01    0.8537984    0.5241924 -26.12  0.003674471    1.892    0.471
       158  -7.8920     23.3210     69.0856   1.1336574731e+02   6.0307675095e+01    0.1818356    0.1374213 -73.17 0.0003813997    1.157    0.135
       159  -9.1774    137.9974     66.4079   7.3945833779e+01   4.1349355897e+01    0.4970733    0.2450642 -40.11  0.001951422    1.986    0.497
       160  -8.1032    138.3323     62.3238   7.2510394045e+01   4.1964928561e+01    0.2536664     0.236957 -51.16 0.0007576797    1.127    0.113
       161  -8.1018    170.9379     64.8523   6.6578908406e+01   3.3681568277e+01    0.2298766    0.1958451  16.03 0.0004743764    1.233    0.189
       162  -9.3086    109.6713     63.8443   8.0457867901e+01   4.8246867964e+01    0.3906995    0.2839843 -57.92 0.0006560389    1.600    0.375
       163  -8.9079    110.7020     58.1469   7.8160036868e+01   4.9086926136e+01    0.3497718    0.3048197  -8.64 0.0009582186    1.201    0.167
       164  -9.9119     81.4840     72.2150   9.2058651747e+01   5.2069938096e+01    0.4930194    0.3275851 -69.93  0.001131205    1.977    0.494
       165  -8.0184    147.0895     63.9252   7.1068311883e+01   3.9599663008e+01    0.2501102    0.1781937  21.34  0.001105608    1.707    0.414
       166  -7.7117    157.8065     63.0885   6.8549353280e+01   3.7137968330e+01    0.2298002    0.1923957 -50.09 0.0005428623    1.272    0.214
       167 -10.3983     90.5600     37.8046   7.6296207463e+01   5.7091804695e+01     1.143864    0.4713244  33.95  0.003608054    3.823    0.738
       168 -10.3896     85.2242     48.0744   8.2322785540e+01   5.6332109496e+01    0.6055133    0.4394417  89.90   0.00106183    2.353    0.575
       169 -10.1186     73.5673     57.0496   8.9848440506e+01   5.6692728752e+01     1.214946     0.404115 -40.77  0.002941566    3.136    0.681
       170  -8.8881     80.0514     46.1722   8.3380851128e+01   5.7702260663e+01    0.3396298    0.2161638 -34.27 0.0003089604    1.527    0.345
       171  -8.3093    164.5005     59.5822   6.6122980839e+01   3.6035749634e+01    0.3660498    0.1814754 -28.23  0.001445791    1.981    0.495
       172  -9.0905    162.7941     54.4381   6.4779431571e+01   3.7213415272e+01    0.6113963    0.2419574 -27.59  0.001998146    2.519    0.603
       173  -8.4539      9.7780     59.9765   1.1738928562e+02   6.3444917332e+01      0.20984    0.1518037  47.22  0.001283307    1.591    0.371
       174  -9.1103    213.2503     57.3384   5.7807353732e+01   2.4699005483e+01     0.384789    0.2319957 -18.52  0.001441239    1.614    0.380
       175  -8.5472    146.5147     59.0220   6.9568090342e+01   4.0531153375e+01     0.269512    0.2217407 -50.23 0.0007747189    1.297    0.229
       176  -8.3864    147.6490     54.3152   6.7732774100e+01   4.0990144493e+01    0.4098452     0.204716 -25.09   0.00157312    2.125    0.529
       177  -8.9925     87.6137     57.5287   8.5078910792e+01   5.4016131444e+01    0.5314819    0.2196732 -45.83  0.001343013    2.339    0.572
       178  -9.0274    139.1781     57.0923   7.0536109629e+01   4.2625889421e+01    0.3713679    0.2546861 -55.06 0.0005548496    1.734    0.423
       179  -8.2163    122.2536     41.4645   6.8812552326e+01   4.9217144635e+01    0.5045076    0.2796179  17.12  0.001676222    3.400    0.706
       180  -9.1414    121.0925     47.0130   7.1237227956e+01   4.8621011713e+01    0.4309347    0.2327924 -37.98 0.0005003666    1.800    0.444
       181  -9.1591    118.2639     55.4439   7.5102906707e+01   4.7862792344e+01    0.3665381    0.2738396 -63.70  0.000672395    1.698    0.411
       182  -7.6406    118.3535     51.3253   7.3567105399e+01   4.8551756033e+01    0.2774322    0.1367851  42.77  0.001067699    2.147    0.534
       183  -7.5331    152.4675     60.2947   6.8731982815e+01   3.8876714443e+01    0.2103598    0.1368091 -42.33 0.0009307024    1.556    0.357
       184  -9.1840    105.4756     52.0390   7.7420039181e+01   5.1352444756e+01    0.6082669    0.2647923 -37.43  0.001853967    2.215    0.548
       185  -7.3597    152.7422     53.6581   6.6463680383e+01   3.9827853617e+01     0.153526    0.1146821  12.27 0.0002660808    1.586    0.369
       186  -8.3891    157.4039     48.8744   6.3936921505e+01   3.9361591577e+01    0.3751448    0.1886428 -47.44 0.0009966934    2.273    0.560
       187  -7.4459    187.1795     48.8433   5.8940957665e+01   3.1933991249e+01    0.1920164    0.1610155  11.85 0.0002500971    1.269    0.212
       188  -8.8883    142.0338     47.6557   6.6594368236e+01   4.3395687642e+01    0.5387915    0.2162463 -29.62  0.001405719    2.449    0.592
       189  -9.6942    130.5865     45.7938   6.8466422054e+01   4.6514282159e+01     1.024084    0.3996914 -20.14  0.002216946    4.078    0.755
       190  -8.5490    132.9716     35.9771   6.4205544327e+01   4.7360228048e+01    0.2847292    0.2080728 -34.22  0.000454445    1.346    0.257
       191 -10.8625    134.0646     30.9782   6.2031426644e+01   4.7757023292e+01    0.3822262    0.2819267   0.64  0.001817371    1.527    0.345
       192  -8.9688    149.8210     47.4099   6.4902885642e+01   4.1480206706e+01    0.4954034    0.2158023 -26.48  0.001151155    2.338    0.572
       193  -8.9895    153.4494     40.7379   6.1863407313e+01   4.1493735662e+01     0.411262    0.2407533 -34.90   0.00121249    1.645    0.392
       194  -8.9156    112.4224     45.0603   7.2766631677e+01   5.0984030270e+01    0.7578099    0.3627826 -19.59  0.001346358    3.052    0.672
       195  -8.9217     40.0124     34.8507   9.5637245093e+01   6.6433028664e+01    0.3000739    0.2286955   9.06  0.001034603    1.512    0.338
       196  -9.9380     37.7923     41.9761   9.9467598019e+01   6.5177337508e+01    0.4267397    0.3176125  81.46  0.001662191    1.976    0.494
       197 -10.1992     35.9018     37.9690   9.8905167574e+01   6.6271780337e+01    0.3905063    0.2165496 -42.32 0.0003408715    1.617    0.381
       198 -10.1314    127.4397    239.0968   1.0954089256e+02   1.3533118671e+01    0.1861957    0.1424798  34.34 0.0002995979    1.069    0.065
       199 -10.1616     76.0700     32.2081   7.8830486756e+01   6.1029885117e+01     0.625975    0.4082803  49.01  0.001663081    1.664    0.399
       200  -9.6887    188.3622    234.2888   9.8542117664e+01   6.0142670818e+00    0.1986871    0.1844818 -18.00  0.001285318    1.502    0.334
       201  -7.8495    242.6892    228.6682   8.9227277018e+01  -4.6212998505e-01    0.1089306   0.05843683  11.82 0.0002383156    1.673    0.402
       202  -8.5361    129.8992    224.5659   1.0759802830e+02   1.5139351364e+01     0.191126    0.1394272  54.83 0.0006528172    1.417    0.294
       203  -8.9992     84.7170     21.9327   7.0896338030e+01   6.0871444086e+01    0.3161823    0.2390325  -8.66 0.0008280207    1.364    0.267
       204  -8.1832    110.1410     26.7131   6.5762024586e+01   5.4310313060e+01    0.3737069    0.2269874  13.06  0.001503946    2.319    0.569
       205  -9.0238    110.2686     33.2046   6.8520189328e+01   5.3353921977e+01    0.3702334    0.2388645 -42.33 0.0008258027    1.606    0.377
       206  -8.8736    104.9977     41.2463   7.3320649785e+01   5.3324486940e+01    0.3512646    0.2536352 -57.24 0.0008598624    1.696    0.410
       207  -8.7603    106.0276     36.2936   7.0977367806e+01   5.3883379098e+01    0.3393013    0.2492226  23.04  0.001101639    1.542    0.352
       208  -8.5769    139.4249     40.1115   6.4398081471e+01   4.5149400601e+01    0.3899738    0.2088589 -32.63  0.001614019    1.794    0.443
       209  -8.8145     53.4564     39.2741   9.1174020598e+01   6.3642741983e+01    0.3060039    0.2020402 -43.17  0.000792508    1.355    0.262
       210  -8.6103     54.3878     35.1668   8.9016683649e+01   6.4324887542e+01    0.2199074      0.19349  23.59 0.0005619185    1.221    0.181
       211  -8.4310    238.0957    212.6992   8.7529484886e+01   1.5510724237e+00    0.1533299    0.1228032  -1.35 0.0004344712    1.278    0.218
       212  -7.8052    160.5125     38.8475   5.9942547975e+01   3.9935260658e+01    0.2929389    0.1497485 -17.84  0.001135819    2.165    0.538
       213  -8.8176    144.2827     36.5448   6.2094508190e+01   4.4403740742e+01    0.2997497    0.2222075 -52.06 0.0006963764    1.488    0.328
       214  -8.9187    118.9399     34.6546   6.6912390160e+01   5.1042903086e+01    0.3879194    0.1985682 -34.27 0.0007378593    1.882    0.469
       215 -10.0181     11.5488    207.2725   1.2877875270e+02   3.1485995239e+01    0.5364823    0.2219778  22.93  0.002954287    3.077    0.675
       216  -9.3996    101.0318     32.0517   7.0578565282e+01   5.5695509652e+01     0.560625    0.2357715 -32.49  0.001785412    2.281    0.562
       217  -9.1332    192.1375    194.4085   9.2177517600e+01   1.0064308793e+01    0.5685748    0.3208533 -58.45  0.002271258    5.517    0.819
       218  -9.1957    236.3773    194.6367   8.4887492749e+01   3.5462942655e+00    0.2414856    0.2301762  72.92  0.001200609    2.043    0.511
       219  -7.1745    148.7946    191.0383   9.9739313555e+01   1.7229498499e+01    0.1336642   0.09797876 -44.37 0.0003895562    1.617    0.381
       220  -9.5505     60.1028     33.5402   8.5799158088e+01   6.3711854780e+01    0.5338565    0.2915732 -50.67  0.001842854    1.938    0.484
       221  -8.5466     63.1832     26.5743   8.1210699368e+01   6.4444475549e+01    0.4264159    0.2487163  36.34  0.001751331    1.846    0.458
       222  -9.0876    224.4523    189.4882   8.5902631007e+01   5.7954716716e+00    0.2286619    0.1666026  33.60   0.00107015    1.329    0.248
       223  -7.6237    250.2795    186.3279   8.1363775403e+01   2.4469733387e+00    0.1162148   0.06733164   7.75 0.0002275654    1.597    0.374
       224  -9.1187    225.3104    184.8542   8.4967012156e+01   6.1793361133e+00    0.2084181    0.1571531  18.80 0.0002458305    1.074    0.069
       225  -8.2011     42.0669     28.2300   9.1728049897e+01   6.7510415237e+01    0.2038956    0.1570854 -22.71  0.001168651    1.273    0.215
       226  -8.6625     46.8050     19.9964   8.5287559897e+01   6.8368234882e+01    0.4120832    0.2256761 -20.65  0.001632129    2.445    0.591
       227  -8.1822      5.9178    181.3203   1.2891851460e+02   3.6658652598e+01    0.1416894    0.1111612  53.40 0.0004635747    1.156    0.135
       228  -7.8176    153.5373     34.5474   5.9645475275e+01   4.2282647975e+01     0.146808    0.1438552 -20.06 4.967405e-05    1.020    0.020
       229  -9.7394    151.8383     27.4066   5.7347094871e+01   4.3599982464e+01    0.5309549    0.2913696 -51.25  0.002152956    2.146    0.534
       230  -7.3345    147.6511     28.7351   5.8565405783e+01   4.4531892630e+01    0.1565396    0.1062155  33.69 0.0002067716    1.613    0.380
       231  -8.9165    225.4364    179.8718   8.4070164101e+01   6.7177396519e+00    0.2098199    0.1594556  22.66 0.0004913015    1.129    0.115
       232 -10.2603    193.5158    176.6494   8.8943485747e+01   1.2125451718e+01    0.2238623    0.1907533  19.93  0.000586304    1.086    0.079
       233  -8.4011    146.0121    178.0706   9.8317991762e+01   1.9677914923e+01    0.1798309    0.1547354  30.67 -0.0009232552    1.010    0.010
       234  -9.1111     79.2233    176.4791   1.1251344680e+02   2.9906005606e+01    0.1977045    0.1767632  69.18 0.0003716018    1.072    0.067
       235  -8.4127    125.1852     13.1799   5.6510773757e+01   5.2149767759e+01    0.2240421    0.1901882  27.03  0.000467096    1.175    0.149
       236  -9.1582     91.3881     26.0492   7.0747092551e+01   5.8790555040e+01    0.4275087     0.242867 -47.07  0.001090003    2.042    0.510
       237  -8.8441     92.0562     20.9656   6.8122417353e+01   5.9368264943e+01    0.3284545    0.2209258  18.75 0.0009376046    1.753    0.430
       238  -8.7199    144.2074     25.7545   5.8057572632e+01   4.5786737950e+01    0.3132333     0.196988 -22.51 0.0008936581    1.587    0.370
       239  -8.4247    249.9260    174.6900   7.9347215748e+01   3.6656479805e+00    0.1912909    0.1140413  19.86   0.00118399    1.473    0.321
       240  -7.7469    140.5001     22.9871   5.7659399966e+01   4.7078173764e+01    0.2172369    0.1038273 -46.55 0.0006230323    2.393    0.582
       241  -8.0475    111.6385     21.0307   6.2879719114e+01   5.4688383487e+01    0.3786416    0.1315882 -28.54  0.001317934    2.713    0.631
       242  -7.8719    230.2941    167.6550   8.1056442676e+01   7.3636751114e+00     0.103601   0.09508593 -41.72 0.0007030769    1.665    0.400
       243  -8.6970     40.9499     21.1154   8.8839889670e+01   6.9038655877e+01    0.2493319    0.1684229 -35.07 0.0005038778    1.308    0.235
       244  -8.2895    154.6454     17.6096   5.3292508818e+01   4.3948984240e+01    0.3528896    0.1887837 -58.53  0.001381712    2.417    0.586
       245  -8.2508    139.5410     17.9812   5.5863875675e+01   4.7889543542e+01    0.2202758    0.1428255 -21.55 0.0003913647    1.542    0.351
       246  -8.7125     79.0746    161.0623   1.1070197958e+02   3.2945668688e+01    0.1779059    0.1562766  58.59            0    1.015    0.015
       247  -8.8205    213.8081    160.0446   8.2306525139e+01   1.0938133722e+01    0.1950926    0.1519414  25.08 0.0003091562    1.141    0.124
       248  -7.6461    199.2451    158.1774   8.4478542654e+01   1.3651183705e+01    0.1583286    0.1484374  44.02 0.0003986591    1.368    0.269
       249  -7.3638    141.8102    155.2037   9.5310716732e+01   2.4214659957e+01    0.1657574    0.1436398   8.71 0.0003574623    1.209    0.173
       250  -8.5824    133.5753    146.2766   9.5477301701e+01   2.7266323913e+01    0.4883489     0.135226 -50.73   0.00156667    4.323    0.769
       251  -8.7488    240.6665    148.2144   7.5652625107e+01   7.9592293856e+00    0.1886534    0.1710036  70.94  0.001115494    1.827    0.453
       252  -9.7346    236.9809    146.1616   7.5794687486e+01   8.7978466667e+00    0.3358122    0.1671596  28.02  0.001664476    2.111    0.526
       253  -7.5398    234.6553    138.7209   7.4607535554e+01   1.0073878791e+01    0.1313808    0.0829388  13.40 0.0002418621    1.632    0.387
       254  -9.4362     67.0378    144.4195   1.1150937433e+02   3.8009038850e+01     0.468826    0.2584466  58.94  0.002313928    1.971    0.493
       255  -7.1948    231.7269    135.3097   7.4334261623e+01   1.0991724236e+01    0.1136626   0.09634623 -42.85 0.0001827765    1.550    0.355
       256  -8.5886    112.3263    133.8765   9.8149839895e+01   3.3389817053e+01    0.2970654    0.2179326  82.95  0.001121709    1.857    0.461
       257  -7.2018    170.6766    133.6714   8.4848248033e+01   2.2562749662e+01    0.1447502    0.1024572   8.32 0.0007049437    1.695    0.410
       258  -9.9716    133.6930    131.1143   9.2399571099e+01   3.0093908032e+01    0.5493481    0.4826843  39.44  0.002610243    1.089    0.082
       259  -8.3790     82.9057    131.3860   1.0533050960e+02   3.8642988850e+01    0.4915104    0.2775718  83.00  0.001924296    3.214    0.689
       260 -10.5925     70.5215    126.0800   1.0783537547e+02   4.1581937887e+01    0.6460963    0.5329578 -48.61  0.002001166    1.308    0.235
       261  -8.0432     50.4557     35.4443   9.0914606862e+01   6.4868464517e+01    0.1890457    0.1217348 -52.55 7.477571e-05    1.536    0.349
       262 -10.2241     58.2453    124.5080   1.1106235128e+02   4.3537179209e+01    0.7928275     0.390875  73.08  0.003011721    3.455    0.711
       263  -9.7550     98.4259    128.4621   1.0066530563e+02   3.6851987654e+01    0.5519336    0.3354094  74.56  0.002279595    2.766    0.638
       264  -7.2496      7.4240    130.2466   1.2595166219e+02   4.7107153174e+01    0.1084072   0.08035348 -41.00 0.0003082012    1.743    0.426
       265  -7.6306    160.8029    129.5966   8.5995618206e+01   2.5167165444e+01    0.1903517    0.1298863  52.24 0.0005238277    1.578    0.366
       266 -10.0893    117.1405    124.7634   9.5080662163e+01   3.4391977008e+01    0.8673457    0.5992258 -63.89  0.003070917    1.702    0.412
       267 -10.6139    123.8482     90.0194   8.4744664418e+01   4.0114946728e+01      1.30531    0.5328258 -34.07  0.003072362    3.001    0.667
       268 -10.1984    128.7098    100.5912   8.6384615815e+01   3.7020047141e+01    0.8928305    0.4902236 -26.05  0.002119433    2.585    0.613
       269 -10.3633    108.9605    113.0327   9.4614453818e+01   3.8303802461e+01     1.042079    0.4314797 -51.26  0.002207862    2.468    0.595
       270 -10.5439    108.6303     99.8111   9.1500635911e+01   4.1153017277e+01    0.9491942    0.5997784  67.37  0.003951568    2.371    0.578
       271 -10.1946    122.0339    112.6912   9.1114737523e+01   3.5928783698e+01    0.4742138    0.4454284  79.59  0.001224608    1.146    0.127
       272 -10.7368    120.7154    107.1492   9.0108677644e+01   3.7307245039e+01    0.7065578    0.5883759  23.73  0.003233291    1.300    0.231
       273  -9.7500     41.7321    122.3459   1.1552535990e+02   4.5922156859e+01    0.6019531    0.2760905  86.96  0.002375863    3.046    0.672
       274  -9.8107     27.5680    123.2864   1.1973745554e+02   4.7081926262e+01    0.5676165    0.2582506  62.99  0.002259023    2.472    0.595
