#   1 NUMBER                 Running object number                                     
#   2 MAG_AUTO               Kron-like elliptical aperture magnitude                    [mag]
#   3 X_IMAGE                Object position along x                                    [pixel]
#   4 Y_IMAGE                Object position along y                                    [pixel]
#   5 X_WORLD                Barycenter position along world x axis                     [deg]
#   6 Y_WORLD                Barycenter position along world y axis                     [deg]
#   7 A_WORLD                Profile RMS along major axis (world units)                 [deg]
#   8 B_WORLD                Profile RMS along minor axis (world units)                 [deg]
#   9 THETA_WORLD            Position angle (CCW/world-x)                               [deg]
#  10 FWHM_WORLD             FWHM assuming a gaussian core                              [deg]
#  11 ELONGATION             A_IMAGE/B_IMAGE                                           
#  12 ELLIPTICITY            1 - B_IMAGE/A_IMAGE                                       
         1 -16.8357    115.3908    159.8125   1.0771080825e+02   2.7169729109e+01     4.850873     2.404593 -54.46   0.02209472    2.119    0.528
         2 -18.7747    192.1032    122.8053   8.4300407902e+01   1.8880651781e+01     7.938891     6.059613 -79.32   0.03801404    1.972    0.493
         3 -16.3682    199.0198     72.2784   6.9664624315e+01   2.5502869126e+01     3.181699     2.196471  43.60   0.01481138    1.505    0.335
         4 -17.0292    213.3811     97.9942   7.4252561417e+01   1.8101595897e+01     3.083887     2.780054  65.20   0.01706998    1.254    0.203
         5 -15.9268    171.0565     89.6367   7.9929481166e+01   2.9430039435e+01      2.36551     1.666817   0.51  0.006254742    1.970    0.492
         6 -12.1270    202.0048     21.8488   5.3974307619e+01   3.1561430192e+01    0.3589981    0.2387331 -13.95 0.0008539968    1.613    0.380
         7 -11.9218     13.8495     13.9042   1.0443778848e+02   7.1452917330e+01    0.2890264     0.169525 -43.28  0.000618688    1.285    0.221
         8 -11.4605    128.8597     13.2405   6.2592307847e+01   5.1713084079e+01      0.27597    0.2142727  -2.21            0    1.318    0.242
         9 -11.1244    205.9460     12.6775   5.0708276862e+01   3.1518691830e+01    0.2610091    0.1962336 -37.07 0.0004566761    1.274    0.215
        10 -10.8734     90.0626     12.0103   7.1754488763e+01   6.0733994974e+01     0.207059    0.1813093  -8.90 0.0003422756    1.041    0.039
        11 -10.9012     89.0811      7.3198   6.9758456157e+01   6.1513777824e+01    0.2903351    0.1724934 -32.91 0.0003076731    1.640    0.390
        12 -13.0927    235.6191      9.4176   4.6933315078e+01   2.4338783762e+01    0.3558647    0.3273602 -78.44  0.002177362    1.084    0.078
        13 -10.7844    100.9468      9.2513   6.7384896173e+01   5.8740852390e+01    0.2251941    0.1815449 -14.70 0.0003177965    1.168    0.144
        14 -12.2276    228.4750      6.7349   4.6805617816e+01   2.6364452367e+01    0.3775498    0.1761313 -53.88  0.001571706    2.250    0.556
        15 -10.7644    214.3143      5.8318   4.7820860016e+01   3.0033964013e+01    0.2299193    0.1560656 -44.66 0.0006961724    1.401    0.286
        16 -12.4223    239.8869      2.8862   4.4845562187e+01   2.3948723528e+01    0.4198862    0.2636928  35.42  0.002060379    2.049    0.512
        17 -10.7259    178.7980      4.9219   5.1363933005e+01   3.9487458007e+01    0.2991392    0.1800326 -42.49  0.001363385    1.684    0.406
        18 -12.2402    248.8159      4.4980   4.4605625183e+01   2.1677227096e+01    0.3990663    0.2862146 -38.53   0.00177119    1.228    0.186
        19 -11.1432    208.2005      1.6037   4.7146236961e+01   3.2013336904e+01    0.2450724    0.1662457  64.52 0.0006762251    1.452    0.311
        20 -12.8991    154.8432    196.1215   1.0538450017e+02   1.4156196575e+01    0.4342868    0.3442492  32.90 0.0006433859    1.235    0.190
        21 -13.3486    234.5536    243.7702   9.8899762858e+01  -4.0104726210e+00    0.4893975    0.1760707  33.73  0.002654449    2.238    0.553
        22 -12.6025    243.3402    247.4545   9.8103317106e+01  -5.5360717843e+00    0.3808318    0.2459313  38.81  0.002885481    1.346    0.257
        23 -12.8672    249.1444    243.5373   9.6715178349e+01  -6.0106329323e+00    0.4458483    0.3193175  47.45  0.002824931    1.780    0.438
        24 -12.0628    222.9076    250.1714   1.0148721546e+02  -2.9298438444e+00    0.2416866    0.1113134  42.72  0.001520898    1.688    0.407
        25 -12.7643    234.6137    250.2376   9.9757693859e+01  -4.5673146431e+00    0.5718704      0.12454  42.59  0.002543848    3.441    0.709
        26 -11.2717    212.4969    249.5099   1.0297025004e+02  -1.3917207919e+00    0.1729324    0.1322367   4.41  0.001389301    1.407    0.289
        27 -10.6390    176.5678    228.4904   1.0598335485e+02   6.2257761232e+00    0.2054691    0.1158834  35.88 4.041013e-06    1.478    0.324
        28 -10.4102    224.5587    231.7108   9.8742754231e+01  -1.4679672502e+00    0.1162913    0.1020703 -22.22 0.0009289694    1.507    0.337
        29 -11.0415    144.3866    230.8628   1.1160105115e+02   1.0878806858e+01    0.1951901     0.129474  56.64 0.0003806702    1.361    0.265
        30  -9.8623      7.3097    231.6134   1.3369380448e+02   2.7889536133e+01    0.1051116   0.04120572  64.76 0.0005157704    1.813    0.449
        31 -10.2175    183.7967    229.7903   1.0496546755e+02   4.9484420315e+00    0.1511747    0.1111871  51.54  0.001064096    1.333    0.250
        32 -10.7670     81.8884    230.1130   1.2191566007e+02   1.9840793039e+01    0.1605917    0.1037841  62.27 0.0002758562    1.203    0.169
        33 -10.6361     69.4020    230.0932   1.2395275753e+02   2.1423708792e+01    0.1690705    0.1219882  42.29 0.0003518922    1.459    0.315
        34 -11.8377    196.9783    226.1282   1.0233389843e+02   3.3154225245e+00    0.2317571    0.2081895 -45.76   0.00112888    1.539    0.350
        35 -11.7775    219.1638    225.6367   9.8715950119e+01  -5.6005715029e-02    0.2826483    0.1820517  32.92 0.0007248171    1.185    0.156
        36 -10.7968    149.1456    227.1909   1.1039042089e+02   1.0642870645e+01    0.1698442    0.1301336  36.26  0.001169289    1.215    0.177
        37 -11.2302    202.6849    225.2942   1.0129547945e+02   2.5190444752e+00    0.2156463    0.1426992  35.57 0.0006648296    1.162    0.140
        38 -10.3795    170.1883    224.8033   1.0657275101e+02   7.6773990365e+00    0.1593922     0.113576  28.06 0.0009135974    1.382    0.276
        39 -12.5209    177.4892    221.9432   1.0498109176e+02   6.8799518691e+00    0.6114674    0.2671552  50.39  0.003157799    2.147    0.534
        40 -10.4918    171.1908    217.8152   1.0549566964e+02   8.4090457568e+00    0.2556721    0.1266976  48.77  0.001198407    1.734    0.423
        41 -11.5969    246.8021    221.3823   9.3809528625e+01  -3.7749291285e+00    0.3508359    0.1562186  24.45  0.001867379    2.310    0.567
        42 -10.1105     98.0176    222.2283   1.1855823681e+02   1.8893191496e+01    0.1488521    0.1094894  56.07 0.0002365706    1.044    0.042
        43 -10.4074     30.4752    222.0285   1.2974175047e+02   2.7149468613e+01    0.1336211   0.07811007 -88.02 0.0003917947    1.513    0.339
        44 -14.3959    234.9378    215.1766   9.4668011387e+01  -1.4098686176e+00    0.3952263    0.2898707   6.99  0.001667467    1.259    0.206
        45 -11.0696    130.5572    218.6996   1.1259762557e+02   1.4681210184e+01    0.1757382     0.109776 -50.32 0.0007493802    2.032    0.508
        46 -12.2323    123.8065    216.0016   1.1347421463e+02   1.6108098904e+01    0.4561878    0.2469146  34.83  0.002379182    1.945    0.486
        47 -10.9531    157.0930    216.3861   1.0772520035e+02   1.0859511926e+01    0.1789458      0.16151 -81.33 0.0006011372    1.372    0.271
        48 -12.3215    142.0476    215.2128   1.1019255380e+02   1.3410613559e+01      0.43885    0.2578883  58.51  0.001648873    1.702    0.413
        49 -11.6028     58.7344    216.3059   1.2476260437e+02   2.4936335805e+01    0.2872519     0.225856  24.08  0.001974283    2.022    0.505
        50  -9.9833     17.5274    217.3941   1.3158450365e+02   2.9212126139e+01   0.09898113   0.06532461  67.25 8.475788e-05    1.031    0.030
        51 -11.9018     91.8941    214.4765   1.1890867728e+02   2.0967502773e+01    0.2848981    0.2041371  36.14  0.001840104    1.571    0.363
        52 -11.8783     89.5560    210.0762   1.1891392517e+02   2.2010171627e+01     0.318631    0.1641324  66.16  0.001804294    2.022    0.505
        53 -14.5179    248.3291    114.1075   7.2679456135e+01   8.2830823949e+00    0.7519941    0.3595849 -28.04  0.003376015    1.914    0.477
        54 -11.5164    198.2430    247.0061   1.0483980127e+02   9.1310176792e-01    0.1398063    0.1093028  31.50 0.0003289379    1.091    0.083
        55 -10.7637    132.5890    246.6243   1.1513497369e+02   1.0559950472e+01    0.1889498    0.1135766  49.33 0.0004249832    1.228    0.186
        56 -10.4000    232.2803    201.0028   9.2801552680e+01   4.7876575538e-01    0.1783998    0.1328674  -7.22 0.0004779552    1.344    0.256
        57 -11.1757    233.4197    195.7979   9.1741213497e+01   8.6273361203e-01    0.2551242    0.2113086  -7.80  0.001807036    1.238    0.193
        58 -10.6008    162.1599    201.1462   1.0477783289e+02   1.2177893695e+01    0.1623752    0.1248868  58.24 0.0004157365    1.301    0.232
        59 -15.8493    174.6540    121.0820   8.7335185237e+01   2.2977566407e+01    0.8983424     0.737483 -43.65  0.002659086    1.260    0.206
        60 -10.0221    163.9934    214.4708   1.0628529761e+02   1.0011287095e+01    0.1827998   0.09345054  42.82    0.0010214    1.563    0.360
        61  -9.8040    128.4624    200.4447   1.1081417411e+02   1.7813438376e+01    0.1188469   0.09785572  53.26 0.0001111791    1.022    0.022
        62 -10.2260    227.2104    198.8775   9.3262686532e+01   1.5327234000e+00    0.1701465    0.1434064  35.68 0.0006115739    1.241    0.194
        63 -11.9733    134.7574    197.7457   1.0930730024e+02   1.7235355980e+01    0.2590568    0.2256227 -83.63  0.001279258    1.281    0.219
        64 -13.1624    150.4968    196.2343   1.0619780293e+02   1.4871356880e+01    0.3450855    0.3107324 -20.35 0.0004443408    1.391    0.281
        65 -10.3641     34.1322    198.1426   1.2781042818e+02   3.0853648473e+01    0.1433231    0.1127004  73.80 0.0002800193    1.139    0.122
        66 -10.0402     16.5081    197.9839   1.3085690927e+02   3.2644147478e+01    0.1393913   0.07801959 -87.46 -0.0001244956    1.476    0.323
        67 -10.8972    212.2686    196.8985   9.5396003177e+01   4.2402693415e+00    0.3069278    0.2078511 -42.91  0.001874446    1.907    0.476
        68 -11.1481    215.3120    193.9643   9.4396751293e+01   4.0808019220e+00    0.2520484    0.2162578  -9.37  0.001387557    1.239    0.193
        69 -10.5017    172.8200    197.1784   1.0228596188e+02   1.0938663388e+01    0.1866639    0.1528508  35.76 0.0004254856    1.064    0.061
        70 -11.4469    176.1678    195.3972   1.0141553731e+02   1.0615661522e+01    0.2860961    0.1521229  54.68 0.0009483671    2.034    0.508
        71 -10.4983    206.8943    192.8681   9.5634417819e+01   5.6501434635e+00    0.1846936    0.1444538  21.07 0.0005764652    1.151    0.131
        72 -12.8508    118.2586    190.6921   1.1149684421e+02   2.1051708953e+01    0.3995565    0.3298145 -76.73   0.00193729    1.307    0.235
        73  -9.7171     13.6890    193.2591   1.3111002037e+02   3.3754117315e+01    0.1048399   0.05217414  64.09 0.0001431989    1.528    0.346
        74 -10.9453    227.1360    191.3834   9.1999157697e+01   2.3970668937e+00    0.2219009    0.1823348  -7.26  0.001091824    1.226    0.184
        75 -12.0735    111.6273    184.7544   1.1201889130e+02   2.3133668303e+01    0.3123061    0.2198889 -60.93  0.001078987    1.561    0.359
        76 -15.8630    195.1613    203.3481   9.9323705154e+01   6.3200426794e+00     2.016583     1.347671 -47.31    0.0107636    1.976    0.494
        77 -11.2045     88.0651    191.1940   1.1731647270e+02   2.5480973363e+01    0.1590808    0.1418718  61.23  0.000367116    1.210    0.173
        78 -14.4430    246.9455    185.1743   8.7726416709e+01  -1.7639403812e-01    0.4308822    0.2773788  27.02  0.001767759    1.320    0.243
        79  -9.5274     17.3102    184.6904   1.3002325651e+02   3.4988607877e+01    0.1114731   0.05490457  66.62 0.0003733715    1.622    0.383
        80 -11.2684     85.2431    181.3288   1.1679260574e+02   2.7691112297e+01    0.2174868    0.1793753  77.32 0.0002979022    1.054    0.051
        81 -11.3777     31.9335    180.2548   1.2704498687e+02   3.4390594342e+01    0.1778166    0.1257075 -86.83 0.0002961203    1.212    0.175
        82 -12.0751     51.3532    245.3263   1.2770568986e+02   2.1256639141e+01    0.2385892    0.1195354  55.18   0.00105974    1.386    0.278
        83 -12.1625    213.5697    243.2013   1.0199827245e+02  -9.5361899953e-01    0.1960075    0.1446451  49.16  0.001470019    1.499    0.333
        84 -12.6977     87.6923    174.8998   1.1556066620e+02   2.8562065711e+01    0.4053079    0.2867092 -78.33  0.001721934    1.395    0.283
        85 -11.3579     22.1812    176.0401   1.2861038055e+02   3.6165017690e+01    0.1745326    0.1206528  61.88 0.0002934334    1.193    0.162
        86 -10.8246    121.6761    243.8061   1.1661221347e+02   1.2472833624e+01     0.204867    0.1240615  58.94    0.0011182    1.437    0.304
        87 -10.0965     62.2856    173.4085   1.2053805546e+02   3.2267012356e+01    0.1503607   0.09123699  53.95 0.0003740413    1.434    0.303
        88 -10.5928    233.5968    171.7699   8.7370275816e+01   3.6216161314e+00    0.2117068    0.1531675  55.04 0.0009095808    1.735    0.424
        89 -11.2398     78.8048    171.9733   1.1702832291e+02   3.0378981850e+01    0.1943052    0.1526041  56.98 0.0004791361    1.151    0.132
        90 -10.3291     38.1053    165.8532   1.2474104139e+02   3.6561811418e+01    0.1731192    0.1175655  71.64 0.0002902818    1.201    0.167
        91 -11.6592    248.0482    165.0956   8.3759428695e+01   1.9047701442e+00    0.1826294    0.1484391  13.14 0.0003473592    1.016    0.016
        92 -10.1465     65.5043    163.5312   1.1883781555e+02   3.3826205954e+01    0.1200769   0.09793707  78.25 3.526702e-05    1.009    0.009
        93  -9.9867      1.5177    214.5003   1.3398832492e+02   3.1172319874e+01   0.09544641   0.06496416  71.62 0.0008098354    1.054    0.051
        94 -11.1096     86.0644    159.1606   1.1391208986e+02   3.1900809421e+01    0.2416188    0.1727591  29.08   0.00107855    1.796    0.443
        95 -10.5413     42.1227    158.1535   1.2322847945e+02   3.7692053548e+01    0.2122161    0.1327338 -88.09  0.001337176    1.369    0.270
        96 -10.0222    247.6340    158.2091   8.2449980551e+01   2.7936685003e+00    0.1088078   0.09656975  59.09 0.0006809152    1.565    0.361
        97 -10.5666     56.1427    157.6585   1.2018884100e+02   3.6188889023e+01    0.1908759    0.1331726  88.24 0.0004246638    1.249    0.199
        98  -9.9852     23.1849    157.7668   1.2715357468e+02   3.9683272448e+01    0.1424724     0.110838 -72.82 0.0008174723    1.340    0.254
        99 -13.3777    237.7592    155.2401   8.3420259544e+01   4.9329300540e+00    0.5021092    0.3713664  44.70  0.001799431    1.399    0.285
       100 -15.3329    166.5970     80.8710   7.8340415100e+01   3.2050050995e+01     1.365714     1.006859 -50.54   0.00288728    1.442    0.307
       101 -16.8733    198.4002    162.3568   9.1630080219e+01   1.1358377669e+01     3.304763      2.20426  14.06   0.01685445    1.856    0.461
       102 -12.5279     90.6469    150.3581   1.1166427820e+02   3.3023536821e+01    0.4313574    0.1923761 -52.15    0.0016675    2.377    0.579
       103 -12.7680     80.2591    148.9315   1.1379117465e+02   3.4844597961e+01    0.3336924    0.2162356 -66.68 0.0006515339    1.467    0.318
       104 -11.2636     11.2028    150.1258   1.2909757676e+02   4.2297876083e+01    0.1957823    0.1591311 -77.95 0.0003204927    1.291    0.225
       105 -11.4826     12.0338    143.2981   1.2843909184e+02   4.3639794400e+01    0.3213374    0.1459621 -87.29 0.0001730948    1.824    0.452
       106 -16.6406    235.0220    125.1478   7.7312607445e+01   9.4613896464e+00      2.42423     1.787865  52.70   0.01321498    1.507    0.336
       107 -16.8575    174.4104    152.8408   9.4293938026e+01   1.7521699426e+01     4.213901     2.624579   9.12   0.01722226    2.997    0.666
       108 -10.0797     45.6659    145.2953   1.2115974613e+02   3.9992167895e+01    0.1253235   0.07374515  69.77 0.0004811344    1.643    0.391
       109 -16.0708    154.9823    123.8225   9.2120135630e+01   2.6683003037e+01     2.194922     1.526296 -76.03  0.009788449    2.143    0.533
       110  -9.8382     87.3036    140.6899   1.1094980544e+02   3.5556311034e+01    0.1341621   0.09093033  76.49 0.0002338975    1.609    0.379
       111 -11.3158     71.6989    138.0955   1.1422079263e+02   3.8342477158e+01    0.1830017    0.1446969 -75.92 0.0008670706    1.138    0.121
       112 -15.5585    181.5816     93.5027   7.8876170705e+01   2.6260576538e+01     1.246477    0.9411998  40.06  0.006058723    1.355    0.262
       113 -11.0881     18.9874    133.4813   1.2608795304e+02   4.5135363591e+01    0.1988879    0.1295102 -82.20 0.0002662794    1.205    0.170
       114 -11.6377    177.9895    212.9008   1.0366636739e+02   7.9434419941e+00    0.2386723    0.1701626  48.04  0.001151617    1.233    0.189
       115 -11.8378     87.3739    129.5587   1.0909108885e+02   3.7941931429e+01    0.3622903    0.2352593 -58.28  0.001065661    1.468    0.319
       116 -10.3236     54.6770    128.9802   1.1703491648e+02   4.2501617138e+01    0.1715223    0.1337566 -78.10 0.0003539565    1.096    0.088
       117  -9.6608      6.3624    128.2453   1.2857625403e+02   4.7254854666e+01   0.09878964   0.07413781 -53.72 0.0004248276    1.606    0.377
       118 -10.7749     78.0048    127.7630   1.1108683474e+02   3.9719660125e+01    0.1631957    0.1065612  42.48 0.0004154691    1.601    0.375
       119 -12.5439     92.4869    126.2235   1.0724142646e+02   3.7872842657e+01    0.4832739    0.1851743 -54.39  0.001958711    2.466    0.594
       120 -10.4074     24.0762    123.7663   1.2393656710e+02   4.6803649035e+01    0.1741707    0.1245942  80.83 0.0007918017    1.193    0.162
       121 -16.0880    163.5247    114.0690   8.7960153375e+01   2.6685842491e+01     2.025262    0.9767914 -46.54  0.007903952    2.183    0.542
       122 -10.2506     81.6310    119.1649   1.0866622061e+02   4.1092133252e+01    0.1886334    0.1114002 -52.05 0.0003112314    1.655    0.396
       123 -11.2783     35.9321    118.5839   1.2036136044e+02   4.6848850586e+01    0.2803289    0.1363606 -87.10  0.001367207    2.152    0.535
       124 -11.4718     91.4845    117.1540   1.0575992151e+02   4.0018787481e+01    0.2265408     0.163807  39.20  0.001216202    1.511    0.338
       125 -11.7208    239.8463    111.9431   7.3449874143e+01   1.0300572647e+01    0.4986008    0.2092825 -26.71  0.002005605    2.302    0.566
       126 -11.5914    214.1039    210.3863   9.7248512736e+01   2.3675390776e+00    0.1861463     0.143874   4.40 0.0008408967    1.309    0.236
       127 -11.2319     67.9891    116.1892   1.1166691778e+02   4.3680292513e+01    0.2232925    0.1646355 -70.43 0.0003855725    1.201    0.167
       128 -10.0551     77.7100    111.9816   1.0833391602e+02   4.3271002137e+01    0.1825818    0.1569286 -75.11  0.000531094    1.033    0.032
       129  -9.9844    250.0125    105.4470   7.0375316265e+01   9.0947455399e+00      0.17456    0.1333202  46.81 0.0001538379    1.406    0.289
       130 -10.9567    241.2723    104.2599   7.1375455839e+01   1.1062217788e+01    0.2355113    0.1659968 -15.66 0.0005713132    1.361    0.265
       131 -12.0104     85.9162    103.3563   1.0435439607e+02   4.3962938418e+01    0.3751908    0.2540643 -68.26  0.001760003    1.469    0.319
       132 -11.6158     78.8542    103.3571   1.0628677862e+02   4.5040117697e+01     0.241744    0.2201931  84.83 0.0006868977    1.088    0.081
       133 -10.7576    246.1717    100.8822   6.9826531074e+01   1.0497921579e+01    0.1993787    0.1779301 -39.93 0.0005058424    1.224    0.183
       134 -11.0746     72.4699     97.4853   1.0682276607e+02   4.7287985896e+01    0.2102356    0.1105746 -50.57 7.512618e-05    1.761    0.432
       135 -10.3217     99.3074     91.3134   9.7806443050e+01   4.4383415107e+01    0.1401889     0.111751 -17.91 0.0007026242    1.624    0.384
       136 -10.1976     40.8479     90.8067   1.1476482013e+02   5.2647526021e+01    0.1709915    0.1309672  79.72 0.0008350848    1.355    0.262
       137 -11.1512    242.0950     88.3025   6.7281733840e+01   1.3079849685e+01    0.4241998    0.2488469 -22.86  0.001980998    1.611    0.379
       138 -11.5640     87.9724     88.7143   1.0032923564e+02   4.6885692117e+01    0.3143916    0.2830773   5.69  0.001063242    1.353    0.261
       139 -12.4941    104.6313     87.0870   9.5221400780e+01   4.4327493167e+01    0.4645107    0.3356949 -80.71 0.0008410112    1.835    0.455
       140 -10.7371    107.0593     82.9885   9.3417598371e+01   4.4740001601e+01    0.2170638    0.1913447 -22.90 0.0004034432    1.242    0.195
       141 -10.4526    225.0183    209.8693   9.5402318646e+01   6.8196906412e-01    0.3143328    0.1722573  54.54  0.001081601    2.465    0.594
       142 -10.9041    110.7290     88.1862   9.3865961392e+01   4.2941763371e+01    0.2658269    0.1684177 -50.92 0.0008392492    1.513    0.339
       143 -10.9874    231.0224     85.1531   6.8086099406e+01   1.5979296861e+01    0.2906337     0.205874  55.01 0.0005768967    1.516    0.340
       144 -11.1532    234.0269     73.2304   6.4507162743e+01   1.6960829035e+01    0.5634717    0.2139127 -38.02  0.002103856    2.400    0.583
       145 -11.0815    229.5031     76.7998   6.6104717900e+01   1.7508919701e+01    0.4439009    0.2419783 -16.26  0.001831627    2.069    0.517
       146 -10.0942    236.7197     83.6877   6.6869238429e+01   1.4902445881e+01    0.1958931    0.1455372  51.34 0.0002414963    1.435    0.303
       147 -11.5414    232.9311     81.0212   6.6722605076e+01   1.6129003216e+01    0.3006345    0.2920077  57.37 0.0004568293    1.148    0.129
       148 -10.4706     52.2076     81.2045   1.0932321020e+02   5.3593633189e+01    0.1900798    0.1537605 -51.14 0.0004750829    1.160    0.138
       149  -9.7332    245.6490     79.7616   6.4613135065e+01   1.3460028285e+01    0.1395435    0.1004215  24.66 0.0004861929    1.573    0.364
       150 -12.3472    107.8696     70.5381   8.9483262047e+01   4.7155335053e+01    0.3538035    0.2455384 -62.38  0.001650352    1.694    0.410
       151 -12.4962    110.3119     76.8512   9.0737340275e+01   4.5386539719e+01     0.449785    0.3501261  22.95  0.002255058    1.566    0.362
       152 -11.8268    107.7825     74.5938   9.0757759593e+01   4.6346416316e+01    0.2849423     0.253222 -87.70 0.0008773367    1.273    0.214
       153 -12.2535     97.8684     74.1300   9.3440717042e+01   4.8316285617e+01    0.4699308    0.3202086  -1.25  0.001586014    2.590    0.614
       154 -10.1540    240.7451     72.5683   6.3411486492e+01   1.5517915016e+01    0.1795843    0.1417091  81.98 0.0009355262    1.579    0.367
       155 -10.9397      8.8425     74.0624   1.2198983529e+02   5.9039884981e+01    0.1783713    0.1310494  88.09 0.0007864693    1.279    0.218
       156 -10.0865    241.0809     56.5540   5.9130023209e+01   1.7552812476e+01    0.2897143    0.1426725  64.06  0.001227816    2.255    0.557
       157 -10.4451    236.8278     56.6738   5.9691107804e+01   1.8530034969e+01    0.2710581    0.2079591 -87.52 0.0003790364    1.593    0.372
       158 -10.7892    235.5698     61.1001   6.1047512384e+01   1.8243156041e+01    0.4421792    0.2146037 -18.77  0.001289523    2.240    0.553
       159 -12.2531    249.2404     65.2956   6.0424679528e+01   1.4570719487e+01    0.2662811    0.2289766  15.45 0.0003460909    1.240    0.194
       160 -12.4015    242.2455     65.2217   6.1283774381e+01   1.6155524135e+01    0.6362796    0.3683769 -78.48  0.002448644    3.191    0.687
       161 -10.9515    220.8033    206.9073   9.5612104855e+01   1.6775831339e+00     0.220033    0.1733448   1.60 0.0008399976    1.258    0.205
       162 -11.5435    165.6462    209.0491   1.0526702817e+02   1.0481770960e+01    0.2151168    0.1397157  50.86  0.001213212    1.367    0.268
       163 -10.7448     10.9271     65.8801   1.1995521841e+02   6.0735912859e+01    0.1757031    0.1232643 -56.14 0.0002838673    1.213    0.176
       164 -10.5385     11.3940    208.1196   1.3217223973e+02   3.1355311650e+01    0.1300531   0.09765717  65.66 0.0005494997    1.187    0.157
       165 -11.2328    220.2712     59.3699   6.2650765519e+01   2.2142489627e+01    0.3100132     0.276573  -5.32  0.000921917    1.131    0.116
       166 -12.6230    139.1367     56.5875   7.6751026992e+01   4.2928099843e+01    0.7759824    0.4370144   2.31  0.002212685    4.716    0.788
       167 -12.4393    140.7346     48.7387   7.3649459256e+01   4.3855596589e+01    0.5498099    0.3102659 -29.45   0.00194565    1.762    0.433
       168 -13.1653    135.6518     44.9425   7.3463483819e+01   4.5697622652e+01    0.5902202    0.4529387  42.72  0.001842666    1.330    0.248
       169 -11.3774     97.6494     58.8573   8.8632418218e+01   5.1464983469e+01    0.3178291    0.1910304  45.71  0.001466142    1.808    0.447
       170 -10.2330     11.3227     58.0757   1.1836607131e+02   6.2440730983e+01    0.1656065    0.1184491 -68.69 0.0004455706    1.091    0.083
       171 -12.0571    128.9925     55.2880   7.8767606215e+01   4.5527869630e+01    0.3604681    0.2574763   3.56  0.001590987    1.889    0.471
       172 -11.5520    230.6183     47.0323   5.7824774307e+01   2.1255063703e+01    0.3178646    0.2416799 -19.72 0.0003834275    1.280    0.219
       173 -11.6254    226.2575     54.2665   6.0396852106e+01   2.1372925093e+01     0.694645    0.3208073 -54.68  0.002442775    3.046    0.672
       174 -11.9469    226.4967     50.4835   5.9307420664e+01   2.1812530434e+01    0.5870624    0.4067603  82.51  0.002811897    1.744    0.427
       175 -10.7595     90.6379     54.6724   8.9331916087e+01   5.3588236444e+01    0.2780752    0.2045031  -9.03  0.001226513    1.749    0.428
       176 -11.8621    249.5366     53.3054   5.7271371886e+01   1.6027236922e+01     0.250796    0.2159532 -39.78  0.000419666    1.087    0.080
       177 -12.3026    121.8418     53.5263   7.9978015620e+01   4.7457854427e+01    0.4341987    0.3069155  73.32  0.001193315    1.917    0.478
       178  -9.5641     61.6913     53.7119   9.8667111350e+01   5.8416168040e+01     0.131853   0.09513828 -24.29 0.0002073172    1.575    0.365
       179 -12.0623    169.9406    202.7671   1.0362492007e+02   1.0639973969e+01    0.3405369    0.2455239 -58.30  0.001669707    1.843    0.458
       180  -9.7258     25.7089     52.3165   1.1164670839e+02   6.2665520327e+01    0.1156046   0.08633079  88.01 0.0002765594    1.597    0.374
       181 -11.7548    116.1929     55.3131   8.2111825647e+01   4.8374674629e+01    0.3720514    0.2053589 -31.39 0.0009707448    1.850    0.459
       182 -11.3384    100.1830     51.1189   8.5156340627e+01   5.2457703063e+01    0.4052248    0.1701615  57.02  0.001302106    3.555    0.719
       183 -10.7575     30.8875     50.3990   1.0913795187e+02   6.2632623055e+01    0.2297949    0.1450983 -65.47  0.001323245    1.421    0.296
       184 -17.3423    172.6381    137.9290   9.1564440392e+01   2.0429879498e+01     4.587476     1.832811  39.87   0.01703011    2.649    0.623
       185 -10.9517    245.1526     46.8359   5.6063898712e+01   1.7833645755e+01    0.5195546    0.2044882  43.23   0.00186719    3.303    0.697
       186 -11.2888    236.7632     46.4606   5.6927288081e+01   1.9851061715e+01    0.4208349    0.2485403 -28.50   0.00167872    1.535    0.349
       187 -11.3635    233.5358     42.5452   5.6233297228e+01   2.1112707730e+01    0.3999349    0.2554082 -60.07  0.001860257    1.804    0.446
       188 -12.1447    213.6787     45.4919   5.9579235024e+01   2.5651039176e+01    0.5833737    0.3317966  12.87  0.001874201    2.905    0.656
       189 -15.1159    205.2617    144.4958   8.6737849499e+01   1.2680713644e+01    0.6211478    0.4879242  16.17  0.002686188    1.296    0.228
       190 -11.1917    106.8792     47.8797   8.2015225235e+01   5.1691848764e+01    0.2263596    0.1908022  -6.86 0.0006761067    1.256    0.204
       191 -10.5357     64.4259     48.2072   9.5836905714e+01   5.9158916598e+01    0.1930527    0.1162769 -57.13 0.0009416505    1.722    0.419
       192 -12.0979    156.1596     44.2964   6.8770837037e+01   4.0696463458e+01    0.4656747    0.2440281 -32.59  0.001874953    1.835    0.455
       193 -12.0691    124.6168     42.3297   7.5172112195e+01   4.8727699850e+01    0.4685915    0.2398883 -23.74  0.001819634    2.197    0.545
       194 -10.8592     99.5166     44.0879   8.2734740377e+01   5.3870131240e+01    0.2048836    0.1935225  18.00  0.000448953    1.102    0.092
       195 -10.1389    146.4448     43.4615   7.0503523124e+01   4.3277510322e+01    0.1507689    0.1461322 -19.63 9.191757e-05    1.021    0.021
       196 -11.4062    208.2363     38.9975   5.8393525455e+01   2.7878241162e+01    0.4458144    0.2022663 -17.10  0.001257048    2.598    0.615
       197 -11.9412    211.9172     39.6552   5.8097300304e+01   2.6851982011e+01    0.4131282    0.2721361 -31.16 0.0005101917    1.424    0.298
       198 -11.9921    213.9870     34.6914   5.6363300501e+01   2.6943490843e+01    0.3879253    0.2803262 -33.30 0.0003729158    1.299    0.230
       199 -11.5384     25.7561     39.0927   1.0790901869e+02   6.5481853945e+01    0.1917699    0.1656045 -46.61 0.0002751205    1.102    0.093
       200 -11.1840     90.3536     44.8460   8.5838719929e+01   5.5506430693e+01    0.2369059    0.2013534  27.52 0.0004486466    1.265    0.209
       201 -10.7856    155.7360     38.6089   6.6860051715e+01   4.1636460683e+01    0.2034906    0.1490692  72.78 0.0007616638    1.534    0.348
       202 -12.3558    147.4648     28.8385   6.4943824270e+01   4.5103802040e+01    0.5612311    0.3102994  42.41 0.0002649675    1.891    0.471
       203 -11.5887    146.4528     37.5395   6.8363607537e+01   4.4156785445e+01    0.2961118    0.2551193  24.79 0.0007862016    1.201    0.167
       204 -11.4991    145.5204     34.4833   6.7436485588e+01   4.4828948684e+01    0.3079216    0.2914855  77.86  0.001276535    1.135    0.119
       205 -12.0055    131.4614     36.9893   7.1487345502e+01   4.7941708684e+01     0.287603    0.2523629  -3.04 0.0003160481    1.147    0.128
       206 -11.3989    233.2370     35.7279   5.4384785805e+01   2.2015290724e+01    0.2495826    0.2292431  -2.15 0.0004001003    1.146    0.127
       207 -12.5799    219.4253     34.6817   5.5690060344e+01   2.5564687777e+01    0.4966865    0.2726783 -21.42  0.002143691    1.828    0.453
       208 -11.2486    123.2680     35.2578   7.2795988841e+01   5.0149543993e+01     0.257229    0.2371237 -41.74 0.0002738217    1.132    0.117
       209 -11.9990    199.5260     33.1105   5.7785508468e+01   3.0878077553e+01    0.3447451     0.286883 -42.39 0.0008950499    1.172    0.146
       210 -10.6240    171.0226     33.5217   6.2285132710e+01   3.8344287341e+01    0.2547065    0.2090069 -46.22 0.0006956353    1.247    0.198
       211 -11.4049    167.1892     33.1483   6.2818281633e+01   3.9403186447e+01     0.296353    0.2806236 -73.42 0.0008027393    1.111    0.100
       212 -11.0276    188.1154     32.8330   5.9331515403e+01   3.3913921691e+01    0.2326371    0.2011057 -59.86 0.0009189423    1.206    0.171
       213 -10.4098    158.3759     32.4755   6.4172847356e+01   4.1800370725e+01    0.2708173    0.1984538  38.27  0.000659602    1.422    0.297
       214 -10.4279     55.4625     33.4819   9.3682918953e+01   6.3297648653e+01    0.1320384    0.1094874 -32.21 0.0002464261    1.024    0.023
       215 -12.1527     75.4737    201.0438   1.2061878076e+02   2.5442774250e+01    0.3120616    0.2713838  42.46  0.001476682    1.425    0.298
       216 -11.1243    128.9678     30.7730   6.9667232031e+01   4.9452499421e+01    0.3524094    0.1871523 -31.19  0.001173274    1.806    0.446
       217 -11.9596    183.4522     28.9676   5.8768722177e+01   3.5630459673e+01    0.4197995    0.2258475 -46.39   0.00105619    1.969    0.492
       218 -12.5900    140.1505    181.0604   1.0594432571e+02   1.9082693898e+01    0.4733882    0.2786196  48.01  0.001154061    1.484    0.326
       219 -12.1383    202.6627     27.9616   5.5776712458e+01   3.0682488081e+01    0.4200734    0.2568491 -53.26   0.00149484    1.771    0.435
       220 -10.6560    201.6408    242.7418   1.0378140533e+02   8.4173725071e-01    0.1484623    0.1028452  32.11  0.000661405    1.098    0.089
       221 -11.0989    162.0251     27.0774   6.1588360245e+01   4.1543201609e+01    0.2213054    0.2184442   7.95 0.0003922459    1.008    0.008
       222 -11.6988    188.5593     27.6115   5.7578844305e+01   3.4440429582e+01    0.3144589    0.2612144  56.22 0.0004983679    1.208    0.172
       223 -12.7696    225.4221     23.7217   5.1867314316e+01   2.5337766438e+01    0.6780831    0.1962762  66.14  0.002296677    3.333    0.700
       224 -10.2520    175.7783     22.6571   5.7809955363e+01   3.8428998309e+01    0.2066503    0.1402034  80.28 0.0005538287    1.636    0.389
       225 -10.6983    168.1700     21.4727   5.8579809235e+01   4.0593409050e+01    0.2799565    0.2115396 -56.34 0.0007385797    1.452    0.312
       226 -10.1729    194.0411     19.6808   5.4290335721e+01   3.3904255385e+01    0.1996338    0.1818394  66.71 0.0001853975    1.102    0.092
       227 -14.2817    142.1405    192.3381   1.0719988229e+02   1.6885246941e+01    0.8334699    0.8252057 -46.79  0.004158449    1.222    0.181
       228 -11.5088    210.3033     25.6548   5.4127905004e+01   2.8965907592e+01     0.406385     0.243626  50.07  0.001550338    1.741    0.426
       229 -11.3935     19.0736     16.4474   1.0282907344e+02   7.0552755833e+01    0.2224953    0.1609103 -55.47 0.0003377357    1.318    0.241
       230 -11.6194    238.4881     15.9590   4.8452375852e+01   2.2967768963e+01     0.217007    0.1264756 -25.58  0.001037671    1.605    0.377
       231 -10.7805     21.7622    243.0574   1.3198778028e+02   2.4745922198e+01    0.1486375   0.09104905  58.05 0.0003006978    1.135    0.119
       232 -10.9239    228.9274     15.5086   4.9205271534e+01   2.5357401580e+01    0.2021307    0.1355626  72.20 0.0004887504    1.540    0.351
       233 -10.0444      2.3884    242.7190   1.3475086439e+02   2.6641988521e+01     0.107771   0.06581548 -85.14  0.000851427    1.570    0.363
       234 -10.3235     62.7242     15.6195   8.2848027836e+01   6.5283573120e+01    0.1608091    0.1249919  49.47 0.0006625601    1.609    0.379
       235 -10.7974     32.5781    242.3236   1.3036806441e+02   2.3750327817e+01    0.1362127    0.1045622  37.81 0.0006442103    1.757    0.431
       236 -10.0698    179.7363     13.3397   5.4084995125e+01   3.8401352026e+01    0.1532577    0.1034936 -53.17 0.0004011066    1.592    0.372
       237 -12.2160    190.1692    241.0860   1.0537079579e+02   2.7195051984e+00    0.2783948    0.1589954  47.83  0.001524513    1.502    0.334
       238 -12.1267    198.9414    238.1821   1.0362107394e+02   1.7113704035e+00    0.1949653    0.1521551  37.81 0.0002981047    1.113    0.101
       239 -10.0114    162.8251    235.8245   1.0912614030e+02   7.4507280002e+00    0.1472907    0.1075441  57.73 0.0005559776    1.373    0.272
       240 -10.4491     52.9519    236.0459   1.2694838053e+02   2.2466487055e+01    0.1487608    0.1032658  63.03  0.000299475    1.017    0.017
       241 -11.7336    234.4208    234.8961   9.7685828766e+01  -3.2075568204e+00    0.2308731    0.1504081  42.34  0.001639281    1.427    0.299
       242 -10.5347     32.2825    234.3346   1.3005033663e+02   2.5001278768e+01    0.2129495   0.08063399  62.65  0.001267605    2.069    0.517
       243 -11.8047    248.7494    232.5934   9.5205009198e+01  -5.0463638995e+00    0.3857085    0.1339345  38.68  0.001652173    2.183    0.542
       244 -11.8356    192.9500    232.4314   1.0382744211e+02   3.2376150012e+00    0.2306013     0.190293  47.16 0.0004088845    1.263    0.208
       245 -11.1807    173.9610    232.0059   1.0685139491e+02   6.2084033429e+00    0.2312022    0.1942383 -36.67  0.001617202    1.550    0.355
       246 -11.5792    178.3726    232.0056   1.0613141008e+02   5.5285554071e+00    0.2363146    0.1483332  48.14  0.000411018    1.347    0.258
