#   1 NUMBER                 Running object number                                     
#   2 MAG_AUTO               Kron-like elliptical aperture magnitude                    [mag]
#   3 X_IMAGE                Object position along x                                    [pixel]
#   4 Y_IMAGE                Object position along y                                    [pixel]
#   5 X_WORLD                Barycenter position along world x axis                     [deg]
#   6 Y_WORLD                Barycenter position along world y axis                     [deg]
#   7 A_WORLD                Profile RMS along major axis (world units)                 [deg]
#   8 B_WORLD                Profile RMS along minor axis (world units)                 [deg]
#   9 THETA_WORLD            Position angle (CCW/world-x)                               [deg]
#  10 FWHM_WORLD             FWHM assuming a gaussian core                              [deg]
#  11 ELONGATION             A_IMAGE/B_IMAGE                                           
#  12 ELLIPTICITY            1 - B_IMAGE/A_IMAGE                                       
         1 -11.3062     45.7344     26.8042   8.3491028110e+01   6.5833241932e+01    0.4848113    0.3523839  -7.10  0.002989626    1.257    0.204
         2 -10.8474     84.3001     20.8766   6.6291278345e+01   6.0270126244e+01    0.7215324    0.3043296  25.01  0.002282107    4.628    0.784
         3 -11.0278     75.6119     20.5276   6.9005685908e+01   6.1971447553e+01    0.4512922    0.2517536 -16.58  0.002143282    1.901    0.474
         4 -10.2048     43.8940     16.1700   7.9400507440e+01   6.7670584443e+01     0.255675     0.152791 -30.16 0.0008112999    1.486    0.327
         5 -11.0900     13.7425     16.0979   9.4144867387e+01   7.0974763858e+01    0.2406815    0.1944284  15.20 0.0009389582    1.443    0.307
         6 -11.4230    234.7015     15.0553   3.8552375667e+01   2.4887901705e+01    0.2420788    0.1939728 -60.47 0.0001973366    1.079    0.073
         7 -10.3256     92.7124     10.0542   5.9063633985e+01   5.9747978060e+01    0.2803853    0.1749489  29.09 0.0003446253    1.542    0.352
         8 -10.5074     89.8502     13.6601   6.1446914144e+01   5.9976664192e+01    0.2371508    0.2287077 -27.25  0.000603668    1.274    0.215
         9 -10.1689     85.7085     11.6856   6.1793456434e+01   6.1034045150e+01     0.208569    0.1901534  14.56 0.0005043774    1.120    0.107
        10 -10.3691     37.1142      6.6397   7.7698348943e+01   6.9861495542e+01     0.355206    0.1383877 -39.50  0.001358151    2.747    0.636
        11 -11.6891     34.7519     12.7506   8.1931750165e+01   6.9340400216e+01    0.3321753     0.244061 -33.81 0.0008700526    1.391    0.281
        12 -11.5272     30.4906      7.1582   8.1158505284e+01   7.0632075043e+01    0.3754508     0.286655   5.13  0.002630153    1.140    0.123
        13 -11.2632     64.7769     12.1692   6.8974017664e+01   6.4932953095e+01    0.3504221    0.2766329 -68.41  0.001936448    2.466    0.594
        14  -9.9865    203.2246     12.0116   4.0758886462e+01   3.2675466488e+01    0.1671208    0.1076655 -29.78 0.0006408686    1.635    0.388
        15 -10.1217     99.8047     11.4453   5.7764254128e+01   5.8083282922e+01    0.2246563    0.1719888  53.52 0.0009651515    1.269    0.212
        16 -11.0024    126.4869     10.7176   5.1415339373e+01   5.1993114861e+01    0.3598184    0.1713252  43.86  0.001586589    1.963    0.490
        17 -10.3085     22.4069      9.4157   8.6424112828e+01   7.1218587540e+01    0.3074399    0.1697309  -1.16  0.001712211    2.059    0.514
        18  -9.6077     15.3890      8.8003   8.9858912158e+01   7.1989927578e+01    0.1533664   0.08048289 -31.17 0.0002967935    1.518    0.341
        19 -10.3302    224.1662      7.8137   3.7748433456e+01   2.8105926503e+01    0.1607326    0.1508224  54.30 0.0008184621    1.292    0.226
        20  -9.6309    156.0256      7.7421   4.5340954226e+01   4.4946867533e+01    0.1878567    0.1608944  68.29 0.0001901701    1.052    0.049
        21  -9.5628     88.6867      7.4602   5.9042838206e+01   6.0844996213e+01    0.2122945    0.1134214 -20.51 0.0009265456    1.919    0.479
        22 -10.5890    204.4250      6.7303   3.9269657360e+01   3.2926910987e+01    0.2386488     0.113887 -33.94   0.00112011    2.041    0.510
        23 -11.0233     71.2220      5.9866   6.3726906696e+01   6.4443151009e+01     0.321236    0.3103851 -34.90  0.002214642    1.416    0.294
        24  -9.7773      2.2670      6.6452   9.6229843151e+01   7.3358924027e+01    0.2094672    0.1168225   2.75  0.001166965    1.843    0.458
        25  -9.5065      1.0000      3.0470   9.5260390162e+01   7.4011091428e+01    0.2159388    0.0691208 -47.05  0.001076302    2.527    0.604
        26  -9.9800    211.5502      5.9503   3.8402772822e+01   3.1283334477e+01    0.1681572     0.109721  16.69  0.000808067    2.506    0.601
        27 -10.4694    151.3721      6.1585   4.5518435263e+01   4.6260902112e+01    0.1833402    0.1176401 -38.03 0.0003557816    1.683    0.406
        28 -11.8797     56.8643      3.0857   6.7423774532e+01   6.7291107684e+01    0.4332069    0.3071176  20.74  0.002736157    1.205    0.170
        29 -10.2507    107.6181      4.9900   5.3192225465e+01   5.6935131297e+01    0.2356192    0.1604544  48.03 8.954182e-05    1.270    0.212
        30 -11.2756    101.3881      2.2031   5.3480923154e+01   5.8572522721e+01     0.372421    0.2671153  72.86 0.0002174582    1.618    0.382
        31  -9.4237     41.3310      5.3527   7.5083878976e+01   6.9443862727e+01    0.1292165   0.07633886   3.22 0.0003821043    1.778    0.438
        32  -9.9782      8.2966      5.0078   9.1946331853e+01   7.3170435674e+01    0.1667159    0.1309316   5.44  0.001259767    1.330    0.248
        33  -8.9867    120.7170      4.3111   5.0150336571e+01   5.3943396631e+01    0.1262176    0.1003126 -63.90 0.0003880118    1.570    0.363
        34  -9.8708    176.2886      2.3198   4.1047203331e+01   4.0326182707e+01    0.2211482    0.1672507   2.91  0.001229955    1.679    0.404
        35  -9.9697    130.0141      3.0186   4.7927370451e+01   5.1815651072e+01    0.1637606    0.1445219  50.80 0.0004576681    1.006    0.006
        36  -9.6094    112.5943      3.3045   5.1422149588e+01   5.5934111433e+01    0.1914459    0.1495348 -67.88 0.0005188104    1.688    0.408
        37 -10.1140    243.4657      2.4615   3.5048344278e+01   2.4304011669e+01    0.1231611    0.1012253 -69.53 0.0001331948    1.016    0.016
        38 -11.5733     80.5974      1.6783   5.8731722432e+01   6.3029252047e+01    0.3105712    0.1528169  50.53 0.0008147886    1.802    0.445
        39 -11.4276     20.6772      1.8101   8.3365839068e+01   7.2467132699e+01    0.2060324    0.1396267  13.23 0.0006102191    1.360    0.265
        40  -8.9078     67.2722      1.3288   6.2774707452e+01   6.5629495883e+01    0.1290535   0.07890462  17.68 0.0006983376    1.585    0.369
        41  -9.9024    153.9021      1.3513   4.3594809351e+01   4.6038703151e+01    0.1990275    0.1141333  69.61 0.0004233581    1.555    0.357
        42  -9.6672     10.3045      1.5079   8.8989670678e+01   7.3519548097e+01    0.1716185   0.09638135  26.89   0.00109545    1.961    0.490
        43  -9.4248     23.8619    133.8303   1.1810001350e+02   4.4721280527e+01     0.163661    0.1228666  80.27            0    1.264    0.209
        44 -12.8902      9.6241    227.7661   1.2838421003e+02   2.5730074254e+01    0.5874403    0.3071394  80.29  0.001575622    1.524    0.344
        45 -10.6519      1.6429    225.7561   1.2962349075e+02   2.6859820013e+01    0.2451317    0.1048037  87.10  0.001025003    1.944    0.486
        46 -11.3221      3.2754    249.2600   1.3032690762e+02   2.2480079292e+01    0.3865996    0.2044914  55.10  0.002849931    1.377    0.274
        47 -12.2785     16.1791    249.0186   1.2831085866e+02   2.1236697359e+01     0.535014    0.2093327  30.72  0.002779874    3.584    0.721
        48 -12.6287      5.0969    240.4770   1.2969203450e+02   2.3844222318e+01    0.4925548    0.3052363  44.25  0.003716795    1.559    0.358
        49 -10.4314      2.2643    133.2457   1.2359110302e+02   4.6470839025e+01    0.2583154    0.1393143  46.23  0.001505622    2.010    0.503
        50 -11.0402     11.3402    129.0994   1.2084630490e+02   4.6819203245e+01    0.3644135    0.1924219  79.07  0.001881312    2.038    0.509
        51 -10.2164    248.5065    129.4620   6.3835403512e+01   5.1160735778e+00    0.1390122     0.120747 -22.91 3.969033e-05    1.004    0.004
        52 -11.5543      8.1154    121.3997   1.2085194077e+02   4.8844518986e+01    0.2771035    0.1864053  63.93 0.0008254016    1.590    0.371
        53 -11.7965     23.5938    120.9594   1.1651407023e+02   4.7808395013e+01    0.4372204     0.252436  78.57  0.001042787    2.017    0.504
        54 -10.6034     17.7041    122.0024   1.1829594608e+02   4.8024369815e+01    0.1764977    0.1290484 -70.81 0.0004358112    1.089    0.082
        55 -11.0289     65.6960    110.9439   1.0228160217e+02   4.5728402705e+01    0.3224729    0.2359422 -80.48 0.0009980883    1.522    0.343
        56 -10.9462     22.8503    110.1385   1.1517118694e+02   5.0444825671e+01    0.1873037    0.1471098 -84.88 0.0003785196    1.187    0.158
        57  -9.5914     35.4514    109.1901   1.1120838215e+02   4.9587121412e+01    0.1842493    0.1116602 -77.44 0.0003865841    1.611    0.379
        58 -11.8876      3.8590    108.6259   1.2054713094e+02   5.2088214850e+01    0.3894846    0.2435557 -17.75  0.002120429    2.250    0.556
        59 -11.2454     57.7119    107.5817   1.0402227401e+02   4.7563275065e+01    0.3045763     0.226046 -23.69 0.0008090901    1.650    0.394
        60 -10.1814    186.9311    103.0666   6.8299295415e+01   2.3007939608e+01    0.2300714    0.2250153 -43.20 0.0005174769    1.027    0.026
        61 -10.5135     61.8309     98.0079   1.0057322283e+02   4.9317298871e+01     0.245183    0.1349718 -37.80  0.001083766    1.974    0.493
        62 -12.2082     10.5351     91.0351   1.1602902406e+02   5.5778453107e+01    0.6256794    0.1866931 -64.56  0.002703531    2.371    0.578
        63  -9.7418     36.6558     96.6587   1.0849008647e+02   5.2454527302e+01    0.1415718   0.08360589 -37.93 0.0007047585    1.783    0.439
        64 -10.6878     24.1138     88.4563   1.1105090687e+02   5.5445516686e+01       0.3023     0.200071 -69.16 0.0005625183    1.320    0.242
        65 -12.5086     20.8812     92.8500   1.1294692606e+02   5.4667388606e+01    0.3479234    0.2801615 -35.89 0.0005427128    1.304    0.233
        66 -10.3938     19.1152     86.6358   1.1240173433e+02   5.6233956003e+01    0.3193159    0.1617035 -62.37 0.0004951473    1.537    0.349
        67 -10.5773      3.3034     94.7282   1.1889893151e+02   5.5336069773e+01     0.287364    0.1610166  65.30  0.001541372    2.306    0.566
        68 -11.4726    125.1955     93.3208   8.0094804909e+01   3.9272240634e+01    0.2703045    0.2535592 -54.76 0.0002113226    1.092    0.085
        69  -9.4252     78.8131     94.1219   9.4126919216e+01   4.7793827452e+01    0.1945396     0.158312 -26.61 0.0003317566    1.291    0.226
        70 -10.1633     29.4202     92.5647   1.1006818826e+02   5.4061768725e+01    0.2241688     0.182999 -58.54 0.0005906632    1.006    0.006
        71 -11.1340     57.7813     91.7376   1.0039160697e+02   5.1298396855e+01    0.2693314    0.2207385 -25.64 0.0007410093    1.293    0.226
        72  -9.8297     42.3791     88.7102   1.0487847198e+02   5.3751520248e+01    0.2449461    0.1649085  61.29 0.0008275976    2.053    0.513
        73  -9.8494     64.8840     88.6383   9.7230358017e+01   5.1084689513e+01      0.24562    0.1660667 -45.91 0.0005974053    1.313    0.238
        74 -11.3427     55.4930     85.7697   9.9669533953e+01   5.2954846244e+01    0.2542538    0.2337941  36.87 0.0002433178    1.255    0.203
        75  -9.1941    113.7181     85.6965   8.1032963725e+01   4.3299131347e+01    0.1519802    0.1189865  -5.59 0.0006970975    1.554    0.356
        76 -11.0077      2.9982     82.5270   1.1716297181e+02   5.8138881223e+01    0.3128148    0.2219554 -70.75  0.001381591    1.146    0.127
        77 -10.9930      4.5930     77.4417   1.1575823585e+02   5.9205440251e+01    0.3115255    0.1617844 -33.76  0.001105262    2.039    0.509
        78  -9.3714     76.6761     82.7476   9.1661824219e+01   5.0684842441e+01    0.1399741    0.1063191 -13.29 0.0002549204    1.542    0.351
        79  -9.3820     41.9931     81.9931   1.0343109763e+02   5.5333934466e+01    0.1555517    0.1275095 -50.46 0.0009384562    1.022    0.022
        80  -9.8084    250.2574     80.9988   5.2370675728e+01   1.2488913804e+01    0.1827514    0.1054145 -35.40 0.0004868246    1.518    0.341
        81  -9.8131     88.8213     80.1770   8.6922384260e+01   4.9230200287e+01    0.3820703    0.2825048 -88.90  0.001716382    2.220    0.549
        82 -10.2448     64.8192     80.2529   9.4965056670e+01   5.2980861153e+01    0.2767961    0.2113342 -39.03   0.00113631    1.182    0.154
        83 -11.4633     10.3476     79.5599   1.1411741022e+02   5.8413363418e+01    0.3235336    0.1638203 -70.82  0.001712764    1.698    0.411
        84  -9.9527    124.5389     78.8519   7.5884057605e+01   4.2376045117e+01     0.282816    0.1493158 -36.49 0.0009702184    1.903    0.474
        85  -9.6602     24.6724     78.6884   1.0884995933e+02   5.7640765477e+01    0.1996973    0.1434763 -27.38   0.00120348    1.479    0.324
        86  -9.9568     28.0535     77.2440   1.0730658496e+02   5.7697196052e+01    0.1851378     0.141613 -41.81 0.0003701701    1.160    0.138
        87  -9.8308    176.8234     76.8292   6.3028421954e+01   3.0258586145e+01    0.2374268    0.2150122  20.45  0.001000209    1.203    0.169
        88  -9.8693    161.4283     76.6002   6.6160493931e+01   3.4105018051e+01    0.2143675    0.1755166 -71.87  0.001016165    1.436    0.303
        89 -10.7993     54.9333     75.8865   9.7211047655e+01   5.5240305258e+01    0.3436863    0.2531736 -14.56  0.001236101    1.550    0.355
        90 -10.6745     14.7613     75.4253   1.1174224040e+02   5.9076093023e+01    0.2293844    0.1861622  67.69  0.000890901    1.555    0.357
        91 -10.6884     20.1360     73.6635   1.0940149413e+02   5.9108325630e+01      0.39287    0.1669485 -46.33 0.0009153476    1.920    0.479
        92  -9.2811     70.2944     75.3325   9.1629544033e+01   5.3269613656e+01     0.146023    0.1008157 -22.32 0.0002860911    1.638    0.389
        93 -10.9171     36.8224     74.5399   1.0344500969e+02   5.7523912909e+01    0.6680406    0.2115244 -52.55  0.002718233    2.396    0.583
        94  -9.9742     33.0007     73.0000   1.0447201643e+02   5.8221043423e+01    0.2150733    0.1698103  28.32 0.0006802816    1.507    0.336
        95  -9.5496    216.8411     72.1914   5.4830254474e+01   2.1285669196e+01    0.1859062    0.1675642  -1.60  0.000411398    1.270    0.212
        96 -10.0522    106.2932     71.9345   7.8866053227e+01   4.7612111611e+01    0.3131469     0.247635  58.61  0.001557355    1.485    0.327
        97 -10.3488     91.2178     70.7496   8.3162159354e+01   5.0756523899e+01    0.5388725    0.2905827 -64.90  0.001719249    4.172    0.760
        98  -9.9596     99.9983     70.5877   8.0336232945e+01   4.9130056249e+01     0.211454    0.1830252 -33.38 0.0003262558    1.099    0.090
        99 -11.0455     10.7356     68.5555   1.1180710834e+02   6.0849800471e+01    0.3340791    0.1798535 -62.58  0.001353717    1.462    0.316
       100 -11.9336      6.5679     63.9881   1.1243053775e+02   6.2080693484e+01    0.3562874    0.2342798 -42.33  0.002283886    1.290    0.225
       101 -11.2049      5.8156     69.1603   1.1377593409e+02   6.0986791495e+01    0.2987701    0.2064656  73.01  0.001449503    1.946    0.486
       102 -10.9982      1.3764     66.6680   1.1495218919e+02   6.1751107700e+01    0.1956667   0.09183849 -69.02 0.0005571202    1.751    0.429
       103 -10.1266     42.1157     75.7047   1.0180315400e+02   5.6737230240e+01     0.225389    0.1591926 -60.80 0.0005993954    1.324    0.245
       104 -10.9374     46.9328     69.0508   9.8195920012e+01   5.7675844001e+01    0.3158481    0.1951032  15.66  0.000891773    1.961    0.490
       105 -10.3095     79.0520     67.8174   8.6237113385e+01   5.3465695970e+01    0.3397244    0.2131349  36.24   0.00164154    1.700    0.412
       106 -11.6494     13.6197     63.0467   1.0947097996e+02   6.1879955468e+01    0.6944937    0.4166311  75.69  0.003376455    3.053    0.672
       107  -9.7030     63.5825     66.4698   9.1254307957e+01   5.6111552621e+01    0.2252865    0.1596957 -40.67  0.000106617    1.244    0.196
       108 -10.4461     62.8383     62.4811   9.0230804790e+01   5.7034113300e+01    0.2998457    0.1613927 -38.02  0.001399757    1.709    0.415
       109  -9.5866    133.6720     65.6469   6.9230136077e+01   4.2765282289e+01    0.1625832    0.1182994  12.10 0.0007046936    1.771    0.435
       110  -9.9323     34.8182     64.5298   1.0153924746e+02   5.9903001725e+01    0.2505517    0.1551716 -53.76  0.001383186    1.364    0.267
       111 -10.0185     96.9306     64.0847   7.9101146202e+01   5.0984888179e+01    0.2142038    0.1968387  -4.21 0.0003160874    1.033    0.032
       112 -10.2701     39.6397     61.0384   9.8639392783e+01   6.0167228735e+01    0.2965014    0.2205954 -32.89   0.00178151    1.184    0.155
       113 -10.3757    100.8965     60.5935   7.6656585565e+01   5.0853349439e+01    0.3033902    0.1913159 -55.23  0.001318706    2.047    0.511
       114  -9.1721     55.7284     60.7000   9.2303218597e+01   5.8360666426e+01     0.135271   0.09143039 -23.62 0.0006940647    1.529    0.346
       115 -10.4150     49.1273     59.3688   9.4405422442e+01   5.9456432444e+01    0.3032809    0.2295218 -75.55 0.0009014812    1.906    0.475
       116 -10.1846    194.4186     58.9272   5.4747589630e+01   2.8806306175e+01    0.2345423     0.195937  80.07  0.001221561    1.238    0.192
       117 -10.8840     83.8268     56.5401   8.0723700129e+01   5.4833480875e+01    0.3428094    0.2536179 -53.39  0.001388981    1.587    0.370
       118 -11.3551     88.1966     52.6349   7.7839587255e+01   5.4743437787e+01    0.4287207      0.33092   3.96  0.001597329    1.393    0.282
       119  -8.9129    207.5048     58.5237   5.2615043355e+01   2.5640332310e+01    0.1449138    0.1358142 -63.15 -1.746856e-05    1.001    0.001
       120  -9.9606     71.6912     56.2158   8.4848499817e+01   5.6937723652e+01    0.2270613     0.146184 -41.62 0.0005753346    1.439    0.305
       121 -10.4889     32.8636     55.5518   9.9697527084e+01   6.1974807240e+01    0.5577376    0.2055866 -35.94  0.002231226    2.952    0.661
       122 -11.2582      4.5319     57.5087   1.1181432818e+02   6.3580800058e+01    0.1651718    0.1147284   5.91 2.819265e-05    1.745    0.427
       123 -13.6574     20.2092     58.1116   1.0560083525e+02   6.2492508031e+01    0.3852671    0.2793673 -57.44  0.001136369    1.207    0.172
       124 -11.8299    114.5422     53.9705   7.0312018700e+01   4.9136145204e+01    0.3321072     0.296356  22.29 0.0006310227    1.089    0.082
       125 -12.2318     65.2234     52.4461   8.5867745651e+01   5.8648370503e+01    0.4801547    0.2448216  39.92  0.001657914    2.165    0.538
       126  -9.9291    151.1135     51.7760   6.0620201375e+01   4.0817238368e+01    0.3386707    0.1693457  43.38  0.000787244    2.101    0.524
       127  -9.2294    105.6717     52.7234   7.2408469622e+01   5.1256502024e+01     0.148701    0.1083582  13.66 0.0003093027    1.593    0.372
       128  -9.9664    122.1655     51.5527   6.7392907158e+01   4.7818266626e+01    0.2626521    0.1455525  56.21 0.0008806274    1.914    0.477
       129 -11.2561      5.4181     39.8660   1.0690029610e+02   6.7174720117e+01    0.4378805    0.1322663 -41.09  0.002011056    2.544    0.607
       130 -11.5495      6.7987     35.0658   1.0479620297e+02   6.8037835457e+01    0.6016951     0.297216  18.92  0.003487308    2.348    0.574
       131 -10.6645      5.1579     50.9290   1.0999570727e+02   6.4936284209e+01    0.2680943      0.17499 -11.79  0.001231145    1.712    0.416
       132  -9.8636     19.9313     44.7071   1.0183044859e+02   6.5267621731e+01    0.2085592    0.1256602 -43.16 0.0005719337    1.286    0.223
       133 -11.0539     15.1800     43.0300   1.0342208835e+02   6.5945474649e+01    0.4338824    0.3008716  87.72  0.002384618    2.628    0.619
       134 -10.4893     13.5526     48.4982   1.0575471153e+02   6.4951499047e+01    0.2574112     0.186351 -54.81  0.001052484    1.188    0.158
       135 -11.1958      8.6359     45.3795   1.0702659491e+02   6.5887863971e+01    0.4513875    0.2738916 -72.17   0.00184025    1.914    0.478
       136  -9.5225     76.2735     49.1929   8.0634725243e+01   5.7475880656e+01    0.3481839    0.1951815 -26.55 0.0009547709    1.898    0.473
       137 -10.9388     77.4161     45.3953   7.8780093559e+01   5.7939942005e+01    0.4114619    0.2059541  48.76 0.0004997132    2.407    0.584
       138 -10.0298     35.5773     41.0581   9.3692378959e+01   6.4560664204e+01    0.3339594    0.2209392 -24.73  0.001962289    1.379    0.275
       139 -10.6225     31.0115     45.9734   9.7402537100e+01   6.4073532320e+01     0.471503    0.1664525 -57.36  0.001861666    3.167    0.684
       140 -10.8920     28.1010     42.5618   9.7509843501e+01   6.5005827359e+01    0.6447355    0.2621432 -31.65  0.002465697    2.719    0.632
       141 -10.0052    154.7243     47.5816   5.8510828857e+01   4.0540441105e+01     0.245809    0.2038369 -27.34 0.0005936837    1.250    0.200
       142 -11.4422     56.7896     46.5853   8.6942553004e+01   6.0953787182e+01    0.3673295    0.3146026 -24.27 0.0008740657    1.053    0.051
       143  -9.7306     66.8983     46.8830   8.3173364828e+01   5.9411982882e+01    0.3774398    0.1422186  36.01  0.001498966    2.842    0.648
       144  -9.4286    135.5676     46.4820   6.2303514616e+01   4.5441057446e+01    0.1440899    0.1424384  34.85  0.000214288    1.052    0.049
       145 -10.7988     69.3309     42.0324   8.0384148828e+01   5.9869074310e+01    0.2303092    0.1885079  26.52 0.0001274354    1.243    0.196
       146  -9.0831    183.3308     41.6836   5.1580052265e+01   3.4100208811e+01    0.1543091    0.1060383 -67.41 0.0007046569    1.684    0.406
       147 -10.9794    140.3501     40.6821   5.9229931125e+01   4.5108558480e+01    0.3018436    0.2473226  70.50 0.0006895481    1.296    0.228
       148  -9.9867     38.8434     48.4984   9.4935798543e+01   6.2792570476e+01    0.1779419    0.1405058 -36.55  0.000330326    1.061    0.057
       149 -10.0231     42.9134     40.7120   9.0403372764e+01   6.3808658627e+01    0.1681873    0.1431316  -0.78  0.000757076    1.161    0.139
       150 -10.7111    128.2006     38.8622   6.1356253321e+01   4.8307201594e+01    0.2443798    0.1980362  47.87 0.0003602931    1.173    0.148
       151 -11.8536    121.4081     37.3071   6.2444417803e+01   5.0123110442e+01    0.4294042    0.3673256 -42.88  0.001142333    1.284    0.221
       152  -8.7805    152.6990     38.6837   5.6012035191e+01   4.2301042227e+01    0.1509278    0.1084004  27.49 0.0003935089    1.617    0.381
       153  -9.8606     22.1769     38.0053   9.8592706636e+01   6.6392365491e+01    0.1668064    0.1476723 -41.34 0.0005651624    1.241    0.194
       154 -11.1140     26.9266     34.7535   9.5228800263e+01   6.6582271841e+01    0.4069821    0.2193184 -34.51  0.001626381    1.556    0.357
       155 -10.2376     16.7758     32.9971   9.9343736462e+01   6.7763424118e+01    0.2182496      0.13871 -12.24  0.000775706    1.601    0.375
       156 -10.3222     21.1847     30.9168   9.6471186854e+01   6.7791617125e+01     0.376156    0.2155912   0.88  0.001359628    2.010    0.503
       157  -8.9154    185.2647     35.3124   4.9432244743e+01   3.4452409298e+01    0.1383328    0.1084752  28.17 0.0001865634    1.540    0.351
       158 -10.5977     97.3915     34.8237   6.8064820677e+01   5.5775330590e+01    0.3512703    0.2025629  37.65  0.001023603    1.702    0.413
       159  -9.9221     90.9573     35.5431   7.0334004211e+01   5.6978218187e+01    0.2019626    0.1295721  43.81 0.0004365326    1.531    0.347
       160 -10.1084     39.6206     35.3697   8.9750918627e+01   6.5151378309e+01    0.3508259      0.13892  23.95  0.001509833    3.090    0.676
       161 -10.8472     38.3712     31.2923   8.8654228689e+01   6.6004012659e+01     0.343462    0.2236693  -8.07  0.001084037    1.599    0.375
       162  -9.6356    133.9425     34.3508   5.8429638246e+01   4.7531485567e+01    0.2018411    0.1154611  44.82 0.0004357096    1.678    0.404
       163 -10.3969     72.7721     32.4572   7.5205320855e+01   6.0824339529e+01    0.2785623    0.1960735   1.27 0.0007506351    1.496    0.332
       164 -10.4572     69.1001     27.2196   7.4292512352e+01   6.2226346360e+01    0.3839182    0.2826604 -53.63  0.001454878    2.008    0.502
       165  -9.0258    144.5059     32.4632   5.5549750324e+01   4.5168224824e+01    0.1428787    0.1356807  86.28 0.0008073045    1.107    0.097
       166  -9.2695    187.7894     30.9787   4.7823215027e+01   3.4359622376e+01    0.1786186    0.1133961 -29.40 0.0003417393    1.644    0.392
       167  -9.5007    166.2193     31.1698   5.1166215566e+01   3.9832710695e+01    0.1932478    0.1592999 -72.81 0.0003520279    1.304    0.233
       168 -10.0378    128.8709     30.9196   5.8334069374e+01   4.9198658508e+01    0.2514009    0.2024371 -41.45  0.001090617    1.355    0.262
       169 -10.1957     77.1984     30.9131   7.2983924563e+01   6.0267823582e+01    0.2216869    0.1703473  34.14 0.0006788048    1.274    0.215
       170 -10.0072     43.9842     30.5112   8.5849952019e+01   6.5457581776e+01    0.2313781    0.1604052 -31.92 0.0008653014    1.236    0.191
       171  -9.5673    229.6633    248.0009   9.0147034399e+01  -8.7489270189e+00    0.1542918    0.1226656   4.66 0.0006792904    1.135    0.119
       172 -10.9752      7.5540     28.3885   1.0219734357e+02   6.9257300649e+01    0.3307283    0.2393082  54.46  0.002066139    2.444    0.591
       173 -10.0451    146.9956     26.4301   5.3018909062e+01   4.5279119663e+01    0.1964579    0.1894582  -3.08 4.191975e-05    1.097    0.088
       174 -10.8903    113.6446     25.8911   6.0070652634e+01   5.3394648442e+01    0.2851475    0.2289943 -45.94  0.001564623    1.454    0.312
       175  -9.9412     77.2728     26.2407   7.0954885349e+01   6.0912908185e+01    0.3043192    0.1530326 -18.96  0.001337196    2.285    0.562
       176 -10.9475      2.1028     22.0795   1.0271332677e+02   7.0734838319e+01    0.2624311     0.146929 -53.18 0.0005699031    1.517    0.341
       177  -9.8386    100.9971     26.4934   6.3665963780e+01   5.6130240980e+01     0.214583    0.1269935  49.45  0.001035881    1.602    0.376
       178  -9.3520     18.7988     25.0356   9.5326792920e+01   6.9039669154e+01    0.3220881   0.09000114 -38.40  0.001323211    3.043    0.671
       179 -11.0114     14.1703     21.3402   9.6156099662e+01   7.0056424805e+01    0.2830971    0.2158526  21.36  0.001993453    1.560    0.359
       180 -10.0046     59.0591     23.5382   7.6487915796e+01   6.4399714240e+01    0.2417282    0.1546192 -13.38 0.0009700845    1.552    0.356
       181  -9.9407    225.1590    246.8292   9.0748622627e+01  -7.9747988097e+00    0.1662154     0.111131  10.94  0.001070424    1.345    0.257
       182 -10.1067     35.0192     22.1724   8.6256424655e+01   6.7894111655e+01    0.1973784    0.1405427 -28.04 0.0002941001    1.164    0.141
       183 -12.0890      4.0600    232.6705   1.2952734828e+02   2.5353904891e+01    0.2752278     0.157677  63.15  0.001993948    1.273    0.214
       184 -10.5383     30.3767     21.0378   8.7945867959e+01   6.8595323218e+01    0.2365108    0.1805368   6.09  0.001024066    1.248    0.199
       185 -10.1754     41.3329     20.2007   8.2455598306e+01   6.7425093985e+01     0.344159    0.1943824  17.76  0.001859032    1.921    0.480
       186  -8.9484     74.2776    243.6971   1.1813779743e+02   1.5285152944e+01    0.1168255   0.06828912  65.53 0.0003260504    1.545    0.353
       187  -9.4847     58.2430     19.4172   7.4915935403e+01   6.5103026486e+01    0.1582006    0.1174543  45.26 0.0009347522    1.629    0.386
       188  -9.8713    140.7288     18.3374   5.1416264535e+01   4.7745216601e+01    0.2471709     0.156272  51.69  0.000577017    1.428    0.300
       189 -10.3436     20.3893     17.3429   9.1238394422e+01   7.0193495558e+01    0.2076743     0.136437 -23.12 0.0007449539    1.229    0.186
       190  -9.4601    199.5171     17.5030   4.2612716330e+01   3.2995943054e+01    0.1348982    0.1224427 -88.07 6.944082e-06    1.027    0.027
       191  -9.9916    114.9710     17.4567   5.6466910523e+01   5.4046712187e+01    0.2043002    0.1258015  57.15 0.0003362839    1.524    0.344
       192  -9.7025     61.0762    241.1822   1.2029767910e+02   1.7459293081e+01    0.1481405   0.07238942  40.71 0.0008410208    1.805    0.446
       193 -12.0715      9.2182    245.1729   1.2923899906e+02   2.2611245656e+01    0.3652147    0.2059268  32.90  0.002491432    2.185    0.542
       194  -9.2548    108.5548     16.0369   5.7443435822e+01   5.5666520748e+01    0.1786131    0.1302251 -17.78 -1.390576e-06    1.427    0.299
       195  -9.8912     82.9603     15.9867   6.4557424848e+01   6.1113420566e+01    0.1981605    0.1741116  11.95 0.0003323582    1.057    0.054
       196 -10.0397    154.3444     15.0840   4.7972138937e+01   4.4663539877e+01    0.2335838    0.1696131  54.64 0.0003241555    1.259    0.206
       197  -9.6420    202.4653    240.4646   9.3821964384e+01  -3.8149069442e+00    0.1219265   0.09628494  22.99 9.207294e-05    1.001    0.001
       198  -9.2861     49.6870    240.6413   1.2226447799e+02   1.8972697811e+01    0.0944989   0.08530177 -47.74 0.0007043132    1.745    0.427
       199 -11.5083     14.1581    238.8716   1.2816433359e+02   2.3239321362e+01    0.2359597    0.1178064  75.31 0.0007918534    1.612    0.380
       200  -9.6690     90.9899    237.0418   1.1446911768e+02   1.4144905616e+01    0.1572669    0.1429279 -24.42 0.0008144093    1.648    0.393
       201 -11.9708     26.1106    235.8272   1.2602179172e+02   2.2548080039e+01    0.2431679    0.2240221  73.54  0.001164207    1.459    0.315
       202  -9.0837    204.6333    235.2756   9.2619127971e+01  -3.4643695194e+00    0.1143321   0.08930413  53.21 0.0006686733    1.674    0.403
       203  -9.9788    249.2548    233.9791   8.4516651611e+01  -9.8693259954e+00    0.1905188    0.1331569  20.90 0.0004486985    1.161    0.138
       204  -9.5545    191.4873     13.5753   4.2462870851e+01   3.5418388147e+01    0.1347833    0.1209626  83.16 8.245112e-05    1.034    0.033
       205  -9.6136    209.5101    229.5338   9.0801674667e+01  -3.4551478415e+00    0.1248235    0.1002279  19.32 3.252591e-05    1.003    0.003
       206  -9.5363    141.0000    228.0683   1.0374526734e+02   7.9715858979e+00    0.1825905   0.07361988 -52.05 0.0008021857    2.941    0.660
       207 -10.0123    134.9257     11.5131   5.0090505518e+01   4.9863286671e+01    0.2050584    0.1240243  62.51 0.0003360605    1.501    0.334
       208 -10.0736    223.4559    226.4377   8.7748470882e+01  -5.2035034269e+00    0.2441555     0.143281   0.77 0.0007787665    2.120    0.528
       209 -10.9074      9.3496    218.0524   1.2794881911e+02   2.7606290565e+01    0.2063883    0.1588001 -58.03  0.001541378    1.798    0.444
       210  -9.6073      3.6102     10.6256   9.7269055844e+01   7.2623827714e+01    0.1096802   0.07906945 -27.56 0.0001180885    1.009    0.009
       211  -9.2333    137.3051    215.3661   1.0272150587e+02   1.0811590951e+01    0.1277537    0.1010575  -0.99 0.0007036274    1.744    0.427
       212 -10.6050      4.4974    212.2507   1.2850400157e+02   2.9188827929e+01     0.284018    0.0793492  59.06  0.001312695    3.121    0.680
       213  -9.1500    249.4874    211.4729   8.0537181122e+01  -7.1731989291e+00     0.124665   0.09596475   4.44 0.0001377158    1.032    0.031
       214  -9.2161    209.6738    211.3025   8.7670212194e+01  -9.0733887495e-01    0.1165735    0.1024624  63.92 0.0007031726    1.641    0.391
       215 -10.7470      2.4906    220.1263   1.2922862408e+02   2.7846706250e+01    0.2700312    0.1120544  73.02  0.001550885    2.035    0.509
       216 -10.1589     20.1984    209.8533   1.2553974399e+02   2.8162197906e+01    0.1788262    0.1108985  67.97 0.0006447771    1.277    0.217
       217  -9.5569      2.9849    206.0000   1.2845641051e+02   3.0562632903e+01    0.1546182   0.05583831  32.60 0.0008075584    2.978    0.664
       218  -9.8614     10.1854    203.4009   1.2700321140e+02   3.0433994164e+01    0.1521844    0.0780001  51.14 0.0005336425    1.664    0.399
       219  -9.2014    193.5056    201.5560   8.9044972562e+01   3.3710670640e+00    0.1350023    0.1172364  20.23 7.772591e-05    1.007    0.007
       220  -9.9686     23.5634    196.8522   1.2403421086e+02   3.0494214612e+01    0.1963021    0.1655526 -63.21  0.001083908    1.477    0.323
       221 -10.8750     13.9279    192.7058   1.2563617390e+02   3.2298103397e+01    0.2062765    0.1302385  76.82 0.0004887357    1.264    0.209
       222 -10.0672      6.3275    191.6214   1.2704007466e+02   3.3209184707e+01     0.192399    0.1244801  71.85 0.0007464483    1.220    0.181
       223  -9.6791     22.5078    179.9978   1.2297633277e+02   3.4221080703e+01    0.1731178   0.09610333 -77.97 0.0004351069    1.498    0.332
       224 -10.4899      5.3408    167.4458   1.2566179794e+02   3.8497415187e+01    0.2385977    0.1443779  78.98  0.001495786    1.378    0.274
       225  -9.5802    226.5200    163.9951   7.5231408720e+01   3.5689052746e+00    0.2064457    0.1276007 -32.38 0.0006147469    1.529    0.346
       226  -9.3871     41.2247    157.9598   1.1660025047e+02   3.7326331183e+01    0.1667603   0.09123082 -72.91  0.000360464    1.581    0.367
       227  -8.8914    247.4774    155.4865   6.9743339359e+01   1.1595497400e+00    0.1367754    0.1158157 -11.85 0.0002030501    1.012    0.012
       228  -9.6238    243.0959    154.1172   7.0183849916e+01   2.1518637124e+00    0.2056723    0.1600852  -9.08 0.0003845378    1.215    0.177
       229 -10.5741      3.2623    153.5589   1.2508183200e+02   4.1759888783e+01    0.1939653    0.1039038  34.86  0.001151025    2.090    0.522
       230  -9.4838     41.9993    139.0000   1.1398321828e+02   4.1751695224e+01    0.1834351   0.07517038  29.34  0.000372402    2.830    0.647
       231  -9.3384     24.6782    138.6845   1.1846590790e+02   4.3499610510e+01    0.1253019   0.08201574 -47.93 0.0007041302    1.660    0.398
       232  -9.5257     51.1349    135.9028   1.1107879197e+02   4.1486998046e+01     0.172182    0.1384428 -53.28  0.001006071    1.245    0.197
       233 -10.3374    212.7691    133.9841   7.1033300194e+01   1.1474550345e+01    0.2905125    0.2220517  62.07 0.0008979526    1.604    0.377
       234  -9.4640     96.0212    133.9611   9.8429425709e+01   3.5565548426e+01    0.1759488    0.1671404 -79.54 0.0004996522    1.018    0.018
