#   1 NUMBER                 Running object number                                     
#   2 MAG_AUTO               Kron-like elliptical aperture magnitude                    [mag]
#   3 X_IMAGE                Object position along x                                    [pixel]
#   4 Y_IMAGE                Object position along y                                    [pixel]
#   5 X_WORLD                Barycenter position along world x axis                     [deg]
#   6 Y_WORLD                Barycenter position along world y axis                     [deg]
#   7 A_WORLD                Profile RMS along major axis (world units)                 [deg]
#   8 B_WORLD                Profile RMS along minor axis (world units)                 [deg]
#   9 THETA_WORLD            Position angle (CCW/world-x)                               [deg]
#  10 FWHM_WORLD             FWHM assuming a gaussian core                              [deg]
#  11 ELONGATION             A_IMAGE/B_IMAGE                                           
#  12 ELLIPTICITY            1 - B_IMAGE/A_IMAGE                                       
         1 -10.7278     33.0074     63.5811   1.1349261214e+02   5.9856470868e+01      1.62143    0.4772557 -38.39  0.005135508    5.019    0.801
         2 -10.6856     37.1323      9.4348   9.1809216622e+01   6.9516394300e+01     0.845062    0.3453752 -44.25   0.00211157    2.650    0.623
         3 -10.2705     10.1213     18.8732   1.0961429541e+02   7.0554162909e+01      1.29725    0.4051065 -27.56  0.003931428    7.144    0.860
         4 -10.8188      4.5383      6.7817   1.0766351072e+02   7.3045823958e+01     1.030368    0.3416864 -43.09  0.004568701    2.145    0.534
         5 -10.7979     20.8955      7.6452   9.9057744893e+01   7.1581541282e+01     1.035165    0.7915476  59.95  0.006254774    2.834    0.647
         6 -10.9911     23.7034     32.3111   1.0796251442e+02   6.7028284647e+01     1.331126    0.3978172 -42.28    0.0036634    2.702    0.630
         7 -10.1347      4.9660     42.0730   1.1932429728e+02   6.6355133139e+01    0.7486045    0.3188669 -67.72   0.00374757    2.179    0.541
         8 -10.8678     36.9683     39.2885   1.0456453938e+02   6.4448339177e+01    0.7299399    0.4053665 -50.36 0.0009261583    1.587    0.370
         9  -9.7535     63.7085      3.2115   7.7374722570e+01   6.6322708385e+01    0.5142829    0.3449824 -35.87  0.002995237    1.682    0.405
        10  -9.7794     60.7656     31.7580   9.1834060496e+01   6.2789826775e+01    0.8788134    0.3765815 -30.18  0.002855305    2.518    0.603
        11 -10.3518     45.6704     29.5261   9.7097317281e+01   6.5239281363e+01    0.4295744    0.4015594  67.44  0.002901776    1.592    0.372
        12  -9.6436     62.9525     20.9165   8.6256673326e+01   6.4154410708e+01    0.4871847    0.2588125 -48.53  0.001548532    2.600    0.615
        13  -9.9481     64.5582     13.0028   8.1930294650e+01   6.4989190726e+01    0.4075703    0.3058391 -16.91  0.001594728    1.193    0.162
        14 -10.7167    134.1443     30.7896   6.9198008837e+01   4.8053424584e+01    0.4165767    0.2841305  -3.75            0    1.742    0.426
        15 -10.0202     69.6098     40.2528   9.1896215919e+01   5.9974221169e+01     1.027618     0.391551 -38.88  0.003528529    2.423    0.587
        16  -9.2321     78.4435      4.1113   7.2769761488e+01   6.3503144848e+01    0.5985285    0.2933825  -6.21  0.002313414    2.581    0.613
        17 -10.5535     73.6029     18.7607   8.1323404236e+01   6.2651607407e+01     1.408744    0.3405147 -31.81   0.00466309    4.054    0.753
        18 -10.2231     50.2404     15.5038   8.8896138702e+01   6.6875528846e+01     1.300176    0.6777316   3.05  0.005240935    3.576    0.720
        19  -9.3234    132.5358     17.5057   6.4619812434e+01   5.0037939781e+01    0.3524834    0.2782208 -24.23   0.00106166    1.324    0.245
        20  -8.5652    104.6240     14.8305   7.0060472303e+01   5.6885321589e+01    0.4272197    0.2297207  -4.28  0.001821852    2.416    0.586
        21  -9.0394    103.0018     21.1970   7.3172172500e+01   5.6488739382e+01     0.398284     0.196366 -33.95 0.0006338208    2.052    0.513
        22  -9.7447    133.9042     12.6224   6.2512662814e+01   5.0214937143e+01    0.3059228    0.2633918 -25.86  0.001751097    1.237    0.192
        23  -8.8114    125.1598     12.9225   6.4416945195e+01   5.2322468377e+01    0.2600955    0.2035312 -33.53 0.0006242007    1.378    0.275
        24  -8.7151    120.5201     15.9708   6.6636986288e+01   5.3108600294e+01    0.4473327    0.2101011  30.68  0.001705307    2.741    0.635
        25  -9.0708    126.8329      9.1264   6.2593548959e+01   5.2296444447e+01    0.3329571    0.1820678  41.39 0.0009851306    1.746    0.427
        26  -9.8879    124.7719      5.6198   6.1643574602e+01   5.3126230244e+01    0.5829966    0.1983095  51.56  0.002257416    2.422    0.587
        27  -9.2762    114.1708     10.0855   6.5726145847e+01   5.5218372607e+01    0.4726814    0.2059195  39.80 0.0003198844    2.293    0.564
        28  -8.1920    104.3854      2.2353   6.4720363372e+01   5.8208491327e+01    0.2853506    0.1994428  29.50  0.001187914    1.342    0.255
        29  -8.9015    112.2673     15.5446   6.8417785779e+01   5.5080803423e+01    0.3297879    0.2046534 -38.99  0.001551908    1.792    0.442
        30  -9.0008    110.2885      7.6764   6.5635591425e+01   5.6355328161e+01    0.2546281    0.2120132 -24.63 0.0008043537    1.281    0.219
        31  -8.8885    109.6758      3.3258   6.3948732586e+01   5.6904323815e+01    0.4099997    0.2681052 -59.23  0.001979172    2.265    0.558
        32  -9.0018    141.8132     12.4469   6.0951974985e+01   4.8257386484e+01    0.3014288    0.2205308   2.88  0.001470268    1.548    0.354
        33  -9.2194     96.5077     12.9732   7.1461914516e+01   5.8859276967e+01    0.4172444    0.2288893   8.96  0.001775609    2.514    0.602
        34  -9.4592     85.1913     12.9716   7.4810509232e+01   6.1193011847e+01    0.4109906      0.28334 -55.24  0.001607107    2.251    0.556
        35  -7.8748     80.6308     12.9534   7.6257143898e+01   6.2088139896e+01    0.2671985    0.1408559 -43.91 0.0009510961    2.474    0.596
        36  -8.6976    101.9204      7.7285   6.7717556143e+01   5.8238852736e+01    0.2483755    0.1851802 -28.39 0.0006228785    1.422    0.297
        37  -9.3553    131.8746      5.6492   6.0274715161e+01   5.1386194241e+01    0.5337241      0.27648  19.86  0.001832986    2.622    0.619
        38  -9.2222     96.3749      4.2621   6.7631245700e+01   5.9793252989e+01    0.4389207    0.2464163 -41.87  0.001615249    2.214    0.548
        39  -9.1983     87.8564      3.8619   6.9799667580e+01   6.1636839451e+01    0.4762762    0.2967006  34.42   0.00180228    1.470    0.320
        40  -7.6836    143.3252      5.0944   5.8037969040e+01   4.8573696232e+01    0.1916318    0.1154067 -34.91 0.0006064071    1.775    0.436
        41  -8.9367    115.4321      4.2799   6.3060649468e+01   5.5478175157e+01    0.2710279    0.2196589 -38.63 0.0006854176    1.407    0.289
        42  -7.5418    151.4481      1.5250   5.5495480502e+01   4.6819795867e+01    0.1371266    0.1248401  59.40 0.0001505518    1.004    0.004
        43 -10.8004    131.7350    119.3458   9.7159086572e+01   3.2392500580e+01    0.9341131     0.623733 -88.78  0.002243041    2.645    0.622
        44 -11.9648    233.8168    249.7042   1.0084542364e+02  -7.1521453463e+00    0.2260184    0.1537683  27.80 0.0003499609    1.107    0.097
        45 -12.0079    196.9053    248.3508   1.0683255893e+02  -1.6214200415e+00     1.521454     0.252607  42.45  0.005074587    4.850    0.794
        46 -10.4333    108.2016     99.5521   9.8421186187e+01   4.1319257197e+01    0.8758628    0.5976998  79.07  0.002091987    2.373    0.579
        47 -10.6296    133.6400    109.2464   9.4161930532e+01   3.4142669992e+01    0.8571351    0.4162458 -48.57    0.0024545    2.097    0.523
        48 -10.0179     27.4106    123.0610   1.2603975710e+02   4.6864115838e+01    0.5719239    0.2732787  71.06  0.002091656    2.839    0.648
        49  -8.6812    158.3923    122.2915   9.1474179624e+01   2.6131012130e+01    0.2558154    0.1891606  69.03 0.0007732253    1.693    0.409
        50  -7.1516     81.6355    122.3245   1.1109497542e+02   4.0660352138e+01    0.1472826    0.1024341  75.37 -1.042641e-05    1.793    0.442
        51  -8.4212    248.0595    121.4886   7.4156099457e+01   6.9792953638e+00    0.1909409    0.1333451  45.04 0.0005085546    1.533    0.348
        52  -9.1443    152.5911    115.9121   9.1235702486e+01   2.8684041429e+01    0.3558882     0.253273  -2.77  0.001174274    2.095    0.523
        53  -8.9487    245.0880    117.5022   7.3697913296e+01   8.1595266988e+00    0.2183334    0.1678198 -26.03 0.0004969498    1.177    0.151
        54  -7.3809    184.0265    118.7235   8.5000036435e+01   2.1112433669e+01    0.1843085    0.1326397  48.39 0.0003502843    1.395    0.283
        55  -8.3618      1.4181    117.0546   1.3223855288e+02   5.0120977995e+01    0.2867665   0.08827968 -75.90   0.00120838    2.527    0.604
        56 -10.0757     91.9483    112.9820   1.0626512771e+02   4.1184439129e+01    0.5846488    0.4038936  87.32  0.001609418    2.039    0.510
        57  -9.1235     93.1421    103.3829   1.0368142255e+02   4.3160209208e+01    0.6178933    0.3806296  14.72  0.002499132    2.734    0.634
        58 -10.2338     78.2848    113.1186   1.1016120229e+02   4.3281374096e+01    0.5498726    0.3360694 -83.22   0.00176057    2.324    0.570
        59  -9.8317     81.2332    100.2324   1.0641944674e+02   4.5791263162e+01    0.9160478    0.3471147 -46.08   0.00212923    2.568    0.611
        60  -9.6712     41.5126    122.1680   1.2211154979e+02   4.5738886910e+01     0.522756     0.232209 -82.63  0.001753159    2.852    0.649
        61  -8.1569    167.4153    114.2540   8.7429608603e+01   2.5707919376e+01    0.2151174    0.1430971 -50.59 0.0007035906    1.630    0.387
        62  -9.6798     66.2704    104.2001   1.1179282865e+02   4.7022103245e+01    0.9024636    0.5676741 -11.24  0.003861114    2.959    0.662
        63  -9.8448     65.8361    110.8452   1.1328336140e+02   4.5541354689e+01    0.4666309    0.3006592 -84.98  0.001008149    1.918    0.479
        64  -9.2550     59.7201    109.7779   1.1485879187e+02   4.6568765659e+01    0.4634541    0.3056196  75.79   0.00176454    1.968    0.492
        65  -9.9004     14.1857    111.3285   1.2819182110e+02   5.0577876801e+01     0.413682    0.2016533  81.28  0.001892776    2.446    0.591
        66  -9.2014    158.6599    111.8057   8.8777258581e+01   2.8159543856e+01     0.282842    0.2725321 -19.37  0.000727544    1.038    0.037
        67  -9.0977     35.8225    111.0585   1.2203244496e+02   4.8866348508e+01     0.193939    0.1507501  87.58 0.0007353978    1.253    0.202
        68  -8.7601    149.8644    110.1134   9.0397356732e+01   3.0458692582e+01     0.231525    0.2111928 -80.42 0.0004972258    1.220    0.180
        69 -10.8628     44.7077    102.5157   1.1796496828e+02   4.9963670943e+01     0.809532    0.4263799  71.97    0.0030508    3.381    0.704
        70 -11.2393    121.2443    109.5627   9.7449021906e+01   3.6612036425e+01     1.406941    0.6949641 -46.63  0.004120607    1.987    0.497
        71  -9.5909     43.7390     53.6435   1.0655656346e+02   6.0882824942e+01    0.3826339    0.2037375 -56.65 0.0009857864    1.787    0.440
        72 -10.9009     20.6011    100.5037   1.2490415396e+02   5.2578386491e+01     1.096324    0.4917107  83.53  0.003821745    3.715    0.731
        73  -9.7897     20.3650     84.9507   1.2249370343e+02   5.6131077015e+01    0.6992772    0.2931197 -66.20  0.002869267    1.900    0.474
        74 -10.6439     25.7133     78.4249   1.1947997227e+02   5.7197275472e+01    0.7930369    0.5544488  84.98  0.003085077    1.720    0.419
        75 -10.0232     34.6252     90.7805   1.1892179876e+02   5.3646457332e+01    0.5879743     0.272126 -80.49  0.001924296    2.990    0.666
        76  -9.9289     36.7668     81.1593   1.1627009138e+02   5.5632830368e+01    0.7204427    0.3733898 -16.79  0.002953003    3.712    0.731
        77  -9.8279      6.3827    104.1319   1.2952877912e+02   5.2715068184e+01    0.4410367    0.3124031  71.95  0.002004663    1.450    0.311
        78 -10.0050    139.4029    103.2430   9.1134732686e+01   3.4159073941e+01    0.7697856    0.3128215 -45.15  0.001385119    2.461    0.594
        79  -8.8665    165.9108    104.0759   8.5105692484e+01   2.8014535755e+01    0.3112431     0.217905 -35.33 0.0004789123    1.439    0.305
        80  -9.5504    149.5022    103.3601   8.8699229354e+01   3.1900370381e+01    0.4739343     0.289256 -50.71  0.001064064    1.762    0.432
        81  -8.6822    150.3793     96.6861   8.6664550221e+01   3.3027471275e+01    0.6104406    0.2920385  29.22  0.001794424    3.962    0.748
        82  -8.4615     36.0130    104.9857   1.2100587529e+02   5.0252030532e+01    0.1997082    0.1367561  75.22 0.0006107828    1.672    0.402
        83  -8.6137     14.2392    104.9021   1.2737598844e+02   5.2032972990e+01    0.2063522    0.1254696 -38.10 0.0008521791    1.945    0.486
        84  -8.1666     73.9927    102.3220   1.0906955128e+02   4.6389067526e+01     0.308527    0.1777831 -60.01 0.0006758021    1.636    0.389
        85  -9.2831    159.0586    100.9100   8.5798767097e+01   3.0208177244e+01    0.4206964    0.2389054 -49.25  0.001172421    1.907    0.476
        86 -10.4690     63.0854     95.9649   1.1096962140e+02   4.9332719137e+01     0.671375     0.395963 -81.58  0.001616836    2.481    0.597
        87  -8.7003     65.3621     85.8235   1.0783674454e+02   5.1330602307e+01    0.5505919    0.3254256 -10.22  0.002152694    3.425    0.708
        88  -8.9050     96.1737     90.8793   9.9572546118e+01   4.5410253665e+01    0.5221718    0.3296649  -9.90  0.001972254    3.073    0.675
        89  -9.4751     94.3362     97.2177   1.0179085800e+02   4.4335491743e+01    0.3273733    0.2464216 -63.42 0.0005610855    1.391    0.281
        90  -9.2358    170.2495     95.8670   8.1926113281e+01   2.8549728572e+01    0.2620753    0.2471922  33.56 0.0002153952    1.061    0.057
        91  -9.3062    140.5588     81.8763   8.4774609772e+01   3.8158489014e+01    0.6436594    0.3045682 -35.05  0.001219694    2.199    0.545
        92  -9.0921    139.9614     75.5404   8.2992583215e+01   3.9492425652e+01    0.5727657    0.2885868 -30.18  0.001627991    2.231    0.552
        93  -9.5292    138.8839     92.6572   8.8342262369e+01   3.6423580236e+01    0.5372779    0.4002247 -73.41  0.001660033    1.821    0.451
        94  -9.0615    164.3990     94.6509   8.2870912956e+01   3.0159937995e+01     0.291225    0.2884375  86.25  0.001323827    1.051    0.049
        95  -9.4991    127.7378    102.5816   9.3934969154e+01   3.6783857508e+01    0.4026845    0.3599722  85.36  0.001097253    1.262    0.208
        96 -10.4661      5.0598     86.3981   1.2765724116e+02   5.6771883905e+01     1.457673    0.3275485 -64.37  0.004563994    2.797    0.642
        97  -8.6160    250.5068    238.4382   9.6438150581e+01  -8.3514836980e+00    0.1757604    0.1179491 -27.68  0.001222443    1.720    0.419
        98  -9.4926    131.3995     96.1347   9.1228519042e+01   3.7354484613e+01    0.6455755    0.3690543  23.08  0.002268389    2.974    0.664
        99 -10.3837    108.8876    113.1618   1.0163626143e+02   3.8189022339e+01     1.095069    0.4487309 -51.45  0.002060626    2.395    0.582
       100 -10.1523    188.2480    233.4698   1.0627847344e+02   1.5434371725e+00    0.2597043    0.2059672 -10.24  0.001224639    1.455    0.312
       101  -9.8003     16.0286     70.3185   1.2126838191e+02   5.9695363796e+01    0.5071825    0.2303205 -61.58  0.001513275    1.677    0.404
       102  -9.7190     17.1351     62.0107   1.1911904146e+02   6.1436778529e+01    0.6206126     0.286995 -58.61  0.003308767    1.642    0.391
       103 -10.7372     22.0520     53.7968   1.1521894565e+02   6.2842902874e+01    0.7599922    0.4271425 -89.27  0.002682728    3.598    0.722
       104 -10.1460     13.4400     45.4317   1.1656314910e+02   6.5179277598e+01    0.6646598    0.3367508 -23.81  0.002573131    2.339    0.572
       105 -10.1278    145.8646    226.2778   1.1305687430e+02   9.3885994726e+00    0.1981596    0.1704575  47.98 0.0002418411    1.070    0.066
       106  -9.4815      6.8985     32.5072   1.1582371957e+02   6.8172553198e+01    0.2704853    0.1823572 -27.95  0.000751111    1.375    0.273
       107 -10.0688      7.2048     28.3162   1.1438131514e+02   6.8970952921e+01    0.2925595    0.2477929  48.73  0.001022296    1.689    0.408
       108  -8.5964     39.9685    106.7166   1.2012220330e+02   4.9471714096e+01     0.253991    0.1500797 -85.62 0.0008150445    1.889    0.470
       109  -9.0814    157.6760     90.9783   8.3353974685e+01   3.2438093770e+01     0.367878    0.2286629 -38.73  0.001410796    1.598    0.374
       110  -9.1069    150.3316     89.4553   8.4630265867e+01   3.4446083472e+01    0.5797369    0.2684537 -29.43  0.001976959    2.714    0.632
       111  -9.4702    110.3083     89.9565   9.5213261722e+01   4.2979478681e+01    0.8420465     0.364805  32.63   0.00283622    3.203    0.688
       112  -9.1977    163.8591     87.2826   8.0908427785e+01   3.1661146711e+01    0.5938345    0.2162257 -45.69  0.001878224    3.021    0.669
       113 -10.2766     85.3944     86.6080   1.0167887396e+02   4.8176034952e+01    0.6408086    0.4691966  46.73 0.0009861669    1.504    0.335
       114  -9.4017     87.3634     78.7678   9.8850627019e+01   4.9540999387e+01    0.5067198    0.3349814  15.85  0.001626323    2.084    0.520
       115  -9.7007    226.2687     88.2329   6.9525244274e+01   1.6663398482e+01      0.24717    0.2327519 -11.68 0.0002763564    1.049    0.047
       116 -10.2080     47.7973     84.2199   1.1323636493e+02   5.3826299583e+01    0.5428442    0.3502345  88.12  0.001344133    2.257    0.557
       117  -8.8304     48.9891     77.4941   1.1123729399e+02   5.5201559080e+01    0.4157015    0.2388272  -0.71  0.001824341    3.026    0.670
       118  -8.7675    230.5642     84.4640   6.7915863525e+01   1.6275070224e+01    0.2483108    0.2386644  -6.05 0.0006799332    1.060    0.057
       119 -10.3376    104.0418     82.7432   9.4943279786e+01   4.5705326288e+01    0.5239639    0.3292538 -57.33 0.0008510292    1.800    0.444
       120  -9.7695    104.6414     72.1957   9.1545476076e+01   4.7742997303e+01    0.8530996     0.521413 -24.42  0.003624114    2.040    0.510
       121  -9.7726    239.3964     83.2191   6.6320462986e+01   1.4503356733e+01    0.3227915    0.1878618 -51.07  0.001457464    1.898    0.473
       122  -8.9032    156.9842     76.3279   7.9217386241e+01   3.5307932199e+01    0.3979053    0.2248834 -34.08   0.00162215    1.786    0.440
       123  -8.3164    139.4063     87.8005   8.6813822423e+01   3.7270591799e+01    0.3876276    0.2156304  33.73  0.001489883    2.196    0.545
       124  -8.1094    170.4868     83.5166   7.8394968270e+01   3.0744521733e+01    0.1529201    0.1508766 -52.41 0.0008099997    1.039    0.038
       125  -9.2077    149.8888     80.1970   8.2014587699e+01   3.6300839067e+01    0.5202544    0.2168414 -38.85  0.001397721    2.365    0.577
       126  -9.1540     74.1777     79.2830   1.0323092764e+02   5.1526501933e+01    0.6328177    0.2646013 -51.94  0.002122401    2.195    0.544
       127  -7.9116     63.4953     81.9717   1.0746845799e+02   5.2438226153e+01     0.206083    0.1221015 -56.43 0.0005250395    1.537    0.349
       128  -8.9661    119.0033     80.4857   9.0002666940e+01   4.3174088123e+01    0.3557686    0.2474694 -52.00 0.0007202249    1.522    0.343
       129  -8.2216    119.5268     76.4860   8.8631360842e+01   4.3857592107e+01    0.2838747    0.2406001   4.55 0.0006797987    1.320    0.242
       130  -8.5894    243.5224    100.5031   6.9927915294e+01   1.1036273335e+01    0.1398623     0.126129 -25.71 0.0002214273    1.020    0.019
       131  -8.5461    166.5481     78.7351   7.7839297879e+01   3.2553149974e+01    0.2748831    0.1530302 -31.54 0.0005361665    1.856    0.461
       132  -8.9082    157.8319     82.6740   8.0916574473e+01   3.3952605353e+01    0.5107942    0.2724545 -26.15  0.001449858    2.269    0.559
       133  -8.0700    184.3574     78.0273   7.4025526884e+01   2.8297080988e+01    0.2484522    0.2111684  35.83 0.0006630234    1.224    0.183
       134  -7.7156    174.0056     78.7344   7.6280142051e+01   3.0725231528e+01     0.194857    0.1342542  54.15 0.0004418543    1.462    0.316
       135  -9.3030    127.3671     75.2046   8.6112947483e+01   4.2409226362e+01    0.3669221    0.2651806 -58.69 0.0008754468    1.648    0.393
       136  -8.8552    129.9126     58.0691   7.9865991908e+01   4.4944995367e+01    0.4069766    0.2608426 -54.06 0.0005497973    1.923    0.480
       137  -8.6714    129.3604     54.3065   7.8722429020e+01   4.5706447723e+01    0.3538474    0.2655871  32.74  0.001723652    1.388    0.280
       138  -9.1132    129.4774     69.0201   8.3596237502e+01   4.3099862307e+01    0.6612845    0.3484876  24.31   0.00209559    3.670    0.728
       139  -8.8685    130.4922     64.9373   8.2006233834e+01   4.3610508330e+01    0.4230728    0.2649615 -24.31  0.001360598    1.803    0.445
       140  -9.8397     81.6054     72.4195   9.8805020969e+01   5.1832902684e+01      0.41462    0.2959907 -70.49  0.001003041    1.874    0.466
       141  -9.0175     83.4084     64.7178   9.5792954749e+01   5.3110892124e+01     0.503569    0.3125233 -15.56  0.002145299    2.391    0.582
       142  -8.7703     49.4469     62.2529   1.0697721143e+02   5.8453342621e+01    0.2686186    0.1152627 -54.35 0.0007937483    2.063    0.515
       143 -10.5225     54.9469     70.8156   1.0741613873e+02   5.5971319630e+01    0.6114423    0.3944993  56.85  0.001202405    2.222    0.550
       144  -9.0202     55.2147     63.1046   1.0510800044e+02   5.7581256588e+01    0.4680204    0.3143445  20.17  0.002546443    1.745    0.427
       145 -10.0590     62.4928     60.8643   1.0177892340e+02   5.7093026129e+01    0.5769308    0.2753421  29.96  0.001366081    2.430    0.588
       146  -9.1567    115.4401     71.9437   8.8341180657e+01   4.5604636690e+01     0.551487    0.2655756 -36.61  0.001462687    2.098    0.523
       147  -8.2885    162.6042     72.7052   7.6885954505e+01   3.4574759988e+01    0.3060588    0.2168471 -51.85 0.0008648178    1.554    0.356
       148  -8.4872    169.4270     70.8263   7.4884242202e+01   3.3209444049e+01    0.2887788     0.140787 -39.53 0.0005907297    2.022    0.505
       149  -8.5430    170.3831     65.4491   7.3067377386e+01   3.3863285806e+01    0.3465901    0.1477356 -30.02 0.0006273047    2.486    0.598
       150  -9.4035    147.0251     69.3214   7.9347329257e+01   3.8954023910e+01    0.4465268    0.2758521 -50.99 0.0009455672    1.847    0.458
       151  -7.8590    147.3194     63.3559   7.7381620410e+01   3.9916955499e+01    0.2169409    0.1582129 -11.10 0.0009750431    1.637    0.389
       152  -8.8393    146.6788     59.1348   7.6161753384e+01   4.0780218888e+01    0.3585568    0.2408295 -38.05 0.0008669081    1.493    0.330
       153  -8.7209    147.7713     52.9672   7.3884108279e+01   4.1507331182e+01    0.4843296     0.213965 -29.71  0.001778719    2.380    0.580
       154  -7.8930    156.5219     70.0805   7.7414439061e+01   3.6520915042e+01    0.2287495    0.1501994 -36.19 0.0005225961    1.515    0.340
       155  -8.8967    157.6732     64.1037   7.5301628474e+01   3.7253838483e+01    0.5549413    0.1885306 -35.88  0.001806473    2.860    0.650
       156  -9.7675     94.8146     68.2900   9.3288788554e+01   5.0386153071e+01    0.4339731    0.2560378 -51.11 0.0008266548    1.776    0.437
       157  -9.5465     96.8096     58.4847   8.9389297857e+01   5.1904357644e+01    0.8050063    0.4847944 -28.77  0.003647038    1.760    0.432
       158  -7.4688    212.6976     69.7730   6.6815529106e+01   2.2679391448e+01    0.2262621    0.1248176  72.71 0.0008939524    2.347    0.574
       159  -7.7845     23.3102     69.0419   1.1837389893e+02   5.9464897565e+01    0.1722743    0.1256713 -62.70 0.0002828655    1.148    0.129
       160  -9.1392    138.2511     65.2466   8.0154493894e+01   4.1756213164e+01    0.6144961    0.2623681 -32.48  0.001270667    2.473    0.596
       161  -8.5811    143.5329     44.0194   7.1802402071e+01   4.3914195347e+01     0.592227    0.1524039  48.45  0.001743859    3.628    0.724
       162  -8.3502    149.8724     47.7821   7.1696092167e+01   4.1782682404e+01    0.3170848    0.2076347 -34.36 0.0005177766    1.538    0.350
       163 -10.0436    152.9095     41.1885   6.8848972375e+01   4.1976936175e+01     0.483057     0.423863  -1.32  0.001535817    1.209    0.173
       164  -8.6280    141.9553     48.6021   7.3727177629e+01   4.3613596658e+01    0.3627688    0.2440648 -18.51 0.0008514866    1.658    0.397
       165  -9.2102    121.1174     65.9442   8.4822048181e+01   4.5524395196e+01    0.4006554    0.2727928 -47.03  0.000600836    1.534    0.348
       166  -7.9655    122.0042     61.4865   8.3097145031e+01   4.6138277807e+01     0.242323    0.1988611   3.19 0.0004548041    1.356    0.263
       167  -7.6317     75.5499     66.9802   9.9141950294e+01   5.3924945961e+01    0.2160752    0.1259386 -47.60 0.0005620929    1.577    0.366
       168  -9.2906    109.9710     64.0138   8.7314669376e+01   4.8252451278e+01    0.4117874    0.2618577 -52.05 0.0009279553    1.786    0.440
       169  -9.1332    111.0943     58.1115   8.4982320054e+01   4.9100105389e+01    0.4175625    0.2909551  22.36  0.001247862    1.707    0.414
       170  -8.3052     10.2854     60.3736   1.2136882333e+02   6.2216317752e+01    0.3299402    0.1742591  81.91   0.00148548    3.427    0.708
       171  -9.3365     87.9722     56.4657   9.1509202322e+01   5.3920866652e+01     0.756919    0.3205175 -35.50  0.002925037    2.430    0.589
       172 -10.1418     73.3230     57.1613   9.6712421261e+01   5.6246901585e+01     1.100508    0.3452568 -41.34  0.003526132    3.015    0.668
       173  -8.9235     80.0442     46.4690   9.0557199820e+01   5.7147731692e+01    0.3556793    0.2394169 -24.53 0.0004801862    1.498    0.333
       174 -10.2299     85.0799     48.0073   8.9421674580e+01   5.5988541320e+01    0.4184843    0.2974784 -59.59 0.0009564233    1.904    0.475
       175 -10.4692     89.5983     38.4398   8.4263989526e+01   5.6773472501e+01     1.000463     0.415931  30.60  0.003364785    3.746    0.733
       176  -7.7848    152.5194     60.0721   7.5149931962e+01   3.9194038280e+01    0.2316029    0.1486963 -34.87  0.001017527    1.556    0.357
       177  -7.3095     30.3168     58.3119   1.1314715903e+02   6.1221137340e+01    0.1300787   0.07746396 -34.60 0.0007034336    1.641    0.391
       178  -9.3820    118.1959     54.6450   8.1784004672e+01   4.8177127396e+01    0.4778368    0.3136553 -30.79   0.00143368    1.524    0.344
       179  -7.2477    178.0000    225.9752   1.0705640826e+02   4.2015088872e+00    0.1658054   0.07051588 -43.20  0.000645406    2.876    0.652
       180  -7.7920    109.6630    224.6639   1.1966014135e+02   1.5299892475e+01     0.109269    0.0916779   7.98 0.0007051705    1.749    0.428
       181  -9.2293     53.7471     37.6097   9.6973094988e+01   6.2766810946e+01    0.6202464    0.2331886 -35.00  0.002476159    2.765    0.638
       182  -7.5360     18.7587    218.3811   1.3561266757e+02   2.7828852746e+01    0.1175208   0.08993749  40.67 0.0003046253    1.539    0.350
       183  -7.6842    147.7505    211.8398   1.1075353328e+02   1.1371234997e+01    0.1633133    0.1287925  59.07 0.0002957568    1.273    0.215
       184 -10.1195     49.9804     54.1885   1.0431003487e+02   6.0058494706e+01    0.5756434    0.3279836 -64.36  0.002328721    2.274    0.560
       185  -9.7501     55.9465     43.5348   9.8334506366e+01   6.1383338538e+01    0.8077081    0.4251741  -9.20  0.002801998    4.510    0.778
       186 -10.2115      9.8877    207.4081   1.3658745626e+02   3.0684929931e+01    0.3855628    0.2513489  29.53   0.00237126    2.003    0.501
       187  -9.3365    192.3064    194.6397   9.9366183189e+01   6.3333175284e+00    0.8391665    0.4146569 -60.28  0.002513263    6.924    0.856
       188  -7.6102    157.6190     55.7497   7.2660517084e+01   3.8621277290e+01     0.159531    0.1108489  30.70 0.0006954228    1.654    0.395
       189  -9.3828    162.7157     53.0114   7.0736977989e+01   3.7762190259e+01    0.4528127    0.2631494 -27.76  0.001795335    1.797    0.443
       190  -8.5623    105.6641     49.6561   8.3559943151e+01   5.1712417907e+01    0.3469234    0.2286681   8.59  0.001462708    2.127    0.530
       191  -7.9143    152.6623     52.9344   7.2802005598e+01   4.0300079722e+01    0.3133031    0.1470496 -24.02   0.00112337    2.540    0.606
       192  -7.5419    166.6922     49.6968   6.8902724101e+01   3.7249204745e+01    0.1548633    0.1137274  25.42 0.0001916487    1.603    0.376
       193  -8.4653    157.6038     48.5908   7.0345121385e+01   3.9720700999e+01    0.3467529    0.1520997 -25.52  0.001235894    2.581    0.613
       194  -9.5149    130.5161     45.9002   7.5496823413e+01   4.6780605462e+01    0.8513417     0.358593 -20.01  0.002642473    3.771    0.735
       195  -8.6307    132.9634     35.9837   7.1356463067e+01   4.7643878176e+01    0.3085802    0.2012602 -36.01 0.0004753413    1.572    0.364
       196  -8.9316    250.2422    176.4801   8.5548164866e+01  -1.1764181470e+00    0.2276248     0.164271 -31.29 0.0008380101    1.436    0.304
       197  -8.9181    121.1489     46.8743   7.8229064050e+01   4.8799925666e+01    0.2990177    0.2298396 -38.26 0.0005182028    1.327    0.246
       198  -8.2416    122.7239     40.9530   7.5663993810e+01   4.9352236479e+01    0.3954195    0.2209175  -6.12   0.00145254    2.907    0.656
       199  -8.4682    111.9766     46.8533   8.0718209510e+01   5.0839331039e+01    0.2420663    0.1996531 -32.59 0.0004483534    1.202    0.168
       200  -8.5837    105.1431     53.0956   8.4955209552e+01   5.1226267571e+01    0.3133061    0.2416416 -72.86 0.0008744103    1.907    0.476
       201  -7.8633     23.0414    176.7193   1.3224519917e+02   3.5490748885e+01    0.1542822    0.1230303  68.30 0.0005001773    1.127    0.113
       202 -10.1329     76.2086     32.0128   8.6185635788e+01   6.0245487429e+01    0.4803518     0.380043  63.01  0.001172992    1.808    0.447
       203  -8.8791    240.2315    172.8443   8.6506986920e+01   1.0027428245e+00    0.2689264    0.1848422  38.20 0.0005339556    1.421    0.296
       204  -7.6908     12.4991    172.4810   1.3408994489e+02   3.7319321222e+01     0.111633   0.08480541  83.37 3.630817e-05    1.022    0.021
       205  -9.8200     79.7907     23.7639   8.1413681757e+01   6.0834288430e+01    0.5624682    0.2994482  22.95  0.001837647    2.478    0.596
       206  -9.1218     84.7105     21.9508   7.8983037139e+01   6.0153741927e+01    0.2792529    0.2245295 -15.64 0.0006060849    1.164    0.141
       207  -8.3571    110.3894     26.7710   7.3446036486e+01   5.4148144101e+01    0.3454939    0.1708166 -10.95  0.001281824    2.969    0.663
       208  -8.9464    110.3810     33.4291   7.6078741153e+01   5.3239686216e+01    0.3781247    0.2397221 -42.69   0.00115339    1.737    0.424
       209  -9.0201    104.9663     41.1148   8.0578998751e+01   5.3256902299e+01    0.4199394    0.2324729 -45.32  0.001248686    2.035    0.509
       210  -8.6605    106.3113     36.1131   7.8262295408e+01   5.3735713447e+01    0.3280826    0.2336386  32.96 0.0007647595    1.404    0.288
       211  -8.6084    114.2676     40.4929   7.7722984347e+01   5.1338488468e+01    0.5047312    0.2721604  -9.77  0.001839185    3.006    0.667
       212  -9.3153    222.0407     39.5272   5.7419172159e+01   2.4657686744e+01    0.3857076    0.2568108 -30.55 0.0009654269    1.465    0.318
       213  -8.9692    139.5194     39.9766   7.1290190630e+01   4.5486393318e+01     0.429774    0.2605741 -33.02  0.001151555    1.665    0.399
       214  -9.3662    139.1009     56.1456   7.6946959658e+01   4.3104449345e+01    0.6856095    0.2868303 -41.89  0.001376283    2.469    0.595
       215  -9.2917    144.4701     36.8295   6.9109452999e+01   4.4699401695e+01    0.3615872     0.243253 -56.11 0.0008947397    1.845    0.458
       216  -8.7840    118.9132     34.6551   7.4288366347e+01   5.1144205132e+01    0.3207191    0.1857343 -33.63 0.0006086237    1.734    0.423
       217  -9.4805    101.1672     32.1649   7.8187946235e+01   5.5407021892e+01    0.3849804    0.2252101 -37.58  0.001111531    1.744    0.427
       218  -9.0110    153.2385     34.5039   6.6525503469e+01   4.2800902274e+01    0.2641732    0.2081074 -29.11 0.0008239968    1.306    0.235
       219  -9.1170    240.6863    167.9552   8.5444941320e+01   1.6003021696e+00    0.2508416    0.2048083  29.37  0.000596159    1.194    0.162
       220  -7.9675    164.4432     60.2553   7.2671567673e+01   3.6194012917e+01    0.2083081    0.1401699 -44.46 0.0009269347    1.537    0.349
       221  -7.3567    195.4659     32.4559   5.8908708980e+01   3.2186192349e+01    0.1414544    0.1358193 -89.06 0.0003747325    1.010    0.010
       222  -8.3654    152.2792     29.6637   6.5060361094e+01   4.3663816859e+01    0.1479413    0.1094234 -61.12 0.0003668924    1.614    0.381
       223  -9.2569     91.2430     26.1910   7.8728116131e+01   5.8288992257e+01    0.4142291    0.2650667 -48.81  0.001332235    2.025    0.506
       224  -8.4261     91.9798     21.0689   7.6313281786e+01   5.8827006244e+01    0.2865111    0.1664855  29.59 0.0008795386    1.835    0.455
       225  -8.9204    155.5661     27.3057   6.3644053504e+01   4.3113305977e+01    0.3879107    0.1411133  69.33  0.001229693    3.420    0.708
       226  -8.8485    144.1524     25.7195   6.5265123210e+01   4.6204076183e+01    0.2464062    0.1916734 -38.84 0.0006969388    1.362    0.266
       227  -8.6876    240.9807    163.0843   8.4397909028e+01   2.2318077090e+00    0.2422965    0.1941945 -13.44 0.0003247609    1.132    0.117
       228  -8.4212    128.6394     16.1905   6.4937319457e+01   5.1134048454e+01    0.2394351    0.1991458 -39.30  0.000568796    1.322    0.243
       229  -7.5069    230.2976    167.6162   8.7174030538e+01   3.4980400865e+00     0.124649    0.1065606 -64.73 0.0007018879    1.771    0.435
       230  -8.1292    101.5004     26.0025   7.5586124337e+01   5.6192730673e+01    0.2521988    0.1350814  19.83 0.0009685419    2.817    0.645
       231  -9.0753     95.7722    166.8104   1.1518206508e+02   2.8530376766e+01    0.1988443    0.1866004  79.41 0.0003861294    1.085    0.078
       232  -8.2951    162.0983    164.2213   9.9842702579e+01   1.7173749057e+01    0.2044208    0.1807067  15.33  0.000585755    1.185    0.156
       233  -7.5824    155.4171     23.5073   6.2381581964e+01   4.3600360896e+01    0.1417518    0.1357369  50.25 0.0001132908    1.014    0.014
       234  -9.1681    140.1686     22.3031   6.4834879895e+01   4.7605675120e+01    0.2676685    0.1669106 -52.23 0.0007050265    1.983    0.496
       235  -7.9145    250.4028    162.7986   8.2769989819e+01   6.2455318966e-01    0.1776599    0.1101046 -17.24 0.0004244467    1.573    0.364
       236  -9.5738    119.0639     21.3441   6.9098347374e+01   5.2838924502e+01    0.3091508    0.2485255 -27.58 0.0008328215    1.289    0.224
       237 -10.3292    208.9050    160.7545   8.9663508456e+01   8.5621599229e+00    0.2619704    0.2390356  29.72 0.0003862311    1.114    0.102
       238  -8.4729     94.8254    151.4121   1.1296954626e+02   3.2025169357e+01    0.2100654    0.1760809 -69.59 0.0002851308    1.158    0.136
       239  -7.9839    133.3213    144.6437   1.0240563502e+02   2.6694780564e+01    0.2861827    0.1438764 -54.54  0.001159781    2.161    0.537
       240  -8.9130    237.0311    146.4801   8.1545607256e+01   5.3695259746e+00    0.2988496     0.161337   2.28  0.001058054    3.654    0.726
       241  -9.5620     66.6827    144.2625   1.1879386455e+02   3.7716641463e+01    0.4837843    0.2833141  67.44  0.002345519    2.031    0.508
       242  -8.1650    111.4874     21.5237   7.1048062605e+01   5.4563830836e+01    0.3356536    0.1391183 -23.58    0.0013075    2.581    0.613
       243  -7.9848    214.3113    142.6448   8.4725851324e+01   1.0427260489e+01     0.316159    0.1673023 -47.58  0.001079415    2.283    0.562
       244  -8.8934    228.1958    143.2814   8.2366100023e+01   7.5561254794e+00    0.2241663    0.2099627 -13.08 0.0002415254    1.121    0.108
       245  -7.3770    161.0262    137.2773   9.4405432830e+01   2.2587017860e+01    0.1774529    0.1282741  43.32 0.0001972601    1.345    0.256
       246  -8.5992     40.9845     20.8003   9.5414481812e+01   6.7284579715e+01    0.2012902    0.1479003 -28.45 0.0003955809    1.133    0.117
       247  -8.5009    112.2245    133.9444   1.0537308266e+02   3.2955834946e+01    0.2975532    0.2175214  67.20 0.0009772582    1.583    0.368
       248  -8.7549     95.8293     16.8214   7.3333531236e+01   5.8557481961e+01    0.2637545    0.1979762 -35.71 0.0003674685    1.452    0.311
       249  -9.8182    134.5383    131.9347   9.9388906122e+01   2.9142778519e+01    0.5141905    0.4123035  47.36  0.002641815    1.231    0.188
       250  -7.3000    189.3416     15.7386   5.4827222910e+01   3.5683296659e+01    0.1443458   0.09941913 -69.59 0.0004069389    1.592    0.372
       251  -8.1086     82.2555    130.3195   1.1245396961e+02   3.8728015274e+01    0.4713529     0.234239 -79.91  0.001631235    3.640    0.725
       252 -10.1517     58.3820    124.7167   1.1790267639e+02   4.3261297717e+01     0.676466    0.3628576  75.76  0.002446627    2.986    0.665
       253  -8.9331    128.7741     24.7624   6.8162772814e+01   5.0116719776e+01    0.5112956    0.3000769 -11.02  0.001791885    2.033    0.508
       254  -9.9830     66.7991    128.9752   1.1634047629e+02   4.1208623135e+01    0.3695104    0.3530757  54.42  0.001613198    1.168    0.144
       255  -9.9842     71.1719    125.8229   1.1461080196e+02   4.1351203362e+01    0.5358213    0.3493348  89.30  0.001339733    1.877    0.467
       256  -9.7662     98.8717    128.8927   1.0778376616e+02   3.6415377427e+01    0.6861006    0.3922519  69.54  0.002627135    2.929    0.659
       257 -10.5357    140.7490    117.3258   9.4430303779e+01   3.0946817298e+01    0.9192525    0.4361649 -49.94   0.00161386    2.224    0.550
       258 -10.6833    123.5141     91.2950   9.1947463941e+01   4.0026330428e+01     1.109543    0.6537272 -33.19  0.002456147    1.866    0.464
       259 -10.0014    117.1357    125.5837   1.0232268034e+02   3.3899562955e+01    0.7081894    0.5183481  87.01  0.002255753    1.841    0.457
