#   1 NUMBER                 Running object number                                     
#   2 MAG_AUTO               Kron-like elliptical aperture magnitude                    [mag]
#   3 X_IMAGE                Object position along x                                    [pixel]
#   4 Y_IMAGE                Object position along y                                    [pixel]
#   5 X_WORLD                Barycenter position along world x axis                     [deg]
#   6 Y_WORLD                Barycenter position along world y axis                     [deg]
#   7 A_WORLD                Profile RMS along major axis (world units)                 [deg]
#   8 B_WORLD                Profile RMS along minor axis (world units)                 [deg]
#   9 THETA_WORLD            Position angle (CCW/world-x)                               [deg]
#  10 FWHM_WORLD             FWHM assuming a gaussian core                              [deg]
#  11 ELONGATION             A_IMAGE/B_IMAGE                                           
#  12 ELLIPTICITY            1 - B_IMAGE/A_IMAGE                                       
         1 -12.9636    201.6211     47.5068   3.5515285243e+02   3.0422956333e+01    0.9203963    0.7132574 -46.07  0.003552637    1.142    0.124
         2 -13.7528    210.9521     39.4505   3.5250951103e+02   2.9660040705e+01     1.596532     1.224074  -2.31   0.00141956    2.152    0.535
         3 -11.6881    236.4709     18.3889   3.4643957710e+02   2.7486516482e+01    0.6523412    0.2933692 -69.63   0.00377581    2.124    0.529
         4 -11.8594    239.5335     12.6840   3.4517455927e+02   2.7571609317e+01    0.7295828    0.3746525 -67.52  0.004749104    1.658    0.397
         5 -11.2126    119.2078      9.5642   3.5383916210e+02   5.3636923655e+01    0.5731964    0.3759577  54.33  0.002648222    1.566    0.362
         6 -10.6638      2.6843      5.1522   4.2088250476e+01   7.8958518140e+01    0.6377434    0.1348774 -48.14  0.002345625    4.053    0.753
         7 -10.7021    144.1951      6.4292   3.4989087381e+02   4.7868889838e+01    0.2361165    0.1983853  43.48  0.001492474    1.515    0.340
         8 -10.3723    181.5895      6.1392   3.4684247245e+02   3.9419921171e+01    0.3377244   0.07516236  78.78  0.001194829    4.455    0.776
         9 -10.4859    193.4581      2.9403   3.4536086885e+02   3.7244110173e+01    0.2406482    0.1268011 -72.78  0.001386969    1.650    0.394
        10 -10.4625    172.1348      3.0301   3.4667318124e+02   4.1781052925e+01    0.2418464    0.1492899 -73.09 0.0009945292    1.376    0.273
        11  -9.3763    192.4874    193.4911   2.6541341961e+01   8.1679444474e+00    0.2075279    0.1087141 -51.42  0.001032927    2.361    0.576
        12 -12.3881    246.1703    244.1890   2.5513211098e+01  -4.0819013257e+00     1.019125    0.4852136 -23.91  0.007017867    1.645    0.392
        13 -11.6441    140.1835    248.7971   4.4803199678e+01   5.2347411241e+00     0.449562    0.3339736   9.08  0.002664717    1.106    0.096
        14 -14.4846     40.8140    191.6395   6.3057966469e+01   2.8308710758e+01      5.52466     2.319041  48.52   0.02145055    2.253    0.556
        15 -15.3028      3.8543    176.4071   7.2839606715e+01   3.5405596666e+01     8.710111     1.098839 -73.70   0.02108477    5.557    0.820
        16 -10.6246    123.6951    175.5066   3.8106737464e+01   2.1152616761e+01    0.2992866    0.2072619 -59.98  0.001080164    1.614    0.380
        17  -9.7781    111.0856    169.2579   4.0270047127e+01   2.4480961697e+01    0.6776363    0.2996532 -66.90  0.002272481    3.520    0.716
        18  -9.6878    103.5376    172.5164   4.2839554727e+01   2.4876540812e+01    0.3779913    0.2663889  69.79  0.001745115    1.929    0.482
        19  -8.3839     86.3786    171.1727   4.7414309340e+01   2.7722329344e+01    0.1911613    0.1416782 -78.83 0.0006178044    1.556    0.357
        20 -10.8534     67.8475    167.7795   5.2403383551e+01   3.1137077991e+01    0.3756676    0.2749573 -27.89  0.001796063    1.666    0.400
        21 -11.0804     72.2750    163.2727   5.0404170863e+01   3.1691367462e+01    0.4167241    0.3191067 -37.88 0.0008978608    1.461    0.315
        22  -9.4707    230.3120    166.3293   1.5765448440e+01   7.8299745689e+00    0.1180033   0.07443788 -15.23 0.0003531089    1.670    0.401
        23  -8.4451     97.4744    163.9552   4.3084630175e+01   2.7828072158e+01    0.2042697    0.1311378  86.92 0.0008089341    2.472    0.595
        24  -9.1638     36.3021    162.7158   6.1728020898e+01   3.6212906936e+01    0.2999369    0.1833374 -34.45  0.001309077    2.083    0.520
        25 -12.4407     55.1564    145.7893   5.3312487580e+01   3.8599201018e+01     3.815395     1.553728 -46.21   0.01315066    2.831    0.647
        26  -9.0395     60.3883    155.0974   5.2948545595e+01   3.5425968082e+01     0.327963    0.1664168  47.14  0.001299995    2.004    0.501
        27 -10.4288     87.9852    149.5514   4.3330131272e+01   3.2865596798e+01    0.6244918    0.4116869 -15.29  0.002541011    2.281    0.562
        28 -10.1884    133.9103    146.0745   3.0027732074e+01   2.5944346414e+01    0.8534049    0.2432949 -55.60  0.002252609    5.072    0.803
        29 -10.8448     34.3501    146.5669   6.0617277151e+01   4.0796392507e+01    0.5001427    0.2693155 -38.02  0.002004471    2.327    0.570
        30 -10.9156     79.7348    156.6046   4.7072368193e+01   3.2332166873e+01    0.8738145    0.6824573  57.87  0.001827674    1.350    0.259
        31 -10.6077     27.6064    145.0031   6.2813396189e+01   4.1888848429e+01    0.3553392    0.1716943  40.68  0.001195985    1.944    0.486
        32 -12.5417     69.2162    151.0470   4.9471669945e+01   3.5293368528e+01      1.04899     0.572343 -64.56  0.002483202    1.867    0.464
        33  -8.9947    102.3033    136.6276   3.6513267794e+01   3.3695302021e+01    0.3534822    0.2135669 -24.85  0.001074108    2.604    0.616
        34 -11.2753     89.4571    135.8130   4.0232427568e+01   3.6104085422e+01     0.288368    0.2667855 -50.44 0.0004088721    1.093    0.085
        35 -10.2367     35.8643    133.8701   5.8472568578e+01   4.4151890537e+01    0.4167142    0.1680961  45.23  0.001492285    2.513    0.602
        36 -10.7948     43.0501    129.7567   5.5188311141e+01   4.4489002063e+01    0.4356302    0.1903366  41.86   0.00125926    2.238    0.553
        37  -8.6816    111.2278    128.3234   3.2141376108e+01   3.4080284574e+01     0.225289    0.1893988   9.45 0.0005852195    1.391    0.281
        38  -9.7721     98.2879    124.1028   3.4976060279e+01   3.7477972429e+01    0.2654727    0.2338097   6.42 0.0007142065    1.291    0.226
        39 -10.4395     47.9571    125.1214   5.2578814001e+01   4.5169774496e+01    0.3467281     0.225439  26.52  0.000920428    1.563    0.360
        40 -12.6090     70.6009    145.7558   4.8145073139e+01   3.6487728761e+01     1.022342     0.604489 -89.83  0.002856436    2.398    0.583
        41 -17.4896      9.5079    238.8403   7.3761412472e+01   2.0542001209e+01     5.878218     2.485689  13.35   0.01003369    2.705    0.630
        42  -8.2288    107.6723    117.8009   3.0707102111e+01   3.7234258681e+01    0.1435967    0.1172481  12.25 0.0002385351    1.490    0.329
        43 -10.4763     54.8003    119.3838   4.8927200160e+01   4.5830949793e+01    0.4346671    0.2851653  89.52  0.001834687    1.877    0.467
        44  -9.8953     39.9523    113.7134   5.3735589101e+01   4.9292247983e+01    0.2137024    0.1935972  35.99 0.0004292978    1.118    0.106
        45 -11.0264     52.5454    109.4399   4.7797942357e+01   4.8835173885e+01    0.5763479    0.2900212 -54.57  0.002282643    1.905    0.475
        46 -11.1457     33.8739    109.9548   5.5604696018e+01   5.1015167495e+01    0.4100019    0.2607701 -73.25  0.001847451    1.557    0.358
        47  -8.9017     42.4863    109.5000   5.1912842749e+01   5.0144968846e+01    0.1503799    0.1459407 -85.36 0.0004946859    1.003    0.003
        48 -10.2149     43.0332    104.3543   5.0663573520e+01   5.1478382175e+01    0.4037117    0.2029861  48.07  0.001551007    2.201    0.546
        49 -10.1665     36.2260    101.4150   5.3017350323e+01   5.3097927289e+01    0.3126942    0.2092615  56.59  0.001411257    1.669    0.401
        50  -7.9477    137.2518     97.2557   1.7808439131e+01   3.5708675914e+01    0.1321778    0.1155728  -4.16            0    1.425    0.298
        51  -9.2653    144.4078    181.5452   3.4231381820e+01   1.6805289607e+01    0.3073152    0.2024907 -84.92  0.001178054    3.505    0.715
        52 -10.4102     27.1926     88.7086   5.4643264001e+01   5.7507226686e+01    0.2931202    0.2160401 -48.35 0.0005464135    1.317    0.241
        53 -11.6061      4.9950     84.4525   6.5046292742e+01   6.0362412291e+01    0.7347863    0.4395064  53.90  0.003441192    1.868    0.465
        54  -9.7524    220.5793    175.2850   1.8761352421e+01   7.6389948194e+00    0.2276533   0.09454936 -43.22  0.001139057    2.138    0.532
        55 -11.8848    189.6349     56.3300   3.5848997576e+02   3.1602543007e+01    0.4853129    0.4508675  -7.72  0.001263267    1.430    0.301
        56 -12.3338    123.5209    248.0024   4.8220408805e+01   7.1681592772e+00    0.8047976    0.3832434  23.48   0.00422723    1.758    0.431
        57 -10.1303    197.8881    246.8855   3.3564243889e+01  -3.0517811064e-01    0.2164752    0.1206863 -32.27 0.0009535886    1.623    0.384
        58  -7.9341     77.2752     36.7201   1.4332539837e+01   6.0484060870e+01    0.1353005    0.1079448 -83.19 0.0002350924    1.499    0.333
        59 -10.9405    230.0293     23.8659   3.4788482328e+02   2.8006459228e+01    0.3545218    0.1501052 -54.15  0.002004801    1.814    0.449
        60  -8.4012     65.5422    188.5084   5.5699927800e+01   2.6264834366e+01    0.1431865    0.1284822  46.65 0.0003161669    1.038    0.036
        61  -8.2647    186.2545    229.6389   3.3252201128e+01   3.2559346304e+00   0.09308956   0.09177601 -29.85 0.0004820632    1.619    0.382
        62 -15.1797     10.6634    208.9449   7.2375990576e+01   2.6947783658e+01     1.400964    0.9583091  85.40  0.004090729    1.445    0.308
        63 -10.5768    115.6177    185.8641   4.1830087888e+01   2.0092895748e+01    0.3593569     0.169798 -53.18  0.001528178    2.181    0.542
        64  -9.6014    189.2130     15.1989   3.4855163452e+02   3.6861263093e+01    0.1795612    0.1103309 -62.46 0.0007196863    1.344    0.256
        65 -10.4825    110.0635    184.5073   4.3032013444e+01   2.1189702561e+01    0.3329655    0.2041183 -22.81  0.001442579    2.239    0.553
        66  -9.1352     39.6348    210.0853   6.4825040542e+01   2.4046145419e+01    0.2282831    0.1500441  40.63 0.0005926384    1.294    0.227
        67  -9.2603     42.0759    205.4133   6.3824348087e+01   2.4878457733e+01     0.245943    0.2136184  68.12 0.0007047091    1.128    0.114
