#   1 NUMBER                 Running object number                                     
#   2 MAG_AUTO               Kron-like elliptical aperture magnitude                    [mag]
#   3 X_IMAGE                Object position along x                                    [pixel]
#   4 Y_IMAGE                Object position along y                                    [pixel]
#   5 X_WORLD                Barycenter position along world x axis                     [deg]
#   6 Y_WORLD                Barycenter position along world y axis                     [deg]
#   7 A_WORLD                Profile RMS along major axis (world units)                 [deg]
#   8 B_WORLD                Profile RMS along minor axis (world units)                 [deg]
#   9 THETA_WORLD            Position angle (CCW/world-x)                               [deg]
#  10 FWHM_WORLD             FWHM assuming a gaussian core                              [deg]
#  11 ELONGATION             A_IMAGE/B_IMAGE                                           
#  12 ELLIPTICITY            1 - B_IMAGE/A_IMAGE                                       
         1 -12.0922     76.4403     24.1675   9.0698653948e+01   6.0613094506e+01    0.4613287    0.3287176 -36.71  0.001362207    1.660    0.397
         2 -11.4693     13.2049     20.7354   1.1512034309e+02   6.9073002755e+01     0.257388    0.1902272 -37.94 0.0008308851    1.357    0.263
         3 -10.7310     12.8881     16.0125   1.1343032174e+02   6.9788747723e+01    0.3404525    0.1546154  21.87  0.001599224    2.208    0.547
         4 -11.0509     41.3661     18.5068   1.0157665629e+02   6.6566577367e+01    0.4289738    0.2778263  -4.08  0.002737612    1.401    0.286
         5 -10.4094    100.4061     18.9220   8.1506308615e+01   5.6609689019e+01    0.3159837    0.2112922 -51.47  0.001662226    2.219    0.549
         6 -11.3458     90.2809     15.7703   8.3144651659e+01   5.8966732264e+01    0.3059059    0.2269962 -15.63 0.0005078356    1.422    0.297
         7 -10.6752     87.1481     12.1764   8.2667303442e+01   5.9928750769e+01    0.2759342     0.179582  35.78   0.00139684    1.284    0.221
         8 -10.2157     38.4749      2.9762   9.5976278521e+01   6.8748832190e+01    0.2377022   0.09475154 -28.06  0.001265252    2.398    0.583
         9 -11.3071     22.3740      9.2377   1.0605639001e+02   6.9864569125e+01    0.3244949    0.1918543   6.26  0.001614603    1.530    0.347
        10 -11.6596     30.2138      7.3269   1.0158511918e+02   6.9266905520e+01    0.3130056     0.226621   8.38  0.001025725    1.120    0.107
        11 -11.6004     34.9604     13.2120   1.0207028103e+02   6.8007284682e+01    0.3342735    0.2320306 -34.90  0.001223974    1.613    0.380
        12 -11.9519     39.7309      9.5076   9.8392834894e+01   6.7868264099e+01    0.5442743    0.3027936  -9.33  0.002345983    1.816    0.449
        13 -10.6527    155.7827     14.1666   6.8257736971e+01   4.4380144426e+01    0.3338644    0.2289735  38.39    0.0018182    1.566    0.361
        14 -10.2465    119.3242     11.9625   7.4455461805e+01   5.3193142083e+01    0.2509923    0.1574664  50.38  0.000605672    1.309    0.236
        15 -10.7732    148.3808      9.8199   6.8215136311e+01   4.6588005899e+01    0.2651699    0.1699765  45.08 0.0007169102    1.475    0.322
        16 -11.0517    151.5025      7.3821   6.6993787680e+01   4.6054249249e+01    0.3059562    0.2405782 -29.08  0.001541645    1.514    0.339
        17 -10.8942     92.8483      8.7854   7.9762288180e+01   5.9121804992e+01    0.3365463    0.2002173 -13.24 0.0009449182    1.873    0.466
        18 -12.0565     55.7015      5.6767   9.0335687247e+01   6.6028379558e+01    0.5052301    0.3638656  10.05  0.002329299    1.137    0.121
        19  -9.9068     61.0181      3.2035   8.7331502120e+01   6.5421701624e+01    0.1701208     0.126346  19.91 0.0003652163    1.047    0.045
        20 -10.3265     10.0738      1.4816   1.0861614611e+02   7.1962459505e+01    0.1463187    0.1063134  10.67 0.0007624286    1.329    0.248
        21 -11.3201     10.7219      6.9281   1.1071308536e+02   7.1211310091e+01    0.5370634    0.3476969  29.89  0.003837539    1.942    0.485
        22 -10.2587      2.0604      2.9627   1.1342698443e+02   7.2386408570e+01    0.1937099    0.1166901 -13.10  0.001031521    1.286    0.223
        23 -11.3726      4.4089      9.8151   1.1510684467e+02   7.1289549853e+01    0.2242282    0.1662761  -0.59 0.0005827986    1.246    0.198
        24 -10.2960      2.6990      6.3395   1.1453954895e+02   7.1887749561e+01    0.1662401    0.1153731   8.95 0.0006176355    1.399    0.285
        25 -10.5908    210.1319      7.5828   5.9582784654e+01   3.1799284682e+01    0.2104107    0.1538036 -59.04  0.000916678    1.324    0.245
        26  -9.4452     88.5142      7.4621   8.0446902604e+01   6.0097489520e+01    0.1238156    0.1014514  32.66 0.0001985032    1.038    0.036
        27 -11.4224     68.9415      6.2057   8.5909335522e+01   6.3817153396e+01    0.6074315    0.2251404  46.89  0.002895351    2.341    0.573
        28 -10.3125    144.7450      6.0242   6.7697959323e+01   4.7797283061e+01    0.1726718    0.1552588  49.68 0.0003203371    1.124    0.110
        29  -9.3703    202.7193      5.6498   5.9908835900e+01   3.3764313689e+01    0.1217508   0.08987372  45.46 0.0003480026    1.648    0.393
        30 -10.5737    136.8146      5.0014   6.8752291994e+01   4.9765232063e+01    0.2111963    0.1256293  29.03  0.001076021    1.979    0.495
        31 -10.5421    120.4768      4.3786   7.1661638010e+01   5.3585258718e+01    0.3170868    0.1553979  49.83  0.001207476    1.627    0.385
        32 -10.9480    194.9937      3.9775   6.0347065916e+01   3.5786193620e+01    0.2189838    0.1306166 -72.20  0.001144104    1.748    0.428
        33 -10.7547    160.1232      2.6731   6.4365773239e+01   4.4378018152e+01    0.3048122    0.2256674 -67.11  0.001795554    1.509    0.337
        34 -11.2535    130.5682      3.6563   6.9463079127e+01   5.1334901453e+01    0.2658077    0.1986439  60.55  0.001234115    1.118    0.106
        35 -11.2243     18.2430      2.8576   1.0517051765e+02   7.1056014212e+01    0.3545366    0.1647307  14.93 0.0008610536    2.196    0.545
        36 -11.6536     80.1745      1.7935   8.0584792201e+01   6.2178746822e+01    0.3519053    0.1444962  48.12  0.001729395    1.954    0.488
        37  -9.7244    176.5173      1.9783   6.2005742423e+01   4.0453189569e+01    0.1663348    0.1307927 -27.67  0.001022424    1.565    0.361
        38  -9.1323    204.0072      1.2642   5.8782203569e+01   3.3894720496e+01    0.1603775   0.09154656  74.87 0.0003084214    1.440    0.306
        39  -9.9182     50.1689      1.8891   9.0742041951e+01   6.7232438131e+01    0.2047459    0.1448133  34.15 0.0005485993    1.329    0.247
        40 -10.6538    172.0562      2.6917   6.2753125526e+01   4.1475059052e+01    0.2192658    0.1816004 -80.12 0.0003511333    1.197    0.165
        41 -11.0200     12.2095    130.3352   1.4025739314e+02   4.7214985818e+01    0.3854612    0.1964034  56.27  0.001757897    2.457    0.593
        42 -12.6571      2.9091    248.8060   1.5146511969e+02   2.2707700831e+01    0.7088961    0.3172459  39.83  0.004445453    2.231    0.552
        43 -12.2540     10.5771    245.0933   1.5006016673e+02   2.2611942886e+01    0.2939689    0.1967315  55.62  0.001646677    1.308    0.236
        44 -12.3758      5.7920    241.0723   1.5062043692e+02   2.3866886092e+01    0.4770575    0.2392759  64.29  0.003112933    1.528    0.346
        45  -9.3878     21.0416    126.0150   1.3730101151e+02   4.7548294865e+01    0.1473499    0.1213763 -68.21 0.0004120719    1.019    0.019
        46 -11.9232     23.7265    121.6886   1.3591517930e+02   4.8331702168e+01    0.4325415    0.2322498 -86.79 0.0007552538    2.235    0.553
        47 -10.7137      3.2753    119.0006   1.4121870378e+02   5.0354020010e+01    0.1762075    0.1644418 -64.28 0.0005917645    1.211    0.174
        48  -9.1805      9.2935    116.6592   1.3924942178e+02   5.0512891302e+01    0.1181088   0.08041011  78.90 0.0004500808    1.654    0.396
        49  -9.7056    132.0338    114.2025   1.0280205759e+02   3.3808849614e+01    0.2327713    0.2067918   5.47 0.0004678239    1.274    0.215
        50  -9.6767      2.3062    114.2829   1.4088002762e+02   5.1461088469e+01    0.1174727   0.06887251 -47.20 0.0002283646    1.560    0.359
        51 -10.0838    249.1803    111.8179   7.7952364511e+01   7.4366803458e+00    0.1873634    0.1653448 -10.62  0.001072634    1.326    0.246
        52 -11.7331      4.8601    108.7926   1.3941221797e+02   5.2535430293e+01    0.3271992    0.2227937   8.09  0.002129427    1.913    0.477
        53 -10.9204     58.0875    107.9196   1.2305125182e+02   4.8058703901e+01    0.2668896    0.2024374  -4.89  0.001080154    1.616    0.381
        54  -9.8794     34.3749    107.7458   1.3040090686e+02   5.0618419963e+01    0.1851785   0.09606919 -54.01  0.000685021    1.569    0.363
        55  -9.3261     20.6420    107.2837   1.3451503466e+02   5.1847204547e+01    0.1179079   0.08696014  71.00 0.0007018934    1.672    0.402
        56  -9.6641    113.4990    102.5207   1.0481660363e+02   4.0250335135e+01    0.1509724    0.1472495  -8.94 8.966353e-05    1.012    0.012
        57  -9.9023     66.6181    101.7693   1.1893490645e+02   4.8350336254e+01    0.1952653    0.1251585 -62.07 0.0009470363    1.622    0.383
        58 -10.9721     57.6289    101.6136   1.2177200525e+02   4.9542611762e+01    0.2526029    0.2346133 -74.00  0.001159236    1.172    0.147
        59 -12.2703     17.7571     95.4979   1.3334636032e+02   5.4664260591e+01    0.5221841    0.4132814 -49.11  0.003154374    1.068    0.064
        60 -11.6619     11.3347     88.0825   1.3406512338e+02   5.6676577452e+01    0.5415862     0.220629 -63.46   0.00271741    1.961    0.490
        61 -10.5243     17.1834     88.8817   1.3228802722e+02   5.6136279107e+01    0.4190892    0.2153034 -26.03  0.002165591    2.333    0.571
        62 -10.3233      5.0146    102.2977   1.3842037761e+02   5.3957868098e+01    0.1565975    0.1291128 -60.19  0.000393247    1.066    0.062
        63  -9.2028    129.6672     97.6716   9.8971912723e+01   3.7862351859e+01      0.16094    0.1233768   4.68 -0.0003138831    1.718    0.418
        64  -9.2056    101.6315     96.7357   1.0671101812e+02   4.3796635568e+01    0.1495987    0.1473515 -26.73 0.0002514039    1.050    0.048
        65 -10.0303     38.1096     94.8145   1.2659254534e+02   5.3165170702e+01    0.3589503    0.1565893 -60.05  0.001644387    2.029    0.507
        66 -10.5191     78.9323     94.9729   1.1327365891e+02   4.8061410358e+01    0.2110925    0.1905015 -27.98 0.0003318297    1.042    0.040
        67  -9.6734      3.5203     95.4908   1.3782485061e+02   5.5519395158e+01     0.117605   0.09048285 -59.71 6.376748e-05    1.007    0.007
        68 -10.0954     84.1282     94.0208   1.1136534708e+02   4.7441730373e+01    0.2104961     0.156881   9.52  0.001048187    1.593    0.372
        69 -11.1580     27.4168     91.0224   1.2932404474e+02   5.4924757896e+01     0.480325    0.3159478  52.70  0.002714039    2.094    0.522
        70 -10.4107     25.5350     85.2470   1.2873624266e+02   5.6312961174e+01    0.2579047    0.1580624 -71.84 0.0009282693    1.793    0.442
        71 -11.5197     76.3055     89.3043   1.1259074940e+02   4.9674733889e+01    0.2674416    0.2269275 -37.71 0.0003417878    1.089    0.082
        72 -10.6350      1.8180     89.7886   1.3743953405e+02   5.6828830372e+01    0.2006075    0.1273666 -64.56  0.000283732    1.240    0.194
        73  -9.6884    108.3180     89.3200   1.0262140521e+02   4.4053311066e+01    0.1533788    0.1160771  -1.62 0.0007041991    1.662    0.398
        74 -10.7672     98.5320     89.4806   1.0560758844e+02   4.5893533873e+01    0.2689769     0.137757  29.00  0.001036521    2.404    0.584
        75 -10.0625     43.0358     89.0036   1.2363059805e+02   5.3946644157e+01    0.3933868    0.1731635  47.67  0.001572961    3.641    0.725
        76  -9.5238    124.1780     86.8368   9.7373416847e+01   4.1249006825e+01    0.2104096    0.1793646   3.42 0.0005692639    1.312    0.238
        77  -9.2124    113.9786     85.9760   9.9995045581e+01   4.3580521419e+01    0.1761238     0.162654 -29.52 0.0004735655    1.082    0.076
        78  -9.7839     72.1038     84.3218   1.1259394861e+02   5.1341533814e+01    0.3280935    0.1495954 -34.64  0.001289968    2.530    0.605
        79 -10.4317     54.5748     84.4956   1.1857344430e+02   5.3633031847e+01    0.2472372     0.200878 -57.08 0.0008706877    1.261    0.207
        80  -9.8214     78.0581     83.2692   1.1032397844e+02   5.0657821173e+01    0.1891358    0.1676764  26.97  0.000361208    1.177    0.150
        81 -10.2913      3.9611     82.8072   1.3553988591e+02   5.8198081765e+01     0.214414    0.1361819 -60.85 0.0009521283    1.231    0.187
        82 -11.7184     56.1099     75.5325   1.1560169172e+02   5.5287646035e+01    0.4716956    0.2626751  24.50  0.002105053    1.978    0.494
        83 -11.6177     63.8321     80.2929   1.1425834545e+02   5.3329945499e+01    0.6244205    0.4521791 -18.69  0.003409159    1.466    0.318
        84 -10.0651     89.3169     80.2796   1.0579627771e+02   4.9402705040e+01    0.2686878    0.1878879 -52.34 0.0007227315    1.557    0.358
        85  -9.2658    250.3247     80.6982   7.1015401075e+01   1.2472864820e+01    0.1422996   0.09421237 -69.64 0.0006234864    1.637    0.389
        86  -9.2781    124.3806     79.1498   9.5042028620e+01   4.2677332080e+01      0.20501    0.1391355 -51.83 0.0004860314    1.673    0.402
        87 -10.3159     58.3788     91.4687   1.1907763430e+02   5.1684689426e+01    0.2689745    0.1869982  -7.08 0.0009987161    1.778    0.438
        88 -10.3666    176.4888     77.5129   8.2253144050e+01   3.0501491799e+01    0.3245729    0.2710784  29.66  0.001624199    1.386    0.279
        89 -10.9934     15.0426     76.0895   1.3040474798e+02   5.8967346417e+01    0.2202588    0.1569406 -37.14  0.000870543    1.206    0.171
        90  -9.6794     74.9685     75.6923   1.0913273493e+02   5.2650270901e+01    0.1802323    0.1624829   8.17 0.0002104014    1.095    0.087
        91 -11.3796     32.0492     72.9936   1.2356341294e+02   5.8325429176e+01    0.1970636    0.1809408 -37.32            0    1.158    0.136
        92 -11.2339     35.9889     71.9783   1.2186448587e+02   5.8175328805e+01    0.4414092    0.2932001 -57.16   0.00144265    1.467    0.318
        93 -11.1631      3.6905     73.8576   1.3394169567e+02   6.0063461358e+01    0.3150857    0.1979422  19.63  0.001052443    1.942    0.485
        94  -9.1835    224.0410     74.2375   7.3202018148e+01   1.9413600688e+01    0.1753429    0.1156442  62.67 0.0003342876    1.513    0.339
        95  -9.5659    136.2919     74.4089   9.0479888171e+01   4.0846434191e+01    0.2030021    0.1424073  58.96 0.0007202437    1.487    0.327
        96  -9.4904     90.7137     69.3514   1.0198729413e+02   5.1237291440e+01    0.2213618    0.1118042 -50.60 0.0003236358    2.362    0.577
        97  -9.3854     96.1368     73.3796   1.0153748504e+02   4.9503905481e+01    0.2826422    0.1875378  67.76 0.0009863232    2.612    0.617
        98  -9.8735     81.0357     72.5220   1.0613810331e+02   5.2302558050e+01    0.2524531    0.1753725 -83.70  0.001021975    3.301    0.697
        99 -10.3485    105.9375     71.3575   9.7913933095e+01   4.7986865254e+01    0.2527657    0.2028374 -21.76 0.0005657173    1.282    0.220
       100  -9.6492     45.1784     68.3836   1.1750669183e+02   5.7964926830e+01    0.3761986    0.2228235  55.39  0.001701257    3.272    0.694
       101  -9.6895     10.1438     69.2014   1.3065833145e+02   6.0663750434e+01    0.1884863    0.1249064 -38.36   0.00123655    1.243    0.196
       102  -9.1694    122.4265     68.5577   9.2336929599e+01   4.5014828056e+01    0.1454354    0.1381718  28.19 0.0001093122    1.019    0.018
       103  -9.6752    114.1527     66.4943   9.3987471931e+01   4.7157415995e+01    0.2072259    0.1381516  46.68 0.0003520408    1.454    0.312
       104 -11.9980     34.1323     65.1452   1.2070826376e+02   5.9696120446e+01    0.3779686    0.2409633 -25.65 0.0004004739    1.499    0.333
       105 -11.2655     38.7979     62.7895   1.1827667626e+02   5.9704277584e+01    0.8077152    0.2791649 -31.86  0.002762021    4.383    0.772
       106 -10.4572    131.7269     64.6401   8.8671748220e+01   4.3582509094e+01    0.3923012    0.2578904  59.72  0.001799473    1.614    0.380
       107  -9.2477     73.0000     63.9773   1.0616984657e+02   5.5162556376e+01    0.2167683   0.07166017 -43.95 0.0005546167    2.906    0.656
       108 -11.4038      4.0321     61.2970   1.3115562926e+02   6.2554652799e+01    0.4970673    0.2844003  52.71  0.001898975    3.186    0.686
       109 -11.2772      9.6310     60.0139   1.2871975206e+02   6.2504972039e+01    0.2371117    0.1876367 -17.26  0.000345533    1.249    0.199
       110 -10.6608     62.7542     62.2374   1.0922810985e+02   5.6970992437e+01    0.2533054    0.1893431 -26.38  0.001089192    1.214    0.176
       111 -10.7060      2.2425     54.4461   1.3024415660e+02   6.3959500213e+01    0.4527332    0.1572422 -31.07  0.002149361    2.916    0.657
       112 -11.0482     11.4660     48.5446   1.2500163341e+02   6.4553665311e+01    0.5730625    0.2131133  17.99  0.002929013    3.002    0.667
       113 -11.4199     16.8144     44.9842   1.2174986834e+02   6.4840159829e+01    0.6453434    0.2825758  19.57  0.003535953    2.487    0.598
       114 -10.5102     24.0594     61.6539   1.2358933528e+02   6.1220963488e+01    0.3695074    0.1736798 -31.83 0.0008950388    2.070    0.517
       115 -12.8012     20.7540     56.7928   1.2355422956e+02   6.2396483303e+01    0.3349679    0.2959769 -22.91 0.0006671526    1.171    0.146
       116 -10.3928     15.9106     64.2113   1.2735265552e+02   6.1302866098e+01    0.2947833    0.2068333  11.95  0.001967399    1.614    0.380
       117 -10.9749     54.2567     58.0947   1.1101269810e+02   5.8839651383e+01    0.4327908    0.3466481 -54.21  0.002651133    1.511    0.338
       118  -9.6276    118.6315     58.8282   9.0289763965e+01   4.7469795319e+01    0.1942035    0.1324235 -45.52 0.0003481091    1.650    0.394
       119 -11.7186     83.5492     56.9095   1.0025629813e+02   5.4677083122e+01    0.2739378    0.2333227 -12.47  0.001630392    1.090    0.083
       120 -11.8353     87.8550     53.7033   9.7754352226e+01   5.4446169384e+01    0.5004719    0.2892724  44.09  0.001325763    1.743    0.426
       121 -10.4377     60.3779     57.6518   1.0860799375e+02   5.8120103311e+01    0.2548991    0.2208103  47.17 0.0009587504    1.517    0.341
       122  -9.7844    224.9768     55.5848   6.8747250344e+01   2.2121139081e+01    0.3924388    0.2633156   1.72   0.00162802    3.253    0.693
       123 -10.0140     99.7090     56.0728   9.4834316364e+01   5.1836956990e+01    0.1908177    0.1653799 -15.67  0.000436506    1.138    0.121
       124 -10.7734     20.3804     51.0855   1.2208955936e+02   6.3483730055e+01    0.3369982    0.1568222 -43.47  0.001128376    1.668    0.400
       125 -10.9245    114.6574     53.9176   8.9781963901e+01   4.9102155820e+01    0.3232051    0.2619289  30.77  0.001024764    1.166    0.143
       126  -8.8960    165.5235     54.4323   7.8034864537e+01   3.6991132181e+01    0.1476112      0.13409  66.18 0.0001071409    1.009    0.008
       127 -10.1119    106.3794     53.1787   9.1881520432e+01   5.0956090313e+01    0.2828746    0.2254041  63.80  0.001109151    1.532    0.347
       128 -12.0931     66.4104     52.4651   1.0467662346e+02   5.8161536871e+01    0.5969701    0.2192106  34.00  0.002266902    2.801    0.643
       129 -10.0054     34.4927     53.3162   1.1710362445e+02   6.1882504089e+01    0.2670555    0.1390924 -27.49 0.0009523793    1.916    0.478
       130  -8.9043    176.2980     52.2872   7.5418053655e+01   3.4599910299e+01    0.1428501    0.1086633  34.15 0.0001934303    1.553    0.356
       131  -9.4808    211.8960     48.8546   6.8932739549e+01   2.6238188838e+01    0.1901631    0.1446036 -79.17            0    1.276    0.216
       132  -9.2988    147.5213     49.5308   8.0310657374e+01   4.2161868440e+01    0.1452696    0.1331798  62.98 -0.0001057158    1.049    0.047
       133 -10.0490     38.0759     48.9940   1.1430393870e+02   6.2295506514e+01    0.1854212    0.1396419 -21.37 0.0005531682    1.104    0.094
       134  -9.6780     71.4197     57.7090   1.0466781263e+02   5.6515887699e+01    0.1722388     0.114925 -27.96 0.0003228721    1.438    0.305
       135  -9.4747     52.7499     48.5962   1.0842439483e+02   6.0681122109e+01    0.2316411    0.1131733  25.62  0.001133053    2.162    0.537
       136  -9.7344    104.6907     46.9758   9.0271054047e+01   5.2234763515e+01    0.1872917    0.1702059   1.09 0.0003245623    1.081    0.075
       137 -10.0573     31.2135     45.9668   1.1609096092e+02   6.3491930060e+01    0.2558907    0.1694348 -32.25  0.001622798    1.231    0.187
       138 -10.3470     35.9258     41.5068   1.1265826384e+02   6.3787418985e+01    0.2709867    0.1572931 -20.52  0.001131255    1.683    0.406
       139 -10.2919     78.2411     45.7187   9.8159072291e+01   5.7373645683e+01    0.2981111    0.1861598  34.44 0.0009980119    1.521    0.343
       140  -9.0558     68.6452     46.7182   1.0186810395e+02   5.8761853782e+01    0.1345817   0.08978931   2.90 0.0002308274    1.660    0.398
       141  -9.4292     64.9691     46.4082   1.0308674815e+02   5.9363553499e+01    0.1792471    0.1157283  32.31 0.0003371117    1.525    0.344
       142 -11.1049     19.4391     31.9241   1.1636009499e+02   6.6851857258e+01    0.6114573    0.2789757  -6.22  0.002640101    3.178    0.685
       143 -11.0173     25.5602     43.8400   1.1773748277e+02   6.4361406791e+01    0.2702915    0.2245669 -54.97  0.001265605    1.516    0.340
       144 -10.2262     30.7648     30.8086   1.1099401265e+02   6.6011960408e+01    0.2109056    0.1610819  25.34  0.001314117    1.500    0.333
       145 -10.9174     23.0915     38.5433   1.1703893048e+02   6.5468783839e+01    0.2371704    0.1712455   8.83 0.0009849186    1.380    0.276
       146 -11.2310     26.5095     35.5886   1.1455835298e+02   6.5660161012e+01    0.4512546    0.1911496 -33.21  0.001808385    2.093    0.522
       147  -9.4067     91.4363     44.5417   9.3421948538e+01   5.5195210203e+01    0.1345691    0.1179592  13.35 0.0001068467    1.006    0.006
       148 -10.6536     70.2306     41.4018   9.9385602523e+01   5.9332571355e+01    0.3417338    0.2276548 -24.45  0.001934544    1.441    0.306
       149  -9.9842    181.4778     40.9131   7.1468737368e+01   3.4886953603e+01    0.3076044     0.186992  81.78  0.000604992    1.825    0.452
       150 -10.8306    139.5839     40.4358   7.9255449063e+01   4.5325130524e+01     0.273823    0.2294555 -55.95  0.001265176    1.385    0.278
       151  -9.3253    159.5867     40.4872   7.5184699247e+01   4.0428137632e+01    0.1415203    0.1282605  65.30 3.388385e-05    1.016    0.016
       152  -9.0076     43.2771     40.6861   1.0937550701e+02   6.3123428433e+01    0.1011484   0.09652591 -54.18 0.0002433341    1.565    0.361
       153  -9.7437     12.8824     38.1506   1.2131517891e+02   6.6300742401e+01    0.3574823   0.07601334 -55.89  0.001149866    6.020    0.834
       154  -9.9971    131.0790     37.7707   8.0329996623e+01   4.7678863148e+01    0.2436078    0.2167892  54.87  0.001348465    1.073    0.068
       155 -11.9898    121.5852     36.8003   8.2284530795e+01   4.9979076952e+01    0.4796861    0.4252308  62.31  0.002171749    1.191    0.160
       156  -9.4901    101.5188     39.4863   8.8591419438e+01   5.3932953217e+01    0.1389884    0.1168658  21.92 3.333212e-05    1.074    0.069
       157  -9.0386     51.2799     39.6749   1.0583183012e+02   6.2310523330e+01    0.1042551    0.0989862 -57.23 0.0004270413    1.592    0.372
       158  -9.0295    236.6765     37.7081   6.3383588275e+01   2.1958347038e+01    0.1205459   0.09913167  44.84 0.0002948226    1.613    0.380
       159  -9.8818    229.4836     36.9433   6.4010411191e+01   2.3713164699e+01    0.1818881    0.1221135 -43.55 0.0004200412    1.477    0.323
       160  -9.9252      2.3497     42.4333   1.2710241972e+02   6.6168126571e+01    0.1693697   0.09607739   0.32 0.0006167535    1.894    0.472
       161 -10.6711      1.8772     35.8443   1.2541979657e+02   6.7349189991e+01    0.2355234    0.1569341 -32.31  0.001458157    1.116    0.104
       162  -9.0754     38.6809     35.6932   1.0944956569e+02   6.4430064692e+01    0.1240628   0.07581331 -12.25 0.0002667865    1.635    0.388
       163 -10.9849    134.1369     33.9868   7.8425664406e+01   4.7434175937e+01    0.2134125     0.173049  46.26 0.0003064395    1.095    0.086
       164 -10.9664     50.7816     33.8208   1.0384637771e+02   6.3260443700e+01    0.3418741    0.1959891  39.59  0.001719262    1.980    0.495
       165 -10.5761    145.0421     32.9938   7.5805272893e+01   4.4946720264e+01    0.2037871    0.1792376  54.99 -0.003769674    1.004    0.004
       166  -9.6016    166.4696     31.0664   7.1268433340e+01   3.9896911306e+01    0.1878571    0.1403657 -31.10 0.0004267403    1.529    0.346
       167 -10.0470    127.2764     30.6950   7.8909940602e+01   4.9428069039e+01    0.3494672    0.1537193  46.28  0.001487796    2.004    0.501
       168 -11.5784     44.0091     29.4017   1.0487317601e+02   6.4757425825e+01    0.4426759    0.2790267 -20.50  0.001644204    1.420    0.296
       169 -10.0144    149.6709     29.9023   7.3958546333e+01   4.4187478099e+01     0.342294    0.1684252  63.01  0.001499867    1.841    0.457
       170 -10.3744     69.0971     27.7405   9.4616939798e+01   6.1409818887e+01    0.2543128    0.2310418 -79.20   0.00163573    1.868    0.465
       171 -10.2779      7.5194     27.9405   1.2036547284e+02   6.8346957257e+01    0.1967342    0.1592046   7.62 0.0008245467    1.393    0.282
       172 -10.0510    140.8416     26.7893   7.4743869313e+01   4.6681792754e+01    0.3447595    0.1618874  57.58    0.0013899    1.808    0.447
       173 -10.0980    195.0105    249.7571   1.1574994063e+02  -6.2405379043e+00    0.1739988    0.0908158  38.46 0.0006408914    1.584    0.369
       174  -9.6729    218.8537     25.8312   6.2735548703e+01   2.7641051768e+01    0.1871447    0.1311253 -72.56 0.0004302247    1.330    0.248
       175  -9.8803    153.4306     25.7062   7.2013824374e+01   4.3746608070e+01    0.2579573     0.151858  72.92 0.0009754106    1.720    0.419
       176 -10.1740    114.0335     25.3422   8.0271088064e+01   5.3020479256e+01    0.2258727    0.1946134 -31.38 0.0007143824    1.335    0.251
       177  -9.2901     18.3630     26.2938   1.1481662314e+02   6.7824307253e+01    0.1191121   0.06551526 -17.25  0.000497976    1.707    0.414
       178  -9.9358     59.1622     24.2815   9.6868788995e+01   6.3398620024e+01    0.2083878     0.141248 -12.77 0.0007709585    1.374    0.272
       179  -9.5801     52.4076     25.1821   9.9828342459e+01   6.4250291875e+01    0.1582167    0.1043667 -39.84 0.0009433723    1.766    0.434
       180 -10.0289     89.2509     22.1939   8.5891573392e+01   5.8486036683e+01    0.2689317     0.147469 -21.24   0.00137877    1.977    0.494
       181 -10.7271     19.8402     16.8033   1.1045033433e+02   6.9093427816e+01    0.1876168    0.1288874  12.25 0.0004068437    1.357    0.263
       182 -11.4711     17.7115    249.0533   1.4912254650e+02   2.1100723398e+01    0.2061561    0.1548168  21.62   0.00141178    2.390    0.582
       183 -11.2122     33.5352    247.2453   1.4638009708e+02   1.9625773774e+01    0.2204994    0.1473165  41.93  0.001207723    1.614    0.381
       184 -10.1365      1.9174     21.9304   1.2091645480e+02   6.9641397075e+01    0.2185999    0.1237427 -48.85  0.001154506    1.613    0.380
       185 -10.1965    124.7740     21.2339   7.6358574628e+01   5.1051755073e+01    0.1978039     0.177373 -45.56 0.0004630458    1.328    0.247
       186 -10.3271    174.6259     20.8258   6.7177938804e+01   3.9041679367e+01    0.3268887    0.1048221  53.24  0.001225273    2.715    0.632
       187 -10.0126     85.1365     20.9858   8.6678349939e+01   5.9401993307e+01    0.2514003    0.1280558  28.82 0.0008871115    2.046    0.511
       188  -9.2987    224.6768    246.6574   1.0953304182e+02  -1.0585912028e+01    0.1308061   0.08290353   7.44  0.000705061    1.730    0.422
       189 -10.3819     30.9787     20.3931   1.0684060334e+02   6.7508152239e+01    0.2194547     0.134302 -30.54 0.0005586001    1.415    0.293
       190 -10.2779     26.6311     16.5156   1.0719545164e+02   6.8486525125e+01    0.1921844    0.1682428  26.11  0.001460299    1.651    0.394
       191  -9.2547    131.7009     20.6570   7.4680838641e+01   4.9508109625e+01    0.1409266   0.09000856  32.21 0.0007035895    1.672    0.402
       192  -9.6845    217.5029    245.0000   1.1062224308e+02  -9.2295879295e+00    0.2830018   0.06126924  39.64 0.0009385861    3.966    0.748
       193 -10.0261     58.1484     19.1897   9.5176081388e+01   6.4179581727e+01    0.2082866    0.1320951 -33.02  0.001252741    1.686    0.407
       194 -10.1050    199.6603     17.1571   6.2936173879e+01   3.3277435722e+01    0.2228346    0.1569999  87.12 0.0005170072    1.263    0.208
       195  -9.3386     74.2344    243.6436   1.3878272737e+02   1.4919745596e+01    0.1514358    0.1027422  41.30 0.0002131928    1.481    0.325
       196 -10.9911     37.6271    241.9617   1.4531086916e+02   2.0148284330e+01    0.3333488     0.110228  58.93  0.001500817    2.847    0.649
       197  -8.9580    108.2812     16.6723   7.8661529348e+01   5.5177082394e+01    0.1176083    0.1006253 -73.08 0.0002520687    1.600    0.375
       198  -9.4320    202.4436    240.3265   1.1277346699e+02  -6.0817017315e+00    0.2079268    0.1243163 -33.57 0.0009298353    1.902    0.474
       199  -9.2406     60.5014    241.0000   1.4111034269e+02   1.7375957752e+01    0.2524389   0.05904419  38.71 0.0009300026    3.897    0.743
       200 -12.6869     25.5952    235.8597   1.4699353281e+02   2.2757042444e+01    0.4128532    0.3305208  51.12  0.002549247    1.400    0.286
       201 -13.4021      9.9509    229.9224   1.4931558846e+02   2.5607679367e+01     0.707495    0.3925791  82.93  0.004615717    1.417    0.294
       202 -12.0851      4.1146    232.5691   1.5044427880e+02   2.5671087736e+01    0.4745637    0.2040676  79.00 0.0003897293    2.026    0.506
       203  -9.7590    249.1863    234.1271   1.0281983797e+02  -1.2591220532e+01     0.186051    0.1357828   6.51 0.0004907655    1.181    0.153
       204  -9.2086     64.3663     15.2964   9.1285471557e+01   6.3657760829e+01    0.1297268   0.07626603  16.62 7.312927e-05    1.722    0.419
       205 -10.6081    190.4791     13.8355   6.3244262351e+01   3.5880512809e+01    0.2418163     0.161088  72.60 0.0005855278    1.265    0.209
       206  -9.5895    140.0643    227.0380   1.2348008342e+02   7.2939977631e+00    0.2262132    0.1506685  65.63 0.0009749945    1.736    0.424
       207 -10.0808     33.0937    225.0816   1.4488765904e+02   2.4063964828e+01    0.2794104     0.106021  47.99  0.001421255    2.203    0.546
       208 -10.2236     25.6922    225.0144   1.4623524167e+02   2.4920712831e+01    0.1664022    0.1187666  88.65 0.0006779114    1.132    0.117
       209 -12.0294      7.9760    217.6593   1.4892073494e+02   2.8267676111e+01    0.3175287    0.2264443  78.40  0.001753069    1.025    0.024
       210  -9.4905    246.4647    216.5384   1.0011513286e+02  -9.7153530326e+00    0.1298365    0.1049996   3.05 0.0002001524    1.045    0.043
       211 -10.8355     16.0716    211.9492   1.4707686592e+02   2.8645256287e+01    0.1801347    0.1374379  83.61 0.0007842884    1.058    0.055
       212  -9.5192    209.5266    211.5376   1.0628918180e+02  -2.7193021838e+00    0.1377865    0.1213335  17.53 0.0008088554    1.010    0.010
       213  -9.9301     20.7648    209.7912   1.4604134241e+02   2.8617275142e+01    0.1661146     0.102206  73.64 0.0004334275    1.349    0.259
       214  -9.7872    247.0836    207.1490   9.8227457786e+01  -8.4110581329e+00     0.202311    0.1531276  -4.60 0.0006463199    1.231    0.187
       215  -9.4690    197.0258    203.9997   1.0742967729e+02   9.0065150185e-01    0.1734529    0.1564808  21.28 0.0006446691    1.002    0.002
       216 -11.4043      9.2041    203.4430   1.4776652200e+02   3.1106442117e+01     0.231048    0.1806269  66.62  0.000845013    1.196    0.164
       217  -8.8685    181.6673    199.3441   1.0980266375e+02   4.7273609767e+00    0.1463828    0.1152392  77.84 0.0007050378    1.759    0.431
       218  -9.5020     23.0236    197.4898   1.4463286330e+02   3.1030534736e+01    0.1615985    0.1095056  42.52  0.000522203    1.578    0.366
       219 -10.1845      6.7829    191.6633   1.4739387123e+02   3.3847300748e+01     0.216775    0.1053694  75.94 0.0007099065    1.932    0.482
       220  -9.6192     15.3760    185.1725   1.4515793470e+02   3.4490846878e+01    0.1727446   0.08908434 -88.12 0.0009391364    1.688    0.408
       221  -9.4884      1.3061    183.2229   1.4785914748e+02   3.6140353091e+01    0.1604418   0.08044132 -85.75 0.0005764995    1.599    0.375
       222 -10.8871      4.8488    167.5076   1.4588144350e+02   3.9322769961e+01    0.2742238     0.182099  65.35  0.001289093    1.442    0.307
       223  -8.8058     41.6848    158.3078   1.3634142098e+02   3.8027497585e+01    0.1338646   0.08768148  73.40 0.0007028495    1.629    0.386
       224  -9.1782    247.4722    155.5195   8.7693219679e+01   4.8845250945e-02    0.1389727    0.1243406 -21.37 5.970169e-05    1.020    0.020
       225 -10.3331      2.8583    153.5690   1.4507791908e+02   4.2595767094e+01    0.2418381   0.07601716  37.69  0.001144669    3.222    0.690
       226 -10.0539     14.8112    150.4870   1.4196279414e+02   4.2395849025e+01    0.2220166    0.1388668 -74.56 0.0006035808    1.273    0.214
       227  -9.8332     23.6662    150.6906   1.3983279534e+02   4.1601404765e+01     0.124103   0.08175647 -45.97 0.0004271963    1.674    0.403
       228 -10.3764     22.0009    143.2228   1.3934025539e+02   4.3482797495e+01    0.2306782    0.1514028 -72.70  0.001119786    1.239    0.193
       229  -8.9693    236.3268    139.3108   8.6118867837e+01   5.1138097774e+00    0.1447281    0.1111733   2.35 0.0005379323    1.661    0.398
       230 -10.1140      3.2676    138.5721   1.4348712628e+02   4.5950299413e+01    0.1993749     0.105028  32.44    0.0011584    2.240    0.554
       231 -10.0930      8.6347    135.2492   1.4177570103e+02   4.6343749701e+01       0.1783    0.0829272 -63.58  0.000844197    1.643    0.391
