#   1 NUMBER                 Running object number                                     
#   2 MAG_AUTO               Kron-like elliptical aperture magnitude                    [mag]
#   3 X_IMAGE                Object position along x                                    [pixel]
#   4 Y_IMAGE                Object position along y                                    [pixel]
#   5 X_WORLD                Barycenter position along world x axis                     [deg]
#   6 Y_WORLD                Barycenter position along world y axis                     [deg]
#   7 A_WORLD                Profile RMS along major axis (world units)                 [deg]
#   8 B_WORLD                Profile RMS along minor axis (world units)                 [deg]
#   9 THETA_WORLD            Position angle (CCW/world-x)                               [deg]
#  10 FWHM_WORLD             FWHM assuming a gaussian core                              [deg]
#  11 ELONGATION             A_IMAGE/B_IMAGE                                           
#  12 ELLIPTICITY            1 - B_IMAGE/A_IMAGE                                       
         1 -13.0011      5.4012    143.0490   1.3445418932e+02   4.4197453787e+01     0.908117    0.4564164 -89.16  0.005398027    1.650    0.394
         2 -12.7982    199.1974     33.3224   6.0896681006e+01   3.0943729493e+01     1.076751     0.797782  47.49  0.005470059    1.399    0.285
         3 -13.4623    214.7878     15.0846   5.3854841620e+01   2.9084309913e+01     1.227473    0.9219044  28.02  0.006519385    1.648    0.393
         4 -11.8892      3.6534      4.4875   1.0823202562e+02   7.3216270934e+01     0.497757    0.3276168 -28.66  0.003563021    1.190    0.159
         5 -11.5594      2.2691     13.8311   1.1285535456e+02   7.1680553241e+01    0.5474231    0.1393393 -56.34  0.002365009    3.195    0.687
         6 -12.8948    135.5499    241.0118   1.1849156995e+02   9.3544820588e+00    0.9456408    0.4229977  51.05  0.005114339    1.907    0.476
         7 -11.2873    185.2248    249.9317   1.1111175233e+02   5.4874231683e-01    0.4045871    0.1828613  41.46  0.001576469    1.668    0.401
         8 -10.7962    169.3927    248.9113   1.1363320717e+02   3.0985388057e+00    0.2472522    0.1833985  14.93 0.0007861867    1.609    0.378
         9 -11.0017    161.8167    250.0651   1.1504243949e+02   4.1164676685e+00    0.3511268    0.1630716  39.04  0.001997372    1.693    0.409
        10 -11.4244    149.7491    248.2345   1.1686637412e+02   6.1959206427e+00    0.3250751    0.2578798 -86.52  0.002369624    1.698    0.411
        11 -10.4422    143.6200    249.3746   1.1802574432e+02   6.9748247423e+00    0.2634369    0.1548426  57.97  0.001639889    1.690    0.408
        12 -11.0718    134.0974    248.8165   1.1957036673e+02   8.4814601396e+00    0.5008175    0.1788966  44.40  0.002560748    2.097    0.523
        13 -11.3789    116.9048    238.4069   1.2143914192e+02   1.2542284410e+01    0.5501005    0.3016755 -40.79  0.003035895    3.096    0.677
        14 -10.8659    128.9163    235.2903   1.1901870540e+02   1.1201557966e+01    0.3221419    0.2004754  65.34  0.001882563    1.757    0.431
        15 -10.8801    122.8374    233.6594   1.1990971838e+02   1.2372842969e+01    0.3252893     0.276861  51.55   0.00138421    1.118    0.105
        16 -11.4887    122.1528    246.8716   1.2138724842e+02   1.0524951204e+01    0.5572938    0.3622215  69.48  0.003696795    1.677    0.404
        17 -12.1648    124.4907    240.5558   1.2034966770e+02   1.1092991854e+01     0.589669    0.4556387  78.78   0.00367396    1.416    0.294
        18 -10.5979    114.8967    250.2789   1.2292877204e+02   1.1092139056e+01    0.4999662     0.218579  39.25  0.002245931    1.970    0.492
        19 -11.4817    109.2437    246.3433   1.2350951750e+02   1.2473484237e+01    0.4173393    0.2579881  84.09  0.002321454    2.059    0.514
        20 -11.0559     99.1290    248.1978   1.2536003668e+02   1.3623041316e+01    0.3728943    0.2344067  70.26  0.002236695    1.565    0.361
        21 -10.4444    102.5392    247.4752   1.2473154656e+02   1.3255014990e+01    0.3628668    0.1657616  57.50  0.002061127    1.999    0.500
        22  -9.8848     90.9214    250.2463   1.2687835383e+02   1.4440409876e+01    0.2270641    0.1500781  45.02  0.001385605    1.290    0.225
        23 -10.7058     84.8225    241.5006   1.2718280528e+02   1.6598872136e+01    0.3290302    0.2788268  -1.48   0.00237338    2.216    0.549
        24 -11.2660     84.7181    230.7335   1.2629957419e+02   1.8342186219e+01    0.5406298    0.2385013 -70.08  0.003006011    2.606    0.616
        25 -11.0063     86.8598    248.1965   1.2737969175e+02   1.5294112562e+01    0.3776183    0.2534031  29.98 0.0007462622    1.980    0.495
        26  -9.7992     81.6595    246.9433   1.2813306545e+02   1.6174966463e+01    0.2194308    0.1477142 -87.11  0.001430415    1.559    0.359
        27 -11.0488     91.8025    241.3043   1.2599586884e+02   1.5682559351e+01    0.3261936    0.2245396  58.01  0.001536483    1.106    0.096
        28 -10.6290     89.9608    238.0748   1.2603186731e+02   1.6441517494e+01    0.2429814    0.1998239  77.82  0.001053685    1.189    0.159
        29  -9.3739     66.4812    244.0149   1.3039084171e+02   1.8579085974e+01    0.2119604    0.1267526  37.17 0.0008765578    1.792    0.442
        30 -12.6822      3.3495    192.2551   1.3794031475e+02   3.4457717051e+01     1.423252    0.2776124 -77.30  0.006078016    4.098    0.756
        31 -11.7358     15.9542    218.3239   1.3710039384e+02   2.8550669790e+01    0.7582885    0.2736835  44.47  0.003864648    2.177    0.541
        32 -12.7599      9.9950    209.5478   1.3765504013e+02   3.0676489856e+01     1.003197    0.9326774  -6.53  0.008663364    1.949    0.487
        33 -12.5772      5.4780    226.1815   1.3912105149e+02   2.8191190385e+01     1.052331    0.5784454  53.47  0.008091478    1.397    0.284
        34 -12.3044     43.5244    207.7437   1.3173936749e+02   2.7550203597e+01     1.232736     0.490122  69.84  0.005961339    2.914    0.657
        35 -13.0706     40.0915    243.6253   1.3456478618e+02   2.1765134713e+01    0.9009233    0.6482769  72.11  0.004896966    1.088    0.081
        36 -11.9900     20.1278    237.7058   1.3735727925e+02   2.4850952553e+01    0.5617437    0.2626758  64.34  0.001696198    1.592    0.372
        37 -13.0683      3.9535    244.5769   1.4004622235e+02   2.5319684821e+01    0.8419791    0.3696666  72.74  0.006002264    1.723    0.420
        38 -12.3679     13.7470    239.0773   1.3838749299e+02   2.5263346822e+01    0.5633522    0.3078741  77.51   0.00236272    1.394    0.283
        39 -11.0928     51.7323    219.0409   1.3110437638e+02   2.4558497223e+01    0.2644316    0.1816142  71.08  0.000304131    1.137    0.121
        40 -12.5919     30.0547    226.7411   1.3523935250e+02   2.5656006109e+01    0.4006381    0.2405237 -72.93   0.00076035    1.708    0.415
        41 -13.7577     36.4154    218.7310   1.3371451329e+02   2.6362080999e+01    0.9374745    0.7409956  73.84  0.007611882    1.142    0.125
        42 -11.7125    177.2035    243.0481   1.1158471682e+02   2.6120900221e+00    0.4593068    0.1802791  50.51  0.002173962    2.598    0.615
        43 -10.3922    158.1314    241.8107   1.1469241489e+02   5.7529179662e+00    0.3601304    0.1826843 -64.27  0.001768726    3.803    0.737
        44 -10.8292    244.8656    241.2771   1.0018065326e+02  -7.4171876736e+00    0.1713248    0.1200272  39.32  0.001215807    1.438    0.305
        45 -10.9255    135.9921    225.0662   1.1658040815e+02   1.1645661837e+01    0.3042167    0.2093404 -56.18  0.001225245    1.776    0.437
        46  -9.2087     54.1726    240.9348   1.3217499368e+02   2.0572790474e+01     0.178944    0.1111321  52.81 0.0005617319    1.235    0.190
        47 -11.2588    105.1738    237.2746   1.2335448490e+02   1.4428315803e+01    0.4233589    0.3117486   4.29  0.002475186    2.929    0.659
        48 -11.1061     97.4590    238.7852   1.2481735488e+02   1.5289780488e+01    0.3130601    0.2099721  52.58    0.0019464    1.139    0.122
        49  -9.5504    100.1382    235.1574   1.2402519287e+02   1.5480395360e+01    0.1841548    0.1367434  58.84  0.001089453    1.048    0.046
        50 -10.6104     98.2989    231.2475   1.2397821253e+02   1.6366181303e+01     0.220861    0.2167535  71.71   0.00135338    1.409    0.290
        51  -8.9319     61.2669    238.9993   1.3089542009e+02   2.0027231293e+01    0.1452887    0.1049282  63.70 0.0006890236    1.006    0.006
        52  -9.0677    172.9647    236.0166   1.1140213222e+02   4.1729771781e+00    0.1334823    0.1119053  36.95            0    1.078    0.072
        53  -9.7195     54.7905    235.8335   1.3174445983e+02   2.1329980569e+01    0.2976465    0.1205184  56.06  0.001032441    1.952    0.488
        54 -10.2721    165.8957    234.8652   1.1248283149e+02   5.4534063596e+00    0.1788829    0.1384115  28.35 0.0007114502    1.244    0.196
        55  -8.5585     70.8328    235.1939   1.2903361343e+02   1.9445372803e+01    0.1291236    0.1117796  58.54 0.0006412143    1.298    0.230
        56 -10.6712     98.1559    223.3881   1.2324140520e+02   1.7676645200e+01    0.3213471    0.2361127  39.90  0.001665852    1.375    0.272
        57  -9.2101     94.1544    219.1557   1.2354449069e+02   1.8967832647e+01    0.2060233    0.1359533  57.16 0.0007289099    1.239    0.193
        58 -11.6973    112.2705    231.4137   1.2153674632e+02   1.4306287072e+01    0.4411429    0.3279817  45.06  0.001727206    1.183    0.154
        59 -11.5119    105.3855    227.7409   1.2238340185e+02   1.5908497812e+01    0.4386607     0.290016  69.35  0.002562891    1.493    0.330
        60  -9.6557    169.5309    232.9908   1.1160300379e+02   5.1217235976e+00    0.1427486     0.118205 -41.87 0.0004019978    1.530    0.346
        61 -10.2817    156.6560    232.0974   1.1375268853e+02   7.3109927223e+00    0.2024586    0.1845805  12.74 0.0006987631    1.290    0.225
        62 -11.3752    134.9912    231.1632   1.1748097472e+02   1.0878733938e+01     0.333686    0.2623584 -13.75  0.001787217    2.037    0.509
        63 -11.0653     60.1782    245.9209   1.3153215781e+02   1.9055951723e+01    0.3581382    0.2544777  63.18    0.0019052    1.004    0.004
        64 -13.1040     28.2588    246.9943   1.3655048411e+02   2.2515400178e+01     1.185664     0.499886  37.57  0.007496894    2.393    0.582
        65  -9.3306    250.3051    230.6760   9.7679178759e+01  -7.1681138101e+00   0.09350168   0.08561536  38.47 0.0007033102    1.642    0.391
        66  -8.4793    149.6658    229.3154   1.1464419280e+02   8.8275548929e+00    0.1190416   0.08005932  64.04 0.0007046957    1.689    0.408
        67 -10.2582     79.3274    225.8094   1.2681508750e+02   1.9891774433e+01    0.3470256    0.2141627 -82.84  0.001517428    1.708    0.414
        68 -10.5387    117.1842    224.6025   1.1993314893e+02   1.4650018308e+01    0.2605057    0.2139969  53.41 0.0004714976    1.057    0.054
        69  -9.8254     92.6916    226.0378   1.2447514332e+02   1.8014539943e+01    0.1936925    0.1331507  50.34 0.0005891392    1.181    0.154
        70  -9.0570     64.8319    224.7131   1.2925457487e+02   2.1965524907e+01     0.183744     0.109888 -56.87  0.001179109    2.148    0.535
        71  -8.9358     87.8344    223.8676   1.2513647994e+02   1.9058456195e+01    0.1674795    0.1069742  64.52  0.001081834    1.366    0.268
        72  -8.4930    155.6761    223.2954   1.1278911553e+02   8.7310380440e+00    0.1187318   0.08283659  63.29 0.0003535728    1.621    0.383
        73 -10.6546    141.9449    221.1616   1.1501275623e+02   1.1291403329e+01    0.2610109    0.2376126 -54.45  0.001889357    1.349    0.259
        74 -10.6200    110.3178    219.3880   1.2061099604e+02   1.6547079130e+01    0.3960415    0.1705818 -74.20  0.001620126    4.324    0.769
        75  -8.6065     99.3031    218.2928   1.2251572041e+02   1.8370107786e+01    0.1004433   0.09015443  17.94 0.0003360351    1.573    0.364
        76  -8.4088     89.3061    218.6504   1.2437721254e+02   1.9743323906e+01     0.122041   0.07147493  68.36 0.0007042387    1.705    0.413
        77  -8.5016     62.5969    217.7362   1.2909790066e+02   2.3462238796e+01   0.09362025   0.08600019  15.22  0.000696815    1.734    0.423
        78  -9.0324     77.1665    220.8077   1.2676310014e+02   2.1036479847e+01    0.1702372    0.1175088  66.16 0.0003689778    1.190    0.160
        79  -9.2710     88.1513    212.8467   1.2401798172e+02   2.0920494031e+01     0.215937    0.1391999 -89.69 0.0009396361    1.663    0.399
        80  -9.9467     62.9345    209.9606   1.2839880756e+02   2.4815730026e+01    0.4754772    0.3176958 -45.08  0.002931508    2.413    0.586
        81 -11.1804     55.1091    207.9587   1.2966203336e+02   2.6150411188e+01    0.5776768    0.2988601  84.66  0.002042868    2.015    0.504
        82  -8.6935    130.9787    211.3013   1.1579265614e+02   1.4649125676e+01    0.1704858    0.1324332  49.25 0.0004100953    1.070    0.066
        83 -10.1478     70.3610    218.6105   1.2778836670e+02   2.2316570865e+01    0.3803085    0.2248444 -89.67  0.002399323    1.735    0.423
        84  -9.8194    156.2057    208.1369   1.1058807117e+02   1.0943097136e+01    0.1926778    0.1629239  41.22  0.000285609    1.034    0.033
        85  -9.1337    112.3233    208.1531   1.1894774171e+02   1.8156522462e+01    0.1620435    0.1376748  70.95 0.0004112972    1.095    0.087
        86  -8.7779     74.3966    208.2623   1.2613197386e+02   2.3636694576e+01    0.1470075   0.09512499  89.68 0.0003584083    1.530    0.347
        87  -8.8409     69.8730    208.1931   1.2696668688e+02   2.4247311279e+01    0.1339369    0.1194905  74.17 0.0002972244    1.228    0.186
        88  -8.8318    125.6392    206.8489   1.1623595417e+02   1.6265666293e+01    0.1608221    0.1123222 -75.65 0.0009430473    1.739    0.425
        89  -9.4640     91.4828    204.8882   1.2256267335e+02   2.1873636333e+01     0.290424    0.1394428  35.75  0.001463917    2.218    0.549
        90  -8.7813     32.9197    207.0224   1.3357574750e+02   2.8851462602e+01    0.1377277    0.1159244 -65.53 0.0005133267    1.577    0.366
        91 -10.1893    250.1792    201.1298   9.2715355829e+01  -4.0194355151e+00    0.2563827    0.1327243  -1.51  0.001202548    2.724    0.633
        92  -8.9871    103.2786    202.7836   1.2005097036e+02   2.0503870662e+01    0.3331083    0.1691539  50.90  0.001761776    1.706    0.414
        93  -9.5077     84.4859    201.1593   1.2350936765e+02   2.3560996706e+01     0.302071    0.2225756 -36.14  0.001618841    2.221    0.550
        94  -9.4113     43.2657    200.0893   1.3121994972e+02   2.9008287113e+01    0.2639824     0.154146 -52.44  0.001133861    2.370    0.578
        95 -11.7706    102.9020    196.0665   1.1931551338e+02   2.1794377954e+01    0.3541546    0.2150428  39.81  0.000378905    1.578    0.366
        96 -11.5907     57.9494    194.1896   1.2795401924e+02   2.8401613037e+01    0.3146744    0.2512617 -58.42 0.0009047919    1.562    0.360
        97 -11.0170     27.6417    195.2363   1.3374744873e+02   3.1613343227e+01    0.3768631    0.2079001  80.16 0.0002160186    1.548    0.354
        98 -11.7653    135.2326    236.4822   1.1804477913e+02   1.0055752883e+01    0.4374062    0.2905738  29.23  0.001505694    1.691    0.409
        99 -10.3262    249.4758    193.9855   9.1535375340e+01  -3.0830527998e+00    0.3156664    0.1997716  21.66  0.001869312    1.425    0.298
       100  -9.4523     20.9853    194.9037   1.3493835268e+02   3.2341128641e+01    0.1862214    0.1244913 -74.06 0.0007227727    1.448    0.309
       101  -8.8270     19.6644    190.7758   1.3492101777e+02   3.3259086465e+01    0.1831236    0.1088753  75.57 0.0009852531    1.342    0.255
       102  -9.5127    113.2580    191.5902   1.1666350611e+02   2.0996907190e+01    0.4309309    0.1983972 -41.99  0.001824172    3.373    0.704
       103  -9.2077     53.0077    198.4835   1.2927307357e+02   2.8178262542e+01     0.203384    0.1473861  52.03  0.001209483    1.258    0.205
       104  -9.3185    191.4578    191.4487   1.0125553515e+02   7.2704502158e+00    0.2231999    0.1916622  28.35 0.0006193113    1.011    0.011
       105  -8.3044     72.6401    192.7525   1.2494378291e+02   2.6789244932e+01    0.1010721   0.09365755   8.72 0.0003626085    1.604    0.377
       106 -10.5453     15.5090    191.9026   1.3574813124e+02   3.3436492473e+01    0.1844485    0.1343942  74.37 -8.392159e-05    1.032    0.031
       107  -9.2078     32.0475    190.0422   1.3256496672e+02   3.2159864934e+01    0.3141946   0.07140543  45.46  0.001411679    3.254    0.693
       108 -10.0439    250.1929    188.0842   9.0322678802e+01  -2.4981003787e+00    0.3122193    0.1501578 -18.27  0.001500384    2.363    0.577
       109  -9.1287     41.1002    188.5756   1.3072454945e+02   3.1471762479e+01    0.2227574    0.1255516  59.22 0.0006569379    1.522    0.343
       110  -8.9354     76.9924    188.3724   1.2360759185e+02   2.7052103510e+01    0.1641016     0.128607  60.70  0.001080743    1.101    0.092
       111 -10.8008     71.9042    187.0660   1.2449239414e+02   2.8000319530e+01    0.2446183    0.2213896 -59.54 0.0004256527    1.404    0.288
       112 -11.4174     64.6012    186.4696   1.2590088461e+02   2.9076742874e+01    0.2722059    0.2250071 -66.14  0.000746747    1.366    0.268
       113  -9.7083     10.1091    187.5751   1.3647765114e+02   3.4759670966e+01    0.2152691    0.1386117  84.66 0.0008328928    1.176    0.150
       114  -9.9610     83.6344    186.7128   1.2207185411e+02   2.6447166377e+01    0.2100901    0.1653967  72.18 0.0002950764    1.104    0.094
       115  -9.4277     29.8227    184.0839   1.3254929488e+02   3.3559861392e+01    0.1954151    0.1757393 -57.33   0.00151888    1.554    0.356
       116  -9.2013     24.1093    184.0680   1.3364341008e+02   3.4134904146e+01    0.1547999    0.1275607 -82.88 0.0005661352    1.264    0.209
       117  -8.8434    127.6370    182.7860   1.1245683018e+02   2.0244557449e+01    0.1667453    0.1209661 -71.58  0.000316018    1.586    0.370
       118  -8.9233     36.5170    182.4650   1.3112057759e+02   3.3182142985e+01     0.176269   0.08584047 -64.34   0.00095843    1.977    0.494
       119  -8.3224      8.6256    182.2503   1.3644302859e+02   3.5922833850e+01    0.1113581   0.05639057  63.06 0.0006954751    1.640    0.390
       120  -9.0865     85.9817    180.0232   1.2077893544e+02   2.7437713088e+01     0.195279    0.1266253  69.95 0.0003485934    1.566    0.362
       121  -8.9026     27.2952    180.0373   1.3273686839e+02   3.4620392460e+01    0.1552342    0.1126385  87.54 0.0003770075    1.095    0.087
       122  -8.8483     47.5354    179.7178   1.2868572857e+02   3.2511749486e+01    0.1869406   0.09426094  38.58 0.0006432029    1.998    0.500
       123 -11.1939     65.1590    175.6556   1.2463686589e+02   3.1188342424e+01    0.2756245    0.2057119  49.02 0.0004613349    1.298    0.229
       124 -11.0329     61.0708    172.7005   1.2517298876e+02   3.2319514785e+01    0.2676214     0.229036 -58.13 0.0009006247    1.405    0.288
       125  -9.5639    103.0229    176.0040   1.1663442779e+02   2.5648463726e+01    0.1883076    0.1667957  70.31  0.001203351    1.019    0.019
       126 -10.5548     75.0734    174.6254   1.2242055230e+02   3.0078013259e+01    0.2455693    0.1948544  68.66 0.0004416436    1.097    0.089
       127 -10.1906     19.1683    173.6849   1.3386668750e+02   3.6679308003e+01    0.3605358    0.1746158  77.60  0.001318052    1.916    0.478
       128 -10.6286     12.1932    173.0935   1.3519505211e+02   3.7425758939e+01    0.2955356    0.1594391 -61.46  0.001749724    1.931    0.482
       129 -11.9976    248.0794    172.4669   8.7651969930e+01  -2.0404072243e-01    0.6200153    0.4043566 -24.89  0.003558112    1.471    0.320
       130 -11.3318    241.0167    150.5067   8.4286404364e+01   4.0251037239e+00    0.3883814    0.2473075 -12.51  0.001606812    1.670    0.401
       131 -11.6334    245.1276    162.2909   8.6080527307e+01   1.6500089509e+00     0.433873     0.253393 -27.13    0.0022718    1.644    0.392
       132 -10.0774    249.4306    161.6681   8.5247702949e+01   9.6997943433e-01    0.2650279    0.2114371 -21.99   0.00163137    1.213    0.176
       133 -11.2630    245.5070    156.4414   8.4802809651e+01   2.3741629937e+00    0.7660347    0.4221059  63.55  0.003053037    3.714    0.731
       134 -11.8936      2.3233    170.2019   1.3693039843e+02   3.8829312014e+01     0.668656    0.2332508 -86.46  0.002619592    2.483    0.597
       135 -11.0691     14.1335    167.0378   1.3439601891e+02   3.8483536996e+01    0.3149467    0.2147113  47.88  0.001634991    1.474    0.322
       136 -11.6900      7.4031    166.1047   1.3567978495e+02   3.9244143480e+01    0.3036023    0.2450227 -54.40  0.002330414    1.630    0.386
       137  -9.4223     46.0110    172.5197   1.2831852350e+02   3.4158554441e+01    0.1965464    0.1400203 -81.93  0.001295261    1.216    0.178
       138  -9.2280     47.8776    168.8342   1.2756211027e+02   3.4711484079e+01    0.2111931    0.1545896  54.62  0.001395177    1.282    0.220
       139  -8.7294     27.5004    172.4896   1.3211248849e+02   3.6125894632e+01    0.1708941    0.1021639  70.06 -1.954235e-05    1.453    0.312
       140  -8.9818     28.6398    169.6656   1.3165138819e+02   3.6592607938e+01    0.1646248     0.118285 -53.44 0.0009564173    1.735    0.424
       141  -8.3638     52.6536    170.7414   1.2674600184e+02   3.3756292683e+01    0.1029991   0.09202908 -37.97  0.000439905    1.597    0.374
       142 -11.3606     82.9475    166.2002   1.1963287357e+02   3.0716059203e+01    0.4686356    0.4104031  29.77  0.003004497    1.412    0.292
       143  -9.5771     64.9707    167.0693   1.2369145478e+02   3.2998087444e+01    0.1803647    0.1495541  79.40            0    1.015    0.014
       144 -10.7943     44.1291    162.6362   1.2773380787e+02   3.6438553980e+01     0.511736    0.2413879 -82.70  0.001856593    2.118    0.528
       145  -8.6502     60.8435    164.6430   1.2430742975e+02   3.4036527020e+01    0.1652295    0.0969583  51.50 0.0003563797    1.601    0.375
       146  -8.6235     67.9841    163.8097   1.2263305385e+02   3.3293416941e+01    0.1549701   0.09098084  40.34 0.0004342831    1.724    0.420
       147 -10.2317    192.3013    248.8744   1.0980043151e+02  -4.1020216041e-01    0.2008834      0.12414  44.87 0.0009267341    1.359    0.264
       148  -8.6939     52.4482    158.4759   1.2544991986e+02   3.6375114491e+01     0.121946    0.1008144  86.99 0.0001952465    1.014    0.014
       149  -9.8183     15.9897    158.3060   1.3336232975e+02   4.0127327955e+01    0.1475958    0.1179732  74.35 0.0003819028    1.122    0.109
       150 -10.2855     31.9389    154.9974   1.2963557684e+02   3.9346866027e+01    0.3030081    0.1387476 -57.08   0.00128031    2.196    0.545
       151  -8.6584    228.3499    155.2408   8.7454438399e+01   5.7421998327e+00    0.1833641     0.118839 -38.83  0.000523319    1.642    0.391
       152  -8.7260     84.5549    155.4520   1.1773836931e+02   3.2765278682e+01    0.1292244    0.1153757  84.96 -7.916938e-06    1.026    0.026
       153 -10.5597     24.9146    155.0095   1.3117523455e+02   4.0019923658e+01    0.3392439    0.1588474  28.26  0.001769526    2.677    0.626
       154  -9.3134     89.9622    153.4720   1.1618230324e+02   3.2378132831e+01    0.1955617    0.1648792 -77.50  0.000504349    1.119    0.106
       155 -10.8054    249.6330    150.9225   8.2965737997e+01   2.3783356848e+00    0.4317133    0.2571065 -26.70  0.001967669    1.572    0.364
       156 -11.9566    247.8167    142.3978   8.1419446774e+01   3.8919482816e+00    0.7350648    0.5985394  50.33  0.004345473    1.436    0.304
       157 -12.9491    248.9013    132.7033   7.9101658893e+01   5.0542817796e+00     1.462495    0.5596806 -32.11  0.005944541    2.404    0.584
       158 -12.1933    247.9730    112.9216   7.4704981614e+01   8.0842971822e+00    0.8832993    0.5493749  -3.31  0.004037895    2.078    0.519
       159  -9.9635     96.2371    150.6660   1.1426341180e+02   3.2002021938e+01    0.2824217    0.2235936 -51.34 0.0008899648    1.349    0.259
       160  -9.0598     99.2076    146.6118   1.1287325414e+02   3.2398412973e+01    0.2649266    0.1287905  32.66   0.00110034    2.517    0.603
       161  -9.0421     60.8387    151.2087   1.2264465554e+02   3.6930182512e+01    0.2347619    0.1121026  68.98 0.0009679096    3.019    0.669
       162 -10.8471     22.4579    149.5796   1.3122350771e+02   4.1404220923e+01    0.2696629    0.2000995  69.82   0.00188258    1.204    0.169
       163 -11.7700     68.3153    144.2952   1.1991447021e+02   3.7486951886e+01     0.618619    0.3968728  80.40  0.002367422    1.750    0.429
       164 -10.1617     42.0459    147.5561   1.2656327022e+02   3.9915398238e+01    0.3874366    0.1644893  44.78  0.001942021    2.301    0.565
       165  -8.9176     58.9981    147.0019   1.2251984401e+02   3.8082894278e+01    0.2474888    0.1354991 -32.33 0.0009666499    4.197    0.762
       166  -9.7394    236.0473    145.9048   8.4123302903e+01   5.6274947283e+00    0.2448558    0.1730232  33.72 0.0007096492    1.377    0.274
       167  -9.4275    133.2399    140.7768   1.0373134427e+02   2.7545670708e+01    0.3465778    0.1885869 -58.95  0.001301175    2.143    0.533
       168 -11.7519     17.8774    140.2250   1.3139212119e+02   4.3819890510e+01    0.4421954    0.1876893  53.97  0.002301768    2.419    0.587
       169 -10.7279     12.9824    137.0729   1.3223219662e+02   4.4900703751e+01    0.1736702    0.1337265 -85.60 0.0003539772    1.024    0.024
       170 -10.1103     32.3816    140.5993   1.2804138851e+02   4.2428793591e+01    0.2822954    0.1474193  82.39   0.00145287    2.072    0.517
       171  -9.0839     37.1637    140.1833   1.2685814219e+02   4.2046116563e+01    0.1731873    0.1199247  78.81 0.0006884812    1.344    0.256
       172 -11.3741     59.8767    136.3727   1.2081212836e+02   4.0338677908e+01    0.2601625    0.2029501 -76.85 0.0002930663    1.125    0.111
       173  -9.3589    108.7711    135.9947   1.0859876597e+02   3.3085734083e+01    0.3343616     0.226707 -15.36  0.001401994    2.802    0.643
       174 -10.1554     47.8837    135.8450   1.2371022626e+02   4.1870108587e+01    0.2278275    0.1796586 -63.19  0.001167934    1.220    0.180
       175 -11.3314      2.2314    120.0041   1.3323791814e+02   4.9382030361e+01    0.3694809    0.1125531 -75.29  0.001708806    2.512    0.602
       176 -11.8077      2.1212    131.8102   1.3429728663e+02   4.6833208193e+01    0.4725015    0.2270367 -78.45   0.00279061    1.598    0.374
       177 -10.0234    249.7374    117.7391   7.5561021144e+01   7.0335025153e+00    0.3681979    0.2715534 -13.87  0.001099028    1.310    0.236
       178  -9.9629     44.8999    130.2659   1.2369660706e+02   4.3449624717e+01    0.2357193    0.1487188  83.86 0.0009354869    1.661    0.398
       179  -9.9254     59.2457    128.0508   1.1969845715e+02   4.2293023513e+01    0.1813185    0.1486849 -75.55 0.0003146274    1.061    0.057
       180 -11.5796     13.0941    128.1000   1.3135083393e+02   4.6848209312e+01    0.2974078    0.1926271 -39.80  0.001290655    2.052    0.513
       181 -12.2427     18.2615    122.0893   1.2943020799e+02   4.7772482413e+01    0.3660973    0.2915324  -5.85  0.002505549    1.851    0.460
       182  -9.5500    209.9974    125.7781   8.4126374130e+01   1.4092983915e+01    0.2491601    0.2002274 -30.01 0.0005504758    1.219    0.180
       183  -9.7312     33.4835    127.9839   1.2628072358e+02   4.5124190251e+01    0.1796646   0.08773794  84.71 0.0008103645    2.567    0.610
       184  -8.3737     51.7258    126.7003   1.2143435569e+02   4.3494573815e+01    0.1206688   0.08892726 -45.21 0.0001775084    1.533    0.348
       185 -12.0094     12.1501    154.1763   1.3385339986e+02   4.1317551465e+01    0.3026797    0.2812904 -54.73  0.001923361    1.470    0.320
       186  -8.4811     50.3159    122.6642   1.2118482926e+02   4.4570737594e+01    0.1325281   0.08720985  76.57 0.0005043874    1.695    0.410
       187  -9.8720    231.9888    116.3279   7.8034441742e+01   1.0884095159e+01     0.196782    0.1815928  12.66 0.0005562378    1.063    0.059
       188 -12.5615      9.5515    113.8337   1.3075341652e+02   5.0249025044e+01    0.4051217    0.2645308 -85.67  0.001910445    1.261    0.207
       189  -9.8051    167.8993    113.0951   8.9422451459e+01   2.5762616185e+01    0.3232794    0.2670518 -83.37 0.0009783484    1.530    0.346
       190  -8.8529    203.4977    111.5091   8.1839789898e+01   1.7922066042e+01    0.1506657    0.1393032   4.90 -8.040833e-05    1.062    0.058
       191  -8.5446     29.3170    109.3361   1.2485841221e+02   4.9708482962e+01    0.1246627   0.07823934 -45.81 0.0005174901    1.698    0.411
       192 -11.6569      7.6698    108.0141   1.3060228164e+02   5.1662983359e+01    0.3339506    0.1960889   8.59  0.001992532    2.567    0.610
       193 -12.4414    247.9936    100.3727   7.1722216816e+01   9.9038552493e+00    0.7607556    0.6536631 -44.81  0.004424674    1.214    0.176
       194  -9.8684     35.2968    107.1090   1.2284764403e+02   4.9667139065e+01    0.1896068    0.1701475  64.53 0.0003897724    1.229    0.187
       195  -8.4138     71.7523    100.0047   1.1094430978e+02   4.7028077968e+01    0.1673781    0.1052636 -57.29 0.0002386983    1.427    0.299
       196 -10.1499     16.9029     99.1107   1.2690244988e+02   5.3007968883e+01    0.1764991    0.1351826  86.33  0.000295804    1.251    0.201
       197  -9.5640     21.3064     93.3775   1.2475023215e+02   5.3964132226e+01    0.1910594    0.1126962 -43.84 0.0005884292    1.751    0.429
       198 -11.3661     10.5869    150.1515   1.3387532887e+02   4.2292350057e+01     0.278771    0.2321602  -6.75 6.593642e-05    1.910    0.477
       199 -10.2713    250.1470     86.6252   6.8094713026e+01   1.1428973721e+01    0.2417393     0.152981 -25.23 0.0006587129    1.487    0.327
       200 -11.6646    199.3447    246.5155   1.0832018538e+02  -1.2190653412e+00    0.3895882    0.2021362  44.29  0.002338914    1.588    0.370
       201 -10.7403     18.2668     26.2576   1.0963279629e+02   6.8311641861e+01    0.2932295    0.1670921  46.00  0.001604658    2.859    0.650
       202 -10.0318     73.6799    244.3102   1.2924036473e+02   1.7620763435e+01     0.277998    0.1833892 -76.81  0.002055872    1.637    0.389
       203  -9.4212    132.4906    223.9506   1.1708154011e+02   1.2373386139e+01    0.1567161    0.1430651  65.33 0.0008275205    1.158    0.136
