#   1 NUMBER                 Running object number                                     
#   2 MAG_AUTO               Kron-like elliptical aperture magnitude                    [mag]
#   3 X_IMAGE                Object position along x                                    [pixel]
#   4 Y_IMAGE                Object position along y                                    [pixel]
#   5 X_WORLD                Barycenter position along world x axis                     [deg]
#   6 Y_WORLD                Barycenter position along world y axis                     [deg]
#   7 A_WORLD                Profile RMS along major axis (world units)                 [deg]
#   8 B_WORLD                Profile RMS along minor axis (world units)                 [deg]
#   9 THETA_WORLD            Position angle (CCW/world-x)                               [deg]
#  10 FWHM_WORLD             FWHM assuming a gaussian core                              [deg]
#  11 ELONGATION             A_IMAGE/B_IMAGE                                           
#  12 ELLIPTICITY            1 - B_IMAGE/A_IMAGE                                       
         1 -10.6042     34.0224     62.0867   1.1092537871e+02   6.1215219358e+01     3.335786     0.624746 -46.40  0.007785015    7.967    0.874
         2 -10.9886      4.4677      6.5868   1.1191963614e+02   7.6211760392e+01     1.115098    0.3753408 -55.80  0.004257867    2.098    0.523
         3 -11.1573     23.9102     32.1752   1.0794198832e+02   6.9202588685e+01     1.612278    0.4286018 -49.95  0.003887685    2.923    0.658
         4 -10.0072     10.1593     18.8375   1.1214737377e+02   7.3201713624e+01    0.8104311    0.2825167 -29.85  0.003028399    4.094    0.756
         5 -10.8114     37.2431      9.6805   8.9683326185e+01   7.2490443112e+01    0.9363461     0.482293 -54.59  0.001829502    2.270    0.559
         6 -10.9530     21.1302      7.2631   9.9266338128e+01   7.4850849536e+01     1.248962    0.8067917  55.80  0.006036643    2.524    0.604
         7 -10.8003      6.6621     29.6356   1.1743252442e+02   7.0901680034e+01    0.7159247    0.4415779 -77.20  0.002482142    1.452    0.311
         8  -9.0175     72.1187      8.2102   7.1161794577e+01   6.6535784376e+01    0.2321747    0.1807904 -10.23 0.0004688101    1.280    0.219
         9  -9.5703     77.8470      4.6413   6.6912758342e+01   6.5753093165e+01    0.5452254    0.3442204 -17.57  0.001468244    1.623    0.384
        10 -10.4520     73.6135     17.6544   7.5836969913e+01   6.4800720195e+01     1.390067    0.4281118 -28.87  0.004019705    4.463    0.776
        11 -10.1292     69.5725     41.0467   8.8508075415e+01   6.1239108242e+01     1.050863    0.3821404 -45.21  0.002457669    2.586    0.613
        12  -9.8621     79.4964     23.9889   7.6765548259e+01   6.2533723637e+01    0.6784267    0.3483572  28.60   0.00178898    2.912    0.657
        13 -10.8611    133.9987     31.0539   6.3917467553e+01   4.8192797603e+01    0.4403103    0.3168969  -3.16  0.001980782    1.667    0.400
        14  -9.4499    101.0421     32.5950   7.3301993822e+01   5.6283577214e+01    0.6285329    0.2502751 -36.69  0.001535403    2.441    0.590
        15  -9.2014    102.9123     21.1535   6.7526064296e+01   5.7608335345e+01    0.3907212    0.2536707 -33.69 0.0007245225    1.531    0.347
        16 -10.4929     50.8842     15.2665   8.5063437885e+01   6.9419094875e+01     1.497226    0.8686756   0.04   0.00569101    3.512    0.715
        17 -10.0410     60.8633     31.8021   8.8389548561e+01   6.4618297046e+01     1.093379    0.4328336 -38.83  0.003314252    2.599    0.615
        18 -10.0487     46.2983     29.7085   9.4616913401e+01   6.7271504820e+01    0.4684851    0.2926544 -64.90   0.00120618    1.947    0.486
        19 -10.1275     64.3864     13.6566   7.7572886541e+01   6.7286139057e+01    0.5542771     0.351192 -20.19  0.001969778    1.716    0.417
        20 -10.2117    152.3404     27.6555   5.8932241409e+01   4.3694126103e+01    0.5324849    0.3783874 -35.11  0.002492469    1.399    0.285
        21  -9.7431    119.1333     19.9402   6.2689195578e+01   5.3643051694e+01    0.7195851    0.3485477 -17.22  0.002036024    2.478    0.596
        22  -8.8428    115.3548      4.4091   5.6407390176e+01   5.6452006153e+01    0.3498372    0.2206407 -39.45 0.0006882752    1.666    0.400
        23  -9.0204    114.2679     10.0102   5.9300274377e+01   5.6138049130e+01    0.3739642    0.2124542  41.62  0.001043981    1.795    0.443
        24  -8.7600    112.4550     15.6643   6.2380721570e+01   5.5934358951e+01     0.355948    0.2337665 -40.68 0.0008220365    1.590    0.371
        25  -9.1373     96.8744      4.8139   6.1066844921e+01   6.1196563518e+01    0.5543731    0.2837182 -39.65  0.001511479    2.084    0.520
        26  -8.9005    101.9176      8.0874   6.1407439680e+01   5.9554416438e+01    0.3302947    0.2167132 -39.69 0.0008067434    1.608    0.378
        27  -8.3629    104.2366      2.2351   5.7842035665e+01   5.9596758303e+01    0.3589537    0.2403475  24.11  0.001684422    1.638    0.390
        28  -8.8587     95.9342     16.4926   6.7348788705e+01   5.9964647596e+01    0.4294171    0.1858518 -32.80  0.001012742    2.238    0.553
        29  -8.1469     97.5011     11.5247   6.4376442548e+01   6.0241693509e+01    0.2583898    0.2121654  35.85 0.0008076207    1.188    0.158
        30  -9.5874     85.2232     12.9732   6.8999564838e+01   6.2972417202e+01    0.4870114    0.3244872 -63.13  0.001434095    2.252    0.556
        31  -7.9823     80.5783     12.7707   7.0527942068e+01   6.4049561474e+01    0.2734705    0.2076413 -47.80  0.001407639    1.488    0.328
        32  -8.7179    125.1872     12.9913   5.8263241908e+01   5.2883628139e+01    0.3317676    0.1827701 -40.83 0.0005916852    1.892    0.472
        33  -9.0456    126.8671      9.1467   5.6228809931e+01   5.2854014724e+01    0.2819041    0.2074561  50.22 0.0004548956    1.299    0.230
        34  -8.8301    126.0006      4.7572   5.4444930053e+01   5.3540992625e+01    0.4286222    0.2404355  -1.61  0.001547008    2.210    0.548
        35  -9.0982    141.6389     12.7724   5.5043756883e+01   4.8406200358e+01    0.2715973    0.1817225 -34.30 0.0007212622    1.502    0.334
        36  -9.1896    136.2816      1.5524   5.1280218715e+01   5.1009419092e+01    0.4598787    0.2432573  70.65  0.001738078    1.814    0.449
        37 -10.3537    133.2151     10.7622   5.5718208637e+01   5.0945354433e+01    0.6322273    0.2431773 -39.05   0.00223696    2.619    0.618
        38  -9.4881    110.0741      5.1041   5.7909674355e+01   5.7778326272e+01    0.6148109    0.2979948 -22.99  0.002506021    2.089    0.521
        39  -9.0216     89.2377      3.0397   6.2280307835e+01   6.3275630237e+01    0.4278384    0.2649967 -21.14    0.0012456    1.623    0.384
        40  -7.6361    153.6319      5.3106   5.0242419890e+01   4.5825076000e+01    0.1637383    0.1039137 -61.14 0.0002874198    1.764    0.433
        41  -9.7393     63.8700      3.0053   7.1404915480e+01   6.8971634135e+01    0.4045065    0.2741099 -53.60  0.001863342    2.001    0.500
        42  -8.3347    172.0808      2.2370   4.6863928094e+01   4.0980773134e+01    0.2250184    0.1984466 -33.88 0.0003445637    1.141    0.124
        43  -7.6023    180.4160      2.2787   4.6012997773e+01   3.8694993601e+01    0.1939449    0.1279105 -34.68 0.0006513668    1.460    0.315
        44  -8.4610    143.1343      5.2304   5.1737822955e+01   4.8761216014e+01    0.3007464    0.1598657 -47.86 0.0008425503    2.053    0.513
        45  -7.9867    151.4656      1.5081   4.9064269231e+01   4.6777661219e+01    0.1469294    0.1401589 -87.69 2.473796e-05    1.025    0.025
        46 -11.0220    133.5973    109.5899   8.9124084778e+01   3.3951806035e+01    0.8720837    0.4481295 -48.57  0.003115065    2.069    0.517
        47  -9.1072    240.0785    249.5575   9.3014465449e+01  -2.8047856062e+00    0.1675776    0.1182682  11.99 0.0003959962    1.161    0.139
        48  -8.9529    220.5279    250.3319   9.6051252454e+01  -4.9248051941e-01    0.1853174   0.06621891  36.30 0.0008399989    1.984    0.496
        49 -10.4749    202.2867    249.7274   9.8825078157e+01   1.8616498998e+00    0.4532782     0.131311  37.66  0.002362734    2.433    0.589
        50 -10.3721    128.2134    101.1011   8.8404074666e+01   3.6803320257e+01     0.869776    0.5558944 -27.52   0.00263768    2.047    0.512
        51 -10.0024    108.7142    114.5489   9.6848379663e+01   3.7838871820e+01    0.5667101    0.3707759 -84.29  0.001477123    2.304    0.566
        52 -10.7644    108.8163    100.7641   9.3646478311e+01   4.0820500651e+01     1.060388    0.7792506 -86.87  0.004943887    1.793    0.442
        53  -8.4648     82.8915    131.5225   1.0719586838e+02   3.8450835936e+01    0.5591095     0.272666  67.17  0.002014783    3.461    0.711
        54  -9.0009     64.4876    132.4901   1.1244998018e+02   4.0837868271e+01     0.217001    0.1220074  35.62  0.001080406    1.735    0.423
        55 -10.4305     70.2862    126.2044   1.0990823073e+02   4.1482411763e+01    0.5944301    0.5151203 -58.75  0.001530988    1.254    0.202
        56 -10.1218     58.3457    124.5973   1.1313205755e+02   4.3431396435e+01    0.6348855    0.3202627  70.34  0.002268266    2.588    0.614
        57  -9.6814     98.4947    128.5965   1.0243562584e+02   3.6596210757e+01    0.5659884    0.3204835  69.69  0.002260389    2.727    0.633
        58  -7.7194    236.4611    129.5555   7.3347593773e+01   9.7826889664e+00    0.1292082    0.1070544   4.06 7.712846e-05    1.014    0.014
        59  -9.6783     41.7658    122.4209   1.1773808625e+02   4.5851958889e+01     0.547591    0.2426193  82.69  0.002219799    2.935    0.659
        60  -9.7867     27.6391    123.1545   1.2197070515e+02   4.7056126264e+01    0.6032174    0.2251383  62.67  0.002284183    3.023    0.669
        61 -10.2432    140.7192    118.5322   8.9466039740e+01   3.0712073216e+01     0.416373    0.3188588 -83.88  0.001112848    1.815    0.449
        62  -8.4904    129.5242    124.6184   9.3559555822e+01   3.1758154735e+01    0.2938191    0.2056923 -12.21 0.0009378825    2.267    0.559
        63  -8.8395    158.0485    122.0335   8.6247482587e+01   2.6464204463e+01    0.3929464    0.2489808  77.34  0.001451249    3.295    0.696
        64  -8.2081      1.3983    116.1979   1.2916443329e+02   5.0595388116e+01    0.2800728   0.09381457 -87.87  0.001214148    2.553    0.608
        65 -10.0770     91.8229    113.1294   1.0134278649e+02   4.1152157386e+01    0.6087654    0.4258159  63.64  0.001631463    1.563    0.360
        66  -8.9217     93.6894    103.4712   9.8730096099e+01   4.3020001276e+01    0.6780103    0.3791416  19.69  0.002468992    3.212    0.689
        67  -8.4778     21.5292    116.4652   1.2320188272e+02   4.9130332463e+01    0.2128849   0.08496889  40.05  0.000767277    2.256    0.557
        68  -9.7071     14.6874    112.0266   1.2492574603e+02   5.0690376733e+01    0.5941072    0.2134457  66.49    0.0023415    3.072    0.674
        69 -10.1652     78.1797    112.9836   1.0536166092e+02   4.3377747398e+01    0.5214505    0.3163276  87.09  0.001677723    2.266    0.559
        70  -7.5976    167.3638    114.1552   8.2364334186e+01   2.5884256357e+01    0.2016323    0.1334227 -48.67 0.0005169986    1.714    0.417
        71  -9.5987     67.9025    103.6753   1.0681647832e+02   4.7075253675e+01    0.6922659    0.4620887  19.53  0.003381849    1.944    0.486
        72  -9.3049     59.1683    109.2216   1.1058025819e+02   4.6936229745e+01    0.4005342    0.2282221 -80.49  0.001325715    1.888    0.470
        73  -8.5751    158.8808    112.0294   8.3704355097e+01   2.8092263440e+01    0.2195683    0.1978372 -83.61 0.0005018864    1.326    0.246
        74  -9.3528     34.7702    109.7908   1.1842125233e+02   4.9537094166e+01    0.4247921    0.2133104  82.47  0.001958313    2.194    0.544
        75  -8.6508    149.8452    110.0806   8.5293112081e+01   3.0403715769e+01    0.2230151    0.2031129 -78.63 0.0006091611    1.260    0.206
        76  -8.8780     40.1976    107.3571   1.1637766225e+02   4.9578772390e+01    0.3161674     0.194583  73.17  0.001304219    1.676    0.403
        77 -10.8406     44.8045    102.4960   1.1418463474e+02   5.0259014054e+01    0.8158187    0.3604273  66.20   0.00296502    3.364    0.703
        78  -8.6458    161.9526    105.9592   8.1518468293e+01   2.8510947791e+01    0.2213623    0.2111643  17.18 0.0003643988    1.018    0.018
        79  -9.9678    139.4899    104.6895   8.6442265445e+01   3.3674216182e+01    0.5807875    0.3275277 -55.98 0.0007561031    2.196    0.545
        80  -9.0134    140.9891     99.4871   8.4735607054e+01   3.4364786525e+01    0.3770379    0.2082798  26.92  0.001349047    2.787    0.641
        81  -7.9478     78.4307    105.0762   1.0375418992e+02   4.5179541236e+01    0.3184768    0.2134774 -28.62  0.001445012    2.222    0.550
        82  -9.5185     81.4695    100.1751   1.0177294211e+02   4.5841942183e+01    0.4264158    0.2730525 -78.35  0.001085883    1.881    0.468
        83  -7.9762     81.9835     94.4890   1.0033495968e+02   4.7084140912e+01    0.3921855    0.2628559  -9.81  0.001591871    2.837    0.648
        84 -10.3671    193.3338    249.4118   1.0022077288e+02   3.0466268305e+00    0.3838407    0.1013024  38.35  0.001884371    2.669    0.625
        85  -7.2348     60.3403    249.3115   1.2296709765e+02   1.9889106669e+01   0.08613718   0.07094406  19.95 0.0005281158    1.695    0.410
        86  -9.6292     15.9921     70.6385   1.2017477358e+02   6.0550625576e+01    0.4456176    0.1953216 -66.63  0.001076164    1.839    0.456
        87  -9.6775     17.0091     61.3940   1.1833247191e+02   6.2739329141e+01    0.6549534     0.301046 -69.53  0.003197165    1.775    0.436
        88 -10.8496     21.8768     53.6454   1.1464152725e+02   6.4285274922e+01    0.8473953    0.4175645  78.91  0.002691005    3.027    0.670
        89 -10.9028     21.0956    101.4238   1.2194283071e+02   5.2723394224e+01     1.180604    0.4456898  76.96  0.003080946    3.482    0.713
        90 -10.6692     25.4196     78.2939   1.1750783128e+02   5.8001298202e+01    0.7756787    0.5194134  78.57  0.003573508    1.504    0.335
        91  -9.9522    161.5641    249.3426   1.0545689339e+02   7.2354633217e+00    0.4126104   0.08320325  42.71   0.00165315    3.930    0.746
        92  -9.5232    175.0260    244.7946   1.0270523301e+02   5.9240539520e+00    0.1495567    0.1389826  69.21  0.001284155    1.677    0.404
        93  -7.6448     97.7255    241.4122   1.1589426146e+02   1.6570317746e+01    0.1389966    0.1220729 -20.07 0.0006776645    1.751    0.429
        94 -10.0930    133.4319    235.1142   1.0891800418e+02   1.2711775691e+01    0.1927209    0.1434184  35.49 0.0002987366    1.080    0.074
        95 -10.1561     12.3374     45.7621   1.1774196859e+02   6.6799101476e+01    0.7855915    0.4057683 -15.65  0.003077079    2.659    0.624
        96  -9.9155     34.5557     90.7753   1.1596884414e+02   5.4151300252e+01    0.6179922    0.2667534  89.55  0.001964087    3.064    0.674
        97  -9.9239     36.8572     81.1782   1.1355803079e+02   5.6277756466e+01     1.064942     0.509077 -21.81   0.00334143    5.783    0.827
        98  -9.7928    188.0816    233.6648   9.9201539530e+01   5.3162693021e+00    0.2295735    0.1900563  32.99  0.001509291    1.286    0.222
        99  -8.1828      1.8292    105.8391   1.2849084319e+02   5.2952270413e+01    0.1736325    0.1110561  63.60 0.0008215962    1.369    0.270
       100  -9.4678    149.5774    103.2776   8.3650808311e+01   3.1742712556e+01     0.393783    0.2985938 -61.26 0.0009518929    1.588    0.370
       101  -7.6403     14.6448    104.9492   1.2437352867e+02   5.2358163792e+01    0.1923755    0.1231179 -63.79 0.0007257801    1.488    0.328
       102  -9.3632      6.3704    103.6080   1.2692177498e+02   5.3211012027e+01    0.4160885    0.1830662  61.08  0.001510762    2.150    0.535
       103  -8.0725    166.0004    104.0170   8.0144478539e+01   2.7954549615e+01    0.2180668    0.2110377 -52.25 0.0005139214    1.124    0.110
       104  -9.9794     65.6775    111.0022   1.0883669679e+02   4.5650539984e+01    0.7160212    0.4811158 -89.30  0.001078435    1.617    0.382
       105  -8.9597    158.9495    101.2112   8.0968234424e+01   3.0034227310e+01    0.2952604    0.2136686 -50.94 0.0004200347    1.539    0.350
       106  -9.7644    218.2954    100.0916   6.9444185891e+01   1.7125535057e+01    0.2290856    0.2077528  20.52 0.0002283214    1.084    0.078
       107  -9.3887     94.3760     97.3069   9.7092389531e+01   4.4297258419e+01    0.3279746    0.2504026 -73.89 0.0006670602    1.433    0.302
       108  -8.7983     95.6800     91.3029   9.5205167469e+01   4.5418167299e+01    0.4837104    0.3222303 -13.42  0.001900176    2.815    0.645
       109  -7.5126     63.4794     81.9669   1.0375638417e+02   5.2893798020e+01    0.2055542    0.1315153 -74.32 0.0008027187    1.675    0.403
       110 -10.3696     63.0111     95.8266   1.0691027275e+02   4.9630858311e+01    0.5765082    0.3356455  79.82    0.0015149    2.447    0.591
       111  -9.4205     65.4142     85.7852   1.0394546492e+02   5.1703224920e+01     1.015284    0.4371897 -38.55  0.003375959    3.829    0.739
       112  -8.0902    222.9026     96.5706   6.7867788595e+01   1.6644650506e+01    0.2260011    0.1745408  -8.48 0.0004344316    1.247    0.198
       113  -8.4572    150.0005     96.9487   8.1895426959e+01   3.2837309552e+01    0.3018946    0.2313815   7.34 0.0009813117    1.671    0.401
       114  -9.3221    150.5577     89.5043   7.9729446368e+01   3.4096980484e+01     0.638773    0.2765352 -28.94  0.001808774    3.139    0.681
       115  -9.7294    240.4086     95.6141   6.5108791048e+01   1.3240879320e+01    0.2810912    0.2006467  10.78  0.001548772    1.480    0.324
       116  -8.2365    164.3765     94.4786   7.7992580319e+01   2.9997649857e+01    0.2634363    0.2230981 -43.30 0.0006666136    1.229    0.186
       117  -9.3649    138.8224     92.6119   8.3431171692e+01   3.6188310452e+01    0.4163107    0.2964453 -72.45 0.0006715577    1.981    0.495
       118  -9.9695    140.3353     83.2545   8.0402643408e+01   3.7650768264e+01     1.193567    0.4340637 -37.98  0.003899554    2.866    0.651
       119  -8.9143    139.8658     75.6121   7.8227607769e+01   3.9207531859e+01    0.4147009    0.2204769 -37.16  0.001642628    1.915    0.478
       120 -10.1665      4.3658     89.4830   1.2657938290e+02   5.6665383729e+01    0.6468017    0.2386591  78.58  0.002097896    2.804    0.643
       121  -9.5647      5.7058     78.5439   1.2516722833e+02   5.9218424734e+01    0.6354123    0.3127447 -29.09  0.003073414    2.872    0.652
       122  -7.6625    171.4127     95.5274   7.6785387843e+01   2.8195613008e+01    0.1499855    0.1389142  10.40 -9.784976e-05    1.069    0.065
       123  -9.4522    110.8540     89.8686   9.0250418370e+01   4.2779944436e+01     0.856374    0.3955068  30.41  0.002766343    3.430    0.708
       124  -8.1433     47.5278     90.7259   1.1132059552e+02   5.2810414039e+01    0.3238421    0.1074399  34.66  0.001257656    2.910    0.656
       125 -10.1474     47.8794     84.4006   1.1001024643e+02   5.4311696882e+01    0.5688899    0.3396372  79.56  0.001699125    2.121    0.529
       126  -9.2541     48.4865     77.6657   1.0840093595e+02   5.5881571649e+01    0.6126723    0.4102517 -18.22  0.002949406    2.223    0.550
       127  -6.9575    220.7188     89.6478   6.6481862939e+01   1.8033956712e+01    0.1444024    0.1004881  10.57 0.0007014677    1.653    0.395
       128 -10.1280     85.3018     86.5439   9.7315227077e+01   4.8366446076e+01    0.4696901    0.3305538 -89.45 0.0008060242    1.880    0.468
       129 -10.2601      4.9333     41.7329   1.2084863099e+02   6.8121112130e+01    0.6566464    0.2965051 -78.31   0.00209428    1.904    0.475
       130  -7.9923    163.4592     87.0251   7.6138831271e+01   3.1516262359e+01    0.2248388    0.1481854 -36.69 0.0004660629    1.527    0.345
       131  -9.5570     87.2185     78.7196   9.4577459233e+01   4.9818736522e+01    0.6410899    0.4087977  15.71  0.001792329    2.555    0.609
       132 -10.3777    104.0313     82.6422   9.0283307786e+01   4.5728568449e+01    0.5357741    0.3450418 -60.60 0.0007862445    1.743    0.426
       133  -9.8338    105.0304     71.3041   8.6571498991e+01   4.7957403302e+01    0.8127121    0.5967589 -27.29  0.003791367    1.592    0.372
       134  -8.7220    244.6327     83.7700   6.1722350115e+01   1.3857544812e+01    0.1909517    0.1048582 -33.55 0.0006038547    1.628    0.386
       135  -7.7934    170.5565     83.3261   7.3605723334e+01   3.0459803639e+01    0.2803966    0.1408506 -39.13 0.0008779826    1.982    0.496
       136  -8.4130    157.6476     83.5429   7.6418616547e+01   3.3509418355e+01    0.2756445    0.1837546 -40.81 0.0005686504    1.519    0.342
       137  -8.8524    119.1670     80.6240   8.5236071596e+01   4.2971879270e+01    0.3865703    0.2528474 -57.09 0.0008776275    1.727    0.421
       138  -8.1388    119.9917     76.0038   8.3607110091e+01   4.3734226418e+01    0.3010185    0.2201603  36.53 0.0007030301    1.450    0.310
       139  -8.8580    149.9603     80.0077   7.7132671880e+01   3.5982345859e+01    0.4950218    0.2196465 -39.65  0.001296442    2.255    0.556
       140  -8.9962     74.2131     80.2024   9.9470939429e+01   5.1693144435e+01    0.3867516    0.2401484 -74.04  0.001189528    1.950    0.487
       141  -8.1876     75.3337     74.3254   9.7492133671e+01   5.2883100257e+01    0.3006604    0.1996178  -1.49  0.001214979    2.758    0.637
       142  -7.8486    184.1566     78.2564   6.9529170030e+01   2.8014955581e+01    0.2546624    0.1990975 -14.25 0.0007602011    1.346    0.257
       143  -7.6942    174.2490     78.9307   7.1608472558e+01   3.0297782780e+01    0.1990678    0.1267104 -34.33  0.000450621    1.553    0.356
       144  -7.8120    166.4740     78.9604   7.3190928457e+01   3.2178057175e+01    0.2273631    0.1494313 -33.36   0.00100927    1.524    0.344
       145  -7.3619    162.9784     79.2274   7.4004260264e+01   3.2980546955e+01    0.1926662     0.125673  53.43 0.0002607862    1.530    0.347
       146  -8.9171    157.3816     77.2256   7.4624423249e+01   3.4686693778e+01    0.4576429    0.2307064 -52.19  0.001218953    2.567    0.610
       147  -8.4965    130.5488     63.7699   7.6795163229e+01   4.3656734172e+01    0.5931558    0.2858626 -48.12  0.001696296    2.295    0.564
       148  -9.3604    127.3823     75.2374   8.1334370297e+01   4.2209721729e+01    0.4396637    0.2741658 -57.04 0.0009115483    1.927    0.481
       149  -8.6498    128.7050     69.4434   7.9147095271e+01   4.3026809006e+01    0.4566424    0.3002903  23.80  0.001847046    2.119    0.528
       150  -9.0064    157.4929     91.4894   7.8692833747e+01   3.2123397771e+01    0.2590561    0.2182531 -69.10 0.0005394772    1.415    0.294
       151  -9.9793     81.4355     72.3238   9.4737541250e+01   5.2304389341e+01    0.5069098    0.3233911 -68.85  0.001067295    1.886    0.470
       152  -9.2068     84.0585     63.9181   9.1203213902e+01   5.3714803149e+01    0.4887983    0.3387232 -17.75  0.002037694    2.105    0.525
       153  -9.0523    115.2921     72.8076   8.3958143427e+01   4.5429640543e+01    0.3921026    0.3003049 -45.36   0.00112979    1.307    0.235
       154 -10.0216     62.6161     60.9765   9.8464734900e+01   5.7980937852e+01    0.8093357    0.3059856  33.32  0.002389254    2.961    0.662
       155 -10.5280     54.8905     70.7930   1.0429471187e+02   5.6746639631e+01    0.6861375    0.3679712  56.44  0.001119548    2.438    0.590
       156  -8.9540     55.4524     63.1228   1.0202672535e+02   5.8498760346e+01     0.389217    0.3086325 -21.29  0.001551825    1.518    0.341
       157  -8.2151    162.6566     73.0530   7.2235020279e+01   3.4109498629e+01    0.2435215    0.2155845  88.56 0.0006950314    1.282    0.220
       158  -7.9047    169.4229     71.0511   7.0245864802e+01   3.2764651933e+01    0.2296202    0.1461675 -34.59 0.0005314383    1.550    0.355
       159  -9.3020    147.0111     69.3387   7.4550714093e+01   3.8619145347e+01    0.4193296    0.2768104 -61.61 0.0009367927    1.994    0.499
       160  -8.5234    156.4126     70.2085   7.2701883795e+01   3.6139706032e+01    0.2144174     0.141387 -45.54 0.0004396943    1.580    0.367
       161  -9.8199     94.7611     68.3259   8.8928611865e+01   5.0695652018e+01    0.4952877    0.2781633 -51.87 0.0008381022    1.801    0.445
       162  -9.1839     97.4220     58.3250   8.4680567800e+01   5.2263546409e+01    0.7893791    0.4915614 -13.54  0.002877906    2.968    0.663
       163  -7.7269     23.1008     68.8915   1.1694994720e+02   6.0483047595e+01    0.1878804    0.1510484  84.14 0.0003146494    1.190    0.160
       164  -8.9383    137.8988     66.6387   7.5874599928e+01   4.1342503995e+01    0.3755758    0.2852298 -33.42  0.001024448    1.340    0.254
       165  -8.0823    138.3325     62.3415   7.4349356411e+01   4.2011157485e+01     0.261639    0.1925844  42.13 0.0007471309    1.385    0.278
       166  -9.5944    121.2849     64.3682   7.9496297916e+01   4.5745823429e+01    0.7149587    0.3632593 -37.62  0.002074512    2.004    0.501
       167  -7.7571    170.8690     64.6423   6.8009978851e+01   3.3427631590e+01     0.258839     0.170385 -36.58 0.0007496711    1.493    0.330
       168  -9.2323    109.7664     63.8999   8.2691793726e+01   4.8462312764e+01    0.3548838    0.2626722 -61.40 0.0006804859    1.552    0.355
       169  -8.7619    110.7258     58.1184   8.0398339412e+01   4.9393696365e+01    0.3792232    0.2980361 -16.23  0.000830977    1.496    0.332
       170  -7.8635    147.6166     63.8526   7.2648317470e+01   3.9430456339e+01    0.3096487    0.1957371  33.24  0.001266986    1.890    0.471
       171  -8.0278    157.5104     63.1086   7.0227017984e+01   3.7059379900e+01    0.2312236    0.1506075 -35.20 0.0007527301    1.524    0.344
       172  -9.4498     49.6973     61.3960   1.0396012606e+02   5.9656893270e+01    0.4198295    0.1319613 -56.13   0.00153438    2.686    0.628
       173  -7.4913    152.9912     60.9768   7.0508031379e+01   3.8561013322e+01    0.1872522    0.1775704 -28.70  0.000350721    1.057    0.054
       174 -10.4316     89.9561     38.1241   7.9397447142e+01   5.7809009126e+01     1.103229    0.4938101  32.48  0.003557911    3.558    0.719
       175  -9.4370     87.4542     57.2311   8.7723883608e+01   5.4513889852e+01    0.8277797    0.3834155 -35.97   0.00302567    2.559    0.609
       176 -10.1676     73.5454     56.8990   9.2796948281e+01   5.7146506586e+01     1.233027    0.4399589 -42.95  0.002258969    2.938    0.660
       177 -10.3287     85.1611     48.1088   8.5189285320e+01   5.6860776068e+01     0.477415     0.376419 -80.21 0.0009459751    1.674    0.403
       178  -9.0278     80.1544     46.3091   8.6367406190e+01   5.8206031206e+01    0.3928014    0.2248114 -42.07 0.0005598101    1.684    0.406
       179  -8.2111      9.9798     60.4394   1.2131728380e+02   6.3382602608e+01    0.2616146    0.1506945  85.12  0.001394932    1.698    0.411
       180  -7.8416    164.4077     60.2319   6.7890908045e+01   3.5766769990e+01    0.2084798    0.1943378  27.14 0.0007226414    1.094    0.086
       181  -8.1151    146.5041     59.0037   7.1299874670e+01   4.0541123508e+01    0.2426449    0.1836453 -46.57 0.0005240478    1.366    0.268
       182  -7.9188    147.6797     53.4756   6.9159887647e+01   4.1159191914e+01    0.5559258    0.2018953 -25.97  0.001636536    3.550    0.718
       183  -8.7314    139.6281     39.7146   6.6007182357e+01   4.5429970283e+01    0.5433435    0.2184757 -34.84  0.001558652    2.392    0.582
       184  -9.1580    141.7844     47.7065   6.8454743240e+01   4.3618749916e+01     0.600701    0.2414296 -36.15   0.00151158    2.406    0.584
       185  -8.8573    138.9124     56.7100   7.2296174838e+01   4.2854389511e+01     0.410845     0.223033 -44.26 0.0004896154    1.906    0.475
       186  -8.1064    138.7763     52.4135   7.0829078360e+01   4.3620261290e+01    0.2815698    0.2543466  35.33  0.001409947    1.127    0.112
       187  -8.8414    130.0573     56.9188   7.4575285753e+01   4.5026356901e+01    0.5092219    0.2307151 -32.13  0.001268564    2.368    0.578
       188  -8.3502    122.2358     41.4988   7.0905364328e+01   4.9637007884e+01    0.5315676    0.3102174  17.09  0.001790203    3.207    0.688
       189  -9.3798    118.2397     55.0922   7.7120658260e+01   4.8222966519e+01     0.579084    0.3483334 -45.43  0.001037579    1.700    0.412
       190  -9.1254    121.0939     47.0009   7.3332463707e+01   4.8988306666e+01    0.4457503    0.2542357 -35.46 0.0004689899    1.750    0.428
       191  -8.8528     43.7471     54.4313   1.0462703859e+02   6.2026387549e+01    0.6425743    0.1875151 -48.61  0.002248012    3.143    0.682
       192 -10.1546     49.8820     54.3713   1.0185554269e+02   6.1289749436e+01    0.6429412    0.3718693 -79.31  0.001983581    2.447    0.591
       193  -9.8095     56.7318     43.0854   9.4936599137e+01   6.2900101987e+01     1.046242    0.5816064  -9.07  0.003038608    5.864    0.829
       194  -9.2425    162.8308     53.4293   6.5996043550e+01   3.7234050827e+01    0.5619625    0.2529726 -28.60  0.001476505    2.280    0.561
       195  -9.0737    105.4088     52.2703   7.9902390858e+01   5.1730418326e+01    0.5514207    0.2735502 -42.25  0.001616237    1.989    0.497
       196  -8.8067    216.2246     51.7358   5.7039600326e+01   2.4013408101e+01    0.3241588    0.2275631 -17.81 0.0009752655    1.408    0.290
       197  -8.5196    157.9632     49.8701   6.5767356652e+01   3.9050669061e+01    0.3659529    0.1780398 -50.64  0.001190505    2.537    0.606
       198  -7.3515    167.3053     50.5886   6.4211127330e+01   3.6493963322e+01     0.169875    0.1114757 -59.89 0.0001606085    1.874    0.466
       199  -8.9979    130.1054     48.0259   7.1361912450e+01   4.6562028108e+01    0.3354934    0.2519247 -38.48 0.0005060987    1.332    0.249
       200  -9.1056    130.3010     44.3287   6.9933051333e+01   4.7126736224e+01    0.7679667    0.4189828  -2.96  0.002243855    4.272    0.766
       201  -8.3308    149.8318     47.9296   6.6770058178e+01   4.1482941091e+01    0.2811083    0.1970308 -50.68  0.000472941    1.544    0.353
       202  -8.6035    111.8746     47.0165   7.5943822009e+01   5.1215492143e+01    0.2796304     0.239705 -64.47 0.0003964303    1.305    0.233
       203  -8.7424    113.5467     41.7413   7.3386940201e+01   5.1744281889e+01     0.608439    0.3562826  -1.61  0.001982165    3.548    0.718
       204  -7.4924    152.8679     53.8368   6.8159344478e+01   3.9759176990e+01    0.2110333    0.1800979 -67.06 0.0003765919    1.301    0.231
       205  -8.5858    248.3173    224.4465   8.8378657384e+01  -1.8125331508e+00    0.1577538   0.08258959 -21.79 0.0006997791    1.990    0.498
       206  -7.8702    135.5946    220.6821   1.0702016913e+02   1.4323042932e+01    0.1923412    0.1054405  49.66 0.0007086069    1.653    0.395
       207  -8.6274      5.3820    221.4070   1.3163180119e+02   2.9592405553e+01    0.1140598    0.1078557  65.55  0.001063746    1.525    0.344
       208  -8.6157    243.1064    207.1498   8.6573845320e+01   3.7113058783e-01    0.1634276    0.1262177   8.32 0.0002985844    1.161    0.138
       209 -10.2178     76.2376     32.0107   8.1861378198e+01   6.1772028689e+01    0.7532365    0.4481257  60.97  0.001961243    2.332    0.571
       210 -10.0391     11.1496    207.0110   1.3021528407e+02   3.1504094251e+01    0.5058786    0.2288829  25.74  0.003037644    2.468    0.595
       211  -8.9312     84.8363     21.8282   7.3707398059e+01   6.1736589226e+01    0.2714343    0.2659106  38.14 0.0005986055    1.096    0.088
       212  -8.5888     40.1044     35.0000   1.0001575627e+02   6.6920676188e+01    0.3322711    0.2819865  37.80  0.001412919    1.332    0.249
       213  -9.9701     37.7708     42.1616   1.0373982708e+02   6.5566232760e+01    0.4027394    0.2850418  69.37   0.00144316    1.910    0.477
       214 -10.2815     35.9005     37.9785   1.0330032110e+02   6.6727597988e+01     0.461609    0.2402482 -47.27 0.0003517888    1.701    0.412
       215  -9.8153    153.0016     40.6824   6.3558951885e+01   4.1733653066e+01    0.4475523    0.3534953  -8.10   0.00166858    1.412    0.292
       216  -9.1662    110.2300     33.1047   7.0771283242e+01   5.3990584273e+01    0.3727364    0.2651287 -47.23  0.000756974    1.499    0.333
       217  -9.0667    105.0802     41.4353   7.5780160331e+01   5.3814596109e+01    0.3818211    0.2748235 -59.96 0.0007617758    1.691    0.409
       218  -8.6866    106.2406     36.2821   7.3290631059e+01   5.4433908212e+01    0.3445945    0.2644279  25.68 0.0009087578    1.468    0.319
       219  -8.5394     53.5299     39.1090   9.4898091469e+01   6.4239113908e+01    0.2374407    0.1850519 -50.27 0.0007845208    1.181    0.153
       220  -9.3476     54.8790     35.1214   9.2641336863e+01   6.4890820558e+01    0.3307931    0.2078605 -37.66  0.001272421    1.553    0.356
       221  -9.1786    144.4492     36.6220   6.3812613554e+01   4.4607188298e+01    0.3955271    0.2697228 -66.79   0.00124725    1.873    0.466
       222  -8.7685    132.7484     35.9781   6.6139995195e+01   4.7803885499e+01    0.3399552    0.2323003 -39.10 0.0004447025    1.472    0.321
       223  -9.0802    191.7058    193.7646   9.3011618946e+01   9.3429782257e+00    0.5501755     0.318549 -60.53  0.002235143    5.394    0.815
       224  -8.8238    118.9641     34.7509   6.9060816881e+01   5.1550270880e+01     0.337787     0.214445 -36.49 0.0006014808    1.567    0.362
       225  -8.5788    104.7428     15.1868   6.4162816080e+01   5.7967386127e+01    0.3316261     0.184454  24.86  0.001263009    2.494    0.599
       226  -9.5853    241.3194    189.3134   8.3971126139e+01   2.3248138919e+00     0.234403    0.2204582  15.68 0.0008961261    1.604    0.377
       227  -7.7958    102.0136     25.4948   6.9812759729e+01   5.7185082307e+01    0.3067424    0.1228903  46.68  0.001091615    2.479    0.597
       228  -7.6040    154.2660    186.6386   9.9032739122e+01   1.6361061979e+01    0.1160651   0.09198555  67.72 0.0001940259    1.642    0.391
       229  -8.1196    110.6825     26.3665   6.7712340383e+01   5.4918044234e+01    0.3733103    0.2436809  20.19  0.001567889    2.018    0.504
       230  -8.8979     40.9229     21.0602   9.3571103637e+01   6.9783800827e+01    0.2768115    0.1793313 -38.25 0.0004806589    1.406    0.289
       231  -9.0601    229.3315    184.2460   8.5011384595e+01   4.6139944397e+00    0.2132007    0.1567318  29.40 0.0001809174    1.200    0.167
       232  -9.1472    230.4264    179.4226   8.4001797275e+01   4.9704411041e+00    0.2293694    0.1642593  19.81 0.0002341396    1.112    0.101
       233  -7.5405     11.3994    179.8678   1.2931113369e+02   3.6425420654e+01    0.1338276   0.08667422 -77.84 0.0009258345    1.590    0.371
       234  -9.2546     63.2092     21.5541   8.2374520019e+01   6.6159169250e+01     0.369669    0.2548531 -55.21 0.0008535009    1.735    0.423
       235 -10.1195    100.9980    175.9945   1.0892589727e+02   2.6620898481e+01    0.1789288    0.1483882  50.49            0    1.003    0.003
       236  -9.0244    230.6040    174.5923   8.3120661610e+01   5.4746758655e+00    0.2042558    0.1561449  16.77 0.0004459783    1.033    0.032
       237  -8.6658     92.0006     21.0227   7.0841891619e+01   6.0238326462e+01    0.3994474    0.2432982  22.61  0.001353393    2.238    0.553
       238  -8.7377    144.3647     25.6270   5.9643949597e+01   4.6131339810e+01      0.27047    0.2340668 -34.42 0.0005687395    1.167    0.143
       239  -8.9277    128.2302     25.5763   6.2987541519e+01   5.0488009317e+01    0.3427669    0.2946585 -40.55 0.0007308708    1.191    0.160
       240  -7.2548    240.4221    174.5260   8.1551285037e+01   3.9761638926e+00    0.1180816   0.09021235  10.35 0.0001654307    1.011    0.011
       241  -8.4141    151.1122    173.9738   9.7730872556e+01   1.8851910581e+01     0.188001    0.1569224  35.14 0.0002821697    1.010    0.010
       242  -9.0205     84.6197    173.4334   1.1235760202e+02   2.9480669251e+01    0.2020273    0.1731709  45.96 0.0003033604    1.123    0.110
       243 -10.3761    198.4669    171.6562   8.8103925914e+01   1.1062655471e+01    0.2301015    0.1933722  20.58 0.0004668232    1.050    0.048
       244  -8.5867    132.8617     17.1970   5.8501077806e+01   5.0311661270e+01    0.2550963    0.2263562 -69.93 0.0004779416    1.208    0.172
       245  -7.1837    129.2820     16.3296   5.8861272952e+01   5.1386520012e+01    0.1578207    0.1107002  27.89 0.0002402413    1.606    0.377
       246  -8.6162    230.5964    168.9736   8.2106853272e+01   6.1058335048e+00    0.2979265   0.08187757 -40.93 0.0009487136    6.390    0.843
       247  -8.0050     10.9697    171.0000   1.2908160466e+02   3.8187652728e+01    0.1618125   0.05477927  27.69 0.0004262181    2.878    0.652
       248  -8.6546     84.1363    158.0822   1.1064983987e+02   3.2596083659e+01    0.1811502    0.1580167  55.67 0.0002809546    1.049    0.047
       249  -7.5399     22.9930    157.4971   1.2566008597e+02   3.9897078229e+01    0.1768523   0.05423162  49.41 0.0008101629    2.507    0.601
       250  -8.7694    218.4070    154.9513   8.1478413934e+01   9.7986561807e+00    0.2124583    0.1597133  32.79 0.0002952323    1.212    0.175
       251  -9.1661     91.3794     26.1012   7.3495792715e+01   5.9584560421e+01     0.392389      0.24378 -49.35   0.00123345    1.838    0.456
       252  -7.6623    204.1713    153.1469   8.3612239230e+01   1.2540431067e+01    0.1594719    0.1509085  41.68 0.0004524876    1.325    0.245
       253  -7.0481    146.6694    151.2823   9.4803316050e+01   2.3461457499e+01    0.1342821     0.102299  66.76 0.0003327115    1.609    0.378
       254  -8.5238    133.7906    147.1680   9.6974196738e+01   2.6574784035e+01    0.4220098    0.1556597 -56.15  0.001473639    3.790    0.736
       255  -7.0830    151.2855    146.7115   9.2925311839e+01   2.3405232417e+01     0.129786    0.1057084  72.08 0.0001899851    1.532    0.347
       256  -9.1980     66.9795    144.1743   1.1327778470e+02   3.7913661539e+01    0.5055529    0.2200247  52.26  0.002242969    2.241    0.554
       257  -9.0543    238.4321    145.2326   7.6299110627e+01   7.5636880991e+00    0.3210974    0.1363203  30.15  0.001408955    2.643    0.622
       258  -9.0010    245.9372    142.8930   7.4686958918e+01   6.5839569781e+00    0.2257962    0.1521396 -30.96 0.0009569834    1.536    0.349
       259  -9.6002    241.5438    137.4147   7.4227621307e+01   7.9536922051e+00    0.3552762    0.1843801  -9.04  0.001686972    2.265    0.558
       260  -8.4450     42.1012     28.1474   9.6171164437e+01   6.8160777519e+01    0.2006052     0.160235 -27.67 0.0002631734    1.228    0.186
       261  -8.2659    238.9355    133.6431   7.3836883875e+01   8.8512689050e+00    0.1789169    0.1437424  21.70 0.0004824721    1.138    0.122
       262  -8.3945    112.2602    133.7916   9.9767231578e+01   3.3108268720e+01     0.297014    0.2045705  70.45  0.001047606    1.796    0.443
       263  -8.4625    111.5933     20.9533   6.5034339943e+01   5.5459672599e+01    0.4705437    0.2224798 -24.26  0.001794033    2.251    0.556
       264 -10.4695    123.4666     91.2980   8.7083493757e+01   3.9833491613e+01      1.10181    0.5765863 -34.33  0.001791968    2.315    0.568
       265  -9.6240    134.0459    131.2466   9.3836237169e+01   2.9570265900e+01    0.5451815    0.4584139  38.72  0.003031729    1.116    0.104
       266 -10.5981    131.9713    119.8894   9.1919333142e+01   3.2220534269e+01    0.8168772    0.5242171  87.09  0.003064012    3.171    0.685
       267 -10.0035    116.9101    124.6139   9.6772590868e+01   3.4170915097e+01    0.7203392    0.4863382 -80.09  0.001889814    2.101    0.524
       268 -10.9735    121.4090    109.8846   9.2354854738e+01   3.6383291031e+01     1.241052    0.6361302 -49.98  0.003519031    2.043    0.511
