#   1 NUMBER                 Running object number                                     
#   2 MAG_AUTO               Kron-like elliptical aperture magnitude                    [mag]
#   3 X_IMAGE                Object position along x                                    [pixel]
#   4 Y_IMAGE                Object position along y                                    [pixel]
#   5 X_WORLD                Barycenter position along world x axis                     [deg]
#   6 Y_WORLD                Barycenter position along world y axis                     [deg]
#   7 A_WORLD                Profile RMS along major axis (world units)                 [deg]
#   8 B_WORLD                Profile RMS along minor axis (world units)                 [deg]
#   9 THETA_WORLD            Position angle (CCW/world-x)                               [deg]
#  10 FWHM_WORLD             FWHM assuming a gaussian core                              [deg]
#  11 ELONGATION             A_IMAGE/B_IMAGE                                           
#  12 ELLIPTICITY            1 - B_IMAGE/A_IMAGE                                       
         1 -10.6172    106.7189     18.9695   5.6987286128e+01   5.5783028923e+01    0.7873982    0.3211567  34.92  0.002897039    2.885    0.653
         2 -12.3939    100.9194     28.6010   6.2436039830e+01   5.5928335133e+01     0.457214    0.3407399  -6.47 0.0005696524    1.377    0.274
         3 -10.0912     15.0268     14.2776   9.1220601222e+01   7.1293112724e+01    0.1712419    0.1375989 -35.13 0.0006366185    1.327    0.246
         4 -12.5327     20.7102     17.9655   8.9859273311e+01   7.0193041789e+01    0.4888608    0.3304354 -32.93  0.003214176    1.208    0.172
         5 -11.1484     12.3923      2.0488   8.6615727345e+01   7.3376592145e+01    0.3153917    0.1840617  10.15  0.001544724    1.628    0.386
         6 -10.6473      7.3558      1.9395   8.9558468106e+01   7.3827441671e+01    0.1993933    0.1538873 -20.86  0.001304365    1.175    0.149
         7 -12.6876     23.7811      7.6424   8.3200237124e+01   7.1448552860e+01    0.3985945    0.3389206 -55.59 0.0005663019    2.130    0.531
         8 -10.7455     17.4074      6.2316   8.5951948892e+01   7.2304926218e+01    0.2606675     0.169941 -36.64  0.000859073    1.460    0.315
         9 -11.8842     27.4852      3.6936   7.9141603287e+01   7.1559739901e+01    0.3130759    0.2321718  39.98  0.000613347    1.927    0.481
        10 -11.8145     31.9406      1.8964   7.5876533423e+01   7.1229744182e+01      0.23875    0.1717585   9.39 0.0005538585    1.144    0.126
        11 -11.2800    129.2766     18.9734   5.1796371636e+01   5.0510597918e+01    0.3135181    0.2457613 -17.05 0.0008732484    1.374    0.272
        12 -11.2566     10.0125     15.8861   9.4711278289e+01   7.1427351963e+01    0.7541597    0.2600529 -29.86  0.002810426    3.002    0.667
        13 -11.1496      5.2141     13.8193   9.6507428218e+01   7.2109676464e+01    0.2581115     0.165719  -5.14 0.0002597141    1.458    0.314
        14 -10.8413    157.9003     13.2400   4.4790209186e+01   4.4003804545e+01    0.4513152    0.2507246 -56.55  0.002025257    2.238    0.553
        15 -11.6747    170.7242     18.5439   4.4540297087e+01   4.0245493284e+01    0.3643227    0.3017581  78.17 0.0007987668    1.132    0.117
        16 -10.3424     46.5795     17.2365   7.6899410463e+01   6.7254369063e+01    0.4382456    0.1671873 -31.86  0.001979514    2.442    0.591
        17 -10.0984     50.4968     13.8307   7.3523186839e+01   6.7133775011e+01    0.4079177    0.3423305  -3.17  0.002754197    1.137    0.120
        18 -10.9318     26.7050     14.0883   8.4908837752e+01   7.0195805928e+01    0.3132256    0.2030822 -45.21  0.001697924    1.817    0.450
        19 -11.7163     35.5434     15.0981   8.0983479915e+01   6.9023331930e+01    0.4896965    0.2277082  15.72 0.0003986312    2.862    0.651
        20 -11.3987     31.0524     12.9745   8.2148770044e+01   6.9869940713e+01    0.3546646    0.1730942 -26.75 0.0003434121    1.846    0.458
        21 -10.1881     43.2556      8.2776   7.3905103774e+01   6.8902907386e+01    0.2332716     0.203952  89.44  0.001419191    2.553    0.608
        22 -10.7548     63.0419     15.1767   6.9086817798e+01   6.4939909089e+01    0.6010252    0.2942275  15.00  0.002425999    3.165    0.684
        23 -10.0370     81.4323      6.1312   5.8509015507e+01   6.2466830037e+01    0.2321452    0.1650258  -5.10 0.0003021188    1.383    0.277
        24 -10.1441     70.2036     16.4988   6.7049345990e+01   6.3519430664e+01    0.3477784    0.1859507  -6.97 0.0009303185    2.306    0.566
        25 -11.6206     76.2786     15.6539   6.4539616654e+01   6.2490255767e+01    0.5323561    0.2536347  35.79  0.002412385    1.983    0.496
        26 -10.9892     78.0206     10.5778   6.1628537980e+01   6.2706978354e+01    0.5484424    0.1745213  45.73  0.001531157    2.662    0.624
        27 -11.7470     74.1870      6.3424   6.0891725643e+01   6.3875188534e+01    0.6967069     0.267828 -17.49  0.002710558    2.946    0.661
        28 -11.0980    164.9354     16.5626   4.4776107861e+01   4.1906360411e+01    0.4653313    0.2083994 -35.74  0.001439974    2.265    0.558
        29 -10.6286    118.5022     12.8855   5.1818293904e+01   5.3688475072e+01     0.354986    0.2101129 -35.11  0.001763668    1.872    0.466
        30 -10.1639    117.3922      9.1822   5.0641410618e+01   5.4291879935e+01    0.2486568    0.1799718 -29.76  0.001213642    1.527    0.345
        31 -10.2487    100.2613     12.4781   5.6001293139e+01   5.7886993182e+01     0.251142    0.1905899  14.30 0.0006759264    1.289    0.224
        32 -10.0028     55.2407     11.2981   7.0281541949e+01   6.6705132545e+01    0.3950974    0.1416095 -28.19  0.001715539    2.710    0.631
        33 -10.7567    132.3184     11.2236   4.8414755420e+01   5.0533676774e+01     0.337865    0.2596951  33.06  0.001133424    1.286    0.222
        34 -10.8802    236.0875      9.6261   3.5311876757e+01   2.5575154925e+01    0.3000148    0.1357243  74.12  0.001472142    2.119    0.528
        35 -11.3052    146.1406      7.1217   4.4629070472e+01   4.7501594646e+01    0.3442304    0.2526204 -13.59  0.001914829    1.556    0.357
        36 -11.9463     40.0925     11.3985   7.6967615867e+01   6.8945025653e+01    0.3959748    0.2750505 -27.47 0.0004591971    1.349    0.259
        37 -10.9278      7.0149      8.5061   9.3049739062e+01   7.2851014251e+01    0.2960505     0.174916  32.13  0.001487519    2.243    0.554
        38 -10.0748    212.4697      8.0859   3.6940647824e+01   3.1113112151e+01      0.17739    0.1224007 -31.42 0.0004888823    1.527    0.345
        39 -10.7932    241.4539      9.6329   3.4903334868e+01   2.4404140273e+01    0.2121777     0.160898 -77.46 0.0006028978    1.151    0.131
        40 -10.1456     67.1022      7.7596   6.3999056205e+01   6.5060083491e+01    0.1730643    0.1295905  20.99 0.0002421313    1.120    0.107
        41  -9.8557     96.5920      6.2127   5.4309849103e+01   5.9273957654e+01    0.3319651    0.1820064  17.14  0.001100945    2.145    0.534
        42 -10.1082    175.0544      5.7159   4.0219156323e+01   4.0424173263e+01    0.1876999    0.1542629  70.32 0.0003019933    1.092    0.084
        43 -10.2654    164.7199      5.4779   4.1442084922e+01   4.3018512740e+01    0.2379742    0.1756638 -84.17 0.0008383255    1.395    0.283
        44 -11.1399    236.9746      2.5821   3.3695279467e+01   2.6120334892e+01    0.3779205    0.1918845 -38.72  0.002049582    1.771    0.435
        45 -10.4409    240.9765      2.4577   3.3387199334e+01   2.5265412325e+01    0.2677544     0.143802 -74.15  0.001194114    1.814    0.449
        46  -9.3256    228.3284      5.2963   3.4945262796e+01   2.7755893182e+01     0.117141   0.09038147  46.14 0.0005062828    1.633    0.388
        47  -9.2109    131.2839      5.6810   4.6631122045e+01   5.1273374150e+01    0.1290975   0.09909828 -64.74 0.0002609767    1.588    0.370
        48  -9.2212    201.2186      4.0394   3.6978739084e+01   3.4182892135e+01    0.1516623    0.1037019 -28.70  0.000377329    1.590    0.371
        49 -10.4088    112.4473      2.2658   4.9003535729e+01   5.6027751303e+01    0.2348742    0.2005317 -85.88 0.0004640259    1.425    0.298
        50  -9.1127    208.6804      2.3254   3.5872332641e+01   3.2575140732e+01    0.1373844   0.08063657 -63.65 0.0007046229    1.678    0.404
        51 -10.8658     92.1478      6.1586   5.5457455806e+01   6.0238003835e+01    0.4706349    0.2189779  23.79  0.001467692    2.721    0.633
        52 -10.8105    245.2206      6.4793   3.3950249366e+01   2.3934778162e+01    0.3626477   0.07886674 -43.21  0.001423957    3.235    0.691
        53  -9.4073    159.1009      1.1789   4.0871037271e+01   4.4784508142e+01    0.1776733   0.08764196  67.61 0.0002815047    1.749    0.428
        54 -10.3329    175.4151    202.7042   9.0891789886e+01   6.4110477120e+00     0.236379    0.1938426  38.37 0.0005084049    1.161    0.139
        55 -10.5302    250.1038    246.8561   8.4308727205e+01  -1.1305201487e+01    0.1971833    0.1406471  -9.65  0.001395916    1.232    0.188
        56 -10.2749     72.7243    249.8641   1.1766504294e+02   1.4005037837e+01     0.218509    0.1743279 -62.01  0.001576793    1.568    0.362
        57 -11.7760     74.9983    240.2549   1.1644554119e+02   1.5418990401e+01    0.5579955     0.437624 -30.64  0.003583176    2.127    0.530
        58 -11.9536     19.8299    237.9831   1.2619608241e+02   2.2326740773e+01    0.5605735    0.2177559  41.68  0.003260926    2.113    0.527
        59 -13.2451      6.4794    244.6356   1.2871285483e+02   2.2433447848e+01    0.8894022    0.5475271  40.96  0.004912157    1.616    0.381
        60 -10.9588     17.4838    247.4752   1.2705464877e+02   2.0845272634e+01    0.1948672    0.1416129 -85.70 3.230916e-05    1.341    0.254
        61  -9.2705    243.3118    202.3025   7.7652278055e+01  -4.7717327390e+00    0.1314571   0.08334563   2.46 0.0002540158    1.610    0.379
        62  -9.4205    223.5918    201.7758   8.1142923647e+01  -1.6245541219e+00    0.1684599    0.1182359 -41.98 0.0007168037    1.686    0.407
        63  -9.4167      9.7675    202.4071   1.2606191006e+02   3.0278699716e+01    0.1287304    0.1071181  27.91 0.0008825607    1.631    0.387
        64  -9.5193     34.3676    201.3524   1.2114933427e+02   2.8088762018e+01    0.1509503    0.1248591 -52.87 0.0008322138    1.563    0.360
        65  -9.4582    206.6474    199.3123   8.3927935939e+01   1.5636005203e+00    0.1242838    0.1093702  71.46 0.0007045213    1.728    0.421
        66  -9.7849    215.6072    194.6490   8.1295194681e+01   7.9193901223e-01    0.2068794    0.1407888   3.19 0.0006825672    1.586    0.369
        67 -10.3206     16.1146    192.8358   1.2421785044e+02   3.1722826902e+01    0.2217483    0.1580278  22.58  0.001063112    1.907    0.476
        68  -9.6266    211.4770    188.4787   8.0888072524e+01   2.4967355441e+00    0.2406286    0.1205321 -26.40 0.0009967451    2.256    0.557
        69  -9.2415      1.6101    188.2044   1.2682172904e+02   3.3959424079e+01    0.1527218   0.08261307 -73.22 0.0005421375    1.568    0.362
        70  -9.2679     61.6376    184.8462   1.1368135003e+02   2.8535552605e+01    0.1874842    0.1100633 -83.49 0.0009435266    1.744    0.427
        71  -9.9217    167.1980    183.6133   8.9128261962e+01   1.1427048306e+01    0.2085592    0.1285098  30.07   0.00080565    1.656    0.396
        72 -11.2211     15.9812    182.7917   1.2353819294e+02   3.3920762463e+01    0.4272884    0.1922149  82.72  0.002125625    2.203    0.546
        73  -9.2549      1.5628    180.4788   1.2637239443e+02   3.5627497574e+01    0.1157573    0.0855257  84.03 0.0001759796    1.018    0.017
        74  -9.9658    244.4105    178.2980   7.2737113910e+01  -1.4330819254e+00    0.2435001    0.1126965 -29.08  0.001075004    2.033    0.508
        75  -9.8956    223.9673    178.4688   7.6474243663e+01   1.9657185528e+00    0.2112041    0.1658078 -24.82 0.0004929941    1.188    0.158
        76  -9.2282     70.1106    177.8148   1.1084992049e+02   2.9032396018e+01    0.1687622    0.1521205 -43.54 0.0004453032    1.336    0.251
        77 -10.4291     46.5218    177.7107   1.1635259271e+02   3.1984433798e+01    0.2514133    0.2150078  76.77  0.001641881    1.057    0.054
        78  -9.7583    200.7753    176.2113   8.0536060637e+01   6.5181590015e+00    0.2051604    0.1570756   0.89  0.001065762    1.369    0.270
        79 -10.9866     18.0591    173.2600   1.2235644209e+02   3.5866035520e+01    0.3235976    0.1898934  65.50  0.001471709    1.590    0.371
        80 -11.9735     49.7965    162.6133   1.1383645044e+02   3.5141948266e+01    0.7574307    0.5129011  41.69  0.003740574    1.532    0.347
        81 -10.9952     41.1976    163.8810   1.1609076743e+02   3.5792740457e+01    0.5469915    0.2075633 -72.82  0.002312907    2.423    0.587
        82 -11.7164     35.6715    164.4644   1.1748482420e+02   3.6229910140e+01    0.5702738    0.3805251  77.97  0.002930089    1.428    0.300
        83 -11.2596     36.9310    157.9477   1.1646041596e+02   3.7642328494e+01    0.3007145    0.1959093 -87.40 0.0004269961    1.404    0.288
        84  -9.3610      4.6684    168.6932   1.2494385706e+02   3.7992464250e+01    0.1120492   0.07617141 -53.99 0.0007039458    1.663    0.399
        85  -9.5873     67.1901    165.1714   1.0985486796e+02   3.2384685701e+01      0.19521    0.1452301  70.98  0.001018075    1.360    0.265
        86  -8.9852    200.3585    162.7040   7.7753690394e+01   9.0384880546e+00    0.1393082    0.1195178  87.57 0.0007033011    1.702    0.412
        87 -12.1604     21.4085    157.2272   1.2016575560e+02   3.9268023598e+01    0.4949577    0.4264095 -32.20  0.003353007    1.535    0.348
        88 -10.2742     11.5570    153.6716   1.2219143477e+02   4.0900631304e+01    0.2550413    0.1980477  -2.33  0.001660645    1.889    0.471
        89 -10.2052    177.8681    151.3316   7.9989671942e+01   1.5733288409e+01    0.2978413    0.2680843  82.61  0.001062344    1.383    0.277
        90 -10.4070     18.1315    146.6278   1.1991679636e+02   4.2039605892e+01    0.3705473    0.2027593 -39.81  0.001049066    2.406    0.584
        91 -10.8087     22.7295    144.0926   1.1848130041e+02   4.2265504906e+01    0.2046796    0.1696036  88.86 0.0003682861    1.074    0.069
        92 -10.2508    207.1795    146.2098   7.2689548085e+01   1.0730641809e+01    0.2214486    0.1927051   0.92 0.0008322247    1.123    0.110
        93 -10.3263     41.5082    146.1947   1.1384864289e+02   3.9998341902e+01    0.2045096    0.1739314  46.52  0.000422459    1.292    0.226
        94 -10.0742     13.0157    146.5311   1.2118171889e+02   4.2460596133e+01    0.1536066    0.1201902  33.57 0.0006260131    1.536    0.349
        95  -9.7234    220.4718    144.0053   6.9644950179e+01   8.4931935113e+00     0.219463    0.1323968 -36.57 0.0007846522    1.537    0.349
        96 -10.3190      2.8764    143.8519   1.2343143059e+02   4.3801689721e+01      0.18665    0.1324019 -62.11  0.001218916    1.313    0.238
        97  -9.4049     49.5968    141.7296   1.1105796053e+02   4.0214177890e+01    0.1341504   0.09647301 -32.86 0.0001289377    1.750    0.429
        98 -10.2463      9.2610    137.2999   1.2122957665e+02   4.4908911940e+01    0.2836975    0.1097819 -70.78 0.0009557462    1.971    0.493
        99 -10.9018      3.3914    135.4762   1.2255752957e+02   4.5724766944e+01    0.4562657    0.1668832 -55.28  0.002163926    2.393    0.582
       100 -10.4589     21.8846    135.8757   1.1776558526e+02   4.4305233587e+01    0.2663682    0.1787502  51.84  0.001143152    1.613    0.380
       101  -9.8969     14.1004    136.1499   1.1985576811e+02   4.4838245237e+01    0.1652934    0.1233255  73.57 0.0003609432    1.313    0.238
       102  -9.3804    122.5502    135.4824   8.9787277169e+01   3.0483801536e+01    0.1525137    0.1490546 -54.74 8.300729e-05    1.009    0.009
       103 -10.1450    249.8559    134.1253   6.2368298744e+01   4.6307702205e+00    0.2013584     0.173304 -40.70 0.0005985756    1.207    0.171
       104 -10.1852    107.2928    133.1778   9.3396131287e+01   3.3877165125e+01     0.258929    0.2124639  21.92  0.001290175    1.375    0.273
       105 -10.2161     56.9229    132.6581   1.0757312393e+02   4.1594446820e+01    0.4351048    0.2395483  19.10  0.001942674    2.465    0.594
       106 -11.1793     37.7387    130.5633   1.1269979394e+02   4.4189621658e+01     0.283207    0.2538126  63.21 0.0005788432    1.211    0.174
       107 -10.6527     38.4706    127.0034   1.1195718091e+02   4.4990136404e+01    0.2209488    0.2016722 -70.54 0.0001300067    1.091    0.083
       108 -11.3361     73.3499    129.1095   1.0218309844e+02   4.0328455919e+01    0.4996716    0.2754541  53.66  0.002125716    2.241    0.554
       109 -11.2297     13.8095    126.1421   1.1881417426e+02   4.7248429093e+01    0.3734258    0.2314217  20.53 0.0006387917    2.047    0.511
       110 -11.3249     10.5626    122.8400   1.1932965810e+02   4.8256284656e+01    0.2664779    0.2185562  62.33 0.0009565449    1.336    0.251
       111 -11.1270      2.4455    124.2510   1.2171245593e+02   4.8421567896e+01    0.4060044    0.1312191 -63.53  0.001759925    2.210    0.548
       112  -9.7266    219.8383    124.2226   6.5128353091e+01   1.2137382999e+01    0.2056132    0.1659523  -5.69 0.0006487378    1.329    0.248
       113 -11.0360     22.0451    121.2649   1.1587100979e+02   4.7817878853e+01    0.2750112     0.210421  28.65            0    1.581    0.367
       114  -9.2144     33.1883    121.5757   1.1266538427e+02   4.6811901447e+01    0.1569315    0.1259271 -10.82 0.0009315332    1.594    0.373
       115 -11.5962     18.2698    114.6033   1.1606137042e+02   4.9703976519e+01    0.3928746    0.2527975 -30.11  0.002208601    1.899    0.474
       116 -12.7525     14.3030    108.8641   1.1645246738e+02   5.1350274151e+01    0.6755306    0.4598432 -51.50  0.004114526    1.315    0.239
       117  -9.8507    219.7882    116.5698   6.3290549996e+01   1.3506723666e+01     0.263243    0.1409545  45.25  0.001119724    2.014    0.503
       118  -9.2649    179.4694    116.5145   7.1151991985e+01   2.2405245457e+01    0.1561886    0.1498114 -22.52 0.0008097041    1.008    0.008
       119  -9.4450    214.1503    115.6191   6.4061169729e+01   1.4876154598e+01    0.2016062    0.1362249  36.65 0.0006793527    1.644    0.392
       120  -9.9028     35.0943    114.1232   1.1089848716e+02   4.8456558884e+01    0.2076868    0.1454319  76.99 0.0008997103    1.674    0.402
       121 -10.9508    249.1279    112.3821   5.7568448913e+01   8.3008080520e+00    0.2710689     0.175691 -39.89 0.0006402362    1.354    0.261
       122  -9.4910     94.5319    112.0419   9.2087165640e+01   4.1166262497e+01    0.2338299    0.1424209 -52.92 0.0006737285    1.561    0.359
       123 -12.9080     55.2792    110.3613   1.0388752626e+02   4.7268587896e+01      0.31436     0.267648 -51.78 0.0005051665    1.056    0.053
       124 -11.4428     36.4704    109.4837   1.0966877463e+02   4.9458433448e+01    0.3809546    0.2583656  75.02  0.001489798    1.844    0.458
       125  -8.8908     75.3060    109.3383   9.7338199404e+01   4.4872379979e+01    0.1521783    0.1057408 -28.52 0.0003181679    1.677    0.404
       126 -10.6812     24.8718    108.1116   1.1307737002e+02   5.0776127657e+01    0.3931526    0.1871931  56.59  0.001686085    3.085    0.676
       127 -11.7632      2.8147    106.1856   1.1957429952e+02   5.2659752138e+01    0.3197501    0.2703195 -70.25 0.0007530694    1.098    0.089
       128  -9.3526    103.5616    107.9750   8.8350521162e+01   4.0511724462e+01    0.2268964    0.1439813 -47.33 0.0003264518    1.495    0.331
       129  -9.5506     91.4147    107.8250   9.1970840197e+01   4.2694057864e+01    0.2120483    0.1318432 -41.75 0.0004621611    1.565    0.361
       130  -9.7099     70.2399    107.9940   9.8622309197e+01   4.5919450902e+01    0.2354703    0.1625987 -86.54  0.001070725    1.993    0.498
       131  -9.6160     62.4995    106.4602   1.0074394303e+02   4.7325766712e+01    0.1437169    0.1248363 -46.15 7.880399e-05    1.060    0.057
       132 -10.7430    243.7613    104.4375   5.6525234374e+01   1.0642459243e+01    0.2249345     0.175825 -34.43 0.0006662717    1.118    0.105
       133 -10.6663    247.1468    102.1610   5.5503879788e+01   1.0339986360e+01    0.1900767    0.1816424 -30.20 0.0007233259    1.102    0.092
       134  -9.4526    223.3611    103.7913   5.9555820952e+01   1.4977913106e+01    0.2016667    0.1295627 -27.40 0.0004605573    1.549    0.354
       135  -9.2059     93.6150    103.7357   9.0235741634e+01   4.3275641324e+01    0.1534092    0.1157142  -7.91 0.0006982143    1.691    0.409
       136 -10.6508     36.6916    102.3574   1.0828093882e+02   5.1160975299e+01    0.3348857     0.250578  15.61  0.001328053    1.616    0.381
       137 -11.1759    161.5463     99.4807   7.0563179294e+01   2.9940091628e+01    0.7330905    0.2781751 -36.03  0.002357178    2.745    0.636
       138 -11.0947    156.8850     82.7845   6.6810285627e+01   3.4273565730e+01    0.7241408    0.3500329  34.29  0.002414783    2.900    0.655
       139 -11.1656    162.5300     92.2741   6.8294382919e+01   3.1121815608e+01    0.3214528    0.2738916 -17.10 0.0005049904    1.243    0.196
       140 -12.8177    164.2343     86.3673   6.6207461903e+01   3.1837634886e+01     1.226052    0.7263319  37.91  0.004973154    1.893    0.472
       141 -11.4482      3.0741     99.9754   1.1869750816e+02   5.4104845236e+01     0.273954    0.2162151  66.75  0.001836302    1.449    0.310
       142 -11.0767      1.4742     96.0497   1.1867390090e+02   5.5101197331e+01    0.2515868    0.1323791 -75.57 0.0007090172    1.560    0.359
       143 -10.2355    145.5069    100.4997   7.4720834868e+01   3.3435230603e+01    0.2318565     0.216306 -27.57 0.0009259104    1.050    0.047
       144 -11.0838    143.5084     97.5079   7.4370746911e+01   3.4508238123e+01    0.4454246    0.2509319  52.18  0.001757402    1.902    0.474
       145  -9.4439     91.4927    100.5101   9.0033932459e+01   4.4389021590e+01    0.1517846    0.1389687 -32.29  0.000110795    1.042    0.040
       146 -10.9297     57.5306     96.4365   1.0006012057e+02   5.0347116600e+01    0.3010261    0.2185934 -46.01  0.001611067    1.217    0.178
       147 -11.1103     62.1595     98.9297   9.9108478983e+01   4.9173639898e+01    0.3297478    0.2986601   8.84 0.0006468699    1.225    0.184
       148 -10.0394     66.6044     97.5815   9.7303426643e+01   4.8904082344e+01    0.3763475    0.1279388 -47.37  0.001342131    2.603    0.616
       149  -9.4735     50.9299     99.2912   1.0293270733e+02   5.0442529079e+01    0.1787029    0.1637651 -42.93 0.0003514645    1.079    0.073
       150 -11.0638     20.5669     95.8102   1.1240833006e+02   5.4034719936e+01    0.5021345    0.1726575 -75.06  0.001801814    3.488    0.713
       151  -9.3207     21.2901     91.3539   1.1136429124e+02   5.5035600905e+01    0.1380206   0.07441843 -43.74 0.0003605919    1.677    0.404
       152 -11.1607     15.7882     98.2801   1.1439460455e+02   5.3772452754e+01    0.2634619    0.2026532  85.87  0.001640443    1.389    0.280
       153 -10.2230     40.3079     96.8184   1.0596723737e+02   5.2145855514e+01    0.2648676    0.1800527  46.91  0.000829109    1.789    0.441
       154  -9.7899    249.8775     95.8253   5.3657031322e+01   1.0812908383e+01     0.188638    0.1493085 -57.99 0.0007078564    1.329    0.247
       155  -9.0581     27.9583     95.9849   1.0996634116e+02   5.3437657886e+01     0.149343    0.1215467 -58.27            0    1.002    0.002
       156  -9.7347     31.4987     92.9744   1.0817673583e+02   5.3859957294e+01    0.2007134    0.1105368 -62.97 0.0004036129    1.523    0.343
       157 -11.3375     11.0486     90.7845   1.1474587028e+02   5.5826443472e+01    0.4281545    0.2672122  47.60  0.001315404    2.030    0.507
       158  -9.7457    104.1615     91.8651   8.3688394065e+01   4.4036791413e+01     0.209894     0.173633 -13.11  0.001038862    1.314    0.239
       159  -9.1756     46.6993     92.3497   1.0279846615e+02   5.2554273953e+01    0.1336738    0.1025694  82.93 0.0007038151    1.692    0.409
       160 -10.4738     25.7481     91.0811   1.0978056249e+02   5.4771016129e+01    0.2628233    0.2249032 -49.68  0.001243366    1.082    0.076
       161 -10.9636     22.7888     86.8755   1.0998851121e+02   5.5977389880e+01    0.3086768    0.2030502 -43.00 0.0003962083    1.355    0.262
       162  -9.8536    108.6788     91.3096   8.2163136926e+01   4.3278804385e+01    0.1513263    0.1244802 -88.88 0.0004381669    1.646    0.392
       163 -10.6381     96.9208     89.3999   8.5199959384e+01   4.5933861648e+01    0.3928472    0.2433883 -19.19   0.00155566    2.323    0.569
       164 -10.2945     83.0913     88.0819   8.9270120629e+01   4.8624085509e+01    0.3863937    0.1677687 -49.32  0.001486458    2.144    0.534
       165  -9.6038     57.7416     89.5945   9.8299869700e+01   5.1925792511e+01    0.1907685    0.1277296  42.33 0.0009596972    1.751    0.429
       166  -9.9651    119.8181    101.4395   8.1852377578e+01   3.8815801726e+01    0.3037055    0.2036353 -10.27  0.001184214    2.285    0.562
       167  -8.8046    120.6974     87.2960   7.7457480699e+01   4.1660553621e+01    0.1504922    0.1255116 -83.87 0.0004479371    1.578    0.366
       168 -11.2532     67.1505     84.6545   9.3703242178e+01   5.1815599180e+01    0.5362621    0.2843608 -24.09   0.00202001    2.938    0.660
       169 -11.2780     11.1468     62.4391   1.0915850805e+02   6.2249922162e+01    0.4360785    0.2682158 -20.68   0.00199569    1.744    0.426
       170 -11.5994      4.6452     84.9818   1.1598194792e+02   5.7514448296e+01    0.8315708    0.2950395 -69.33  0.003782535    2.220    0.549
       171 -12.0484      3.4182     64.8840   1.1278337885e+02   6.2106957786e+01    0.5886666    0.3697857 -68.32  0.002533142    1.375    0.273
       172 -12.3812      5.0219     58.8865   1.1084988305e+02   6.3340548194e+01    0.2722197     0.243372 -36.36 0.0004244043    1.199    0.166
       173 -12.1251     23.0643     67.8092   1.0567034751e+02   6.0296030537e+01    0.9457642    0.5365493  78.05 0.0008348788    4.571    0.781
       174 -12.6260     16.3911     67.8774   1.0832097611e+02   6.0738993302e+01     0.328451    0.2285837 -46.03 0.0003507029    1.143    0.125
       175 -12.1419     12.8740     77.9689   1.1180310196e+02   5.8682003173e+01    0.6204009    0.2249579 -59.21  0.001754442    1.973    0.493
       176 -11.9807      8.2042     74.0004   1.1275973845e+02   5.9841047079e+01    0.6187789    0.3340333   3.21  0.003409857    2.363    0.577
       177  -9.6122    110.9790     85.4808   7.9719982477e+01   4.4060200508e+01    0.2173349    0.1367548  66.70 0.0008103439    2.649    0.622
       178 -10.6693    132.8462     83.1184   7.2846380287e+01   3.9835476587e+01    0.2791643    0.2506196 -70.38 0.0006100352    1.286    0.222
       179 -11.6023     42.8603     82.6814   1.0184819438e+02   5.5205059868e+01    0.3977325    0.2332052  40.49 0.0009871447    2.069    0.517
       180 -10.0594     78.9721    101.4571   9.4245131111e+01   4.6201090889e+01    0.2122709    0.1446139  37.42  0.001019783    1.592    0.372
       181  -9.8326    117.8413     82.8932   7.6915214563e+01   4.3171344285e+01    0.2472819    0.2050837  -9.22  0.001204241    1.308    0.236
       182 -10.5115     86.1148     81.7644   8.6394995624e+01   4.9507929054e+01    0.3686464    0.3231133  83.83 0.0009047693    1.498    0.332
       183  -9.0555    196.2701     82.3131   5.8671548601e+01   2.4846766892e+01    0.1471254    0.1179065   8.32 0.0003123095    1.551    0.355
       184 -11.0773     31.2365     81.2321   1.0574849983e+02   5.6622747286e+01    0.4349006    0.2027073 -38.26  0.001424186    2.124    0.529
       185  -9.2605    146.3134     81.6392   6.8967406625e+01   3.7006698026e+01    0.1624553    0.1242315 -72.84 0.0007042133    1.752    0.429
       186 -10.3160     21.9570     81.1569   1.0912544699e+02   5.7362329967e+01    0.3364116    0.1609024 -31.50  0.001556413    2.389    0.581
       187 -10.5239     18.7687     79.2279   1.0989140268e+02   5.8025009934e+01    0.2922602    0.2062429 -43.63 0.0007617328    1.219    0.180
       188 -11.0261     21.7858     76.6570   1.0822484467e+02   5.8404073988e+01     0.314231    0.2311791 -71.98   0.00114065    1.352    0.260
       189 -11.1458     46.1595     57.2354   9.3269910532e+01   6.0384293777e+01    0.4051513     0.251405  35.04  0.001075791    1.866    0.464
       190 -10.9908     51.2359     63.2260   9.3184506028e+01   5.8551804435e+01    0.3112683    0.2566535 -38.04 0.0009195253    1.067    0.063
       191 -11.8120     62.4455     72.0043   9.1674921545e+01   5.5250811399e+01    0.5684086    0.4195517  80.26  0.002692557    2.423    0.587
       192 -11.8984     50.4157     68.7056   9.5196887861e+01   5.7489839244e+01    0.4030795    0.3124107 -20.60  0.001260667    1.260    0.206
       193 -11.4710     59.2071     75.7999   9.4003618464e+01   5.4859365982e+01    0.6198341    0.4137357 -75.05  0.002043211    2.277    0.561
       194 -10.6397     54.2024     73.5994   9.5210985151e+01   5.5973474656e+01    0.3012036    0.2383633 -57.01 0.0008927968    1.282    0.220
       195 -10.7024      1.9072     91.0057   1.1782612496e+02   5.6253311370e+01    0.4850077    0.1801669 -81.89  0.001982898    3.048    0.672
       196 -10.7386     90.3342     75.9402   8.3178839118e+01   5.0003130116e+01    0.4166817    0.3028123 -58.58 0.0007240729    1.632    0.387
       197 -10.4335     94.2284     74.0663   8.1301807471e+01   4.9677157939e+01    0.4076172    0.2143927 -44.24 0.0007097984    1.831    0.454
       198 -12.2599     44.7957     75.2672   9.9209710744e+01   5.6682081958e+01    0.2520646    0.2381226 -53.22  0.000343334    1.176    0.150
       199 -10.5939     75.1176     75.3633   8.8166002573e+01   5.2677547980e+01    0.3365881    0.2199639  -4.31  0.001491134    2.137    0.532
       200 -11.0976     77.4693     71.7601   8.6199107592e+01   5.3062742994e+01    0.4974081    0.2419164  42.34   0.00208031    2.295    0.564
       201  -8.9728    121.9648     76.0000   7.3563049066e+01   4.3651019475e+01    0.2485417   0.08723691  47.09 0.0007944178    2.887    0.654
       202 -10.1524    145.6368     73.4554   6.6603635120e+01   3.8683908869e+01    0.2999648    0.1917973 -32.64 0.0008472393    1.587    0.370
       203  -9.9595    137.4706     74.0094   6.8794405104e+01   4.0511631215e+01    0.2336614    0.1507149 -36.78 0.0003900906    1.540    0.351
       204 -10.9016     85.9674     74.2283   8.4081042990e+01   5.1127990176e+01    0.2897032    0.1739628  58.37  0.001163655    2.646    0.622
       205 -11.7843    150.1605     71.2810   6.4856464617e+01   3.7985064991e+01    0.4731309    0.2610269 -42.12 0.0009110816    1.834    0.455
       206 -10.1606    102.2693     73.3706   7.8520577051e+01   4.8277017292e+01    0.2029719    0.1415841  50.80 0.0007780959    1.617    0.382
       207 -10.0892     39.4987     72.4594   1.0046324682e+02   5.7850606528e+01     0.234247    0.1905008  14.18  0.001430639    1.385    0.278
       208 -11.3111     37.9685     67.9424   9.9817295399e+01   5.8993909005e+01    0.5176454    0.2756992  21.07  0.002589359    2.170    0.539
       209 -10.2989     31.6515     68.0167   1.0232762425e+02   5.9560253735e+01    0.2894389    0.1924686 -52.44   0.00165457    1.246    0.197
       210 -11.5383    167.5713     70.0115   6.0668122656e+01   3.3942585739e+01    0.2629846    0.2275502  56.95 0.0003153271    1.162    0.140
       211 -11.0599    200.5370     68.1057   5.4094634113e+01   2.6170454693e+01    0.2495128    0.2207719  62.45 0.0002940205    1.162    0.140
       212 -10.2125    140.9611     68.2583   6.6088803145e+01   4.0725032894e+01    0.2331778    0.1740593  -2.02  0.001050483    1.665    0.399
       213 -11.6860     94.1298     66.2817   7.8732635710e+01   5.1237571091e+01    0.4130057    0.2880777 -25.77 0.0004257307    1.456    0.313
       214  -9.5484    128.9547     71.5707   7.0223281678e+01   4.2926093026e+01    0.2236376    0.1485613  46.99 0.0003641848    1.506    0.336
       215 -10.8252     77.4016     64.1346   8.3686396632e+01   5.4620265852e+01    0.3425639    0.3229841  -7.75  0.002035693    1.108    0.097
       216  -9.2768     68.6967     66.7021   8.7689201798e+01   5.5469632136e+01    0.1433506    0.1002231 -15.87 0.0003322234    1.584    0.369
       217  -9.3721    135.3340     65.3009   6.6523444856e+01   4.2573537385e+01    0.1590436    0.1166587  17.09 0.0003528967    1.655    0.396
       218 -10.5974    152.9218     63.7935   6.1883228402e+01   3.8595137336e+01    0.3040605    0.2393363  30.34 0.0003036945    1.373    0.271
       219 -10.3428    155.9126     60.4555   6.0182321658e+01   3.8404807338e+01    0.2751019    0.2156177 -21.45 0.0005027493    1.360    0.265
       220 -11.0394    121.5059     62.5042   6.9219568369e+01   4.6242755656e+01    0.4133874    0.2327254 -53.60  0.001606188    2.404    0.584
       221  -9.8374    109.5072     63.5737   7.3011850251e+01   4.8664971445e+01    0.2850871    0.2034362 -65.56  0.001179352    2.101    0.524
       222 -10.7560     83.3907     61.4585   8.0659729189e+01   5.4121641256e+01    0.3712289    0.2863228  50.80  0.001935299    1.573    0.364
       223 -10.3091     86.9232     59.3502   7.8703111096e+01   5.3887770686e+01    0.3274375    0.2513717  53.34   0.00168522    1.606    0.377
       224  -9.8970    201.8827     62.0687   5.2250244323e+01   2.6786712350e+01    0.2280611    0.1870047 -68.29 0.0008575087    1.272    0.214
       225  -9.1037    113.9788     61.9878   7.1156785409e+01   4.7994078750e+01    0.1740284    0.1599706 -13.39 -0.005334738    1.047    0.045
       226 -10.1682    218.0337     61.0704   4.9620202809e+01   2.3109074261e+01    0.2063375    0.1996055 -45.65 0.0003704633    1.087    0.080
       227 -10.4528     32.7354     44.2088   9.4541865186e+01   6.4390404373e+01    0.4345334    0.2119527  -3.94  0.001792191    3.390    0.705
       228 -11.1501     26.8759     50.0334   9.9090533696e+01   6.3771380971e+01    0.4658307     0.268668 -65.19  0.002031901    2.123    0.529
       229 -10.9388     29.9651     60.8771   1.0103917318e+02   6.1251622223e+01    0.5800456    0.2580077   9.15  0.002287004    3.191    0.687
       230 -13.0239     37.3658     50.0949   9.4554077775e+01   6.2775532254e+01    0.7733726    0.5649957 -25.52  0.003405357    1.196    0.164
       231 -11.2462     63.9581     59.9332   8.7176937895e+01   5.7531591084e+01    0.2670118    0.1961767  33.45 0.0006746627    1.483    0.325
       232 -11.0714     59.6852     59.0209   8.8500396316e+01   5.8315664938e+01    0.3033396    0.2657107  46.89  0.001807378    1.462    0.316
       233 -11.4763    147.2931     56.8000   6.0900723556e+01   4.1110648156e+01    0.2594342    0.2520802  40.29 0.0002388995    1.017    0.017
       234 -10.0057     73.6388     44.3871   7.7787510517e+01   5.8877673175e+01    0.4493949    0.1322122  41.34  0.001561277    3.497    0.714
       235 -11.0164     78.0727     47.6579   7.7451749373e+01   5.7558443893e+01    0.4145834    0.2293006 -26.65 0.0005575187    1.882    0.469
       236 -11.8196     75.3301     56.1147   8.1602904377e+01   5.6505277453e+01    0.2411086    0.2122137 -18.96 0.0002656456    1.037    0.036
       237 -10.2693     72.2859     51.4984   8.1017180562e+01   5.7855445516e+01    0.4535747    0.2241179  41.77  0.002009444    2.199    0.545
       238 -10.2541    130.0510     55.0333   6.4413638164e+01   4.5535229621e+01    0.3081876    0.2330032  27.45 0.0009855094    1.406    0.289
       239 -11.7782    129.7453     49.4179   6.2552300711e+01   4.6487369829e+01    0.6116612    0.3868079  -2.89 0.0008321483    2.237    0.553
       240 -10.0280     98.8570     55.8995   7.3553847421e+01   5.2225420803e+01    0.2975048    0.1845249  37.68  0.001017459    1.614    0.380
       241  -9.4953    183.7310     60.3932   5.4777201543e+01   3.1493236295e+01    0.1975495    0.1361355  51.00 0.0004615977    1.462    0.316
       242  -9.3498    213.4606     54.4670   4.8552909716e+01   2.5150241675e+01    0.1408368    0.1289854 -62.17 7.947757e-05    1.011    0.011
       243 -10.1231    119.6106     53.0164   6.6441878598e+01   4.8267382584e+01    0.2808867    0.1870277  33.19 8.394647e-05    1.565    0.361
       244  -9.6522    108.9107     53.0626   6.9471229888e+01   5.0619450861e+01    0.2316136    0.1672549   9.03 0.0004757187    1.629    0.386
       245 -10.7240     87.3304     52.0123   7.5883652283e+01   5.5135012268e+01    0.3496291    0.2431146 -32.96  0.001285889    1.374    0.272
       246  -9.3821     62.0018     53.0051   8.5477214252e+01   5.9158114767e+01    0.1670191    0.1407432 -21.64  0.000487906    1.020    0.020
       247 -11.5817      4.7897     52.3291   1.0940359990e+02   6.4752374055e+01    0.4209305    0.2296073 -20.71  0.002107334    1.949    0.487
       248 -10.6603     11.9236     50.6977   1.0586870901e+02   6.4710479054e+01    0.4017045    0.2267379 -71.69   0.00104683    2.096    0.523
       249 -10.8763     11.9363     43.9280   1.0392483073e+02   6.6097375289e+01    0.3383339    0.2235552 -34.65  0.002157418    1.222    0.182
       250 -10.5090    103.8797     49.6736   6.9722778851e+01   5.2243717971e+01    0.5572186    0.2230099 -36.75  0.002109562    2.472    0.595
       251  -9.2161     99.6003     52.1949   7.1966112849e+01   5.2711232961e+01     0.192407    0.1319074 -21.33 0.0002506153    1.511    0.338
       252  -9.3147     17.4475     51.5450   1.0368186272e+02   6.4181300514e+01    0.1237827   0.09661067 -41.75 8.118968e-05    1.021    0.021
       253  -9.6440     69.4189     48.4677   8.0942564959e+01   5.8863094777e+01    0.2190047    0.1870767 -15.23 0.0005452894    1.021    0.021
       254 -10.0232     53.4019     50.1514   8.7858031268e+01   6.0886340730e+01    0.2211507    0.1667441   6.53 0.0006708923    1.348    0.258
       255  -9.6289    166.9769     48.7162   5.4326557978e+01   3.7431224548e+01    0.2062077    0.1819655  57.54  0.000472088    1.100    0.091
       256 -11.2183    151.6454     47.9342   5.7083319913e+01   4.1382079466e+01    0.3267787    0.2408262  43.92 0.0003631228    1.336    0.252
       257 -10.8460    156.0768     46.8857   5.5845429606e+01   4.0428269958e+01    0.3872146    0.2460298 -31.04  0.001403892    1.621    0.383
       258 -11.0839    112.0295     47.1266   6.6410069773e+01   5.0892427340e+01    0.5580496    0.3650376  62.61  0.002550398    1.887    0.470
       259 -10.3177    120.4728     46.8212   6.4001175153e+01   4.9040043679e+01     0.365274    0.2225715  21.25  0.001135108    2.188    0.543
       260 -10.6408    143.2030     45.8462   5.8194370412e+01   4.3770237668e+01    0.3148636    0.2481122  82.17 0.0006753702    1.512    0.339
       261  -9.2502    240.4864     45.0053   4.2973809855e+01   2.0318990191e+01    0.1861082    0.1186634 -35.65 0.0003922016    1.452    0.311
       262  -9.1133     85.7123     45.2789   7.3864609912e+01   5.6575656044e+01    0.1239988    0.1136787 -74.01 0.0002983929    1.519    0.342
       263 -10.5916     51.1114     44.9823   8.6877147833e+01   6.2150921036e+01    0.2241907    0.1870514 -12.28 0.0003547788    1.050    0.048
       264 -11.2597     52.0570     39.7547   8.4443386422e+01   6.2961758809e+01    0.5563966    0.4086975  32.31  0.003279848    1.500    0.333
       265 -11.4630     57.6617     34.8451   8.0103834094e+01   6.2995706989e+01    0.2878997    0.2378972 -33.16 0.0002461668    1.274    0.215
       266 -10.2846     54.9424     30.2498   7.9262051272e+01   6.4129480339e+01    0.2057035    0.1597088 -25.43  0.001255466    1.178    0.151
       267 -10.5346    221.7324     43.1073   4.4616476199e+01   2.4794569624e+01    0.2219787    0.1808454 -14.34 0.0008092082    1.471    0.320
       268  -9.5623    174.7260     44.0253   5.1536645826e+01   3.6140534347e+01    0.2013401    0.1864515 -43.04  0.001130584    1.101    0.091
       269  -9.9679    163.0293     42.4076   5.3102147685e+01   3.9307954711e+01    0.2054037    0.1925466 -33.15 0.0002300734    1.108    0.098
       270  -9.9943    149.1125     41.8539   5.5617673680e+01   4.2869821026e+01    0.3060293    0.1851847 -33.09  0.001390881    1.697    0.411
       271 -11.1195     23.9609     42.2243   9.7831923217e+01   6.5567406226e+01    0.6239018    0.4268319  67.81  0.002891059    3.434    0.709
       272 -12.1136     27.7994     38.1212   9.4596730176e+01   6.6015361141e+01    0.3672189     0.258692 -18.46 0.0003556093    1.269    0.212
       273 -11.8123     24.4895     35.0658   9.5023374181e+01   6.6881816443e+01    0.5375465    0.2439062   5.36  0.002309455    3.155    0.683
       274 -10.0268      7.0327     41.4631   1.0547041900e+02   6.6877344723e+01    0.2606293    0.1068286 -48.98 0.0007123304    1.726    0.421
       275 -10.9946     91.8587     44.1074   7.1367787531e+01   5.5583605517e+01    0.6817018    0.3042139 -48.96  0.002447691    3.350    0.702
       276 -10.7111     64.5844     41.7533   8.0172174676e+01   6.0794930396e+01    0.3690253    0.2045049  45.97  0.001164777    2.230    0.552
       277 -11.6359     69.4031     37.6255   7.6642910521e+01   6.0699980671e+01    0.4944349    0.3323868 -26.08  0.001882568    1.380    0.275
       278  -9.3479    200.4453     41.4497   4.6894527116e+01   3.0091269028e+01    0.1393991    0.1287992 -74.24  2.85545e-05    1.011    0.011
       279 -10.0261    138.2143     41.2005   5.7720216180e+01   4.5645050427e+01    0.1961097    0.1723617 -84.10  0.001050571    1.326    0.246
       280 -12.4012    234.1438    246.3771   8.6996956971e+01  -9.1460680713e+00    0.5476709    0.4222217  -9.13   0.00391902    1.234    0.190
       281 -11.4733     98.3290     37.8285   6.6876793983e+01   5.5224100038e+01    0.7472928    0.5806257  31.52  0.004089843    1.206    0.171
       282 -11.8827     93.7823     24.1452   6.2693531040e+01   5.7995556422e+01    0.7347805    0.4513762  58.11  0.003126878    1.838    0.456
       283 -10.8998    105.1417     34.5560   6.3593784170e+01   5.4231094779e+01    0.3487528    0.2457194 -49.08 0.0007484983    1.791    0.442
       284 -12.1092    226.3143    245.7262   8.8282429179e+01  -7.9921013324e+00    0.6088424    0.3197311  -2.51  0.003006496    2.651    0.623
       285  -9.6356    105.1932     25.4751   5.9993474514e+01   5.5381796013e+01    0.1972237    0.1282941  51.58  0.000991761    1.459    0.315
       286 -11.7292     81.5670     35.4114   7.1329613755e+01   5.8892951440e+01    0.5795508    0.4008519  27.32  0.002384962    1.398    0.285
       287 -10.8906     78.4433     31.7809   7.0899028954e+01   6.0002587062e+01    0.5279675    0.2820794  -2.43  0.002015343    3.207    0.688
       288  -9.6824     81.3077     29.6899   6.9022472353e+01   5.9762491854e+01    0.1802957    0.1561318 -10.17  0.000344544    1.111    0.100
       289  -9.9464     37.2759     40.3808   9.1109600428e+01   6.4646730378e+01    0.2865202    0.2204253 -86.98  0.001504176    2.722    0.633
       290 -10.7701     41.5697     37.3666   8.8023867461e+01   6.4708603277e+01    0.4501434    0.3434684 -50.43  0.002711561    1.545    0.353
       291  -9.8737    120.1337     40.1556   6.1669440346e+01   5.0090715168e+01    0.1928522    0.1729697 -89.18 0.0005839937    1.372    0.271
       292  -9.0634    188.4191     39.4746   4.8054213508e+01   3.3320192924e+01    0.1404859    0.1312245 -76.40 7.360318e-05    1.026    0.025
       293 -10.5567    229.5974     35.9283   4.1984383099e+01   2.3931822759e+01    0.2763418    0.2150334   5.56  0.001521353    1.844    0.458
       294  -9.2380     89.7953     36.4086   6.8986999741e+01   5.7163953769e+01    0.2139597    0.1550588 -18.87  0.000554441    1.351    0.260
       295  -9.9602     15.2040     35.8377   9.9774389370e+01   6.7471821710e+01    0.2718966   0.09523875 -53.81  0.001248032    2.370    0.578
       296 -11.1350      8.3128     33.2962   1.0228943029e+02   6.8407004210e+01    0.4773133    0.3016246  29.57  0.003004374    2.019    0.505
       297  -9.8816      1.8133     37.2261   1.0670465801e+02   6.7987231938e+01    0.1678621   0.09981469 -32.60  0.001053426    1.387    0.279
       298 -10.1060    184.8010     35.1670   4.7362707556e+01   3.4778600402e+01    0.3140028   0.08009425 -35.95  0.001022626    3.431    0.709
       299 -10.7851    192.7785     33.1145   4.5664053317e+01   3.3051581198e+01    0.2348772    0.2072398  68.31 0.0002831469    1.106    0.096
       300 -10.1607    247.0038     33.3164   3.9667561969e+01   2.0433434494e+01    0.1735183    0.1475966 -83.26 0.0004330674    1.133    0.117
       301 -10.9817    167.5453     32.5441   4.9265255167e+01   3.9446895975e+01    0.3548545    0.2402516  88.37  0.001227396    1.731    0.422
       302  -9.2005    119.4843     33.4941   5.9373652710e+01   5.1140855951e+01     0.140576    0.1325942  31.68 -3.584282e-05    1.056    0.053
       303 -10.9945     17.2323     31.0956   9.7072969055e+01   6.8211900075e+01    0.3793093    0.1946008  17.88  0.002133391    2.131    0.531
       304 -10.7784     35.4953    239.5065   1.2357509464e+02   2.0378541950e+01    0.2507579    0.1832088 -56.94  0.001773031    1.853    0.460
       305 -10.9458     22.4192     25.4902   9.2254583578e+01   6.8778380306e+01    0.3108014    0.2219708 -28.90  0.001062807    1.084    0.078
       306 -10.3665     88.8661    241.2459   1.1391331136e+02   1.3351596603e+01    0.1996565    0.1472379 -36.23  0.001221488    2.110    0.526
       307 -10.3234    156.5088    241.5076   1.0079326208e+02   3.1106092432e+00    0.1252716    0.1026217  33.85  0.000810579    1.004    0.004
       308  -9.1461     50.3220    240.3080   1.2099185128e+02   1.8523067468e+01   0.09367704   0.08836371 -35.84 0.0004037975    1.644    0.392
       309 -10.1417    195.4603    238.7432   9.2872188706e+01  -2.5606067722e+00     0.250328    0.1677236  20.64  0.001496134    1.330    0.248
       310  -9.8606    135.0289    238.4763   1.0461438646e+02   6.9677430414e+00     0.271676    0.1211866 -39.43  0.001188898    3.352    0.702
       311 -11.6126     29.9831    234.0696   1.2421828326e+02   2.1994795853e+01    0.4226808    0.1818456  80.87  0.002225643    2.426    0.588
       312  -9.9214     24.2056    232.3059   1.2513391227e+02   2.2938132240e+01    0.1687685    0.1446827  78.78 0.0007140143    1.255    0.203
       313 -10.5977    236.1106     30.5586   4.0063510065e+01   2.3147771234e+01    0.2922112    0.1844852  47.29   0.00153292    1.982    0.495
       314 -10.1147    177.0325     31.5157   4.7460001584e+01   3.7181271405e+01    0.2094043     0.132331  66.50 0.0004249701    1.505    0.335
       315  -9.4623    157.5192     31.4939   5.0650115872e+01   4.2103416375e+01     0.141531      0.13363  67.65 9.677865e-05    1.020    0.020
       316  -9.4185     73.8111     31.3923   7.2387831564e+01   6.0895568812e+01    0.1750583    0.1128875  27.24 8.539343e-05    1.514    0.340
       317 -10.6850     47.8605     30.1635   8.2251850748e+01   6.5138093447e+01    0.4806591    0.2850424  18.21  0.001619676    1.778    0.438
       318 -10.7746     61.3687     26.0328   7.4773992798e+01   6.3774617842e+01    0.4320027    0.1869356 -26.68  0.001879715    2.401    0.584
       319 -11.4112    112.0763     25.2541   5.8103076780e+01   5.3863171034e+01    0.3447762    0.2197074 -21.34 0.0004790212    1.649    0.394
       320 -10.2009    214.7168     26.9865   4.1390077101e+01   2.8486295313e+01    0.1875953    0.1611235 -50.03 0.0004228617    1.120    0.107
       321  -9.8437    209.0957     27.5295   4.2152162206e+01   2.9757709653e+01    0.1906828     0.124657  70.61 0.0003345283    1.473    0.321
       322 -10.4601    194.7739     27.0031   4.3729849545e+01   3.3300170667e+01    0.1958791    0.1534803 -64.19 0.0004489851    1.263    0.208
       323 -10.1712    159.8867    235.9087   9.9351736012e+01   3.4537694204e+00    0.1946418    0.1546492  16.23 0.0006039867    1.274    0.215
       324 -11.2364    132.1750     25.7870   5.3637861562e+01   4.9062525674e+01    0.4909333    0.2458367  32.92 0.0007816569    2.452    0.592
       325 -11.3078    128.8899     23.4539   5.3500030319e+01   5.0120764959e+01    0.3251208    0.3056592  81.10  0.001059126    1.172    0.147
       326  -9.5061     16.6032     26.6945   9.5697246662e+01   6.9057968814e+01    0.1445841   0.09667406 -47.04 0.0002760261    1.384    0.278
       327  -9.5143    184.1469     26.1920   4.4899174746e+01   3.6031394509e+01    0.1885246     0.148602 -78.52 0.0002791465    1.296    0.229
       328  -9.9857    120.2214     21.2683   5.4613247399e+01   5.2426910890e+01    0.3418405    0.1959111  12.60  0.001212688    2.406    0.584
       329 -10.8827     72.3576     24.4731   6.9898856879e+01   6.2121624361e+01    0.5967509    0.2921118  18.42  0.002001298    3.258    0.693
       330  -9.9134     65.4710     25.3045   7.2842184630e+01   6.3203804808e+01    0.1641503    0.1167406 -34.83 0.0003999907    1.485    0.326
       331 -10.8583     10.2623     24.9694   9.8303895471e+01   6.9830950427e+01    0.2700464    0.1485644   2.20   0.00113696    1.961    0.490
       332  -9.4995    119.1410     25.7438   5.6553058824e+01   5.2175296308e+01    0.1906975    0.1620249  37.50 0.0003627948    1.066    0.062
       333 -10.6157     55.1652     22.7021   7.5784503641e+01   6.5222938462e+01    0.2585979    0.1454192  -8.04  0.001234862    2.165    0.538
       334  -9.4428     35.6782     22.8262   8.4564983417e+01   6.7841144556e+01    0.2611626    0.1221264  17.33  0.001217316    2.622    0.619
       335 -10.3424     99.0053     20.5184   5.9678624551e+01   5.7311614676e+01    0.2190353    0.1692176  -0.22 -3.139312e-05    1.294    0.227
       336 -10.6112      5.2269    235.5520   1.2853197827e+02   2.4200421461e+01    0.3053649    0.2298616  63.65  0.001834637    1.154    0.134
       337 -11.8971      4.7688     17.5743   9.8338269672e+01   7.1496522946e+01    0.3568785    0.2320108  -6.25  0.001716213    1.460    0.315
       338 -11.4860     37.6392    243.9606   1.2347162502e+02   1.9324134856e+01    0.5022553    0.2494643 -83.57  0.003072181    1.950    0.487
       339  -9.4087    227.2565     22.3847   3.8998071810e+01   2.6121889141e+01     0.174412    0.1113584 -89.07 0.0004486567    1.580    0.367
       340 -10.2510    155.7130     21.9426   4.7903113358e+01   4.3657678507e+01    0.2445408    0.1889662  73.86 0.0002068218    1.262    0.207
       341 -10.8579     67.1690     21.5421   7.0492787705e+01   6.3424244327e+01     0.347614    0.1750661  46.33  0.001324363    2.097    0.523
       342 -10.4790    161.9690     20.2705   4.6367655501e+01   4.2264552777e+01    0.3565795    0.1980674 -61.49   0.00151556    2.396    0.583
       343  -9.7414    177.4878    234.9413   9.5750547705e+01   7.9802035382e-01    0.1672589    0.1235382 -35.61 0.0009043041    1.558    0.358
       344  -9.8136    167.3701    233.7831   9.7565351148e+01   2.5909714281e+00    0.1592686    0.1161812 -28.48 0.0009428953    1.611    0.379
       345 -10.8457    153.8299    233.7237   1.0024501300e+02   4.7735860873e+00    0.2008075    0.1681342 -19.25  0.001016862    1.410    0.291
       346 -10.7504     86.4620    233.1168   1.1358791791e+02   1.5170860357e+01    0.2625827    0.1180269  51.40  0.001026946    1.965    0.491
       347 -10.1479     41.5594     19.4640   8.0241365556e+01   6.7622313777e+01    0.3725485    0.2611498  34.84  0.001670466    1.625    0.385
       348 -10.0146    110.0472    243.3569   1.1006751511e+02   9.9383528655e+00    0.2236191    0.1491817  84.13 0.0009073105    1.927    0.481
       349  -8.9902    231.6909    231.7048   8.5014981241e+01  -7.0086861389e+00    0.1244863   0.07698606   6.64 0.0002690551    1.590    0.371
       350 -12.0966     73.9755    236.8539   1.1634167016e+02   1.6179085874e+01    0.5143929    0.2997735 -69.00  0.003093455    1.835    0.455
       351 -10.4417      4.7802    226.6927   1.2821320879e+02   2.5902170754e+01    0.3972602    0.1417912  67.10  0.002073074    2.506    0.601
       352  -9.7692    190.5622    226.6268   9.1891594097e+01  -3.7586520698e-02    0.2095183    0.1200754 -33.16 0.0007526758    1.947    0.486
       353  -9.5543    130.6869    227.3441   1.0404527910e+02   9.5719959998e+00    0.1308292   0.09081259  65.92  0.000704691    1.708    0.415
       354 -10.9875    120.2000    226.1958   1.0604086055e+02   1.1437233895e+01      0.18555    0.1618859  30.78 0.0005729868    1.188    0.158
       355  -9.9619     66.0514    226.1805   1.1692380270e+02   1.9245161969e+01    0.1648972    0.1526837  57.89 0.0006064012    1.260    0.206
       356 -10.1631    115.6337    225.3212   1.0686649640e+02   1.2310263748e+01    0.1366037   0.08617818  63.51 0.0003014899    1.788    0.441
       357 -12.1099     21.9452    248.9002   1.2639181684e+02   2.0134413150e+01    0.4102046     0.213492  49.40  0.001893031    1.489    0.328
       358 -10.2084    123.4506    222.2971   1.0486675179e+02   1.1640986367e+01    0.2102039    0.1239409 -50.01 0.0006444179    1.955    0.488
       359 -10.3612     21.4608    221.7572   1.2501776904e+02   2.5253565956e+01    0.2107481   0.09022028 -85.90  0.001140557    2.153    0.536
       360 -10.1802    141.8754    220.9385   1.0085372857e+02   8.9005240141e+00    0.2817571    0.1754883  21.55  0.001391816    1.947    0.486
       361  -9.0879    250.3520    219.2997   7.9554702164e+01  -8.0577149774e+00    0.1285859   0.07615049   5.23 0.0007037178    1.695    0.410
       362  -9.5035    174.0339    220.0000   9.4103881021e+01   3.7088309758e+00    0.2224673   0.06589993  39.05 0.0008026265    2.944    0.660
       363 -10.0723    139.2979     20.3671   5.0302654338e+01   4.7917099558e+01    0.2377225    0.1825302  36.88 0.0004353059    1.282    0.220
       364 -11.9167     29.0200    248.2803   1.2518610372e+02   1.9495939758e+01    0.6372172    0.2480864  66.46  0.003420885    2.419    0.587
       365 -11.1090      9.5871    217.1657   1.2690685649e+02   2.7307450576e+01    0.2821011    0.1594055  62.33  0.001221939    1.405    0.288
       366 -11.2704    235.9097    214.9339   8.1315508558e+01  -5.4115785985e+00    0.3825899     0.196694 -18.08  0.001300607    2.183    0.542
       367 -11.0632    241.1615    211.5797   7.9764406533e+01  -5.7313611193e+00    0.3549288    0.2549112  23.62  0.002219641    1.249    0.200
       368  -9.5895     37.9490    217.5045   1.2166248635e+02   2.4353049694e+01    0.1606948    0.1024821  40.36 0.0007407763    1.545    0.353
       369 -11.2706     30.2433    216.0941   1.2303198629e+02   2.5473364487e+01    0.3770954     0.257024  16.88  0.002316433    2.325    0.570
       370 -10.0237     23.4297    216.6669   1.2434851431e+02   2.6064256163e+01    0.2106209    0.1046557  34.87  0.001224927    2.086    0.521
       371  -8.8415    201.6958    215.6513   8.7866095744e+01  -1.7421135137e-01    0.1361945   0.09059299   3.01 0.0007041023    1.698    0.411
       372  -9.4904    194.5143    215.4778   8.9245635610e+01   1.0302717950e+00    0.1327008    0.1114554  16.62 -8.664689e-05    1.004    0.004
       373  -9.2053     41.6801    220.7071   1.2118357841e+02   2.3291727950e+01   0.09894446   0.08857806 -47.37 0.0007013199    1.607    0.378
       374  -9.8552     67.0061    215.2007   1.1571916780e+02   2.1307306755e+01     0.172062    0.1440254  -5.75 0.0007320745    1.893    0.472
       375 -10.3941     21.4233    212.5198   1.2446540436e+02   2.7101887045e+01    0.3092031    0.1357697  53.33  0.001734448    1.909    0.476
       376 -10.1838    208.9567    212.0437   8.5819955146e+01  -8.0606300090e-01    0.2014693    0.1638866   9.46 0.0005177673    1.048    0.046
       377  -9.4758     76.3246    212.3078   1.1350714928e+02   2.0650551169e+01    0.1130333   0.09907413 -22.65 0.0005226202    1.650    0.394
       378 -10.2446      2.3026    212.3123   1.2796871856e+02   2.8924853275e+01    0.1903672    0.1356053  63.55 0.0009280557    1.154    0.133
       379 -11.7441      4.6184    207.7453   1.2731850819e+02   2.9640336746e+01    0.5487622    0.2245797  84.37   0.00292567    2.203    0.546
       380  -8.7926    188.3272    209.6673   8.9469055070e+01   2.9967043779e+00    0.1259594    0.1063239  69.15 0.0003939914    1.715    0.417
       381 -10.2863     10.7446    208.7580   1.2624068148e+02   2.8886428088e+01    0.1925456    0.1440689 -64.30 0.0007257069    1.558    0.358
       382 -11.0689     18.7559    203.6020   1.2440816986e+02   2.9196870908e+01    0.2843127    0.1453399  52.04  0.001694303    1.688    0.407
       383 -10.8026     19.6817    200.6663   1.2403457168e+02   2.9722939645e+01    0.3441488    0.1158628 -76.07  0.001626847    2.563    0.610
