#   1 NUMBER                 Running object number                                     
#   2 MAG_AUTO               Kron-like elliptical aperture magnitude                    [mag]
#   3 X_IMAGE                Object position along x                                    [pixel]
#   4 Y_IMAGE                Object position along y                                    [pixel]
#   5 X_WORLD                Barycenter position along world x axis                     [deg]
#   6 Y_WORLD                Barycenter position along world y axis                     [deg]
#   7 A_WORLD                Profile RMS along major axis (world units)                 [deg]
#   8 B_WORLD                Profile RMS along minor axis (world units)                 [deg]
#   9 THETA_WORLD            Position angle (CCW/world-x)                               [deg]
#  10 FWHM_WORLD             FWHM assuming a gaussian core                              [deg]
#  11 ELONGATION             A_IMAGE/B_IMAGE                                           
#  12 ELLIPTICITY            1 - B_IMAGE/A_IMAGE                                       
         1 -12.1228    248.0135     33.0007   3.2458107633e+01   2.1698671315e+01     1.714352     1.075878 -14.56  0.008749209    3.136    0.681
         2 -10.9127    247.4116     12.3708   2.8576222514e+01   2.4264320647e+01    0.3654565    0.2750023 -30.68  0.001512056    1.671    0.401
         3  -8.2607    165.0233      7.9280   3.4769457885e+01   4.2535749337e+01    0.1803455    0.1547332  83.50 0.0003231082    1.026    0.026
         4  -7.8270    221.3980    239.1834   7.7705892567e+01  -7.2210448157e+00    0.1568281     0.108657 -41.46 0.0006015145    1.719    0.418
         5  -8.4904    231.0733    249.6547   7.7642586630e+01  -9.8849167732e+00    0.1812018    0.1425313 -21.71  0.000635614    1.306    0.234
         6  -9.4361    190.9560    236.8775   8.3253739214e+01  -2.7279926266e+00    0.3033543    0.2598978  68.45  0.001828515    1.929    0.482
         7  -7.6635      1.4192    237.7658   1.2332122014e+02   2.2589278026e+01    0.1521773    0.0885507 -74.32 0.0009589957    1.643    0.392
         8 -10.3798    211.1751    231.0703   7.8282829291e+01  -4.6440371473e+00    0.2239167    0.1891211  -4.02            0    1.099    0.090
         9  -8.4131    181.0631    221.9027   8.2791826381e+01   1.2718540336e+00    0.2290127    0.1777134 -31.65 0.0004303785    1.299    0.230
        10  -9.2493    178.9145    230.9919   8.4764799683e+01   1.4916053359e-02    0.3274734    0.2251728  43.08 0.0003653458    1.588    0.370
        11  -9.2942    180.2048    226.4168   8.3736545161e+01   6.1055044329e-01    0.2948996    0.2546441  -2.35  0.000311695    1.058    0.054
        12  -7.0038     70.2889    226.2905   1.0825207735e+02   1.7292130953e+01    0.1172827    0.1014533 -24.20 0.0002906554    1.542    0.351
        13  -7.1765    101.0000    224.0926   1.0101955504e+02   1.3400802499e+01    0.1987122   0.07748848 -59.92 0.0003594632    2.801    0.643
        14  -7.4601    249.3077    223.3023   6.9963655981e+01  -8.4019486770e+00    0.1237084   0.07496484  -7.21 0.0002885664    1.601    0.376
        15  -6.8829    191.3092    222.7042   8.0801789122e+01  -4.2565768879e-01    0.1181637    0.1056293  58.55 0.0002817316    1.591    0.372
        16  -7.5430    208.4816    219.4931   7.6794122987e+01  -2.4140225732e+00    0.1309997    0.1096634  -2.17 -2.569843e-05    1.025    0.024
        17 -10.2701    147.9130    215.5575   8.8976096585e+01   7.7523422331e+00    0.2519255    0.2285904 -24.48  0.001487037    1.144    0.126
        18  -6.8955     56.2833    214.7439   1.1024167842e+02   2.1671652086e+01    0.1311714   0.08541051  62.30 0.0006859765    1.475    0.322
        19  -8.2277     99.9228    210.6462   9.9465676726e+01   1.6491004078e+01    0.2046244    0.1834998 -48.16 0.0003199549    1.220    0.180
        20 -10.7378    123.9965    206.0013   9.2994917495e+01   1.3682636461e+01    0.2014501    0.1889482  33.65  0.001162688    1.002    0.002
        21  -8.9007    170.8864    201.1862   8.1303479136e+01   6.7870028617e+00    0.2170532     0.201138   4.20 0.0002924076    1.045    0.043
        22  -7.8574    156.4196    198.6446   8.4096606807e+01   9.7639443965e+00    0.2596773    0.1421596 -52.50 0.0007429362    2.024    0.506
        23  -7.4930    139.2704    198.9996   8.8171943638e+01   1.2635963526e+01    0.1860808    0.1790949 -25.43            0    1.074    0.069
        24  -7.3112    133.0192    199.0237   8.9670644531e+01   1.3697579859e+01    0.1652015     0.155918  25.46            0    1.004    0.004
        25  -9.2956     32.0276    197.3510   1.1421984859e+02   2.8532201205e+01    0.2318914    0.1834199 -75.89 0.0004038918    1.181    0.153
        26  -7.6936    222.8830    187.8816   6.8131054659e+01   8.1402374973e-01    0.1569119    0.1487259 -17.09 0.0009960461    1.250    0.200
        27  -7.2093     98.4106    187.4232   9.6357787596e+01   2.2122380477e+01    0.1414293    0.1391535  68.04 0.0001331678    1.036    0.035
        28  -7.1206    103.6813    183.6758   9.4377531654e+01   2.2171489049e+01    0.1508896    0.1157434 -19.65 0.0007045047    1.673    0.402
        29  -8.9330     34.5537    181.9155   1.1210771671e+02   3.2013490438e+01    0.2101602     0.202015  70.07 0.0003063258    1.166    0.142
        30  -7.3545    192.1238    179.3705   7.2480575594e+01   7.4319682850e+00    0.1838692    0.1327952  47.49 0.0003404313    1.604    0.377
        31  -7.3215    130.4043    169.8690   8.4899510175e+01   2.0805286487e+01    0.2039293    0.1399078 -37.54 0.0001325595    1.553    0.356
        32 -10.1184      2.3124    166.2729   1.1879923191e+02   3.8698463527e+01    0.5474952    0.2840229 -72.49  0.002890963    1.569    0.363
        33  -9.3469      2.9801    160.8398   1.1818627458e+02   3.9985945757e+01    0.3634524    0.2066594  48.89  0.001341064    1.815    0.449
        34 -10.7950     36.0147    150.5162   1.0796157214e+02   3.9823505794e+01    0.9415385    0.6372263 -15.76  0.004238378    2.054    0.513
        35  -9.6549    177.8674    148.3323   6.8856532590e+01   1.6423683872e+01    0.2639226    0.2361216 -40.71 0.0002508574    1.080    0.074
        36  -9.9289     48.7882    145.7717   1.0347341500e+02   3.9673195868e+01    0.4788451    0.3728398 -82.60  0.002160046    1.268    0.212
        37  -8.6218    121.1053    145.1285   8.2101880109e+01   2.8481082907e+01     0.225659    0.2208668 -18.57 0.0003550879    1.021    0.020
        38  -7.9921    183.0733    145.3129   6.7051814227e+01   1.6019034088e+01    0.2059496    0.1951269  31.68 0.0004840612    1.115    0.103
        39  -7.3038    175.4903    137.5506   6.6887709080e+01   1.9173794663e+01    0.1526777    0.1445285 -26.61 2.382101e-05    1.015    0.015
        40  -7.2909     84.3520    135.7762   9.0703377866e+01   3.7347087030e+01    0.1505823    0.1137977  60.86 0.0002595308    1.555    0.357
        41  -7.6204    242.6958    127.3262   5.2419174921e+01   8.2465657891e+00    0.1326301   0.09456232 -62.01 0.0006735213    1.645    0.392
        42  -7.6616    127.1142    119.8668   7.4343808977e+01   3.3256441522e+01    0.2220855    0.2088428 -82.66 0.0002621046    1.155    0.134
        43  -8.5101    243.1709    119.1641   5.0644932274e+01   9.5656963454e+00    0.1799189    0.1448052 -63.62   0.00083115    1.343    0.256
        44  -8.1283     70.1287    113.8304   9.0306897726e+01   4.5052400958e+01    0.2050073    0.1960391 -73.14 0.0003018876    1.112    0.101
        45  -9.0246    246.1464    109.7144   4.8261329155e+01   1.0639304225e+01    0.3458572    0.1738162 -57.17  0.001357427    2.397    0.583
        46  -8.9921    248.0255    103.3454   4.6692475925e+01   1.1361797955e+01     0.281005    0.1502993 -30.11  0.001336412    2.013    0.503
        47  -9.3726    241.5952    103.0208   4.7467548627e+01   1.2575362398e+01    0.3262712    0.2247858  -9.20  0.001498865    2.330    0.571
        48  -9.3015    184.3553    101.8582   5.6372870127e+01   2.4449661938e+01    0.3558143    0.2691225 -39.54 0.0009264159    1.267    0.211
        49  -7.6841    105.0054    103.1034   7.6224811438e+01   4.1555532480e+01    0.3486876    0.2134331  22.35  0.001164123    2.150    0.535
        50 -10.2615     88.4217     95.6556   7.9385778670e+01   4.6351506577e+01    0.2662596    0.2527347 -13.76 0.0002516743    1.011    0.011
        51  -7.7296    143.1604     94.9454   6.3442267486e+01   3.5115749315e+01    0.2215828     0.176463  81.83 0.0007875558    1.561    0.360
        52  -7.1067     99.6107     95.4833   7.5730055777e+01   4.4298560249e+01    0.1520128    0.1430481 -23.73  -4.1813e-05    1.027    0.026
        53  -8.3021    178.7485     93.2767   5.5273511295e+01   2.7306407520e+01    0.2471964    0.1899044  59.66 0.0005492927    1.356    0.262
        54  -8.9807    159.2364     91.3311   5.8743924012e+01   3.2136890753e+01    0.3565451    0.2545231 -24.30 0.0008496518    1.646    0.393
        55 -10.9526    244.8214     88.5572   4.4020481677e+01   1.4340283991e+01    0.7684633    0.5731875  41.50  0.004541886    1.775    0.437
        56 -11.9647    239.1057     78.2552   4.2543547136e+01   1.7046068463e+01     1.742227    0.6274514 -35.64  0.007058357    2.682    0.627
        57 -11.0718    231.0286     72.6055   4.2300514116e+01   1.9511230422e+01    0.6064007     0.519623  44.63  0.001610323    1.484    0.326
        58 -10.2762    250.2085     63.9468   3.8379027211e+01   1.7085260277e+01    0.3534938    0.2172543 -40.26 0.0005101779    1.436    0.304
        59 -12.3087    242.2666     59.9370   3.8369338670e+01   1.9178965744e+01     2.726182    0.4764789  54.68  0.008424796    6.396    0.844
        60  -8.4261    247.5163    249.5162   7.4702578774e+01  -1.1760120037e+01    0.1166649   0.08427207  -3.77   0.00081021    1.013    0.013
        61  -8.4175    195.0317     86.5078   5.0655436016e+01   2.4865844570e+01    0.2894476    0.2155887  53.28  0.001464595    1.426    0.299
        62  -8.7961    200.5867     84.4519   4.9250057334e+01   2.3995730077e+01    0.4704119    0.2223399  49.22  0.001355802    2.328    0.570
        63 -11.1201    215.5543     77.7886   4.5458445969e+01   2.1879920811e+01    0.7698575    0.6733537 -43.82  0.003695645    1.132    0.117
        64 -10.0879    176.8587     81.2811   5.2521885370e+01   2.9889851626e+01    0.4222429    0.3424349  -8.68  0.002149256    1.585    0.369
        65 -10.0739    249.9295     77.1804   4.1085802526e+01   1.5168657651e+01    0.4564572     0.199779 -40.04  0.002196366    1.911    0.477
        66 -11.4812    248.8100     46.5405   3.5041413960e+01   1.9784247864e+01     1.058195    0.7132621 -24.97  0.006209515    1.965    0.491
        67  -9.1706    183.9857     78.6816   5.0573246728e+01   2.8698225315e+01    0.2747273    0.1882844 -49.82  0.001348916    1.413    0.292
        68  -9.1693    183.5669     74.5268   4.9580681766e+01   2.9491357393e+01    0.3666951    0.2340223  25.48  0.001510625    2.695    0.629
        69  -7.8972    137.0304     74.5674   5.9042391867e+01   4.0375258115e+01    0.2255554     0.192696 -38.56 0.0001182972    1.196    0.164
        70  -8.3263    185.3982     90.5963   5.3350510717e+01   2.6294231411e+01    0.2659523    0.2176617 -22.97 0.0006969786    1.382    0.277
        71  -7.0693    127.9018     90.8746   6.6169896069e+01   3.9356236590e+01    0.1988306    0.1767502 -83.38  0.001003812    1.301    0.231
        72  -7.3804    120.8669     51.8342   5.5876537769e+01   4.7836271521e+01    0.1810759    0.1629492 -73.40 0.0003128116    1.275    0.216
        73 -10.8450    228.1710     46.9783   3.7098471096e+01   2.3821621641e+01    0.5006727    0.3844736   2.28  0.002813246    2.270    0.560
        74 -10.0777    233.0501     42.6952   3.5711625715e+01   2.3399874325e+01    0.3822137    0.1623824 -54.27  0.001799504    2.188    0.543
        75  -9.8668    226.0297     36.6869   3.5118743053e+01   2.5627331731e+01    0.2677313    0.2084316  68.78  0.000379988    1.366    0.268
        76  -9.6832    230.5000     37.4707   3.4862389949e+01   2.4603737255e+01    0.2550832    0.1957509 -64.71  0.001190017    1.074    0.069
        77  -9.2262    232.3137     34.3398   3.4047148464e+01   2.4633634143e+01    0.3559797    0.1515374 -33.76  0.001621139    2.406    0.584
        78  -7.5493    172.0750     50.1012   4.5068629726e+01   3.5943096626e+01    0.1810701     0.147117 -73.14  0.001004909    1.236    0.191
        79  -7.7515    159.8556     48.2031   4.6593658347e+01   3.9123052926e+01    0.2022328    0.1798385 -79.56 0.0004881255    1.109    0.098
        80  -8.7955    152.1627     46.6223   4.7523259457e+01   4.1186174019e+01    0.2284488    0.2149716  11.68 0.0003236164    1.216    0.178
        81  -9.1134    219.9948     45.0311   3.7532393079e+01   2.5796688620e+01    0.2004981    0.1643596 -65.72 0.0005442892    1.032    0.031
        82  -9.3339    120.9555     39.3724   5.1723498889e+01   4.9555919104e+01    0.3242371    0.2403317 -40.39 0.0002727533    1.477    0.323
        83  -7.9139    139.9701     40.7440   4.8091037642e+01   4.4894101890e+01    0.1807348    0.1103891  59.33 0.0003641277    1.497    0.332
        84  -9.9197    218.3799     34.6005   3.5413726004e+01   2.7504710351e+01    0.4129611    0.2464708  62.38  0.002314837    1.723    0.419
        85  -8.7409    238.0222     31.8965   3.3055081208e+01   2.3791328409e+01    0.1763513    0.1423014 -65.59            0    1.042    0.040
        86  -8.8233    228.7285     29.5760   3.3379154361e+01   2.5962053868e+01    0.2411463    0.1580881 -34.66  0.001135917    1.625    0.384
        87  -9.6716    235.9633     26.9769   3.2237240896e+01   2.4808726100e+01    0.3017972    0.2192896  77.61 0.0004879584    1.357    0.263
        88  -9.1393    212.8275     26.5176   3.4183829783e+01   2.9691268614e+01    0.3506699    0.1938422 -36.17  0.001158588    1.815    0.449
        89  -8.3648    201.9816     27.6353   3.5525284239e+01   3.1940688831e+01    0.2136018    0.1477679 -54.17 0.0005826775    1.327    0.246
        90  -7.0981    115.0123     24.2880   4.7939999920e+01   5.2722064118e+01     0.160701    0.1063675  57.19 0.0005777038    1.330    0.248
        91  -7.7817    198.5968     21.1808   3.4382741205e+01   3.3445722874e+01    0.1574923    0.1215092 -18.74 0.0009488098    1.719    0.418
        92  -7.4138     14.6541     18.1510   8.3142637262e+01   7.1158532538e+01    0.1577572    0.0842384 -30.39 0.0009110915    1.604    0.376
        93  -7.2500    238.5044    239.5032   7.4633356497e+01  -9.3871010517e+00    0.1194349   0.09180981  -4.03 -0.0002170066    1.040    0.038
