#   1 NUMBER                 Running object number                                     
#   2 MAG_AUTO               Kron-like elliptical aperture magnitude                    [mag]
#   3 X_IMAGE                Object position along x                                    [pixel]
#   4 Y_IMAGE                Object position along y                                    [pixel]
#   5 X_WORLD                Barycenter position along world x axis                     [deg]
#   6 Y_WORLD                Barycenter position along world y axis                     [deg]
#   7 A_WORLD                Profile RMS along major axis (world units)                 [deg]
#   8 B_WORLD                Profile RMS along minor axis (world units)                 [deg]
#   9 THETA_WORLD            Position angle (CCW/world-x)                               [deg]
#  10 FWHM_WORLD             FWHM assuming a gaussian core                              [deg]
#  11 ELONGATION             A_IMAGE/B_IMAGE                                           
#  12 ELLIPTICITY            1 - B_IMAGE/A_IMAGE                                       
         1 -10.4048      9.5235     47.9866   1.2501017882e+02   6.4730068755e+01    0.9167582    0.3321672 -28.63  0.003406748    3.418    0.707
         2 -10.1686      9.4235     19.7222   1.1578135617e+02   6.9418971697e+01    0.3738269    0.1965495   5.97 0.0006190673    2.032    0.508
         3 -10.1329     24.5234     16.6723   1.0778088012e+02   6.8545536975e+01     0.288926    0.2239535  12.03 0.0007215595    1.284    0.221
         4  -9.0066     31.7921     10.4837   1.0199161475e+02   6.8563753481e+01    0.3914626     0.174339 -20.87  0.002048543    2.422    0.587
         5  -8.8391    231.4466     15.5838   6.0427111641e+01   2.6261415526e+01    0.3436843    0.1783441 -42.65  0.001330805    1.826    0.452
         6  -9.6185     64.0467     14.2867   9.1288830815e+01   6.3691640949e+01    0.3745318    0.2087658  25.70 0.0007544113    1.745    0.427
         7  -8.5200    134.9129     12.9751   7.2576085000e+01   4.9628421623e+01    0.2876012    0.1731841  27.89  0.001358795    2.000    0.500
         8  -8.4740     74.4871     13.6861   8.7633218263e+01   6.2014199884e+01    0.2655061    0.1687548  25.32 0.0008483177    1.453    0.312
         9  -8.4588     80.0519     12.6875   8.5534904097e+01   6.1128764100e+01    0.2138475    0.2073799   8.55  0.001070641    1.305    0.234
        10  -8.8567     97.3742     12.0572   8.0505214840e+01   5.7878512294e+01    0.2484634    0.1650961  39.12 0.0005310685    1.295    0.228
        11  -8.4300    157.7790     11.2907   6.8185382832e+01   4.4377062836e+01    0.2976587    0.1475764 -52.95  0.001311971    2.556    0.609
        12  -8.2831    105.9040     10.8162   7.7952363294e+01   5.6244786557e+01    0.1980864    0.1460702  31.71 0.0005040772    1.238    0.192
        13 -10.6480     20.3026      8.7876   1.0629921638e+02   6.9993975448e+01    0.2142994    0.1543802   0.68 0.0003124902    1.137    0.120
        14  -7.8985     15.2146     10.1907   1.0924624132e+02   7.0287526193e+01    0.1762381    0.1094707 -12.14  0.001230594    1.351    0.260
        15  -8.5945      2.3422      8.0518   1.1448837364e+02   7.1597882854e+01    0.2490285     0.135869 -30.92  0.001748366    1.374    0.272
        16  -8.6388    128.0822      7.6530   7.2152852533e+01   5.1679020706e+01    0.2311204    0.1559525  29.06 0.0008113802    1.588    0.370
        17  -8.1481     39.1537      8.1546   9.7904110843e+01   6.7946253597e+01    0.2385018    0.1239231  25.04  0.001416982    1.821    0.451
        18  -7.9749     76.5769      7.0051   8.4282533287e+01   6.2301509347e+01    0.1951125    0.1305286  41.76 0.0007705663    1.306    0.234
        19  -7.5245     84.2977      6.3676   8.1804534948e+01   6.0943510049e+01    0.1296089   0.07621436  22.73 0.0007031169    1.729    0.421
        20  -8.5438     68.4190      4.5617   8.5776155070e+01   6.3947397032e+01    0.3373905    0.1319361 -21.32  0.001542772    2.727    0.633
        21  -8.7992     56.3836      5.0242   8.9994096558e+01   6.5850908324e+01    0.2659842    0.1331577  23.05  0.001424159    2.089    0.521
        22  -9.9003     49.0382      4.6755   9.2502117352e+01   6.6978305012e+01    0.2334038     0.156248   8.65 0.0003849452    1.305    0.234
        23  -8.6337    110.9481      4.2256   7.4464158689e+01   5.5749818552e+01    0.2800869    0.1738126 -28.13  0.001301654    1.821    0.451
        24  -8.5072     12.5376      5.2532   1.0834489998e+02   7.1162013184e+01    0.1599077    0.1176015  21.55  0.001240829    1.534    0.348
        25  -8.6643    125.4746      3.9168   7.1424191132e+01   5.2584700394e+01    0.1935977    0.1466533  55.12 0.0005209827    1.109    0.098
        26  -7.9738    103.6523      4.6657   7.6249573695e+01   5.7252933123e+01    0.1362957   0.07603299  31.99 0.0007048451    1.773    0.436
        27  -8.8222    248.8165      2.7269   5.6365403050e+01   2.3888834314e+01    0.2320202   0.09884427 -25.83  0.001010341    3.615    0.723
        28  -8.4621    181.9328      2.3102   6.2510880353e+01   3.9394973028e+01    0.2623864    0.1470527  52.70 0.0006754716    1.737    0.424
        29  -7.8828    175.9501      2.7376   6.3340441445e+01   4.0796465633e+01    0.1772042     0.142326  74.78 0.0002772402    1.041    0.039
        30  -8.2594    153.5484      3.4309   6.6563876888e+01   4.6109411258e+01    0.1294673    0.1074234  63.31 5.763175e-05    1.035    0.034
        31  -7.7845    143.0817      2.2613   6.7833567971e+01   4.8677860849e+01    0.1770705    0.1394059  65.22 0.0003262333    1.080    0.074
        32  -7.9736      2.9915      1.3492   1.1126365657e+02   7.2438942474e+01    0.1331741   0.07977158  12.90 0.0003666841    1.573    0.364
        33  -7.6477    158.2079    228.9806   1.2081975712e+02   3.7831472191e+00    0.2015687    0.1534822 -10.36  0.001065636    1.932    0.482
        34 -10.0489    200.4042    248.4953   1.1565846944e+02  -6.7081353747e+00    0.4742882    0.3101131 -12.31  0.002125588    2.071    0.517
        35  -8.6070    150.6118    249.6398   1.2527108426e+02   1.5585444679e+00    0.2489465    0.1739747  25.40  0.001278045    1.684    0.406
        36  -7.8977    123.4725    250.5104   1.3052797156e+02   6.0022581802e+00    0.2230134    0.1086117  34.20  0.001023531    2.342    0.573
        37  -7.5557    174.6884    228.6294   1.1747082584e+02   8.6454801919e-01    0.1349209    0.1009226   4.96 0.0007034866    1.773    0.436
        38  -8.6469    246.7671    225.6791   1.0329704838e+02  -1.0873741040e+01    0.3625957    0.2382266   9.59  0.002088666    1.578    0.366
        39  -8.0343    230.1152    226.5903   1.0646525529e+02  -8.3931535234e+00     0.250652    0.1504689 -18.00   0.00129901    1.950    0.487
        40  -8.0506    187.0160    226.4642   1.1467432709e+02  -9.8649867706e-01    0.2048747    0.1171722  38.62  0.000552373    1.556    0.357
        41  -8.2600    162.0537    234.1958   1.2084624360e+02   2.1732014209e+00    0.1998026    0.1634201  29.38    0.0005384    1.230    0.187
        42  -7.8246     70.2123    225.8781   1.3794905738e+02   1.9120202096e+01    0.1538099    0.1416602 -87.34 0.0007933541    1.332    0.249
        43  -7.7499    223.5015    224.9928   1.0740612100e+02  -7.0758061628e+00    0.1805644    0.1202283 -29.27  0.001009894    1.564    0.361
        44  -7.7711    206.0527    222.9630   1.1035858278e+02  -3.7883172426e+00    0.2206994     0.151561   3.76  0.001134257    1.847    0.459
        45  -7.4408    200.4857    223.4433   1.1152072547e+02  -2.8872691399e+00    0.1337833    0.1149961  22.10 0.0001103182    1.056    0.053
        46  -7.7553     51.5207    221.5260   1.4108704143e+02   2.2592372843e+01    0.1233232   0.09553286  77.97 0.0001461053    1.019    0.019
        47  -8.3778    182.4931    219.7654   1.1444297580e+02   9.7861458468e-01    0.2589378    0.1912406  18.53 0.0008928743    1.534    0.348
        48  -7.8872     40.9991    220.4630   1.4295992852e+02   2.4148675426e+01    0.1705728    0.1031647  46.47 0.0009619778    1.590    0.371
        49  -8.0213    239.8443    219.1339   1.0334970097e+02  -8.8651222747e+00    0.1809322    0.1700914 -17.13  0.001224165    1.269    0.212
        50  -8.3101    226.5831    218.6899   1.0570024270e+02  -6.6347043002e+00    0.2915563    0.1855711  -3.62  0.001456803    2.040    0.510
        51  -7.2973    217.4385    219.4914   1.0756354720e+02  -5.2104968371e+00    0.1307254    0.1140798  14.13 0.0001538831    1.013    0.013
        52  -7.3534    173.3440    219.2579   1.1620266594e+02   2.7562949015e+00    0.1351936    0.1012349  17.08 0.0006962682    1.590    0.371
        53  -7.5897    203.8253    216.3703   1.0962230691e+02  -2.3193967872e+00    0.1914882    0.1134083  31.23 0.0005175297    1.663    0.399
        54  -8.5037    193.7084    215.4710   1.1145502486e+02  -3.3452835611e-01    0.2856152    0.1949282  12.88 0.0007787786    1.878    0.467
        55  -7.5946    210.8547    215.1538   1.0803855084e+02  -3.3701715411e+00    0.1819235    0.1446112   7.37  0.000397099    1.295    0.228
        56  -7.9704    130.5130    220.4982   1.2519163444e+02   1.0386221249e+01    0.1370057    0.1194771  58.98 2.759565e-05    1.018    0.018
        57  -7.4093     83.3661    215.3281   1.3419536127e+02   1.9366847106e+01     0.119493    0.1050174 -22.62 0.0007036524    1.808    0.447
        58  -8.7382    249.2805    212.6325   1.0046425425e+02  -9.4039876870e+00    0.2828703    0.2110221  47.82 0.0006536552    1.650    0.394
        59  -8.0542    122.0339    213.4576   1.2593221273e+02   1.3320204193e+01    0.2096937    0.1233876  44.16 0.0006154248    1.549    0.354
        60  -8.1426    232.3595    211.9438   1.0338770472e+02  -6.5636077080e+00    0.1847063      0.15203 -17.97  0.001133114    1.165    0.142
        61  -7.5183    169.6766    211.7107   1.1567146023e+02   4.8276955325e+00    0.1372851    0.1069722  10.89 0.0004157405    1.607    0.378
        62  -7.9851    186.2022    210.1960   1.1202097168e+02   1.9858877958e+00    0.2104617    0.1762512  15.41 0.0006211699    1.258    0.205
        63  -7.5723     54.6752    210.6772   1.3944266509e+02   2.4477495375e+01    0.1125006   0.09468158 -47.98  0.000704763    1.684    0.406
        64  -7.7163     43.6045    210.2773   1.4156976106e+02   2.5980225065e+01    0.1600409   0.09643067 -66.19 0.0003097726    1.596    0.374
        65  -8.0475    162.5698    208.2892   1.1656134389e+02   6.8301087164e+00    0.2993261    0.2007605  10.55  0.001014317    2.489    0.598
        66  -8.4980    169.3473    207.9239   1.1508196948e+02   5.6051956861e+00     0.227259     0.181397  50.93 0.0004632286    1.187    0.158
        67  -9.2050    124.0261    205.9982   1.2439209925e+02   1.4518415709e+01    0.2005853    0.1764767  65.13            0    1.006    0.006
        68  -7.8499    246.8842    205.1806   9.9483116156e+01  -7.9143912429e+00    0.1868381    0.1367851   2.63  0.001078259    1.386    0.278
        69  -7.7548    215.9804    205.4793   1.0525745883e+02  -2.6845173935e+00    0.2040952    0.1239509  37.16 0.0008509241    1.560    0.359
        70  -8.1304    236.7081    204.0527   1.0109931230e+02  -6.0624368627e+00    0.1802328    0.1525557  -8.51  0.000281812    1.082    0.076
        71  -8.5479    227.9110    201.7033   1.0227382584e+02  -4.1753079383e+00    0.5774362    0.2489181 -21.81  0.001702916    5.449    0.816
        72  -7.3192    156.7014    204.2876   1.1710956554e+02   8.7399217004e+00    0.1407093    0.1069539  73.44 0.0002684558    1.555    0.357
        73  -7.9039    117.8616    204.6940   1.2552054465e+02   1.5902817481e+01    0.2734909    0.1233294  35.19  0.001067733    2.554    0.608
        74  -7.3532     86.0236    205.0000   1.3237482639e+02   2.1184903786e+01    0.2060471   0.07072923  39.92  0.000542734    2.826    0.646
        75  -8.1659    196.1072    200.5728   1.0824316700e+02   1.8499047256e+00    0.2756094    0.1624362  31.10  0.001164403    1.800    0.444
        76  -8.0243    250.4273    199.1764   9.7705534114e+01  -7.5698165600e+00    0.2510416    0.1142888 -32.14  0.001142439    2.150    0.535
        77  -7.7409    184.9510    200.1825   1.1044390892e+02   4.0640955868e+00    0.2368466    0.1560956  19.35  0.001069246    1.982    0.496
        78  -7.8629    243.7727    197.4115   9.8540816672e+01  -6.2005997735e+00    0.2300062    0.1464701 -14.08 0.0007735211    1.797    0.443
        79  -8.7086    166.1909    197.3932   1.1386112814e+02   8.2684450977e+00    0.3152241    0.2308628  19.70   0.00100295    1.705    0.414
        80  -7.5816     99.9788    198.5267   1.2849365724e+02   2.0348537502e+01    0.1759973    0.1264555  12.79 0.0008088209    2.446    0.591
        81  -8.3338    192.9669    194.3652   1.0769287241e+02   3.5972876821e+00    0.3357735    0.2004133 -28.85  0.001484427    2.056    0.514
        82  -7.5780    124.0089    193.9923   1.2248585846e+02   1.7104590030e+01    0.1770521    0.1590221  69.14 0.0009990229    1.006    0.006
        83  -7.5006     90.0093    192.2408   1.2978820186e+02   2.3401410499e+01    0.1756749    0.1099275  43.79 0.0004555726    1.571    0.364
        84  -7.6592    246.5158    189.5447   9.6506756609e+01  -5.4071851947e+00    0.1328954    0.1151944  -5.59 0.0002781495    1.032    0.031
        85  -7.7009    225.1551    188.8067   1.0026021709e+02  -1.5147128047e+00    0.1930684    0.1532181  -0.21 0.0004015718    1.338    0.253
        86  -7.4439     45.4997    187.4416   1.3889160682e+02   3.0799087733e+01    0.1274649    0.1031214  88.55 0.0001352974    1.027    0.026
        87  -7.9628     64.6115    189.4743   1.3501082677e+02   2.7846605638e+01    0.2111343     0.132763  23.36  0.001025162    2.430    0.588
        88  -7.2182    139.6631    184.6717   1.1735271190e+02   1.6166322347e+01    0.1465446    0.1199482  -3.22 0.0007051893    1.728    0.421
        89  -7.7784    165.0519    182.5147   1.1128943035e+02   1.1534305138e+01    0.2328153     0.141398  44.41  0.001027316    1.574    0.365
        90  -7.8244    156.6879    180.9219   1.1282494448e+02   1.3574389892e+01    0.2039606    0.1897807 -57.91 0.0005167719    1.116    0.104
        91  -7.4475    183.4950    180.5219   1.0692153967e+02   8.1695650428e+00    0.1461149    0.1412179  45.33 -2.561058e-05    1.025    0.024
        92  -7.7660     96.5616    178.4443   1.2620605668e+02   2.5502320147e+01    0.1422683    0.1273952  86.03 7.249387e-05    1.020    0.019
        93  -7.1256     69.2988    178.3077   1.3249899120e+02   2.9772190497e+01    0.1261828    0.1022907 -41.53 0.0003692168    1.594    0.373
        94  -7.7918     47.2585    175.6014   1.3714507695e+02   3.3307096056e+01    0.1533272    0.1273149  26.59 0.0006511842    1.605    0.377
        95  -7.8316    148.7293    174.5607   1.1337201356e+02   1.6575964688e+01    0.2779767    0.1446064  39.67 0.0009946639    1.956    0.489
        96  -7.9575    183.6326    171.7348   1.0508136659e+02   9.9175361061e+00    0.2375243    0.1807629  -2.09  0.001092183    1.783    0.439
        97  -8.5270    177.0269    167.4650   1.0559991082e+02   1.2191787133e+01    0.3022048    0.1914755  -8.04  0.001031693    3.381    0.704
        98  -7.1111    135.2889    167.6863   1.1512769734e+02   2.0836767337e+01    0.1540155     0.116053  83.30 0.0004756313    1.587    0.370
        99  -7.7185    199.2893    166.4125   1.0068698730e+02   7.7141843680e+00    0.1565666    0.1155294  -5.19 0.0006976823    1.827    0.453
       100  -7.6203    150.6971    165.6914   1.1112801444e+02   1.8134992012e+01    0.1496064    0.1240422  -3.24 0.0003339501    1.604    0.377
       101  -7.7156    169.0888    163.6356   1.0652649227e+02   1.4694301382e+01    0.2197966    0.1403534  34.40 0.0008461967    1.734    0.423
       102  -7.6439    122.5996    163.1601   1.1726380054e+02   2.4378470046e+01     0.206694    0.1386295 -44.71  0.000568633    1.606    0.377
       103  -7.6867    159.5159    160.4903   1.0800657933e+02   1.7424802966e+01    0.2825266    0.1432588 -36.10  0.000963888    2.464    0.594
       104  -7.6062     21.3562    157.2921   1.4089485470e+02   4.0306521269e+01    0.1187884    0.0816509 -47.24 0.0006395956    1.687    0.407
       105  -7.3101    245.6756    156.6960   8.9890637906e+01   2.9127837638e-01    0.1395428    0.1043249   0.18 0.0007032174    1.641    0.390
       106  -7.7418    197.2877    153.3690   9.8233812965e+01   1.0747512964e+01    0.1556399    0.1198853  -4.22 0.0007021753    1.707    0.414
       107  -9.0730    116.3367    152.3355   1.1663252335e+02   2.8125270262e+01    0.2639297    0.2531545 -41.42  0.000319149    1.159    0.137
       108  -8.0471    205.4972    151.5043   9.6161255206e+01   9.3542963522e+00    0.1490264    0.1441348 -17.86 -0.0002548957    1.030    0.030
       109  -8.0372    133.3133    147.8591   1.1146814743e+02   2.5808370967e+01    0.2200375    0.1968689 -55.89 0.0008973409    1.110    0.099
       110  -9.4045     67.0104    144.5417   1.2781049848e+02   3.8144204807e+01    0.4811774    0.3068718  70.06  0.002298226    1.935    0.483
       111  -8.1776     13.9362    139.8864   1.4064296605e+02   4.4937554624e+01    0.1910725    0.1170762 -37.59  0.001082111    2.096    0.523
       112  -9.3450    228.4267    138.5824   8.8934293780e+01   6.9924241636e+00     0.264432    0.2476684 -48.52 0.0002809172    1.044    0.042
       113  -7.8100    244.4869    138.5163   8.6167037528e+01   3.7511135794e+00     0.141237    0.1279586 -31.10 0.0002143016    1.039    0.038
       114  -7.8367    139.7495    137.8413   1.0761903386e+02   2.6766389503e+01    0.2570075    0.1768619  -5.44 0.0009436624    2.764    0.638
       115  -7.3627    108.1739    136.6330   1.1539007613e+02   3.3383995171e+01    0.2096033    0.1448757  29.48 0.0007675933    1.734    0.423
       116  -8.0432      6.1933    133.7714   1.4182535119e+02   4.6904354292e+01    0.1497651    0.0956568  -6.09 0.0005391969    2.514    0.602
       117  -7.5449     41.4938    129.4798   1.3203459218e+02   4.4829158003e+01    0.1315626    0.1091783 -64.74 4.672599e-05    1.040    0.038
       118  -7.8820     25.0298    129.0000   1.3637512270e+02   4.6522504588e+01    0.1689202    0.0725853  26.16 0.0007953573    2.894    0.654
       119  -7.7678     84.3093    121.8729   1.1860710207e+02   4.0991962014e+01    0.2944703    0.1779327   8.14   0.00108336    3.401    0.706
       120  -9.6570     13.5689    120.0222   1.3814768082e+02   4.9488993085e+01     0.474889    0.1673379 -42.77  0.001979177    3.388    0.705
       121  -7.5602    231.6750    120.2972   8.4221748105e+01   9.7148008760e+00    0.1478513    0.1102602 -73.10 0.0005580438    1.627    0.386
       122  -8.2259    118.3960    119.7964   1.0874257319e+02   3.5331209059e+01    0.3316114    0.1871507  20.79  0.001086617    3.472    0.712
       123  -7.6946    100.9779    118.9987   1.1327957720e+02   3.8832718127e+01    0.1792022    0.1744857  63.11 0.0006888353    1.074    0.069
       124  -8.2161    246.5776    119.7567   8.1696927384e+01   6.6946175808e+00    0.1949114    0.1205815 -48.14 0.0002825765    1.499    0.333
       125  -9.0842      2.6769    109.6767   1.3967191898e+02   5.2514327384e+01    0.3575534    0.1707477 -39.12  0.001922122    2.305    0.566
       126  -7.9543    123.5541    107.4593   1.0420522012e+02   3.7027926882e+01    0.2780496    0.1450553  33.55  0.001026327    2.394    0.582
       127  -9.2299     15.4763    104.8158   1.3527676462e+02   5.2758754866e+01    0.4645075    0.1868659 -33.48  0.001924707    3.703    0.730
       128  -7.8087    133.9967    106.0319   1.0110303041e+02   3.5101382678e+01    0.2451481    0.1944607  -0.74  0.000795493    1.691    0.409
       129  -7.4261    109.7969    106.1307   1.0758959213e+02   4.0088825338e+01    0.2046396    0.1766648  -8.63 0.0005721726    1.347    0.257
       130  -7.5204    250.3169    105.3421   7.7945435937e+01   8.4693636509e+00    0.1360421    0.1100969  -0.18 0.0007048726    1.713    0.416
       131  -7.8609     94.1772    103.6151   1.1136875357e+02   4.3519334118e+01    0.2002182    0.1399571  26.48 0.0007066628    1.674    0.403
       132  -8.5359    243.2498     97.4246   7.7204772284e+01   1.1336318506e+01    0.1962899    0.1343566  76.55 0.0004607488    1.724    0.420
       133  -7.1165    200.5180     97.5744   8.4238279546e+01   2.1088453875e+01    0.1536673    0.1416264 -76.89 -3.635445e-06    1.046    0.044
       134  -7.9961    130.2419     97.1690   9.9652057487e+01   3.7787715481e+01    0.3025787    0.1755094  33.06   0.00119412    2.112    0.527
       135  -9.8588      9.4112     96.2908   1.3565313400e+02   5.5031924684e+01    0.3568043    0.1784514   1.43  0.001850038    3.037    0.671
       136  -8.7385     44.4435     91.9199   1.2376267198e+02   5.3061861754e+01    0.3894455    0.2158637 -20.47  0.001745905    2.764    0.638
       137  -7.5203     53.3081     92.6831   1.2110450294e+02   5.1904215861e+01    0.1255925    0.1008228  85.56 0.0007030551    1.633    0.388
       138  -7.8898    109.1814     91.6032   1.0378949433e+02   4.3310146709e+01    0.2142868    0.1385911  31.10 0.0009519043    1.763    0.433
       139  -7.9538     96.4679     90.5089   1.0715019030e+02   4.5928986302e+01    0.3282282    0.2024218   9.60  0.001251487    2.964    0.663
       140  -8.3815     67.1394     86.1196   1.1498455398e+02   5.1527883751e+01    0.4250267    0.1816012  24.05  0.001585047    3.483    0.713
       141  -9.2691     35.4397     82.3887   1.2446970476e+02   5.5990318583e+01    0.6066978    0.2242405 -37.19  0.002411075    3.178    0.685
       142  -7.8688    126.5248     83.6681   9.6766666507e+01   4.1301584418e+01    0.2926063    0.1791692  22.74  0.001126511    2.501    0.600
       143  -8.5300     88.2781     78.9954   1.0628331051e+02   4.9698369431e+01    0.5034173    0.2379732  23.27   0.00168644    3.905    0.744
       144  -9.8763      7.9144     77.2829   1.3260297191e+02   5.9139372400e+01    0.3976933    0.2189399 -31.90  0.001574121    1.840    0.456
       145  -7.8099    184.2788     77.9585   8.2186140368e+01   2.8626052690e+01      0.20873    0.1939152 -58.69 0.0005590895    1.070    0.065
       146  -8.7149     48.6438     77.0119   1.1863538486e+02   5.5734979007e+01    0.3146084    0.2242038 -24.22  0.001764376    1.436    0.304
       147  -8.9401     28.6581     69.6506   1.2364826623e+02   5.9197873380e+01    0.4100085    0.1485948 -34.49  0.001636828    3.386    0.705
       148  -9.4812     24.1354     73.5035   1.2620158918e+02   5.8797220764e+01    0.5057827    0.1748817 -43.74  0.001604454    2.394    0.582
       149  -8.5302     23.4919     69.4741   1.2544116099e+02   5.9657209247e+01    0.2102157    0.1500001 -38.81 0.0006110294    1.158    0.137
       150  -7.8872     74.8081     74.6705   1.0924477224e+02   5.2726423138e+01    0.2450755     0.160954  14.17  0.000897289    1.920    0.479
       151  -8.4088     62.0000     66.9950   1.1118070687e+02   5.6042381897e+01    0.3059406     0.147622 -38.39   0.00120169    1.934    0.483
       152  -9.5816     65.3727     61.2170   1.0821394295e+02   5.6640886318e+01    0.4215945     0.279157 -13.99   0.00221892    1.753    0.430
       153  -7.4981    129.2888     69.3669   9.1764359000e+01   4.3323816969e+01    0.1513017    0.1144886   7.46 0.0007023671    1.705    0.414
       154  -8.1462     80.5320     68.1829   1.0540789436e+02   5.3056532174e+01    0.2501909    0.1770277 -23.95 0.0006261154    1.458    0.314
       155  -8.4231     83.8024     64.0914   1.0306101204e+02   5.3258343636e+01     0.351193    0.2253581  14.04  0.001498096    2.036    0.509
       156  -8.3003     43.7573     67.6959   1.1774855382e+02   5.8124068566e+01      0.19268    0.1401685 -16.09 0.0009535872    1.418    0.295
       157  -9.6238     17.7089     62.0542   1.2565676025e+02   6.1546627262e+01    0.4457418    0.1819303 -45.01  0.001812692    1.877    0.467
       158  -9.6571    240.2830     64.2126   7.0136870083e+01   1.7510785941e+01    0.2462735    0.2154017 -89.42 0.0003114971    1.106    0.095
       159  -9.1678     51.8653     61.4951   1.1302047710e+02   5.8370801116e+01    0.3381276    0.2374013 -18.92  0.001741771    1.436    0.304
       160  -7.7702    121.8668     61.7684   9.1301974277e+01   4.6253573694e+01    0.2536975     0.152631  15.29 0.0009519539    2.936    0.659
       161 -10.8277     38.4118     57.6073   1.1671722733e+02   6.0592377403e+01    0.4591688    0.2641494 -12.70 0.0005212318    2.226    0.551
       162  -9.5862    244.9928     59.8604   6.8600035444e+01   1.7135313954e+01    0.2943223    0.1970529  39.92  0.001061106    2.198    0.545
       163  -9.2672      2.1519     45.5199   1.2727154287e+02   6.5606851630e+01     0.262874    0.1991905 -13.22  0.001638907    1.321    0.243
       164  -9.1241      3.6600     39.9491   1.2508710357e+02   6.6511952971e+01    0.3662477      0.14096 -59.79   0.00183423    2.697    0.629
       165 -10.0574     17.3026     39.0387   1.1914631442e+02   6.5755153731e+01    0.9050103    0.2493878 -36.27  0.003683176    3.593    0.722
       166  -9.3274      2.1371     55.5730   1.2985374302e+02   6.3748901043e+01    0.4667352    0.1904102 -49.79  0.002651644    1.719    0.418
       167  -7.7218    249.4772    249.5833   1.0695506373e+02  -1.4380892711e+01    0.1166958   0.09071884  12.50 9.735247e-05    1.013    0.013
       168  -8.3591     98.8486     55.3374   9.5567878358e+01   5.2030272927e+01    0.4875087    0.2379384 -17.62  0.001629797    4.035    0.752
       169  -9.1042     75.0626     50.3563   1.0130391257e+02   5.7033773415e+01    0.2918794    0.2102524   6.41 0.0003353949    1.505    0.336
       170  -8.1325    118.5194     51.3067   8.8799086440e+01   4.8636504047e+01    0.2718314    0.1678761  64.37  0.001229143    1.998    0.499
       171  -7.9546     81.4692     51.5196   9.9612664447e+01   5.5789551163e+01    0.2135048    0.1238585  51.97 0.0009883646    2.164    0.538
       172 -10.2799     45.2430     49.1270   1.1145809020e+02   6.1356413470e+01    0.2748222    0.2016657  -2.85 0.0008183657    1.353    0.261
       173  -7.2384    182.4933     48.5627   7.4605924597e+01   3.3783538203e+01    0.1439837    0.1303186  80.78 0.0002405318    1.009    0.009
       174  -8.1346    106.9400     48.0333   9.0799813061e+01   5.1559959699e+01    0.1996895     0.178926  20.50            0    1.039    0.038
       175  -8.8828     44.5392     41.3605   1.0904730640e+02   6.2727717097e+01    0.6261271    0.2630871 -21.89  0.002170126    4.833    0.793
       176  -9.4314     38.4227     41.7204   1.1154021538e+02   6.3358680568e+01     0.521332    0.2173031  17.50  0.002239268    3.532    0.717
       177  -9.8224     24.8959     47.0540   1.1863453868e+02   6.3757291349e+01    0.5146597    0.2407711   5.29    0.0024577    3.154    0.683
       178  -8.7670     31.7991     44.1408   1.1496638453e+02   6.3632431953e+01    0.2064528    0.1511316   9.12 0.0004058848    1.390    0.281
       179 -10.1906     83.2093     40.1032   9.5019176233e+01   5.7226911253e+01     0.294131    0.2196603   2.43  0.001702552    1.375    0.273
       180  -8.1389     92.8311     42.6579   9.2984479662e+01   5.5111010610e+01    0.2127143    0.1501611  26.84 0.0006158978    1.405    0.288
       181  -7.4243    123.4807     40.4557   8.3988777192e+01   4.9095706286e+01    0.1401395     0.122774  31.68 0.0001419258    1.084    0.077
       182 -10.4128    137.0568     38.6461   8.0306893155e+01   4.6235515176e+01    0.2352427    0.2171161  35.59 0.0001993124    1.066    0.062
       183  -8.6236    106.3110     36.9330   8.7151913487e+01   5.3244269364e+01    0.3589746    0.2002376  31.00  0.001293266    2.000    0.500
       184  -9.5347     54.5478     36.6085   1.0354368852e+02   6.2200659257e+01    0.2825711    0.2214194  12.81 0.0007434657    1.185    0.156
       185  -8.3098     92.0130     36.9787   9.1197194654e+01   5.6058071044e+01     0.262011    0.1677692  34.27 0.0007065247    1.487    0.328
       186  -9.4515     96.0695     33.2604   8.8675475361e+01   5.5771314391e+01     0.255014    0.2042191  12.51  0.000298006    1.211    0.174
       187  -9.2781     38.0885     35.5761   1.0947879495e+02   6.4376894013e+01    0.2977704    0.1857038  -3.17  0.001149221    1.731    0.422
       188  -9.4476      7.4375     34.1341   1.2171097023e+02   6.7276389764e+01    0.3421741    0.2206185 -14.59  0.002398643    1.444    0.308
       189  -7.8071     76.2191     34.2996   9.5122356397e+01   5.9239630363e+01    0.2807449    0.1380475 -18.39  0.001225282    2.676    0.626
       190  -7.8385    148.3528     34.2003   7.6611670146e+01   4.4123866764e+01    0.1903411     0.122323 -42.64 0.0004873701    1.701    0.412
       191  -7.6327    143.8090     33.6461   7.7337345932e+01   4.5278948602e+01     0.184822    0.1224402  68.54 0.0001980746    1.520    0.342
       192  -7.7570    105.1603     31.8021   8.5655790081e+01   5.4136541413e+01     0.186453    0.1420305  20.58  0.000595786    1.317    0.241
       193  -8.1652     82.0768     32.1125   9.2430309175e+01   5.8521049764e+01     0.197113    0.1473746  15.45 0.0004298287    1.282    0.220
       194  -8.7227    127.8969     30.1509   7.9573660709e+01   4.9405823345e+01    0.2062577    0.1846643  23.61  0.000259076    1.122    0.108
       195  -9.0136      1.5615     29.7852   1.2285728081e+02   6.8355802110e+01    0.2324019    0.1012102 -46.37  0.001266835    1.696    0.410
       196  -8.1070    112.5857     29.8317   8.3059507751e+01   5.2820757598e+01    0.2913792    0.1404101  39.57  0.001300302    2.046    0.511
       197  -7.8566    153.1837     26.8255   7.3492366664e+01   4.3843164587e+01    0.1915325    0.1454903  40.99 0.0005493939    1.344    0.256
       198  -7.5400    124.0015     26.7086   7.9301876766e+01   5.0685377185e+01    0.1807793    0.1580528  47.33 0.0004437879    1.031    0.030
       199  -9.3335     71.7830     26.0199   9.3413640141e+01   6.1061209917e+01    0.3517036    0.2146334  30.08  0.001427273    1.540    0.351
       200  -8.9220     61.6871     26.9908   9.7257825773e+01   6.2530546760e+01    0.1964039    0.1588557  16.03 0.0006003128    1.106    0.096
       201  -8.6133     57.4158     25.1533   9.8063213875e+01   6.3401073493e+01    0.2493066    0.1864373  25.91  0.001120157    1.255    0.203
       202  -9.0279     47.7243     25.9394   1.0200771792e+02   6.4628677199e+01    0.4142688     0.142941  30.24  0.001777251    3.254    0.693
       203  -7.0714    103.0212     25.0000   8.3790708639e+01   5.5383558408e+01    0.2133589   0.06717373  53.43 0.0007994628    2.922    0.658
       204  -8.2609     80.3288     23.3383   8.9633301636e+01   5.9919906410e+01    0.2333207    0.1833484   0.86  0.001484309    1.188    0.158
       205  -8.7100     84.7610     21.7195   8.7664915805e+01   5.9304893123e+01    0.2462005    0.1981761  41.39 0.0008189792    1.213    0.176
       206  -8.8467     27.7328     22.2176   1.0864537127e+02   6.7455139775e+01    0.2681884    0.1359099  -5.77  0.001125367    2.723    0.633
       207  -7.2773    130.3995     22.2649   7.6457794149e+01   4.9727236956e+01    0.1442415   0.08569143  37.25 0.0004179317    1.727    0.421
       208  -8.4148     92.3879     20.5996   8.5042613648e+01   5.7989893804e+01     0.264776    0.1907591 -17.33  0.001586755    1.432    0.302
       209 -10.1657    210.5334    247.2661   1.1357888911e+02  -8.1837131122e+00    0.3330363     0.290215  49.33  0.001570152    1.357    0.263
       210  -8.2576    116.9890     20.0472   7.8630458405e+01   5.2965839878e+01    0.1504401    0.1380282  16.49 0.0003310979    1.108    0.098
       211  -8.1553     46.2043     19.7894   1.0010011434e+02   6.5638269671e+01    0.2608305    0.1520644  -3.01  0.001293196    1.929    0.481
       212  -8.6256     50.5350     15.0397   9.6450980073e+01   6.5632929775e+01     0.230613    0.1400351  13.72 0.0009370149    1.640    0.390
       213  -8.3184     74.5069    247.6200   1.3924337042e+02   1.4211524828e+01    0.2046881   0.09626791  44.52 0.0008323014    1.841    0.457
       214  -9.7379    192.5723    244.2044   1.1646457892e+02  -4.7712437492e+00    0.2894072    0.2178255 -22.50 0.0009514276    1.562    0.360
       215 -10.1707    176.4214    243.9538   1.1951281403e+02  -1.9704646675e+00    0.3941016    0.2911169  -4.23  0.002223268    1.866    0.464
       216  -7.9199    127.8387     16.8732   7.5221075536e+01   5.0870727334e+01    0.1901299    0.1552926  39.27 0.0003181048    1.135    0.119
       217  -9.6709    156.9109    245.2829   1.2346536537e+02   1.1956775468e+00    0.3468894    0.2384537  17.47  0.001793735    2.014    0.504
       218  -7.6858    189.5245     15.9899   6.5050181942e+01   3.6167923186e+01    0.1667139    0.1122737  19.03 0.0008084116    2.425    0.588
       219  -8.3436    146.8601     14.0869   7.0779865082e+01   4.6718082349e+01    0.1977198    0.1654192  54.72 0.0004095844    1.068    0.064
       220  -8.6826    224.8010    244.6972   1.1053865934e+02  -1.0093465955e+01    0.1879206    0.1473684  -7.24 0.0004016104    1.265    0.209
       221  -8.8570    181.5077    249.6633   1.1939387616e+02  -3.7247164384e+00    0.2331053   0.09953357  41.90  0.001081396    1.949    0.487
       222 -10.0262    164.6269    244.8945   1.2192223054e+02  -7.9044018668e-02    0.3986253    0.1617172  46.60  0.001755414    2.143    0.533
       223  -7.8646    243.4618    244.4731   1.0715273754e+02  -1.2882461528e+01     0.120012    0.0948639  11.31 0.0001118991    1.022    0.021
       224  -8.3199     88.8015     13.1202   8.3192170739e+01   5.9456627590e+01    0.2555661    0.1207931  33.21  0.001220754    2.139    0.533
       225  -7.9167    233.6556    243.6380   1.0875946837e+02  -1.1313973930e+01    0.1874566    0.1212107   7.63 0.0006718764    1.664    0.399
       226  -7.6303    218.9741    244.5082   1.1157435774e+02  -9.1510782327e+00    0.1727729   0.09088311  20.52 0.0005991515    2.337    0.572
       227  -8.0061     95.9082    243.5130   1.3491508762e+02   1.1748737084e+01    0.1852196    0.1055102  45.01 0.0007014272    1.533    0.348
       228  -7.9299     25.9108    241.4423   1.4715411833e+02   2.1743987240e+01    0.1580215   0.08991896  48.54  0.001024157    1.586    0.369
       229  -8.8117    170.6767    239.6341   1.1997419991e+02  -2.7227796681e-01    0.2601728    0.1963464  10.99  0.001324215    1.672    0.402
       230  -8.6724    242.2536    236.7039   1.0604099241e+02  -1.1691175058e+01    0.3125942    0.1861221 -16.28  0.001703573    1.854    0.461
       231  -7.5123    214.6504    239.6944   1.1158100311e+02  -7.7783568206e+00    0.1305911   0.08657435  11.53 0.0005653554    1.703    0.413
       232  -7.6856     37.3832    239.2989   1.4507528343e+02   2.0795658218e+01   0.09637804   0.08803902 -54.48  0.000702004    1.773    0.436
       233  -8.1206    249.7953    238.1685   1.0496342032e+02  -1.2994873654e+01    0.1692085    0.1172989   8.33 0.0007582633    1.333    0.250
       234  -8.0364     79.9235    238.4898   1.3738201536e+02   1.5165654069e+01    0.1879867     0.104528  45.77  0.001032219    1.588    0.370
       235  -8.2099    231.4768    236.9548   1.0802198699e+02  -1.0077241441e+01    0.1663243      0.11556 -31.89 0.0004896138    1.526    0.345
       236  -7.2368    148.4551    237.5431   1.2402177252e+02   4.0016141429e+00    0.1308682    0.1126667  42.25 0.0001812167    1.096    0.087
       237  -7.7967    112.7296    237.4117   1.3100822363e+02   1.0179417426e+01    0.1736053    0.1120694  37.39 0.0006810661    1.598    0.374
       238  -8.2572    195.4945    236.0451   1.1460501703e+02  -4.0209872469e+00    0.2435872    0.1580299  27.49  0.000681916    1.499    0.333
       239  -9.8881    188.8804    234.4831   1.1562799342e+02  -2.6277288703e+00    0.3340005    0.2843589  62.48  0.001569735    1.377    0.274
       240  -7.9093    138.0235    234.9674   1.2572181996e+02   6.3003795412e+00    0.1946316    0.1579365  13.03  0.000981516    1.685    0.407
       241  -7.9489    248.1964    233.1680   1.0437343812e+02  -1.2105383891e+01     0.180767    0.1363555   5.59 0.0003856143    1.164    0.141
       242  -7.6025    204.5152    231.0085   1.1203906818e+02  -4.7889013770e+00    0.1670148    0.1060769  -9.65 0.0004656019    2.257    0.557
       243  -7.0555    123.6857    230.3046   1.2794307692e+02   9.6759996495e+00    0.1368657   0.09066649  69.26 0.0005014991    1.620    0.383
       244  -8.5704    237.1686    227.6840   1.0537344789e+02  -9.6723474571e+00    0.3774769    0.1625645 -37.52  0.001792252    2.411    0.585
       245  -7.5898    195.1879    229.0365   1.1350538836e+02  -2.8587377256e+00    0.1922236    0.1307967  21.48 0.0006297055    1.578    0.366
