#   1 NUMBER                 Running object number                                     
#   2 MAG_AUTO               Kron-like elliptical aperture magnitude                    [mag]
#   3 X_IMAGE                Object position along x                                    [pixel]
#   4 Y_IMAGE                Object position along y                                    [pixel]
#   5 X_WORLD                Barycenter position along world x axis                     [deg]
#   6 Y_WORLD                Barycenter position along world y axis                     [deg]
#   7 A_WORLD                Profile RMS along major axis (world units)                 [deg]
#   8 B_WORLD                Profile RMS along minor axis (world units)                 [deg]
#   9 THETA_WORLD            Position angle (CCW/world-x)                               [deg]
#  10 FWHM_WORLD             FWHM assuming a gaussian core                              [deg]
#  11 ELONGATION             A_IMAGE/B_IMAGE                                           
#  12 ELLIPTICITY            1 - B_IMAGE/A_IMAGE                                       
         1  -9.9821    119.1460     19.0512   5.4586757260e+01   5.2773000230e+01    0.4298981    0.2816891 -11.09  0.002181602    1.705    0.414
         2 -10.3482    203.0931     18.2543   4.1240218915e+01   3.2176949313e+01    0.3229307    0.2880827  20.44  0.001666122    1.410    0.291
         3 -10.1084    142.8903     17.9963   4.9500698933e+01   4.7161385328e+01    0.4593164    0.3506839  32.07  0.002306258    1.380    0.275
         4 -10.6017    172.0237     13.7778   4.3702311820e+01   4.0326234241e+01    0.4174146    0.2983027 -43.13  0.001812083    1.439    0.305
         5  -9.7122      5.7004      9.6823   9.3463354405e+01   7.2686910141e+01    0.3410094    0.1889081 -34.62  0.002193542    1.361    0.265
         6 -10.9347    164.5513      6.2262   4.2423607083e+01   4.2921108232e+01    0.5103199     0.338457 -19.40  0.002719699    1.724    0.420
         7 -10.9471    168.0183      4.9706   4.1607015808e+01   4.2173262154e+01    0.6255832    0.3294515 -14.70  0.002905123    2.369    0.578
         8  -9.3296     78.9655      5.1653   5.9109453899e+01   6.2874060635e+01    0.2166937    0.1756664  -5.94  0.001378005    1.200    0.166
         9  -9.2879    236.0791      2.0896   3.4458513845e+01   2.6282960900e+01    0.3013949    0.1726461 -81.19  0.001657086    1.663    0.399
        10  -9.6862    205.3885      3.2630   3.7185437227e+01   3.3201662609e+01    0.2439633    0.1365319  63.60  0.001032052    1.688    0.407
        11 -10.1577    189.9319      2.1915   3.8376158804e+01   3.7026828807e+01    0.3726622    0.1795761 -73.29  0.001581384    2.570    0.611
        12  -9.3676    149.1817      1.4362   4.3008506457e+01   4.7147303829e+01    0.3343819    0.1225895  71.90  0.001299875    2.622    0.619
        13 -10.4919     29.5991    202.7652   1.2211788062e+02   2.8314595241e+01    0.2770121    0.1752397 -88.63  0.001744999    1.328    0.247
        14  -9.2598    200.5095    196.0264   8.5217612653e+01   2.8751130698e+00    0.2000702    0.1291957 -36.45 0.0008400058    1.592    0.372
        15  -8.2304    229.6655    189.6635   7.8496728774e+01  -1.0763202115e+00    0.1407163   0.09171821   2.26 -5.526916e-05    1.743    0.426
        16  -9.3071    124.7985    167.5000   9.6225604329e+01   2.2480814857e+01    0.2818411    0.2346581 -20.80 0.0009912098    1.484    0.326
        17  -9.4996     81.2291    144.9300   1.0303862461e+02   3.5162208030e+01    0.3392439    0.2452261 -73.25  0.001229469    1.360    0.265
        18  -9.6931     55.6695    130.5785   1.0749981546e+02   4.2178098097e+01    0.4121509    0.2956424  15.91  0.002174742    1.837    0.456
        19  -9.7300     57.9972    126.9894   1.0620215765e+02   4.2774168191e+01    0.3755752    0.3285381  55.45  0.002230509    1.242    0.195
        20 -10.6244    116.7873    121.2117   8.8294398474e+01   3.4699665482e+01    0.7970073    0.5852699 -48.82  0.003765278    1.307    0.235
        21 -11.0732    244.4618    104.7499   5.7432165206e+01   1.0156510515e+01    0.9322494    0.4605287 -39.85  0.004169919    1.745    0.427
        22 -10.1479    160.4059    100.3050   7.1723372914e+01   2.9795973476e+01    0.5330665    0.4064337 -33.59  0.002487838    1.310    0.236
        23  -8.8772    180.7937    101.3073   6.7594792064e+01   2.4815933324e+01    0.3425265     0.221474 -27.48  0.001454075    1.681    0.405
        24  -8.7397     48.1718     99.2522   1.0368310026e+02   5.0678210303e+01    0.2888476    0.1215671 -48.33  0.001215927    2.072    0.517
        25  -9.7617     37.1821     98.6909   1.0715864543e+02   5.1955765310e+01    0.3283304    0.2666759 -34.60  0.001730127    1.282    0.220
        26  -9.8577     13.8585     94.5569   1.1402949601e+02   5.4821531775e+01    0.2980876    0.2904194 -38.41  0.002174387    1.248    0.198
        27  -7.7751    135.3326     97.6637   7.7053759306e+01   3.6074374957e+01    0.1625362    0.1260896 -81.71 0.0007052115    1.738    0.425
        28  -9.8154      2.5604    109.7279   1.1968934051e+02   5.1944642878e+01    0.4654395     0.155079 -60.54    0.0021764    2.129    0.530
        29 -10.3688    211.0153     86.8535   5.8198108120e+01   2.0380383843e+01    0.6256508    0.3546211 -38.06  0.002746214    1.621    0.383
        30  -9.1738    229.0399    111.5304   6.1404905680e+01   1.2159541909e+01    0.3773465    0.1855192 -38.14  0.001544406    1.807    0.447
        31  -9.1580     12.8324     99.3165   1.1512820105e+02   5.3769956256e+01    0.3823113    0.1405366 -67.56   0.00172504    2.095    0.523
        32  -8.4242     27.6987     88.6409   1.0828563964e+02   5.5177821360e+01    0.1400833   0.07777301 -41.07 0.0007037161    1.716    0.417
        33  -9.2126    129.1648     83.7007   7.4520505063e+01   4.0323530220e+01    0.2770831    0.2122855 -49.34  0.001309558    1.335    0.251
        34 -10.0037     82.9705     82.5348   8.7813546292e+01   4.9687007304e+01    0.4052504    0.2960139 -22.86  0.001874753    1.518    0.341
        35  -9.7900    213.9632     70.3382   5.3459946141e+01   2.2426329966e+01    0.5445901    0.3434387 -58.79  0.002491971    1.748    0.428
        36  -9.5937      9.9279     71.8737   1.1117763948e+02   6.0266112946e+01    0.2497951    0.2332367  43.30  0.001821333    1.373    0.272
        37 -10.9657      4.1135     66.8893   1.1234550056e+02   6.1689006531e+01    0.6208942    0.4110958 -74.83  0.003846836    1.454    0.312
        38 -10.2046    184.0650     64.4179   5.6669898204e+01   3.0591174058e+01     0.702954    0.4677063 -18.77  0.003132744    1.811    0.448
        39 -10.4873    139.9057     64.7542   6.5826244269e+01   4.1386317288e+01    0.7072244    0.5685259 -65.16  0.003462808    1.477    0.323
        40  -9.6753     86.7910     64.7447   8.0844128458e+01   5.2695498500e+01     0.448761    0.3633865  26.73  0.002429222    1.278    0.218
        41  -9.2381     19.3487     57.5087   1.0402420433e+02   6.2773123395e+01    0.2591883    0.1031883 -57.61 0.0009789563    2.031    0.508
        42  -9.6600     95.6074     53.8973   7.4167321087e+01   5.3025752666e+01    0.4268467    0.3349236  -1.21  0.002237743    1.368    0.269
        43 -10.7584    199.1774     45.3123   4.8946012586e+01   2.9729645248e+01    0.8341132    0.4604422 -34.36  0.003789775    1.757    0.431
        44  -8.8630     13.5295     49.5682   1.0425638924e+02   6.4833878072e+01    0.2161109    0.1074748 -69.02  0.001037398    2.436    0.590
        45  -9.0679    235.3195     47.5015   4.5003933404e+01   2.0937203234e+01    0.2493427    0.1133357 -33.71  0.001090595    2.030    0.507
        46 -10.7190     81.7882     43.7058   7.4799841342e+01   5.7371191069e+01    0.6481594    0.4559688 -17.21  0.003399871    1.441    0.306
        47 -10.1115     50.1748     42.7683   8.6246727458e+01   6.2529226832e+01    0.4672798    0.3202942 -19.85  0.002640772    1.397    0.284
        48 -10.0020    140.6105     38.3505   5.6874042284e+01   4.5290305066e+01    0.4700471    0.3903469 -68.08   0.00249735    1.401    0.286
        49  -9.7534     40.5131     35.0146   8.7252863006e+01   6.5113101720e+01     0.452081    0.2134451 -42.36  0.002256414    1.854    0.461
        50  -9.7730    173.0043     36.1581   5.0237572179e+01   3.7486954426e+01    0.3705345    0.3541482   9.83  0.002171206    1.156    0.135
        51 -10.1492    181.0150     26.5468   4.6216484128e+01   3.6666565427e+01    0.4182366    0.3599105   1.76  0.002264647    1.397    0.284
        52  -9.5664    108.7683     25.1540   5.9405279273e+01   5.4458595210e+01    0.6237788    0.2766939  26.39  0.002020363    4.117    0.757
        53  -8.8872    109.2190    246.7932   1.1080155100e+02   9.3299070572e+00    0.1536132    0.1353102  26.67  0.001079051    1.357    0.263
        54  -8.9185    143.4250    243.1883   1.0392642346e+02   4.6995479700e+00    0.2465446   0.08121982  37.46  0.001016248    2.648    0.622
        55  -8.7645    149.9982    238.8223   1.0210005828e+02   4.3579757022e+00    0.2109784    0.1257209  57.95  0.001097186    2.003    0.501
        56  -9.0785     62.0087     17.6925   7.0724079832e+01   6.4618336877e+01    0.2157169    0.1712869 -42.52  0.001074103    1.626    0.385
        57  -9.1859    125.5186    226.5084   1.0528271815e+02   1.0360699356e+01    0.1273661    0.1089942  49.50  5.76183e-05    1.005    0.005
        58  -8.6387    238.9976     15.4915   3.7218891429e+01   2.4177277148e+01    0.1716202   0.08791744  49.93 0.0008102799    2.539    0.606
        59  -8.9510    145.6536    223.3182   1.0080658845e+02   7.6482957002e+00     0.132102   0.09321556  65.21 0.0006396387    1.726    0.421
        60 -10.0430    191.7452    218.5399   9.0935059927e+01   7.5297163150e-01     0.449868    0.3588994 -19.56  0.002783319    1.312    0.238
        61 -10.7327    215.1549    218.7377   8.6546185998e+01  -3.0513370922e+00    0.3345702    0.2302946  49.82  0.001890501    1.841    0.457
        62 -10.5541     32.4883    217.7494   1.2264679517e+02   2.4914124853e+01    0.2326199    0.1804421  28.63  0.001603805    1.737    0.424
        63 -10.9524    212.0070    213.2559   8.6168813157e+01  -1.7543774405e+00    0.5953504    0.2268593  46.49  0.002392748    3.068    0.674
        64 -10.8550    135.7859    211.4036   1.0108905506e+02   1.1457060916e+01     0.562021    0.2032827  45.88  0.002212562    2.558    0.609
        65 -10.6529     33.1890    205.0228   1.2158357646e+02   2.7451989269e+01    0.3027861    0.1701763  79.66  0.001752927    1.610    0.379
