#   1 NUMBER                 Running object number                                     
#   2 MAG_AUTO               Kron-like elliptical aperture magnitude                    [mag]
#   3 X_IMAGE                Object position along x                                    [pixel]
#   4 Y_IMAGE                Object position along y                                    [pixel]
#   5 X_WORLD                Barycenter position along world x axis                     [deg]
#   6 Y_WORLD                Barycenter position along world y axis                     [deg]
#   7 A_WORLD                Profile RMS along major axis (world units)                 [deg]
#   8 B_WORLD                Profile RMS along minor axis (world units)                 [deg]
#   9 THETA_WORLD            Position angle (CCW/world-x)                               [deg]
#  10 FWHM_WORLD             FWHM assuming a gaussian core                              [deg]
#  11 ELONGATION             A_IMAGE/B_IMAGE                                           
#  12 ELLIPTICITY            1 - B_IMAGE/A_IMAGE                                       
         1 -13.8100    168.3736     94.9268   4.6709937798e+01   2.8972218576e+01     4.101439     2.640464 -21.26   0.01733304    1.853    0.460
         2 -16.5399    243.5975     89.3605   3.1435680849e+01   1.1923148284e+01     7.606652      6.17781  16.69   0.01531407    1.299    0.230
         3 -15.2906    246.2978     60.8726   2.3706750843e+01   1.5282334438e+01     6.303821     2.920349 -60.76  0.009740025    4.378    0.772
         4 -11.8715    171.8561     48.6923   3.2044803045e+01   3.5838053940e+01    0.9819334    0.8345359 -28.43  0.005027545    1.180    0.152
         5  -9.7769    181.8405      3.0563   1.5598658030e+01   3.8619963347e+01    0.3325571    0.3131702  15.18  0.001955372    1.117    0.104
         6  -8.7498     63.9177    229.3559   9.0348009475e+01   2.1908481518e+01    0.1600889    0.1268505 -87.18  0.000343495    1.310    0.237
         7  -8.0445    136.9239    227.6879   7.8199276143e+01   1.1741403685e+01    0.1595191    0.1189932  53.81 0.0004449291    1.055    0.052
         8 -10.6395    192.4573    194.3067   6.3617771315e+01   6.9481931105e+00    0.8823403    0.4658312 -62.50  0.003060872    5.587    0.821
         9  -8.5667    145.9521    248.9526   7.9063964837e+01   7.4359903904e+00    0.1626352     0.122421  49.10 0.0004291986    1.037    0.035
        10 -12.8306    249.7975    101.3540   3.3498702556e+01   8.8320595586e+00    0.6691003    0.3358546 -28.54 0.0006148435    1.857    0.462
        11  -8.2390    173.9618    247.9861   7.4482610669e+01   3.1748773247e+00    0.1566139    0.1126853  62.89 0.0003376609    1.553    0.356
        12  -8.7983    148.2414    175.6082   6.8846291377e+01   1.8171590910e+01    0.2068517    0.1797661 -57.72 0.0004444843    1.274    0.215
        13  -8.4022    101.0099    176.0132   7.8351875950e+01   2.6174846768e+01    0.1721461     0.148634  74.70            0    1.018    0.017
        14  -8.6194    194.9268    173.5492   5.9429598946e+01   9.5301417733e+00    0.3505826    0.1864101 -54.46  0.001473239    2.965    0.663
        15 -10.7850    177.8613    170.1091   6.2038266425e+01   1.3433571750e+01    0.4075907    0.2680641 -41.89  0.002124087    1.695    0.410
        16  -8.9777    110.9967    168.4175   7.5240545715e+01   2.6043709218e+01    0.2183332    0.1787579 -72.58 0.0003459195    1.225    0.184
        17  -7.7254     64.2741    243.3444   9.1264939696e+01   1.9689724700e+01   0.07994326   0.07518882  85.71 0.0003192755    1.622    0.383
        18  -8.3822    213.8458    167.1459   5.4676488523e+01   6.7533410177e+00    0.1960991    0.1872637  68.50  0.001168412    1.318    0.241
        19  -7.9106    153.8479    173.1472   6.7313790822e+01   1.7556863484e+01    0.1773598    0.1537466  20.21 0.0004615542    1.311    0.237
        20  -7.7648     91.8149    166.2502   7.8885021440e+01   2.9480385745e+01    0.1459426    0.1398081 -74.84 0.0003438997    1.256    0.204
        21  -9.3607    207.3145    152.1659   5.2771793847e+01   1.0325240026e+01    0.4029905     0.216862  45.69  0.001498677    1.731    0.422
        22  -9.6285    207.7494    162.4306   5.4839783868e+01   8.6649701737e+00    0.2911961    0.1485508  37.33  0.000763412    1.877    0.467
        23 -10.0249    208.6194    157.7174   5.3703680953e+01   9.2024390516e+00    0.4407533     0.308821   0.77 0.0009260034    1.740    0.425
        24  -9.9212    191.4351    152.6598   5.5912251807e+01   1.3552802943e+01    0.6393151    0.3541378 -55.17  0.002625141    2.674    0.626
        25  -9.6604    210.3577    188.0019   5.9292023316e+01   4.4979356797e+00    0.2694564    0.2264749 -57.56  0.001417423    1.663    0.399
        26 -12.0105      3.3326    129.4484   9.3508502917e+01   4.6816552761e+01     1.110271    0.2949878 -72.49  0.005273248    2.696    0.629
        27 -11.5009      4.5979    144.3156   9.4456870252e+01   4.3701575192e+01    0.6609983    0.3382622  77.00  0.004165078    1.769    0.435
        28 -13.0415     16.2286    135.1591   9.1251958283e+01   4.4667897396e+01    0.8670354    0.8264358 -69.21  0.004859083    1.394    0.282
        29  -8.7894    144.4901    147.1200   6.4423172487e+01   2.4146885795e+01    0.2953184    0.1759352  59.59  0.001325853    1.911    0.477
        30 -10.6286     67.9242    144.1272   8.0923610892e+01   3.7372908192e+01    0.7536837    0.4273586 -69.55  0.004116819    1.616    0.381
        31 -13.2670     56.7530    127.4264   8.1069043337e+01   4.2330416265e+01     1.838838     1.032442  32.11  0.009451129    2.167    0.539
        32 -11.6618     44.6644    129.1475   8.4169055529e+01   4.3303455097e+01    0.4168335    0.3475872 -82.84  0.001284102    1.037    0.035
        33 -10.7897    217.6326    185.2773   5.7501417629e+01   3.5089021111e+00    0.4394624    0.4042738  11.50  0.001864637    1.149    0.130
        34  -8.7906    215.1340    142.7760   4.9260280640e+01   1.0141657532e+01    0.2558169    0.2316013  55.01 0.0008222048    1.250    0.200
        35  -9.6877    126.7880    113.2862   6.1112877408e+01   3.4427597917e+01    0.4228679    0.2763938  36.30  0.001187736    1.679    0.404
        36 -10.4267    160.1331    129.8728   5.7344171191e+01   2.4253331736e+01    0.4748622    0.3964774 -14.94  0.001556757    1.385    0.278
        37 -10.2420     65.3117    112.6133   7.6487220063e+01   4.4522879281e+01    0.2277295    0.1952834 -69.00   0.00027991    1.019    0.019
        38  -7.4862    141.2903    110.2927   5.6921752709e+01   3.2089713160e+01    0.1446593    0.1177209   2.32 0.0001623026    1.549    0.354
        39  -9.6014    112.8093    104.9327   6.2570664108e+01   3.8828955920e+01     0.467974    0.3532785   2.71   0.00225776    1.943    0.485
        40  -9.5251    140.1867    100.8407   5.4755684778e+01   3.4210672835e+01    0.3502287    0.2945227  69.44 0.0008416857    1.341    0.254
        41  -8.2010    115.6452     98.1832   6.0156621672e+01   3.9713170048e+01      0.19742    0.1287685 -38.25            0    1.563    0.360
        42  -8.7695      2.9977     93.2318   8.9833202620e+01   5.4413855455e+01    0.1140217    0.0938886  25.82 0.0008800839    1.641    0.391
        43  -9.8509    236.1908    183.8662   5.4018337045e+01   2.8156770453e-01    0.3398456    0.2333644 -61.98  0.001610554    3.186    0.686
        44 -10.7643    222.9144    178.8683   5.5359137672e+01   3.3742812635e+00     0.416378    0.3211727 -33.06  0.002484647    1.462    0.316
        45  -8.3875    134.9350     72.1895   4.7813875509e+01   4.0884175645e+01    0.2074521    0.1989036 -59.21  0.000248251    1.124    0.110
        46 -11.6373    196.6845     64.4355   3.2291468717e+01   2.7083965551e+01      1.02794    0.5886225  -6.50   0.00357661    2.615    0.618
        47 -11.6059    198.5676     57.1808   2.9822073250e+01   2.7682562117e+01    0.7318733     0.527803 -25.12  0.002083319    1.396    0.284
        48  -9.9309    188.6272    176.2914   6.1130103394e+01   1.0340451010e+01    0.5300673     0.335505 -89.37  0.001720267    5.663    0.823
        49 -10.8628    180.2407     60.9452   3.4280807611e+01   3.1834635555e+01    0.6317642    0.2840344  54.98  0.002337304    2.169    0.539
        50  -8.3376    105.0293     60.9856   5.2188960148e+01   4.9146159170e+01    0.2028818    0.1892928 -22.59 -0.003769674    1.026    0.025
        51 -11.3485    161.8748     52.4287   3.5262694676e+01   3.7820479411e+01    0.7591676    0.5393326  -2.22  0.003400264    1.697    0.411
        52  -9.2329    112.7687    239.4158   8.3413154491e+01   1.3730901408e+01    0.1857956    0.1513434  67.59 0.0004235408    1.128    0.114
        53  -9.4797    142.9041     49.9381   3.8605078057e+01   4.2867394398e+01    0.3701179    0.2059104 -44.16  0.001522553    1.947    0.486
        54 -10.3833    182.8198     48.2963   2.9872635863e+01   3.3054927369e+01    0.3918361    0.2928945  33.36  0.001852456    1.421    0.296
        55 -10.6901    204.9819     43.9479   2.4865227636e+01   2.7868571596e+01    0.6713547    0.4379987  16.26  0.002850723    2.058    0.514
        56 -10.2369    187.1398     43.8571   2.7726585628e+01   3.2547171960e+01    0.3533477    0.2708323 -44.88  0.001172325    1.362    0.266
        57 -10.8255    190.9882     39.3508   2.5684542257e+01   3.2142304914e+01    0.5755814    0.4962802 -51.52   0.00182542    1.221    0.181
        58  -7.6814    101.7320     45.3273   4.7712757915e+01   5.2563758280e+01    0.1343739     0.109047 -60.04 0.0002689388    1.575    0.365
        59  -9.5539    146.9133     42.8561   3.5255784207e+01   4.2976556213e+01    0.2481221    0.2009697  22.58  0.001245158    1.276    0.216
        60 -10.9387    179.9648     43.0737   2.8736054266e+01   3.4531893642e+01    0.6677263    0.4476842  25.11  0.001894882    1.789    0.441
        61 -10.5050    148.5301     34.9302   3.2129847865e+01   4.3698741505e+01    0.5152931    0.3171175   0.14  0.002127404    2.143    0.533
        62  -9.1693    152.9597     35.8865   3.1536949934e+01   4.2462365355e+01    0.2188718    0.2106211  23.37 0.0002947739    1.029    0.028
        63  -9.4816    195.2852     29.8123   2.2076755920e+01   3.2215202423e+01    0.3835767    0.2117998  23.77  0.001305781    2.677    0.626
        64  -7.8070    184.3241     29.2864   2.3604754788e+01   3.5175117151e+01    0.1566052    0.1071957  32.94 0.0002172059    1.603    0.376
        65  -8.6455    231.7791     20.8077   1.4833945001e+01   2.3817455110e+01    0.1988465    0.1501811 -56.25 0.0006360905    1.324    0.245
        66  -8.4604      1.3576    191.0879   9.7956892676e+01   3.5050428792e+01    0.1368754   0.06929722 -83.67  0.000349794    1.526    0.345
