#   1 NUMBER                 Running object number                                     
#   2 MAG_AUTO               Kron-like elliptical aperture magnitude                    [mag]
#   3 X_IMAGE                Object position along x                                    [pixel]
#   4 Y_IMAGE                Object position along y                                    [pixel]
#   5 X_WORLD                Barycenter position along world x axis                     [deg]
#   6 Y_WORLD                Barycenter position along world y axis                     [deg]
#   7 A_WORLD                Profile RMS along major axis (world units)                 [deg]
#   8 B_WORLD                Profile RMS along minor axis (world units)                 [deg]
#   9 THETA_WORLD            Position angle (CCW/world-x)                               [deg]
#  10 FWHM_WORLD             FWHM assuming a gaussian core                              [deg]
#  11 ELONGATION             A_IMAGE/B_IMAGE                                           
#  12 ELLIPTICITY            1 - B_IMAGE/A_IMAGE                                       
         1 -10.6487     99.9925     57.7637   5.2579237061e+01   5.1715391786e+01    0.4986311    0.1349577 -44.33  0.001416144    3.883    0.742
         2 -12.5619      5.0693     39.2493   9.4563536310e+01   7.0323474993e+01    0.6361363    0.1916647 -75.01  0.002310392    3.203    0.688
         3 -10.5471     40.8557     13.9450   5.8086305361e+01   7.1976288776e+01    0.2044364    0.1681266   3.38 0.0002775738    1.209    0.173
         4  -9.6732     13.6796    250.6839   1.0605953118e+02   2.1324191741e+01   0.08898976    0.0756139  -7.94  0.000331054    1.659    0.397
         5 -11.2905     84.9897    226.9975   8.9658251599e+01   1.8248022012e+01    0.1988483     0.113189  50.44  0.001140973    1.725    0.420
         6 -10.4365     66.3210    226.9211   9.3818648124e+01   2.0354813292e+01    0.1793767    0.1245263  60.03 0.0008862957    1.470    0.320
         7 -10.5816    162.0309    224.4712   7.3047640099e+01   9.1453888923e+00    0.1709569   0.08354617  12.42  0.000809628    2.523    0.604
         8 -10.7299     60.0010    222.9612   9.4964736169e+01   2.1735130094e+01    0.2036317    0.1051826  50.94   0.00113608    1.746    0.427
         9 -10.4800    126.4589    220.5028   7.9877649414e+01   1.4238250073e+01    0.1223108   0.09614252  26.36 0.0001324514    1.037    0.035
        10 -10.5422     74.6463    219.3188   9.1345267689e+01   2.0773681079e+01    0.1308177   0.07090685  50.37 0.0007046693    1.747    0.428
        11 -10.5663    117.0223    210.5291   8.0762517601e+01   1.7086341648e+01    0.1851515   0.07910899  46.12   0.00080977    2.553    0.608
        12 -11.0064     99.7012    205.7625   8.4192253330e+01   2.0175536525e+01    0.2295036    0.1480587  76.43  0.001179192    2.456    0.593
        13 -12.8385    165.9093    202.8747   6.9232788246e+01   1.1714170183e+01    0.3786555    0.2822646  58.13  0.002200599    2.240    0.553
        14 -13.3402    178.2478    198.2374   6.6077469227e+01   1.0713560532e+01    0.3673817    0.2535759  39.98   0.00225165    1.607    0.378
        15 -11.8014    124.7876    197.6134   7.7340635071e+01   1.8257871721e+01    0.2574906    0.1746245  50.90  0.001430398    1.697    0.411
        16 -11.3989    113.3351    197.6926   8.0011342581e+01   1.9825031619e+01    0.3015175    0.1569593  48.86  0.001432853    2.145    0.534
        17 -10.8314     88.4968    198.0007   8.6018555316e+01   2.3060136258e+01    0.1722876    0.1026705  73.62 0.0008106271    2.582    0.613
        18 -13.1270    163.3748    194.1431   6.8410348985e+01   1.3381149404e+01    0.3911585    0.2247358  46.47   0.00201266    2.145    0.534
        19 -12.2565    149.7747    198.3183   7.1902045096e+01   1.4639907931e+01    0.3349842    0.2319005  59.14  0.001784784    2.343    0.573
        20 -10.4120     66.4864    194.0112   9.1100796715e+01   2.6544773596e+01    0.1799408   0.09451388  70.57 0.0008100119    2.621    0.618
        21 -10.3503     43.4999    192.9897   9.6860534338e+01   2.9265212130e+01    0.1812301   0.08278853  67.04 0.0008105502    2.580    0.612
        22 -12.3356    139.5551    189.6872   7.2845971152e+01   1.7526654765e+01    0.2636856    0.2432441  67.06  0.001716636    1.437    0.304
        23 -11.3931      7.8756    188.7037   1.0564741684e+02   3.3297177066e+01    0.3103735    0.1107262  72.11  0.001387859    2.815    0.645
        24 -11.4807     87.1706    188.5248   8.5278625238e+01   2.5089262500e+01    0.2338078    0.1470696  74.64  0.001143516    2.272    0.560
        25 -12.2835    149.3487    187.8756   7.0398435064e+01   1.6402872148e+01    0.2368614    0.1573079  36.71  0.001250093    1.389    0.280
        26 -11.5067    166.0243    187.0088   6.6722028269e+01   1.4108796041e+01    0.1860746    0.1550316  56.19  0.001139864    1.725    0.420
        27 -12.3367    156.6287    186.9163   6.8675592999e+01   1.5493833668e+01    0.2235079    0.1994323  44.64  0.001301272    1.385    0.278
        28 -12.0589     94.7064    182.1140   8.2570113453e+01   2.5367642478e+01    0.6452656    0.3330888  64.06  0.002478825    3.496    0.714
        29 -12.2093    120.8303    184.9107   7.6476061308e+01   2.1109829203e+01    0.3362795    0.2138212 -61.55  0.001749402    2.037    0.509
        30 -11.4816    109.8782    185.3920   7.9201357223e+01   2.2596856518e+01    0.3198744    0.2181573  53.39  0.001714279    1.645    0.392
        31 -10.6610     54.7864    186.1973   9.3419170652e+01   2.9496820997e+01    0.2363005   0.09477089  55.82 0.0009547233    2.823    0.646
        32 -11.0373     74.4828    183.0552   8.7935636095e+01   2.7836013923e+01    0.2679108    0.1350878 -76.95  0.001205607    2.609    0.617
        33 -11.9376    130.3003    188.5180   7.4778578172e+01   1.9076004762e+01    0.2905458    0.1895479  54.66  0.001492528    1.997    0.499
        34 -10.8491    197.5131    182.5030   5.9853548562e+01   1.0287551480e+01    0.1223608   0.09843221   3.57  0.000146512    1.018    0.018
        35 -11.5006    175.2909    183.8752   6.4323202819e+01   1.3247067255e+01    0.2240179    0.1568222  36.39  0.001330092    1.424    0.298
        36 -10.6049     26.5112    181.0180   1.0051939514e+02   3.3433068324e+01    0.1891741   0.07706537  66.47 0.0008104815    2.661    0.624
        37 -12.7365    148.3904    179.8997   6.9323909897e+01   1.7892811476e+01     0.313544    0.2227254  47.96  0.001735095    1.626    0.385
        38 -11.8410    139.0942    179.8429   7.1412087340e+01   1.9312497688e+01    0.2571192    0.1411285  39.43  0.001262888    1.681    0.405
        39 -10.9607    192.6554    178.3255   6.0021890039e+01   1.1562901600e+01    0.1084168    0.1004101  64.11 0.0007050558    1.741    0.426
        40 -12.1671    160.2311    175.1920   6.5947304850e+01   1.6878760823e+01    0.2740932    0.2254295  56.92  0.001586672    1.664    0.399
        41 -12.0368     78.1619    175.2768   8.6064142321e+01   2.9013662053e+01    0.4287953    0.2423589  65.19  0.001925768    2.364    0.577
        42 -10.6964     12.4868    175.4831   1.0397788387e+02   3.5801786941e+01    0.2259641    0.0949172  77.72  0.001039531    2.430    0.589
        43 -10.9505    106.0143    175.0206   7.8697522621e+01   2.5191719250e+01    0.2232187    0.1531842  58.05  0.001029726    1.736    0.424
        44 -10.6782      2.5105    172.0113   1.0651266553e+02   3.7281408208e+01    0.3084508    0.0769171  78.25  0.001039715    4.601    0.783
        45 -12.3521    177.7640    171.2145   6.1623853381e+01   1.4830942416e+01    0.2749006    0.2409214  68.01  0.001686988    1.792    0.442
        46 -12.0899    135.3000    171.6921   7.0954281447e+01   2.1374629967e+01     0.278791    0.2170515  61.01  0.001387704    1.695    0.410
        47 -13.0809    122.6606    168.5434   7.3490240644e+01   2.3952832219e+01    0.5261244    0.4230424  78.82  0.002874153    1.738    0.424
        48 -12.3704    168.8995    169.2284   6.3066113067e+01   1.6516649687e+01     0.320422    0.2392232  61.46  0.001705736    2.149    0.535
        49 -12.4883    150.3782    169.5467   6.7115743511e+01   1.9382407522e+01    0.2647371    0.2365704  70.82  0.001444835    1.544    0.352
        50 -10.3716     34.4891    186.9699   9.8780426635e+01   3.1417319712e+01    0.1837105   0.07988963  66.36 0.0008101683    2.565    0.610
        51 -13.5138    140.1346    164.9415   6.8649700144e+01   2.1854605707e+01    0.4788724    0.3864406  74.19  0.002201401    1.837    0.456
        52 -11.2340     79.9043    163.3624   8.4065031384e+01   3.1383408396e+01    0.5097349    0.2622049  75.76  0.001748199    4.078    0.755
        53  -9.9095     47.3182    163.6415   9.3445351772e+01   3.5316458672e+01    0.1482066   0.08428482  57.39 0.0007044192    1.759    0.431
        54 -10.1594     37.6754    163.3531   9.6216292915e+01   3.6376254520e+01    0.1474659   0.08047615  56.30 0.0003725682    1.761    0.432
        55 -12.2399    178.4908    160.7548   5.9545043385e+01   1.6370201873e+01    0.2903596    0.2331368  63.88  0.001636073    1.951    0.487
        56 -12.4754    153.2228    160.9815   6.4927700231e+01   2.0436597247e+01    0.3484576    0.1897403  39.40  0.001658136    1.739    0.425
        57 -11.4084     93.2150    159.5160   7.9787788967e+01   3.0336134246e+01     0.368038    0.2528854  87.72  0.001757888    2.046    0.511
        58 -10.9790      8.5009    159.1068   1.0439269749e+02   3.9806284626e+01    0.3600148    0.1145012  67.59  0.001361239    3.338    0.700
        59 -11.4345     99.6294    165.6758   7.8978293086e+01   2.8060677527e+01    0.2959048    0.1822363  59.63  0.001351656    2.087    0.521
        60 -11.4884    128.8328    158.7668   7.0274226689e+01   2.4877384749e+01    0.3048887    0.2418658  67.74  0.001613316    1.686    0.407
        61 -12.1588    197.4864    157.6923   5.5348703765e+01   1.3858517599e+01    0.2471786    0.2076445 -63.40  0.001475205    1.916    0.478
        62 -11.8314    189.0368    157.5190   5.6879182075e+01   1.5203185702e+01     0.206971    0.1893512  88.60  0.001291638    1.730    0.422
        63 -12.8442    168.3969    157.6701   6.1016078368e+01   1.8510551918e+01    0.3690666    0.2420578  49.20  0.001724452    1.831    0.454
        64 -11.2692    106.1368    157.6948   7.5962445045e+01   2.8756441092e+01    0.2954095    0.2208804  71.90  0.001488131    1.763    0.433
        65 -10.3911     22.6096    158.2292   1.0024529458e+02   3.8941719937e+01    0.1779803    0.1114387 -69.25 0.0009572738    1.636    0.389
        66 -12.0690    158.1870    156.1136   6.2905607485e+01   2.0473367324e+01    0.2842928    0.2214788 -86.74  0.001420063    2.329    0.571
        67 -11.7384    119.6283    155.1940   7.1965573582e+01   2.7108175678e+01    0.3264209     0.227958 -83.07  0.001493724    2.330    0.571
        68 -12.0593    145.1384    154.5506   6.5561743357e+01   2.2956954840e+01     0.255886     0.228583  78.34  0.001424927    1.501    0.334
        69 -10.9636     81.8677    154.1111   8.2193848344e+01   3.3192224155e+01    0.3022687    0.2037545  81.97  0.001425406    1.974    0.493
        70 -10.9048     49.3435    153.9526   9.1870416340e+01   3.7369317521e+01    0.4014366    0.2101485  76.65  0.001707242    2.454    0.592
        71 -12.6649    133.8354    152.6668   6.7911841164e+01   2.5236023200e+01    0.4057099    0.3085043  76.12  0.001997166    2.037    0.509
        72 -11.3316     68.3919    152.9452   8.6003271217e+01   3.5302859229e+01    0.3646545    0.2363875  56.48  0.001789532    1.612    0.380
        73 -12.8833    189.9381    149.9920   5.5235719564e+01   1.6220663592e+01    0.3370288    0.2811672 -52.79  0.001683236    1.602    0.376
        74 -11.5386    182.9756    151.1736   5.6800863511e+01   1.7173934967e+01     0.197598    0.1581777  67.14  0.001084971    1.991    0.498
        75 -12.1542    162.9935    150.5382   6.0768250121e+01   2.0636805406e+01    0.2496361    0.1989623 -56.63  0.001379321    1.624    0.384
        76 -10.1131     98.5140    150.5150   7.6853192188e+01   3.1506819299e+01    0.1439469    0.1309013  40.73 0.0001535895    1.042    0.040
        77 -11.2732     28.7231    149.0914   9.7746316111e+01   4.0601556981e+01    0.3556973    0.1371281  81.07  0.001277144    3.461    0.711
        78 -11.8022    200.7397    148.8758   5.3046235702e+01   1.4655625576e+01    0.2155793    0.1752268  70.13   0.00123721    2.098    0.523
        79 -11.4092     39.1501    146.1535   9.4220493412e+01   4.0331021931e+01    0.5189297     0.235179  87.29  0.002054543    2.790    0.642
        80 -13.6592    149.9489    144.5534   6.2468196311e+01   2.3985546740e+01    0.5995448    0.4831527 -89.17   0.00288691    1.953    0.488
        81 -12.1935    107.5305    144.7276   7.3301529135e+01   3.1320479376e+01    0.6224807    0.3825076  73.35  0.002352487    3.142    0.682
        82 -11.9198    176.1083    146.2320   5.7166530636e+01   1.9128580134e+01     0.241543    0.1899836  54.64  0.001347471    1.631    0.387
        83 -11.4317     55.5326    144.2372   8.8820661088e+01   3.8994358215e+01    0.5326977     0.288581  83.89  0.002211736    2.485    0.598
        84 -12.2021    166.4785    144.0325   5.8705182675e+01   2.1165779843e+01    0.2988369    0.2415638  79.97  0.001563147    2.013    0.503
        85 -12.4725    125.2407    142.2933   6.8067173000e+01   2.8803702228e+01    0.5569824    0.3757649 -75.34  0.002433581    2.401    0.584
        86 -11.0091     12.9104    144.3754   1.0234606188e+02   4.3003737749e+01    0.3232389    0.1525954  83.75  0.001486685    2.113    0.527
        87 -11.3312    138.4911    144.0347   6.5080425824e+01   2.6114653966e+01    0.2134048    0.1401592 -44.52  0.001037306    1.603    0.376
        88 -11.1154     87.9306    143.1292   7.8661930409e+01   3.4815806435e+01      0.34218    0.2158205 -76.04  0.001531668    2.040    0.510
        89 -11.6423    182.6923    141.7095   5.4934783766e+01   1.8743881839e+01     0.245378    0.2023764 -82.93  0.001332478    2.044    0.511
        90 -11.7580      2.4293    139.7098   1.0539936435e+02   4.4806239209e+01    0.3843328    0.1139968 -87.31  0.001441071    3.238    0.691
        91 -11.9897    172.7699    138.2052   5.6176078639e+01   2.1057329810e+01    0.3156145     0.220255 -58.50  0.001559945    2.047    0.511
        92 -10.5525     68.4949    137.9913   8.3822294043e+01   3.8853613103e+01    0.3460843    0.1447649 -79.88  0.001040824    4.439    0.775
        93 -11.5897     22.7393    135.7729   9.8594828702e+01   4.4387552458e+01    0.6766817    0.2678481  86.73  0.002594925    2.929    0.659
        94 -11.7455    162.8678    136.1257   5.7813280885e+01   2.3199208053e+01     0.206075    0.1995811  88.80   0.00115538    1.292    0.226
        95 -11.5289     38.7048    134.4101   9.3131247495e+01   4.3285999591e+01    0.3459857    0.1653234 -77.33  0.001481066    2.161    0.537
        96 -11.6537    180.2996    133.8340   5.3736278788e+01   2.0449835030e+01     0.267366    0.2246865  77.68   0.00148624    1.790    0.441
        97 -12.1070    132.0635    130.4996   6.3839234396e+01   2.9982435933e+01    0.5974329    0.3075427 -58.66  0.002281762    2.724    0.633
        98 -10.9092    113.0929    132.9289   6.9437043629e+01   3.2935943749e+01    0.3183091    0.2178805  71.42  0.001363954    2.235    0.553
        99 -12.1036    143.3661    130.9691   6.1137454550e+01   2.7770542716e+01    0.3916427    0.2723968 -54.24  0.001900279    1.677    0.404
       100 -11.7648     83.3729    129.7711   7.7682857618e+01   3.8656684018e+01    0.8155826    0.3011904 -62.78  0.002756606    3.183    0.686
       101 -12.1283    169.4130    129.6425   5.5012400120e+01   2.3137284665e+01    0.2807233    0.2512117  77.13   0.00158669    1.490    0.329
       102 -12.2138    153.2623    128.9251   5.8365323153e+01   2.6293044907e+01    0.4127934    0.2683785 -55.56  0.001914363    1.934    0.483
       103 -12.0121     12.3281    128.1614   1.0153699331e+02   4.7059504792e+01    0.5086647    0.2145313  83.48  0.002114464    2.475    0.596
       104 -11.9654     98.6996    126.3210   7.2250402927e+01   3.6940349056e+01    0.7321267     0.364053 -67.21  0.002623122    2.964    0.663
       105 -10.6612     72.8245    128.3797   8.0836673710e+01   4.0585399192e+01    0.3467856    0.2049476 -85.16  0.001410077    2.376    0.579
       106 -11.5292    118.0302    125.1948   6.6404525856e+01   3.3712981250e+01    0.4651601    0.2902241  66.88  0.001802614    2.669    0.625
       107 -11.5774    180.4566    124.8724   5.1737973061e+01   2.1902706006e+01    0.2534234    0.2282683 -83.00  0.001436415    1.509    0.338
       108 -11.5776     58.8096    122.2238   8.4540100649e+01   4.4049926178e+01    0.7281435    0.3433785 -86.43  0.002416345    3.607    0.723
       109 -12.2373     42.9295    119.9569   8.9853144934e+01   4.6521023053e+01     1.012716    0.4155504  89.43  0.003128269    4.222    0.763
       110 -11.9771     27.5311    120.5062   9.5513600939e+01   4.7868247663e+01    0.8804036    0.3247067  69.41  0.002679311    4.502    0.778
       111 -10.2825    195.3333    122.6610   4.8506822289e+01   1.9551017753e+01    0.1282497    0.1047933 -66.61 0.0007051702    1.747    0.428
       112 -11.9186    158.7501    121.0479   5.5338389846e+01   2.6692021993e+01    0.3144378    0.2338235 -69.53  0.001498199    2.005    0.501
       113 -11.0730    172.9886    121.0296   5.2338307058e+01   2.3950463209e+01    0.2152905    0.1779581 -76.03  0.001141293    1.733    0.423
       114 -12.3324    141.7097    118.0156   5.8570942666e+01   3.0619429333e+01     0.608886    0.3096334 -56.02  0.002289313    2.712    0.631
       115 -11.1540     70.8895    118.8446   7.9745352600e+01   4.3217197567e+01    0.3659972    0.2038102 -83.41  0.001376563    2.706    0.630
       116 -11.5549    130.9304    118.3175   6.1357918203e+01   3.2688413126e+01    0.3769939    0.2716978 -80.73  0.001635544    2.237    0.553
       117 -12.1286      2.5932    114.5440   1.0413721972e+02   5.1072094967e+01    0.7498594     0.240558  87.83  0.002750409    3.151    0.683
       118 -10.8074    186.3930    116.1576   4.8642589317e+01   2.2218861796e+01    0.1970385    0.1181253 -44.47 0.0009464985    1.738    0.425
       119 -11.6277     92.2309    110.4302   7.0788700810e+01   4.1772182865e+01    0.7413741    0.2943572 -61.05  0.002382535    3.311    0.698
       120 -11.5535     78.5346    110.8706   7.5484580043e+01   4.3998003963e+01    0.6590257    0.3491764 -77.15  0.002295721    3.105    0.678
       121 -11.2690    159.5441    111.2930   5.2838354207e+01   2.8305401574e+01    0.2795905    0.1351726 -43.69   0.00113938    2.099    0.524
       122 -10.9878    122.0431    111.8162   6.2167447123e+01   3.5800289931e+01    0.2809887    0.2014203 -62.63  0.001289261    1.694    0.410
       123 -10.5837    174.8269    111.3487   4.9704027596e+01   2.5240632707e+01    0.1990903     0.174353 -38.43  0.001038047    1.156    0.135
       124 -11.1930     66.1453    109.2427   7.9540344918e+01   4.6311220756e+01    0.4709064    0.2497621 -75.54  0.001808436    2.461    0.594
       125 -12.0110     14.0386    108.8523   9.9425474643e+01   5.1894749771e+01    0.5338804    0.2924104 -84.35  0.002551048    1.732    0.423
       126 -11.5396    109.0008    113.0589   6.6197598611e+01   3.8072622235e+01    0.5756424    0.3258038 -66.46  0.002163733    2.626    0.619
       127 -10.9467    139.9324    104.2564   5.5593166769e+01   3.3675315199e+01    0.3754554    0.2461853 -68.81  0.001519377    2.448    0.591
       128 -12.3147     44.6332     99.3673   8.5912586610e+01   5.1663243118e+01     1.100724     0.530553 -87.82  0.003866626    3.147    0.682
       129 -13.1460     21.7901     98.6905   9.5239899404e+01   5.4014337713e+01     1.115027     0.461678  88.37  0.004077325    2.987    0.665
       130 -11.6930    150.3768    102.0351   5.2547566290e+01   3.1898441479e+01    0.5192342    0.2259221 -50.69  0.001829924    2.877    0.652
       131 -10.7420    166.5130    103.4982   4.9442566276e+01   2.8262305475e+01    0.1411258     0.135366 -19.27 0.0002637059    1.040    0.038
       132 -12.3870      6.8781    100.5677   1.0155967595e+02   5.4458491123e+01    0.5963416    0.2058627 -75.19   0.00235945    2.522    0.603
       133 -11.2487    128.8348    101.7394   5.7764638851e+01   3.6505933489e+01    0.2942955     0.205559 -71.77  0.001202486    2.116    0.527
       134 -10.5676    160.0000    100.9723   5.0156940159e+01   3.0062524475e+01    0.2380445   0.08037209 -38.50 0.0007723294    2.903    0.656
       135 -11.7942    108.7198     97.3403   6.2290123629e+01   4.1601669643e+01      0.74217    0.4337352 -66.20  0.002776591    2.588    0.614
       136 -11.0437     81.8449     98.4357   7.1430141325e+01   4.6457631621e+01    0.5189503     0.220854 -60.31  0.001793844    2.743    0.635
       137 -11.1439     94.8087     95.4407   6.6196577403e+01   4.4781526276e+01    0.4809647    0.1992238 -52.15   0.00169243    2.523    0.604
       138 -11.9900     63.1888     93.1115   7.7131552835e+01   5.0803080162e+01    0.8989888    0.3838761 -64.85  0.003200188    2.663    0.625
       139 -10.8563    138.7975     91.3511   5.2411645061e+01   3.6410504275e+01     0.373265     0.196957 -53.92  0.001422182    2.376    0.579
       140 -10.2183     57.9897     92.0146   7.8959443298e+01   5.1837969586e+01    0.2280098    0.1682339  63.34  0.001083187    1.561    0.359
       141 -12.8652      5.3015     88.5777   1.0122437760e+02   5.7657674308e+01    0.7129415    0.2853387 -67.12  0.003056148    2.137    0.532
       142 -13.0522      9.0881     78.0048   9.8396284313e+01   6.0241211041e+01    0.7258097    0.1917279 -72.52   0.00253712    3.111    0.679
       143 -11.7850     34.7954     86.8914   8.7796604641e+01   5.5977230566e+01    0.8248156    0.2697734 -65.67  0.002921073    2.763    0.638
       144 -11.4113     86.2487     85.1332   6.6287791258e+01   4.8790906973e+01    0.5781421    0.2981294 -62.95  0.002088066    2.609    0.617
       145 -11.9619     48.1589     81.8648   8.0759513051e+01   5.5747135360e+01    0.7439071      0.36301 -69.15  0.002925068    2.264    0.558
       146 -10.6296    140.9578     82.9482   4.9508037168e+01   3.7500816006e+01    0.2425398    0.1876098 -77.57  0.001134381    1.707    0.414
       147 -11.5904    104.3124     81.4414   5.9099560462e+01   4.5955413353e+01    0.5932027     0.272142 -52.09    0.0021291    2.463    0.594
       148 -12.8313     25.3064     75.9404   9.0189444252e+01   5.9706668277e+01     1.093244      0.31195 -55.63  0.003858149    2.866    0.651
       149 -11.0268    119.3655     79.5355   5.4038857500e+01   4.3046356288e+01    0.3115442    0.1280106 -53.37 0.0009566816    3.402    0.706
       150 -10.6043     74.3378     79.0458   6.8982445964e+01   5.2407075484e+01    0.4718164     0.150505 -57.57  0.001355779    3.887    0.743
       151 -11.1348    128.0898     74.7579   5.0222871265e+01   4.1975755341e+01    0.3606609    0.2118915 -53.87  0.001466584    2.009    0.502
       152 -11.9164     62.7523     69.4699   7.0881614719e+01   5.6662135536e+01     1.042874    0.1889425 -49.21  0.002643003    5.003    0.800
       153 -10.3010    140.4816     74.5134   4.7124330529e+01   3.9135404520e+01    0.1476157    0.1460131 -73.07 7.400354e-05    1.023    0.022
       154 -11.5484     82.1340     70.2860   6.3233989798e+01   5.2949755082e+01    0.7880349     0.271562 -51.61  0.002496901    3.169    0.684
       155 -10.8628     42.5055     71.0023   8.0681293734e+01   5.9208992071e+01    0.3934587    0.1378082 -62.12  0.001372483    2.765    0.638
       156 -10.7335    105.5179     70.5366   5.5263305259e+01   4.7954237709e+01    0.2833015     0.142882 -52.99  0.001038859    2.357    0.576
       157 -11.0059     94.7593     69.2735   5.8351021301e+01   5.0568646950e+01    0.5574749    0.1964073 -52.34  0.001648013    3.676    0.728
       158 -11.7767     51.1615     67.3254   7.5507376202e+01   5.8969430817e+01     0.759573    0.2711628 -65.19   0.00229977    3.874    0.742
       159 -11.9004      5.9322     69.9166   9.8991547127e+01   6.2493673744e+01    0.3555078    0.1685927 -74.34  0.001614449    1.867    0.464
       160 -12.0177     17.5724     64.1118   9.1945422385e+01   6.3357844145e+01    0.5208831    0.1565774 -61.37  0.001934089    2.630    0.620
       161 -10.4183    147.0000     66.9969   4.3392352394e+01   3.8891757517e+01    0.2493483   0.08342353 -35.11 0.0008066398    2.972    0.663
       162 -10.2999    138.6650     65.3329   4.4701103855e+01   4.1164776605e+01    0.1574946    0.1165214 -73.46 0.0007052202    1.735    0.424
       163 -10.5429    121.3419     64.8877   4.8817757068e+01   4.5386315298e+01    0.3139507    0.1301808 -45.41  0.001092968    2.554    0.608
       164 -11.4372     37.2410     62.1238   8.0942497654e+01   6.2057938461e+01    0.5170522    0.2061497 -56.66  0.002012346    2.257    0.557
       165 -10.5753    110.1255     62.6890   5.1212288156e+01   4.8435512014e+01     0.313489    0.1716055 -51.78  0.001224101    2.117    0.528
       166 -10.0828     85.3081    233.6616   9.0150555638e+01   1.7101426183e+01    0.1209213   0.07020417  50.35 0.0007042984    1.682    0.406
       167 -11.1033     25.1163     57.4289   8.6297813664e+01   6.4471893785e+01    0.3533321    0.1774603 -55.11  0.001583182    1.770    0.435
       168 -12.9281      7.8413     53.5008   9.5535647537e+01   6.6632168973e+01    0.8207735    0.1882045 -66.37  0.002862189    3.171    0.685
       169 -11.9331    124.4342     89.2674   5.5520196670e+01   3.9975747475e+01    0.5367436    0.2580898 -48.52   0.00202977    2.227    0.551
       170 -11.8856     44.8617     50.8991   7.3333630909e+01   6.3781857160e+01    0.7050791      0.23823 -47.47  0.002469766    2.826    0.646
       171 -11.2773     53.8028     51.3424   6.8867464443e+01   6.2317899871e+01    0.6585039    0.2041179 -56.44  0.001976973    3.920    0.745
       172 -11.5059     30.7472     48.7107   8.0560079316e+01   6.6069968541e+01    0.5902911    0.2021388 -66.87  0.001955613    3.513    0.715
       173 -10.8387     20.3626     49.5522   8.7071481028e+01   6.6839864761e+01    0.4296012    0.1882098 -41.35   0.00177481    2.287    0.563
       174 -11.2226     92.0455     47.9925   5.1487290537e+01   5.5367678059e+01    0.5703619    0.1994365 -42.73  0.001892471    2.952    0.661
       175 -10.8358     82.3243     43.5695   5.3161303950e+01   5.8374223018e+01    0.6431229    0.2605801 -27.82  0.001843931    4.406    0.773
       176 -10.9583     63.0000     49.9955   6.3925066064e+01   6.1023121217e+01    0.4553783    0.1950124 -38.36   0.00162642    2.696    0.629
       177 -11.3260     16.9261     41.9333   8.7177425011e+01   6.8977826097e+01    0.5096962    0.1234774 -58.81  0.001792583    3.051    0.672
       178 -10.5946     72.7021    228.1616   9.2486591145e+01   1.9440458785e+01    0.1829588     0.127979  57.53  0.001194066    1.452    0.311
       179 -10.8544     57.6248     40.0278   6.2343191577e+01   6.4082776981e+01    0.3420649    0.1372265 -46.73  0.001267983    2.528    0.604
       180 -11.5197     73.2641     56.1494   6.1792444655e+01   5.7765898003e+01    0.7590368    0.2295598 -43.53  0.002337814    3.429    0.708
       181 -10.9711     69.0718     38.6680   5.6399300892e+01   6.2124071254e+01     0.434731    0.2111751 -36.48  0.001727352    2.209    0.547
       182 -10.9668     36.8825     38.5287   7.3170305543e+01   6.7698729792e+01    0.4154531    0.1484072 -46.68   0.00154107    2.644    0.622
       183 -10.6360     95.3824     35.4356   4.5185215003e+01   5.6727199879e+01    0.2901182    0.1438382 -17.66 0.0009573628    3.412    0.707
       184 -11.5295     27.5957     29.7254   7.5498204601e+01   7.0812741089e+01    0.5940535     0.128174 -45.08  0.001748044    4.493    0.777
       185 -10.8032     50.1423     29.4553   6.1281465263e+01   6.7520015071e+01    0.4567129     0.143553 -36.88   0.00138132    4.132    0.758
       186 -10.5884     60.6129     29.5782   5.5959051470e+01   6.5515623411e+01    0.2860779    0.1272641 -27.68   0.00095739    3.402    0.706
       187 -11.4663     12.5690     28.2789   8.6019480688e+01   7.2549309080e+01    0.4823483    0.1110253 -64.64  0.001591589    3.819    0.738
       188 -10.2606    113.5890     41.8918   4.2621939695e+01   5.1205580485e+01    0.2115715    0.1337428  -1.11 0.0008034927    2.625    0.619
