#   1 NUMBER                 Running object number                                     
#   2 MAG_AUTO               Kron-like elliptical aperture magnitude                    [mag]
#   3 X_IMAGE                Object position along x                                    [pixel]
#   4 Y_IMAGE                Object position along y                                    [pixel]
#   5 X_WORLD                Barycenter position along world x axis                     [deg]
#   6 Y_WORLD                Barycenter position along world y axis                     [deg]
#   7 A_WORLD                Profile RMS along major axis (world units)                 [deg]
#   8 B_WORLD                Profile RMS along minor axis (world units)                 [deg]
#   9 THETA_WORLD            Position angle (CCW/world-x)                               [deg]
#  10 FWHM_WORLD             FWHM assuming a gaussian core                              [deg]
#  11 ELONGATION             A_IMAGE/B_IMAGE                                           
#  12 ELLIPTICITY            1 - B_IMAGE/A_IMAGE                                       
         1 -14.4347    152.5374     55.7343   8.6389319473e+01   4.0191091936e+01     1.348359      1.17921  35.88 0.0009836182    1.172    0.147
         2 -14.8204    163.9023     40.9285   7.9272683956e+01   3.9470095200e+01     1.338766     1.080032 -11.23  0.003680195    1.406    0.289
         3 -14.6694    179.6993      7.4690   6.6257588904e+01   3.9224158919e+01     1.735302    0.8730432  61.89  0.006656901    1.755    0.430
         4 -10.5489    125.0676    246.3728   1.3216663052e+02   9.3033712384e+00     0.300092    0.1122356 -56.13  0.001480294    3.364    0.703
         5 -19.9239     73.6517    169.9559   1.3357608031e+02   3.1527498901e+01     17.46226      6.87199 -67.83   0.07472813    2.540    0.606
         6 -11.8414    116.1632    211.9397   1.2991492654e+02   1.6448554773e+01    0.2931688    0.1753946  68.67  0.001131959    1.903    0.474
         7 -11.4580      3.7388    180.2867   1.4926684591e+02   3.7129682613e+01    0.2378938     0.165332  29.21  0.001704002    1.919    0.479
         8 -13.5522    195.5940    170.8895   1.0711820039e+02   8.9783926923e+00    0.8821803    0.4596612 -51.06  0.002981173    2.482    0.597
         9 -10.5505     10.8921    174.5126   1.4750865212e+02   3.7699332803e+01    0.1635256    0.1157276 -81.37 0.0002919199    1.213    0.176
        10 -13.1154    177.3331    171.7805   1.1096194952e+02   1.2494536502e+01    0.5292678     0.378639 -54.66  0.002692307    1.649    0.393
        11 -13.5982    138.7264    170.8230   1.1902355759e+02   2.0330967375e+01    0.9236182     0.700882  30.83  0.004840186    1.457    0.314
        12 -11.7285    202.9939    172.1806   1.0593960327e+02   7.2937819967e+00    0.2315653    0.2064502 -30.64 0.0008820464    1.200    0.167
        13 -10.1849    150.7061    246.1616   1.2760307940e+02   5.2684038077e+00     0.125928    0.1071117 -39.24  0.000487813    1.570    0.363
        14 -11.1534     14.0000    240.0055   1.5043188960e+02   2.4963988344e+01    0.2375201   0.04615494 -78.18  0.001025393    4.702    0.787
        15 -11.5515    110.7392    212.3537   1.3103131935e+02   1.7256210253e+01    0.1775302    0.1459905  69.36 0.0006520796    1.087    0.080
        16 -11.8031    230.1899    166.4873   9.9758224262e+01   2.9177628519e+00    0.3177007    0.1754946 -50.16  0.001280744    2.559    0.609
        17 -11.3528    201.0597    164.7991   1.0481248275e+02   8.9044988180e+00    0.2945067    0.1987196 -55.33  0.000791213    1.935    0.483
        18 -11.6070    122.4552    165.8409   1.2179587964e+02   2.4421229132e+01    0.4072543    0.2038344  60.40  0.001067014    2.561    0.609
        19 -10.4482     25.3674    165.0714   1.4378145185e+02   3.8361307321e+01    0.2023131    0.1516411  -9.50  0.001240109    2.470    0.595
        20 -10.6875    222.7879    162.2948   1.0021094393e+02   4.9814182520e+00    0.3131708    0.1702565 -48.74  0.001074019    2.371    0.578
        21 -12.5863    109.9323    208.4730   1.3072110870e+02   1.8100838626e+01    0.3563907    0.2921233  44.60  0.001269392    1.221    0.181
        22 -12.8025    164.1566    156.8154   1.1074179661e+02   1.7999319997e+01    0.3406669    0.3194945 -10.22 0.0008506036    1.166    0.142
        23 -14.8884    134.0519    145.2820   1.1518241487e+02   2.6568846396e+01     1.855026    0.6389693 -57.08   0.00557899    3.970    0.748
        24 -13.9503    135.5358    123.1786   1.0989463568e+02   3.1035781119e+01     2.979532    0.3616746 -48.83  0.005201877   10.326    0.903
        25 -13.2083     11.7308    206.1857   1.4921008609e+02   3.1300197247e+01    0.4012818    0.2583286  35.85  0.002286819    1.850    0.459
        26 -10.6959    156.9217    201.9898   1.2041136179e+02   1.1104257252e+01    0.4691264    0.2463204  63.40  0.001897359    2.968    0.663
        27 -12.7850    163.7770    203.2079   1.1924465811e+02   9.6462190410e+00    0.4016306    0.3454028  -5.07  0.001666479    1.422    0.297
        28 -11.9216    174.0246    149.0496   1.0697071885e+02   1.7406700008e+01    0.3631859    0.3327536 -67.26  0.001643172    1.202    0.168
        29 -14.2664    143.3094    143.1631   1.1255636284e+02   2.5126324300e+01     1.023932    0.5530438 -63.15  0.003900378    2.543    0.607
        30 -12.7972    161.3258    197.7753   1.1885981260e+02   1.1016686600e+01    0.3537521    0.3055861 -76.17  0.001599088    1.389    0.280
        31 -11.9421    168.8750    202.4321   1.1811753895e+02   8.8405759210e+00    0.2553082    0.1989438  82.40 0.0005983651    1.751    0.429
        32 -11.4298     23.8006    137.9457   1.4155271037e+02   4.4509502660e+01    0.2999654    0.2228549  -1.66  0.001508845    2.152    0.535
        33 -11.8221      4.8533    137.4175   1.4606906895e+02   4.6143736595e+01    0.2252849    0.1841876 -88.10 0.0006022499    1.109    0.098
        34  -9.1403     13.4777    233.1099   1.5021406050e+02   2.6206443798e+01    0.1215594   0.07562251  85.34 0.0003922943    1.271    0.213
        35 -12.4519    160.6773    128.0816   1.0511295033e+02   2.4494812190e+01    0.4308445    0.3653752 -71.97  0.002148477    1.329    0.247
        36 -10.5827    139.2117    249.9781   1.3006423338e+02   6.5556654429e+00    0.2158993    0.1209309  56.33  0.001261389    1.646    0.393
        37 -10.5487    137.2705    198.1830   1.2379813731e+02   1.5336123688e+01    0.4969759    0.2704286  75.70  0.001744247    4.266    0.766
        38 -11.6894    140.2856    120.6450   1.0811338176e+02   3.0560648056e+01    0.3243884    0.2488024  88.34  0.000867295    1.666    0.400
        39 -11.5278    154.4467    196.0433   1.1996635897e+02   1.2592751494e+01    0.3717341    0.2523872 -82.92  0.001798816    2.316    0.568
        40 -10.0907     28.5487    228.5888   1.4752762858e+02   2.5419051897e+01    0.1040168   0.07675017  70.93 0.0008002433    1.091    0.084
        41 -10.7163    167.6391    112.6334   9.9693860211e+01   2.5995755378e+01    0.3195996    0.2287519 -80.95  0.001328361    2.043    0.511
        42 -11.8774     24.9955    225.7244   1.4796751674e+02   2.6318865716e+01    0.3074717    0.1287802 -65.33    0.0018057    2.565    0.610
        43 -11.6683    219.2735    224.5948   1.1237025263e+02  -3.1421022399e+00    0.2224673    0.1623205 -35.38 0.0009990762    1.654    0.395
        44 -10.8083    205.4328    110.1666   9.1371006057e+01   1.7508294526e+01    0.3307808    0.2128787  42.54 0.0009448562    1.615    0.381
        45 -11.7094     19.5965    222.9528   1.4872795971e+02   2.7389760915e+01    0.1502002    0.1232293 -89.23  0.001230574    1.374    0.272
        46 -11.1279      8.9882    102.1838   1.4134615648e+02   5.3730554708e+01    0.2340242    0.2036792  74.02  0.001038951    1.241    0.194
        47 -11.4153    110.1439    222.9618   1.3237090091e+02   1.5459093500e+01    0.1775736    0.1424955  63.16 0.0003829934    1.049    0.047
        48 -10.4186    144.4275     80.2449   9.6006159826e+01   3.7881696737e+01    0.2131498    0.1460066 -48.94 0.0004659545    1.520    0.342
        49 -10.2699    159.9931    248.5478   1.2624898879e+02   3.4450502138e+00    0.1533939     0.145448  50.51 0.0005635261    1.248    0.199
        50 -11.7063    133.7920    247.5911   1.3075676079e+02   7.7558849488e+00    0.1531136    0.1372891  60.52 0.0003286715    1.199    0.166
        51 -12.9790    167.7863     32.7794   7.5947784572e+01   3.9535871170e+01    0.4254852    0.4016993   8.51 0.0009029969    1.154    0.133
        52 -10.9662     13.5194     59.9472   1.3266604265e+02   6.2750878349e+01     0.176633    0.1568193  64.43 0.0004130359    1.414    0.293
        53 -10.4295    143.2346     33.3997   8.0800347362e+01   4.5824502215e+01    0.2561737    0.1784518  71.29   0.00112814    1.538    0.350
