#   1 NUMBER                 Running object number                                     
#   2 MAG_AUTO               Kron-like elliptical aperture magnitude                    [mag]
#   3 X_IMAGE                Object position along x                                    [pixel]
#   4 Y_IMAGE                Object position along y                                    [pixel]
#   5 X_WORLD                Barycenter position along world x axis                     [deg]
#   6 Y_WORLD                Barycenter position along world y axis                     [deg]
#   7 A_WORLD                Profile RMS along major axis (world units)                 [deg]
#   8 B_WORLD                Profile RMS along minor axis (world units)                 [deg]
#   9 THETA_WORLD            Position angle (CCW/world-x)                               [deg]
#  10 FWHM_WORLD             FWHM assuming a gaussian core                              [deg]
#  11 ELONGATION             A_IMAGE/B_IMAGE                                           
#  12 ELLIPTICITY            1 - B_IMAGE/A_IMAGE                                       
         1 -13.1076    235.4012     25.3721   5.3615380896e+00   2.4590906808e+01    0.6832526    0.5996631  68.45  0.004778642    1.418    0.295
         2 -12.0100    232.2626     21.0615   4.7565714637e+00   2.5782014769e+01    0.4786922    0.3308301  49.03  0.002854028    2.040    0.510
         3 -11.4663     11.5664     11.4058   5.4997617969e+01   7.2099279441e+01    0.2910452    0.1072253  38.65  0.001333197    3.921    0.745
         4 -10.2729     72.0062      6.2344   2.6331265206e+01   6.3760297410e+01    0.1647451   0.08669398  51.21 0.0007238275    1.635    0.388
         5  -9.1581     81.6743    229.6977   7.8329467321e+01   1.5695155415e+01    0.1191534    0.1044903 -10.98 0.0004802249    1.640    0.390
         6 -10.8058     95.6432    245.6002   7.7075013484e+01   1.0396071529e+01    0.8174164    0.4020084  59.29   0.00376511    2.263    0.558
         7 -11.8640    114.0388    249.3671   7.3666228868e+01   6.8718983838e+00    0.5021656    0.2758266  41.70  0.002549244    1.497    0.332
         8 -13.8079    115.0359    239.6830   7.2290493966e+01   8.5400737559e+00     1.769686    0.7953225  48.86  0.007920262    2.060    0.515
         9 -11.5695     98.5430    222.4304   7.3745290335e+01   1.4651676429e+01    0.3891992     0.293988  53.28   0.00113261    1.168    0.144
        10 -13.2788     91.2295    226.2909   7.5846710590e+01   1.4973610945e+01    0.6404243    0.4914691  34.38  0.002413129    1.325    0.245
        11 -11.3134    100.0598    242.8294   7.5843444787e+01   1.0263660410e+01    0.2891828    0.2200486  52.70 0.0007918654    1.109    0.099
        12 -13.1295     98.9006    234.7666   7.5165545296e+01   1.2040249262e+01     1.058586    0.6667247  84.14  0.005313859    2.050    0.512
        13 -11.3320     50.2531    250.3774   8.6697600545e+01   1.5806971029e+01    0.2065688    0.1470151  43.92  0.000612077    1.290    0.225
        14 -10.8593     51.8983    245.3667   8.5991430135e+01   1.6590143487e+01    0.3955339    0.2204728  73.85    0.0021733    1.774    0.436
        15 -14.5541     50.3860    177.0976   7.9615621225e+01   3.2182152339e+01     2.126005     1.032025 -49.06  0.008091276    2.375    0.579
        16 -14.5398     26.4487    176.7888   8.5606998792e+01   3.4973791954e+01     2.288933    0.9995164  80.25   0.00644517    2.980    0.664
        17 -12.3674     81.8377    192.7436   7.3756828890e+01   2.3967788983e+01    0.4952537    0.3312801  69.36  0.001393464    1.607    0.378
        18 -10.3660    193.4381    195.2160   4.8306470090e+01   3.7215971205e+00    0.1896698    0.1320057 -53.51 0.0009501471    1.677    0.404
        19 -10.1439     60.3848    187.0664   7.8327683304e+01   2.8442435374e+01      0.45184    0.2182043  79.00  0.001625139    3.306    0.698
        20 -10.2010     72.9071    187.1978   7.5217029422e+01   2.6640485738e+01    0.2818252    0.1979428  79.09 0.0008911952    1.495    0.331
        21 -10.7578     62.6406    181.4572   7.7043003480e+01   2.9499082366e+01    0.3382656    0.2270996  48.91 0.0006371959    1.425    0.298
        22 -10.6325    173.0345    178.0357   4.9302367326e+01   1.0842273956e+01    0.2349628     0.187297  85.71   0.00114157    1.726    0.421
        23 -10.2326     96.6917    175.2674   6.7315297349e+01   2.5777409851e+01    0.2400525    0.2009689  77.88 0.0004835677    1.209    0.173
        24 -10.8326     74.7486    174.1830   7.2883885757e+01   2.9550267581e+01    0.4009226    0.1883305 -71.51  0.001535323    2.366    0.577
        25 -10.5185     76.0880    169.5885   7.1823467549e+01   3.0488099245e+01    0.3674125    0.1886712 -84.82  0.001153399    2.972    0.663
        26  -9.7610     67.2318    220.9421   8.0566821820e+01   1.9658036249e+01    0.1743168    0.1430727 -89.35 0.0004328508    1.166    0.143
        27  -9.7414     71.9595    224.4831   7.9894970888e+01   1.8218748042e+01    0.1864513    0.1167252  39.86 0.0004178073    1.469    0.319
        28 -11.0035    180.9952    170.3141   4.6014942403e+01   1.0893603113e+01    0.2120072    0.1975113  27.67 0.0009028965    1.068    0.063
        29  -9.5024    101.5138    166.5537   6.4526296995e+01   2.7072747638e+01    0.1523968    0.1401863  74.27 7.073374e-06    1.043    0.041
        30 -11.6401     82.0645    164.1760   6.9333507511e+01   3.0911718901e+01    0.5073679    0.3149176  11.62    0.0020227    2.684    0.627
        31 -11.2266     89.0740    164.0689   6.7415056778e+01   2.9805783861e+01    0.2870623    0.2211195  73.03 0.0006926731    1.395    0.283
        32 -10.4248     85.8942    160.1148   6.7586789965e+01   3.1311143510e+01    0.2747672    0.2007862  85.37 0.0005930458    1.567    0.362
        33 -13.2317     64.1326    127.5868   6.7844419827e+01   4.2775368599e+01     1.259749    0.5290152  30.40  0.004839885    2.622    0.619
        34 -14.1206     69.6747    144.6239   6.9410760534e+01   3.7713941533e+01     1.306797     0.850207  81.71  0.002551962    2.005    0.501
        35 -12.1194     54.4555    147.8713   7.4395971392e+01   3.8977079997e+01    0.6724005    0.3602535  40.13  0.003067387    1.908    0.476
        36 -12.3564     70.2549    161.0133   7.2044103437e+01   3.3500064835e+01    0.5151697    0.3914308  -4.91  0.001503382    1.919    0.479
        37 -11.7123     74.1411    157.5910   7.0402846178e+01   3.3784447844e+01     0.376813     0.258489  27.79 0.0008578748    1.651    0.394
        38 -10.8280     38.9199    160.1664   8.0512043221e+01   3.7737515773e+01     0.291997    0.2444071  78.38 0.0002764209    1.111    0.100
        39 -12.2343     31.9221    154.8492   8.1750821511e+01   3.9806947818e+01    0.5749418    0.3249393  60.30  0.001661917    1.947    0.486
        40 -11.2713     23.6211    155.8777   8.4129215491e+01   4.0362986085e+01     0.389544    0.2345752  77.13   0.00152612    1.737    0.424
        41 -12.0876     24.5998    149.9496   8.3171228170e+01   4.1735837384e+01    0.5443588    0.4211037 -63.52  0.001887117    1.186    0.157
        42 -18.5996     13.8442    222.1081   9.1950684729e+01   2.5874165246e+01     6.790383     2.656944 -79.38   0.03243382    2.286    0.562
        43 -10.2833     52.8401    155.5261   7.6035129834e+01   3.7252402973e+01    0.2512842    0.1451419  22.35  0.001135258    2.155    0.536
        44 -10.4404     82.0839    150.8677   6.6978628389e+01   3.4241211817e+01    0.2482246    0.2371761  39.10  0.000521227    1.127    0.113
        45 -11.1097     89.4736    151.9702   6.5100385864e+01   3.2753457639e+01    0.2898667    0.2490352 -80.50 0.0005489879    1.158    0.136
        46 -12.8659     86.9147    148.2172   6.5105277715e+01   3.4117919411e+01    0.8938068    0.4310481 -41.29 0.0008227324    2.600    0.615
        47 -12.0901     56.8412    142.9105   7.2883531534e+01   3.9920620006e+01    0.5697216    0.3368471  85.71  0.002365549    2.296    0.565
        48 -11.3776    133.5540    145.6192   5.1851067833e+01   2.5982723310e+01    0.8168133    0.2546458 -55.08  0.002247168    3.975    0.748
        49  -9.3174     42.9985    149.0242   7.7865783182e+01   4.0068820145e+01    0.1593776    0.1413765 -81.97 0.0009435274    1.007    0.007
        50 -10.9637    108.8422    145.2812   5.8356527759e+01   3.0950332899e+01    0.3053678    0.2867798 -83.05 0.0006643056    1.048    0.046
        51 -10.2203     46.7815    143.8218   7.5991170785e+01   4.0938530983e+01    0.3249034    0.1871887  75.87  0.001116996    2.324    0.570
        52 -10.7575     36.8572    142.5820   7.8708700776e+01   4.2356860391e+01    0.3281049    0.1861547 -67.75 0.0009309297    1.549    0.354
        53 -10.2845    127.9743    138.0229   5.1587310681e+01   2.8909918073e+01    0.2405862    0.2287736  84.15  0.000470621    1.051    0.048
        54 -11.8077    174.7972    223.0983   5.7101062055e+01   1.8027880058e+00    0.2537855    0.1901378  20.22 0.0009680582    1.306    0.234
        55 -12.5405    104.5490    131.4340   5.6514787280e+01   3.5125120197e+01    0.6273414      0.54768 -23.94   0.00238636    1.306    0.234
        56 -12.7052     58.5985    133.7332   7.0735912117e+01   4.1996702938e+01    0.7625617    0.4343743  64.36  0.002935827    2.467    0.595
        57 -11.4596     90.3880    132.2260   6.0816536326e+01   3.7500215146e+01    0.2906872    0.2540762 -47.12 0.0004495837    1.150    0.130
        58 -11.7552     43.0758    129.9303   7.4852150457e+01   4.4842374878e+01    0.4311826    0.3039669  58.66  0.002228847    1.596    0.373
        59  -9.7558    150.5307    130.0678   4.4019446178e+01   2.5919900018e+01    0.2347658    0.1530648 -50.15  0.000860066    1.540    0.351
        60  -9.5281     82.5227    129.0316   6.2479130723e+01   3.9614491265e+01    0.2226377    0.1432472 -58.38 0.0004131598    1.505    0.336
        61 -10.7833    111.8460    126.2927   5.3240196508e+01   3.4941911771e+01    0.2922593    0.2024706 -23.82  0.001214767    1.999    0.500
        62 -11.9318     48.7576    124.6060   7.2120262100e+01   4.5508764566e+01    0.3876779    0.2652874  30.93  0.001455329    1.596    0.373
        63 -11.1841     57.1957    119.2076   6.8353847344e+01   4.5783445364e+01    0.3020771    0.1816265  48.04 0.0009008392    1.876    0.467
        64 -10.6431     48.0380    120.1823   7.1517506135e+01   4.6684923227e+01    0.2376131    0.1837511 -59.99 0.0004111342    1.165    0.142
        65 -10.9195     49.9812    116.5284   7.0166639745e+01   4.7347217164e+01    0.2458954    0.1778348  38.46  0.001062588    1.493    0.330
        66 -10.8374    134.8350    123.1975   4.6266241050e+01   3.0879178971e+01    0.4072593    0.1125694 -44.66  0.001126728    3.707    0.730
        67 -10.6920     99.2246    121.2987   5.5695363831e+01   3.8556925301e+01    0.3464477    0.2604403  -5.40  0.001050789    1.888    0.470
        68  -9.3007     91.4765    121.4708   5.8057706366e+01   3.9925831957e+01    0.1501564    0.1456611 -70.39 -7.287774e-05    1.007    0.007
        69 -11.0621     97.1731    201.7264   7.1290447962e+01   1.9439800410e+01    0.5036506     0.212603  26.42  0.001684889    3.573    0.720
        70  -9.1832    221.2264    115.2625   2.6417385842e+01   1.3582415335e+01    0.2279529   0.09518421 -49.58 0.0007022562    2.380    0.580
        71  -9.9982    210.9701    198.7016   4.5482775167e+01   1.2407064560e-01    0.1842123    0.1616063  15.59 0.0004727542    1.086    0.079
        72 -10.5807    111.5955    105.2297   4.7992791725e+01   3.9831426144e+01    0.2206496     0.144465 -38.18 0.0009543705    1.628    0.386
        73 -12.0650     32.8937     99.4305   7.2544267133e+01   5.3289036990e+01    0.4429841    0.2737702 -83.86  0.002132755    2.086    0.521
        74 -10.7387     37.0767     99.4906   7.1066582871e+01   5.2860450003e+01    0.2247176    0.2224453 -12.54 0.0006597245    1.125    0.111
        75 -11.5201     23.6395     94.3842   7.4858234781e+01   5.5284879637e+01    0.2312932    0.1924584  41.95 0.0008949417    1.405    0.288
        76  -9.9839     59.7491     94.5968   6.1849399634e+01   5.1265321401e+01    0.1907311    0.1282218  42.70 0.0007416408    1.634    0.388
        77 -11.2612    110.2959    198.0539   6.7590974848e+01   1.8081724246e+01    0.5233552    0.2547536  20.22  0.001603523    4.387    0.772
        78 -10.5708     56.3418     84.4730   6.0409546500e+01   5.3978456605e+01    0.3804258     0.205828  50.52  0.001628002    2.540    0.606
        79 -10.8587     11.7010     82.9190   7.7044664651e+01   5.8756492683e+01    0.2104921    0.1768982  25.81 0.0006342111    1.401    0.286
        80 -10.9343     68.9563    194.8297   7.7188166638e+01   2.5385425409e+01    0.3542448    0.2153074 -67.57  0.001480744    1.610    0.379
        81 -11.5673    186.3361     62.9396   1.9693109321e+01   3.0446658899e+01    0.3503465    0.2935736  77.17 0.0008114638    1.120    0.107
        82  -9.5725     82.8298     63.8963   4.4690040123e+01   5.3850937478e+01    0.1770405    0.1669213  89.78 0.0002899516    1.295    0.228
        83  -9.3511     77.0000     60.9786   4.5714985324e+01   5.5428138163e+01     0.166651    0.1524202  11.44 0.0006095927    1.022    0.021
        84 -11.2239     13.5162     60.1440   7.1098112684e+01   6.3483561950e+01    0.1947635    0.1832388  78.01 0.0005637641    1.399    0.285
        85 -13.4099    203.0231     51.0936   1.4400622502e+01   2.8308891115e+01     1.123373    0.8157375  42.68  0.004669601    1.799    0.444
        86 -12.4574    209.0735     46.3498   1.2540488598e+01   2.7595560078e+01    0.5127498    0.4475346 -57.21  0.001354834    1.164    0.141
        87  -9.1417     36.3181     38.6990   5.3910509196e+01   6.5311851982e+01    0.1058835   0.09838562  62.04 0.0004295095    1.620    0.383
        88  -9.5379     57.2364    247.3594   8.5089306353e+01   1.5495746691e+01    0.1048567   0.09092824 -52.17 0.0003879311    1.586    0.369
        89  -9.1255     68.3069    245.2697   8.2683775479e+01   1.4416034051e+01    0.1057052    0.0977804   6.01 0.0006948138    1.538    0.350
        90  -9.8341     60.7586     21.3701   3.6639206360e+01   6.4216418187e+01    0.1767918   0.09836356  35.39 0.0009456777    1.614    0.380
        91 -11.0516    184.6814    229.1072   5.6051483302e+01  -8.4604967122e-01    0.2371001    0.1208884 -51.74  0.001087852    2.484    0.597
