#   1 NUMBER                 Running object number                                     
#   2 MAG_AUTO               Kron-like elliptical aperture magnitude                    [mag]
#   3 X_IMAGE                Object position along x                                    [pixel]
#   4 Y_IMAGE                Object position along y                                    [pixel]
#   5 X_WORLD                Barycenter position along world x axis                     [deg]
#   6 Y_WORLD                Barycenter position along world y axis                     [deg]
#   7 A_WORLD                Profile RMS along major axis (world units)                 [deg]
#   8 B_WORLD                Profile RMS along minor axis (world units)                 [deg]
#   9 THETA_WORLD            Position angle (CCW/world-x)                               [deg]
#  10 FWHM_WORLD             FWHM assuming a gaussian core                              [deg]
#  11 ELONGATION             A_IMAGE/B_IMAGE                                           
#  12 ELLIPTICITY            1 - B_IMAGE/A_IMAGE                                       
         1 -14.7112     68.4159    144.4045   1.0298299319e+02   3.7763280449e+01     4.866419     2.513831  70.61  0.007576063    3.744    0.733
         2 -14.3009    216.3907     25.7539   3.8187441888e+01   2.8930359036e+01     1.237058    0.9272946  33.27  0.007051656    1.878    0.468
         3 -14.4426    203.7324     38.4481   4.2705279804e+01   3.0289418125e+01       2.0202     1.432454  34.62  0.008523623    1.897    0.473
         4 -12.7679    241.7017      3.1473   3.1144572844e+01   2.5923413755e+01     0.728744    0.3203587  77.16  0.003838131    2.135    0.532
         5  -9.8990     60.5214      3.5117   6.0680833890e+01   6.6837438599e+01    0.1229547   0.09954675  19.55 -1.702495e-05    1.027    0.027
         6  -9.4743      2.3140      2.3345   8.9613528097e+01   7.4597149077e+01    0.1184186   0.06130734 -19.91 0.0003925562    1.687    0.407
         7 -11.4932    192.0085    193.0011   8.1636824096e+01   5.5433403650e+00    0.8729169    0.6249048  73.21  0.003906026    2.748    0.636
         8 -10.4582    139.8185    249.7307   1.0147562847e+02   4.2276118356e+00    0.2220733    0.1802061 -75.10    0.0014373    1.623    0.384
         9 -16.2627     43.0979    196.2630   1.1610171618e+02   2.8400786191e+01     7.767225     2.785041  54.72    0.0316544    2.984    0.665
        10 -16.3360      7.7038    241.7677   1.2606925781e+02   2.2620194781e+01     1.928638     1.530531 -81.43   0.01531729    1.375    0.273
        11  -8.9250     77.2926    185.6649   1.0691294372e+02   2.6516250505e+01    0.1433717   0.09589922  71.00 0.0006781731    1.640    0.390
        12  -9.5034     80.2898    183.9649   1.0595136528e+02   2.6486294435e+01    0.2603873    0.1688211  60.11  0.001290465    1.613    0.380
        13  -9.8220     99.2858    180.8056   1.0079792615e+02   2.4344187113e+01    0.2350298    0.2181205  73.31 0.0006078122    1.024    0.024
        14 -10.9121    150.1288    178.0336   8.7962927336e+01   1.6073580946e+01     0.444154     0.253645 -66.77  0.001685728    2.810    0.644
        15 -12.1190     65.2291    175.7438   1.0857237883e+02   3.0495617219e+01    0.4557909    0.2934161 -36.43  0.002194228    2.130    0.531
        16 -12.1509     69.9092    170.8065   1.0671219074e+02   3.1060125056e+01    0.3877239    0.3275846  55.55  0.001297369    1.160    0.138
        17 -15.7616      7.4990    158.2809   1.2106839817e+02   4.0554254216e+01     6.112328     1.258692 -75.84   0.02087423    4.011    0.751
        18  -9.4766    204.3320    175.4800   7.5646747033e+01   6.5237730957e+00     0.245819    0.1247332 -39.55  0.001068264    1.913    0.477
        19 -10.0348    188.0855    174.7416   7.8831688615e+01   9.6302116806e+00    0.4587873    0.1861622 -52.92  0.001495285    3.691    0.729
        20  -9.7339    196.9953    174.6691   7.6963303161e+01   8.0012843253e+00    0.2561554    0.2144708 -64.99   0.00136235    1.598    0.374
        21 -12.8701     86.1450    154.9149   9.9880322957e+01   3.2599806313e+01     1.670024    0.8773982 -61.31  0.001470342    1.857    0.461
        22  -9.6407    172.5056    238.9490   9.3450638871e+01   9.6787752911e-01    0.2466036    0.1271629 -53.38  0.001188196    2.676    0.626
        23 -11.4797     32.6949    155.9609   1.1446214011e+02   3.8995634122e+01    0.3625503    0.2954926  67.06  0.001858369    1.203    0.169
        24  -9.3636    187.3087    151.3379   7.3952789263e+01   1.4348162909e+01    0.1557137    0.1147771  -3.10 0.0007043319    1.682    0.406
        25 -11.1318    133.6604    144.1771   8.4942958870e+01   2.6764073226e+01     1.154916    0.3028334 -54.78  0.002634484    5.944    0.832
        26 -11.7047     54.5781    146.9818   1.0732069021e+02   3.8872975780e+01    0.6375003    0.2867552 -59.31  0.002758608    1.941    0.485
        27 -10.5707    174.4139    148.7244   7.6165121146e+01   1.7488632461e+01    0.3570097    0.2777831 -56.48  0.001126388    1.442    0.307
        28 -14.2890     22.8149    224.1477   1.2240537553e+02   2.4585979854e+01      1.29043    0.4981696  73.19  0.004287485    2.906    0.656
        29  -9.3788     36.0045    145.0272   1.1222931614e+02   4.1362144841e+01    0.1525397    0.1398017 -89.38 0.0003875399    1.087    0.080
        30 -10.8508    100.8679    140.0307   9.2896219192e+01   3.3852265392e+01    0.5805235    0.3734682 -22.80  0.002330815    2.363    0.577
        31 -11.1971     80.8036    140.7675   9.8766570083e+01   3.6906476891e+01    0.5022131    0.2970263  67.75  0.001986556    2.552    0.608
        32 -12.2771     87.9255    139.9805   9.6565219864e+01   3.6004524942e+01    0.2926395    0.2563133 -48.90 0.0003847646    1.121    0.108
        33 -15.2726      9.5543    207.6788   1.2401136738e+02   2.9269933396e+01     1.194375     1.111379  47.42   0.00585045    1.388    0.280
        34 -10.2447    110.2423    130.5877   8.8151206819e+01   3.4455789621e+01    0.3181522    0.2608323  -6.31  0.001010746    1.487    0.327
        35 -10.3916    105.9303    130.8724   8.9441024320e+01   3.5176253911e+01    0.3691852    0.3217176 -64.59   0.00190133    1.164    0.141
        36 -11.0969    135.7058    128.0049   8.0592734298e+01   3.0047199154e+01    0.4494801    0.1841902 -50.20  0.001515611    2.525    0.604
        37  -9.8609    160.4729    127.4743   7.4302135791e+01   2.4899578338e+01    0.2930185    0.1441398 -53.10 0.0009623151    2.382    0.580
        38  -9.6194     29.2462    136.8199   1.1305360992e+02   4.4016701388e+01    0.1967063    0.1582233  87.95 0.0005390981    1.173    0.148
        39 -11.0207     97.6273    126.5851   9.0860654831e+01   3.7679873799e+01     0.315601    0.2627409  -3.42 0.0009018405    1.437    0.304
        40  -9.7733    116.6606    124.6810   8.4933123648e+01   3.4637185944e+01    0.2492303    0.1864916 -10.76   0.00109271    1.786    0.440
        41 -12.2421     79.1862    161.5332   1.0287940575e+02   3.2015453122e+01    0.5095302     0.381414  55.40 0.0003945474    1.367    0.269
        42 -13.6168     66.6243    157.3553   1.0559232478e+02   3.4785820557e+01    0.5647004    0.4183537 -49.30  0.001539298    1.390    0.281
        43 -16.2296     38.8282    248.7500   1.2092913212e+02   1.8080486131e+01     9.096175     2.685712  26.23   0.02336834   11.319    0.912
        44 -10.0067    107.0489    119.1044   8.6305688293e+01   3.7775640228e+01    0.2193011     0.213488 -31.16 0.0003336491    1.017    0.017
        45  -8.8086     85.6317    119.3170   9.2789575960e+01   4.1445302893e+01    0.1555318     0.115814  74.34 0.0002205022    1.782    0.439
        46  -9.2817    168.2174    112.8261   6.8781350685e+01   2.6236117765e+01    0.2670939    0.1756132 -80.45 0.0009553361    2.871    0.652
        47 -10.1727    135.0000    112.4679   7.6788835666e+01   3.3664968121e+01    0.3537175   0.08851683 -44.71 0.0009338845    3.928    0.745
        48 -10.1196     39.9775    113.3049   1.0611299930e+02   4.8838577271e+01    0.1816286    0.1700841 -62.41 0.0004794951    1.083    0.076
        49 -10.0745    205.4302    110.1217   6.0581660869e+01   1.8481911364e+01    0.3028467    0.2241331  45.52 0.0008444039    1.449    0.310
        50  -9.6500    114.9788    109.3132   8.1471665155e+01   3.8513947588e+01    0.3329458    0.1902015 -24.72  0.001173365    2.700    0.630
        51 -10.7949    143.9476    178.6434   8.9533723896e+01   1.7086444105e+01    0.2839475    0.2479705 -14.46  0.001199423    1.253    0.202
        52  -9.7643    134.5190    105.5265   7.5033348614e+01   3.5275795000e+01    0.3324441    0.1529103 -43.51  0.001203044    2.140    0.533
        53  -9.0517     72.4403    188.4760   1.0844836329e+02   2.6536937876e+01    0.1360422    0.1181102  75.62 5.340971e-05    1.043    0.041
        54 -10.9514    137.5537    168.9277   8.9190015565e+01   2.0396686598e+01    0.4752362    0.3185155 -70.27   0.00206981    1.987    0.497
        55 -10.9106     41.5143    103.1982   1.0364369075e+02   5.1152214259e+01      0.60602    0.1996846  43.45  0.002099336    4.051    0.753
        56 -11.0336    241.4411     99.1525   5.2236828570e+01   1.2915279804e+01     0.206664     0.168181  68.94 0.0006183084    1.435    0.303
        57  -9.4925     32.7620     96.7290   1.0537560040e+02   5.3527929439e+01    0.1760438    0.1477086  86.84  0.001042695    1.359    0.264
        58 -10.6524     53.0836     90.9855   9.6787757446e+01   5.2789275833e+01    0.3092814    0.1775411 -48.16  0.001484061    1.517    0.341
        59 -10.0605     42.0427     91.8587   1.0099514141e+02   5.3804616728e+01    0.3003219    0.1768107  21.84   0.00149882    1.946    0.486
        60 -10.8960    109.9852    200.6985   1.0125667217e+02   1.8186568470e+01    0.4630871      0.23658 -46.17  0.001415248    2.252    0.556
        61  -9.0470     73.4446     83.9422   8.7577606411e+01   5.1607370914e+01    0.1836579    0.1274343 -76.44 0.0004425181    2.242    0.554
        62  -9.7840    159.2402     82.2155   6.2366480046e+01   3.4254240735e+01    0.2090827    0.1803312 -79.74 0.0004873355    1.319    0.242
        63  -8.6116    109.7152     79.6829   7.4392887385e+01   4.5927518820e+01    0.1523484    0.1165822  -2.35 0.0006002877    1.586    0.369
        64 -10.5471    243.5103     77.8935   4.7172977276e+01   1.5868095232e+01    0.2094833     0.116017 -37.75  0.001029052    1.579    0.367
        65  -8.8627    184.3905     77.2939   5.5932658635e+01   2.9112026841e+01     0.154197    0.1140185  24.05 0.0007010074    1.779    0.438
        66 -10.1915     50.7350     63.5632   8.9875294405e+01   5.9097364524e+01    0.3032919    0.2149094  49.01  0.001486276    1.913    0.477
        67 -10.5503     13.5125     59.9462   1.0460034396e+02   6.3302839708e+01    0.2437896    0.1794489 -52.73 0.0004447425    1.134    0.118
        68  -8.8764     78.4971     57.5105   7.7136644118e+01   5.6118770577e+01    0.1382163    0.1288083  -9.32   0.00080902    1.090    0.082
        69 -11.1387     61.0151    198.4464   1.1227962140e+02   2.5766151505e+01    0.2622564     0.249212 -43.70 0.0004950333    1.323    0.244
        70 -12.7739    194.5249     44.7709   4.5547606725e+01   3.1638606268e+01    0.6413381    0.5734305  10.78  0.001027072    1.388    0.280
        71 -11.1139    207.8695    195.0973   7.8842497498e+01   2.4785439200e+00    0.3184172    0.1734552 -41.38  0.001518736    1.884    0.469
        72 -10.0881    141.8248     39.3714   5.2894137471e+01   4.5256781652e+01    0.2245061    0.1983949 -34.58 0.0004044187    1.201    0.167
        73 -10.7171    138.1354     44.0984   5.5229053231e+01   4.5512187471e+01    0.2868959    0.2253576  81.85 0.0003645278    1.473    0.321
        74  -9.4671    189.5119     15.0033   3.8361797806e+01   3.6406378289e+01    0.1821129    0.1257291 -32.65 0.0005729857    1.546    0.353
        75  -9.5913    112.9972    206.3079   1.0137643376e+02   1.6514518383e+01     0.199058    0.1658322  46.99 0.0006022857    1.093    0.085
        76 -11.9482    195.1962    198.6072   8.2045013409e+01   4.0067067975e+00    0.6586135    0.4993455  80.41  0.002497801    2.611    0.617
