#   1 NUMBER                 Running object number                                     
#   2 MAG_AUTO               Kron-like elliptical aperture magnitude                    [mag]
#   3 X_IMAGE                Object position along x                                    [pixel]
#   4 Y_IMAGE                Object position along y                                    [pixel]
#   5 X_WORLD                Barycenter position along world x axis                     [deg]
#   6 Y_WORLD                Barycenter position along world y axis                     [deg]
#   7 A_WORLD                Profile RMS along major axis (world units)                 [deg]
#   8 B_WORLD                Profile RMS along minor axis (world units)                 [deg]
#   9 THETA_WORLD            Position angle (CCW/world-x)                               [deg]
#  10 FWHM_WORLD             FWHM assuming a gaussian core                              [deg]
#  11 ELONGATION             A_IMAGE/B_IMAGE                                           
#  12 ELLIPTICITY            1 - B_IMAGE/A_IMAGE                                       
         1  -9.7487     26.9331     22.6553   1.0722652392e+02   6.6715605018e+01    0.6026907    0.2791626 -18.19  0.003010938    2.613    0.617
         2 -11.6721     80.4284     23.3570   8.7986364192e+01   5.8968182817e+01    0.5508187    0.2452255  34.47  0.000181865    2.177    0.541
         3  -8.9342     46.1271     20.6947   9.8706559336e+01   6.4692720423e+01    0.3273158     0.166397 -34.21  0.001638277    1.939    0.484
         4  -9.5544     64.5332     13.9068   8.9384311506e+01   6.2722411337e+01    0.3528984     0.179295  24.39  0.001321528    2.041    0.510
         5  -9.0775     71.1949      9.1516   8.5352901653e+01   6.2069003611e+01    0.2770362    0.1870075  44.52  0.001346139    1.382    0.276
         6  -9.1869     79.4282     12.9530   8.4352014367e+01   6.0239014446e+01    0.3555613    0.2035017  48.35  0.001280101    1.599    0.375
         7  -9.4871    133.7925     13.7248   7.1769000216e+01   4.8816313833e+01    0.2922625    0.1900455  45.24 0.0004380985    1.365    0.267
         8  -8.8622     96.5106     12.4672   7.9502445221e+01   5.7004767305e+01     0.376683    0.1735166  33.47  0.001618145    2.212    0.548
         9  -9.5017     32.2259     10.7377   1.0014272430e+02   6.7647859801e+01     0.420493     0.194591  16.86 0.0007591883    2.520    0.603
        10  -9.4048     32.0160      6.1360   9.8244455646e+01   6.8195161510e+01    0.2466776    0.1646194   1.30  0.000394593    1.224    0.183
        11  -8.7295    125.0971     10.3455   7.2385056741e+01   5.1092206821e+01    0.2278639    0.1734111  40.86 0.0004329275    1.176    0.150
        12  -8.5155    130.1489      9.9336   7.1286119158e+01   4.9988906881e+01    0.1876675    0.1625042  76.37 0.0004976732    1.211    0.174
        13  -9.3743     74.4735     13.5085   8.6053002260e+01   6.1073357793e+01    0.4208696    0.2375854   6.82  0.002118956    2.132    0.531
        14  -9.4186     46.4576      6.4161   9.2660037126e+01   6.6257386838e+01    0.2885696    0.1876252  25.64  0.001255943    1.280    0.219
        15  -9.0907     41.1601      5.6168   9.4337570206e+01   6.7075355971e+01    0.3549305    0.1830727 -12.77  0.001275834    2.004    0.501
        16 -10.3272      7.2714      5.5971   1.0909788542e+02   7.0798316697e+01     0.582555    0.2384913   8.37  0.002869987    3.395    0.705
        17  -8.4357    156.0465      7.0228   6.6109675531e+01   4.4227870949e+01    0.2026329    0.1286543  41.46 0.0005851963    1.633    0.388
        18  -9.1187    119.2733      6.8102   7.2409855691e+01   5.2687456689e+01    0.2228429    0.1679472  42.01 0.0002265307    1.146    0.127
        19  -8.2084    100.5444      6.7084   7.6463774861e+01   5.6689467186e+01    0.2165861    0.1486382  24.39 0.0008203854    1.414    0.293
        20  -8.8727     76.7166      6.6021   8.2692159872e+01   6.1320311431e+01    0.2531664    0.1872044  41.51 0.0008894926    1.202    0.168
        21  -8.6912     76.3183      3.3577   8.1538642304e+01   6.1671304584e+01    0.2461533    0.1305196  28.88 0.0009790771    1.749    0.428
        22  -7.7926    130.0386      5.8100   7.0033415982e+01   5.0364447341e+01    0.3135225    0.1065027  52.26  0.001348503    2.250    0.556
        23  -7.8054    134.0525      3.2428   6.8540504118e+01   4.9660356587e+01    0.1916697    0.1397181  46.23 0.0004065695    1.210    0.174
        24  -9.1863     92.6086      5.2178   7.7863397107e+01   5.8416537288e+01    0.3923869    0.1644853  46.97  0.001945763    1.883    0.469
        25  -9.7350     84.9314      5.4124   7.9933282458e+01   5.9894366895e+01    0.2458826    0.2003261  19.75  0.001684827    1.097    0.088
        26  -8.3264    105.0986      1.7640   7.3700399217e+01   5.6138137076e+01    0.2511114     0.128475  43.85  0.001341075    1.601    0.375
        27  -7.9189    111.0813      4.4855   7.3335407239e+01   5.4656731026e+01    0.1955601    0.1461247  35.01 0.0003923141    1.198    0.165
        28  -8.6667    109.9880      1.7631   7.2650434091e+01   5.5103101747e+01    0.2228795    0.1462305  64.70  0.001176065    1.461    0.316
        29  -8.1348    153.4859      3.4473   6.5506030877e+01   4.5138610648e+01    0.1289878    0.1043912  61.27 0.0001053531    1.047    0.045
        30  -8.3366     56.7924      2.5265   8.7311106397e+01   6.5072268509e+01    0.2007318    0.1460829  -7.08  0.001392807    1.288    0.224
        31  -8.1855    159.1948      1.8275   6.4252900419e+01   4.3932223783e+01    0.1755563    0.1273398  47.04 0.0007445373    1.348    0.258
        32  -8.0960    143.1961      2.1466   6.6708076207e+01   4.7645499836e+01    0.1792633    0.1424509  49.22   0.00030235    1.144    0.126
        33  -8.1110      3.3607      1.4804   1.0920871325e+02   7.1631568966e+01    0.1925313   0.08522864  22.35 0.0009124306    2.172    0.540
        34  -7.6713    126.1918     83.9935   9.4961138804e+01   4.0750654295e+01    0.2428414    0.1725511  -3.54 0.0009273012    1.957    0.489
        35 -10.3584    196.2617    249.9091   1.1468577311e+02  -5.8451215897e+00    0.4252449    0.1779183  41.82  0.001972575    2.067    0.516
        36  -9.7861      7.3299     78.1404   1.3111957686e+02   5.8567063488e+01    0.5104423     0.176124 -34.66  0.002234227    3.195    0.687
        37  -8.4554     88.5964     78.6806   1.0407871767e+02   4.9119379199e+01    0.2996801    0.2122309  -0.73  0.001421116    1.764    0.433
        38  -7.8279    184.1646     78.1235   8.0437904740e+01   2.8201674033e+01    0.2150316    0.1989963  29.42 0.0005948928    1.204    0.170
        39  -8.6667     49.3282     77.0493   1.1642333672e+02   5.5132983079e+01    0.3686034    0.1966009   2.87  0.001556304    3.127    0.680
        40  -9.9402     36.7134     59.2696   1.1584199932e+02   5.9864887724e+01      0.51384    0.2368352 -26.34  0.002319761    2.664    0.625
        41 -10.1801     25.7145     71.9790   1.2332649736e+02   5.8485942666e+01    0.9971098     0.345396 -29.83  0.003244009    5.409    0.815
        42  -8.2077     23.4548     69.4743   1.2350009489e+02   5.9159855960e+01    0.2032227    0.1526054 -53.96 0.0005787563    1.263    0.208
        43  -7.7688     74.8669     74.1696   1.0706535821e+02   5.2220512483e+01    0.1851086    0.1821272  23.90 0.0004485192    1.216    0.178
        44  -9.8730    236.8618     70.5434   7.0383699209e+01   1.7143543391e+01    0.2703796    0.2466332  81.98 0.0005203777    1.123    0.110
        45  -8.1167    105.4775     68.0254   9.5826461332e+01   4.7894375761e+01    0.1995095    0.1203785 -12.25 0.0008095643    2.488    0.598
        46  -8.7824     83.2258     64.6815   1.0145895158e+02   5.2568537297e+01    0.4259735    0.2487668  -9.48  0.001765102    2.733    0.634
        47  -6.9445    116.3618     68.3258   9.2908982778e+01   4.5619734995e+01    0.1534904    0.1078523  13.91  0.000119331    1.789    0.441
        48  -8.9618     16.4734     63.9989   1.2464445366e+02   6.0745009333e+01    0.2379371    0.1218397 -36.92 0.0006709996    1.650    0.394
        49  -9.0567     19.3543     61.3227   1.2288213112e+02   6.1035724939e+01    0.2543178    0.1282377 -23.23  0.001329298    2.210    0.548
        50  -9.6279     63.0004     61.1833   1.0702380414e+02   5.6324533986e+01    0.5523307    0.2465007  24.93  0.002147522    2.779    0.640
        51  -9.8492     25.9168     60.4649   1.2020147037e+02   6.0661974199e+01    0.3464495    0.2385237   3.56  0.002217517    1.533    0.348
        52  -8.7597    245.6051     60.8111   6.7217404644e+01   1.6720176054e+01    0.1959668    0.1025991 -49.37 0.0009520996    1.733    0.423
        53  -8.5645     97.1012     58.5683   9.5251766798e+01   5.1082076925e+01    0.4755753    0.2552489  -2.71  0.001427871    5.269    0.810
        54  -7.9734    111.7568     58.2384   9.1005329342e+01   4.8214200852e+01     0.198676    0.1503106  22.82 0.0007558031    1.371    0.271
        55  -8.0107     49.3090     58.6544   1.1104867599e+02   5.8566419964e+01    0.1119852    0.1011806 -85.50 0.0002944357    1.701    0.412
        56 -10.1940     75.0393     50.3759   9.9398256480e+01   5.6273636846e+01    0.4791512    0.3130922  -9.46 0.0003176444    1.748    0.428
        57  -8.1547    118.5475     51.0393   8.6931522381e+01   4.7851846258e+01     0.213129    0.1670387  44.86 0.0004969968    1.179    0.152
        58  -9.0824     45.1728     49.0800   1.0947789692e+02   6.0695020108e+01    0.3427576    0.1969176 -13.88  0.001138952    2.054    0.513
        59  -7.5846     40.6256     49.7146   1.1139476566e+02   6.1112594687e+01    0.1276209   0.07933487 -11.79 0.0007016912    1.715    0.417
        60  -7.4435    107.4460     48.4079   8.8999034405e+01   5.0568332628e+01    0.1372186    0.1200344  24.67 0.0001335691    1.034    0.033
        61  -9.6665     12.1227     46.0761   1.2141151811e+02   6.4316990397e+01     0.490457    0.2350235 -20.05   0.00214617    2.331    0.571
        62  -8.7255      2.1722     45.1084   1.2514087728e+02   6.5116973586e+01    0.1866277    0.1487853  20.45  0.001420415    1.560    0.359
        63  -9.3768     57.0898     42.4075   1.0280721297e+02   6.0210137580e+01    0.6416941    0.3160611  -7.61  0.002195757    4.910    0.796
        64 -10.7042     83.1692     40.0739   9.3215765205e+01   5.6391633373e+01     0.408452    0.2525909  -8.95 0.0002405517    1.934    0.483
        65  -8.7511     87.5742     38.1797   9.1200071991e+01   5.5848832328e+01    0.2968813     0.201743  12.32 0.0009817407    1.593    0.372
        66  -8.0452    113.1331     42.3916   8.5522651769e+01   5.0207460960e+01     0.352094    0.1651154  35.55  0.001453542    2.350    0.574
        67  -8.8512     38.4831     35.5078   1.0733850764e+02   6.3611242597e+01    0.2602958    0.1699029   8.54  0.000880531    1.485    0.327
        68  -9.0118     35.6875     38.3089   1.0943835599e+02   6.3496389542e+01    0.5250934    0.1376332 -37.32  0.002047752    3.592    0.722
        69  -9.6035     70.0090     36.1549   9.6059372846e+01   5.9160543656e+01    0.7082445    0.2950903  24.44  0.002564895    3.961    0.748
        70  -8.0929    106.0031     36.8071   8.5520557500e+01   5.2421099235e+01    0.2308385    0.1282401  29.88  0.001067069    1.983    0.496
        71  -7.9377     92.1172     37.1200   8.9482660308e+01   5.5136662320e+01    0.2766189    0.1572953  37.50 0.0002891263    1.612    0.380
        72  -8.9541     56.6705     34.6143   1.0013866469e+02   6.1401458075e+01    0.3794151    0.2217986  -3.76  0.001331931    2.095    0.523
        73  -9.8655     23.0810     35.8389   1.1366923189e+02   6.5137881972e+01    0.4521129     0.195066  23.28   0.00244152    2.424    0.587
        74  -9.1291     21.8841     32.1853   1.1289279316e+02   6.5814471035e+01    0.2942526    0.1897071   6.33  0.001226679    1.488    0.328
        75  -9.9052      6.2505     33.9323   1.2011387824e+02   6.6759319994e+01    0.3034034    0.2279959 -23.59  0.001647063    1.046    0.044
        76  -9.5465      1.6864     29.9657   1.2080829828e+02   6.7689692044e+01    0.5381177    0.1319245 -49.33  0.002503503    3.015    0.668
        77  -9.4976     41.9855     27.1406   1.0284095510e+02   6.4389397264e+01    0.2977687    0.2143687 -36.88 0.0009919954    1.528    0.346
        78  -8.9606     61.7377     26.9760   9.5460038035e+01   6.1664113332e+01    0.2132624    0.1391687  14.04 0.0004244976    1.484    0.326
        79  -8.8938    214.1608    248.7010   1.1109409871e+02  -8.5399539951e+00    0.2838037    0.1458252 -30.07  0.001460181    2.226    0.551
        80  -7.6334     66.1914     84.5771   1.1286587446e+02   5.1477796406e+01    0.1817638    0.1252484  14.99 0.0009061677    1.653    0.395
        81  -8.1275    101.8438     25.2241   8.2639763308e+01   5.4637988223e+01    0.1868191    0.1318136  25.59 0.0007123654    1.366    0.268
        82  -8.5032    144.8785     23.2307   7.2566477075e+01   4.5299213946e+01    0.1925728    0.1819626  45.29 0.0003755793    1.103    0.094
        83  -8.8254    229.8564     21.7738   6.0735854901e+01   2.5389654834e+01    0.2720401    0.1807733 -36.68  0.001592575    1.639    0.390
        84  -8.1300    107.0053    249.0033   1.3193537490e+02   9.1912867306e+00    0.1749561    0.1474222  17.53 0.0005477248    1.620    0.383
        85  -7.6093    128.9493     22.5077   7.5445019974e+01   4.9060600546e+01    0.2043239    0.1124142  55.21 0.0008380173    1.545    0.353
        86  -8.5174     92.6049     20.6952   8.3496126260e+01   5.6968954479e+01    0.2651154    0.1490594  31.22  0.001102586    1.718    0.418
        87  -8.4433    140.2335     20.0023   7.2465611613e+01   4.6720007743e+01    0.2223468    0.1623601  58.10 0.0006995171    1.173    0.147
        88  -8.4872      9.6075     19.8424   1.1373024532e+02   6.8682884885e+01     0.219627    0.1274813   3.77 0.0009996239    1.650    0.394
        89  -8.0461      5.2759     19.0393   1.1540084188e+02   6.9123566490e+01    0.1477116    0.1024806 -27.14 0.0003329008    1.099    0.090
        90  -7.3120    151.4942     18.4740   7.0028918900e+01   4.4225504469e+01     0.132857    0.1137508  62.40 -8.573977e-05    1.005    0.005
        91 -10.0258    159.7521    245.6558   1.2116220475e+02   9.5761460317e-01    0.3462776    0.1375593  47.29  0.001466565    2.316    0.568
        92  -8.3820    127.7582     16.9050   7.3926851417e+01   4.9890114260e+01    0.1955779    0.1520303  37.68 0.0004338713    1.198    0.165
        93  -8.6922    238.5055     93.4923   7.5204088116e+01   1.3096545286e+01    0.1394611    0.1237137 -62.32 0.0008103641    1.035    0.034
        94 -11.9297    250.0472    234.1543   1.0203408997e+02  -1.1976841504e+01    0.2389575    0.1884516 -13.77  0.000413383    1.168    0.144
        95  -8.4871    189.0137     15.0212   6.3710816621e+01   3.5608741265e+01    0.2195219    0.1375965 -70.71  0.001148286    1.753    0.430
        96  -9.2935    187.7753    234.0335   1.1378211244e+02  -1.9868950353e+00    0.2620002    0.2014862  52.00 0.0008886427    1.418    0.295
        97  -8.1652    105.4060     13.8378   7.7801355022e+01   5.5053162902e+01    0.1717143    0.1123034   2.56 0.0009180467    1.785    0.440
        98  -8.7195     16.7147    234.0665   1.4711582632e+02   2.4231013809e+01    0.1732317    0.1412599  61.67 0.0004443508    1.273    0.214
        99  -8.3395     88.0804     13.1142   8.1960119336e+01   5.8602331467e+01    0.1983618    0.1336149  27.96 0.0005149085    1.325    0.245
       100  -7.0401    129.3288    222.2936   1.2394348067e+02   1.0488820067e+01    0.1295808    0.1063049   7.91 0.0002241314    1.628    0.386
       101  -7.7096    163.1723    213.4247   1.1535246301e+02   6.0397299102e+00    0.1897718    0.1215028  50.66 0.0004067709    1.544    0.352
       102  -7.3725    123.5778    206.0226   1.2269862097e+02   1.4799227928e+01    0.1776632    0.1173108  88.72 0.0007924202    2.154    0.536
       103  -7.4583    147.2849     14.3075   6.9544414808e+01   4.5626430459e+01    0.1312814   0.08695341  38.14 0.0003044089    1.567    0.362
       104  -7.5008    191.6537    194.3119   1.0583642096e+02   4.2129998348e+00    0.1407803    0.1145855  77.95  0.000704616    1.711    0.415
       105  -7.1339     96.2476    178.6784   1.2454258559e+02   2.5566029585e+01    0.1407641    0.1036426  82.38 0.0002125474    1.530    0.347
       106 -10.1095    223.2596    144.5158   8.9086872905e+01   7.2376036532e+00    0.2838945    0.2542475 -48.63 0.0002517634    1.129    0.114
       107  -9.2668     67.3671    144.7536   1.2596897864e+02   3.7915821477e+01     0.438566    0.2993469  73.77  0.002160964    1.849    0.459
       108  -7.5683    140.4782    138.4946   1.0551282909e+02   2.6379198337e+01    0.1538897    0.1509348   5.64  0.000290706    1.055    0.052
       109  -7.9910    241.5402    125.9774   8.1873803814e+01   6.8863514322e+00    0.1809038    0.1187753 -13.61 0.0004233179    2.197    0.545
       110  -7.2555    180.5051    120.5244   9.1914153692e+01   2.1230144815e+01    0.1533359    0.1493858  10.94 0.0008092111    1.069    0.065
       111  -7.7038    120.2281    118.1989   1.0579868907e+02   3.5049604889e+01    0.2518733    0.1672695  -3.18 0.0009410969    2.718    0.632
       112  -7.7623    101.0549    118.3042   1.1106878840e+02   3.8693496411e+01    0.2375301    0.1224876  18.56 0.0007039089    4.315    0.768
       113  -8.0093     13.6947    115.2984   1.3577212309e+02   5.0262649551e+01    0.1141694   0.08402867  78.10 0.0002395968    1.589    0.371
       114  -8.7706      2.2422    109.9364   1.3820147942e+02   5.2179046074e+01    0.3398107    0.1111178 -47.54   0.00158132    2.572    0.611
       115  -8.1175    133.7105    106.9501   9.9363573934e+01   3.4614498892e+01    0.3763413    0.1872966 -37.45  0.001280521    2.161    0.537
       116  -7.4839    109.2377    106.5848   1.0581650943e+02   3.9719873433e+01    0.2133203    0.1405601  28.17 0.0009451351    1.734    0.423
       117  -9.1907     14.9441    105.1478   1.3376302458e+02   5.2399832656e+01    0.3998513    0.1849371 -25.08  0.001788833    3.304    0.697
       118  -9.0285     20.6523     91.6755   1.2948912609e+02   5.4871023155e+01    0.3389136    0.1345329 -35.08  0.001469731    2.931    0.659
       119  -9.3342     15.9915     95.0283   1.3162553506e+02   5.4502735299e+01    0.2327492    0.2124201 -15.21    0.0009731    1.239    0.193
       120  -9.9850     12.2087     93.7704   1.3257800953e+02   5.5028481376e+01    0.4628277    0.1861405 -39.48  0.002046939    2.421    0.587
       121  -8.6543     44.1384     92.0393   1.2196099041e+02   5.2652284973e+01    0.2787879    0.1548171 -26.85  0.001327375    2.196    0.545
       122  -7.9701    110.3677     90.4385   1.0109520846e+02   4.2804761212e+01    0.2963868    0.1278367  31.02 0.0009564234    3.382    0.704
       123  -8.1630     97.1493     89.7967   1.0471822962e+02   4.5444549798e+01    0.3465776    0.1871956  19.22   0.00123967    3.185    0.686
       124 -10.1685     37.5165     81.0218   1.2149141957e+02   5.5609990968e+01    0.6211047    0.3195225 -16.30  0.002693231    3.078    0.675
