#   1 NUMBER                 Running object number                                     
#   2 MAG_AUTO               Kron-like elliptical aperture magnitude                    [mag]
#   3 X_IMAGE                Object position along x                                    [pixel]
#   4 Y_IMAGE                Object position along y                                    [pixel]
#   5 X_WORLD                Barycenter position along world x axis                     [deg]
#   6 Y_WORLD                Barycenter position along world y axis                     [deg]
#   7 A_WORLD                Profile RMS along major axis (world units)                 [deg]
#   8 B_WORLD                Profile RMS along minor axis (world units)                 [deg]
#   9 THETA_WORLD            Position angle (CCW/world-x)                               [deg]
#  10 FWHM_WORLD             FWHM assuming a gaussian core                              [deg]
#  11 ELONGATION             A_IMAGE/B_IMAGE                                           
#  12 ELLIPTICITY            1 - B_IMAGE/A_IMAGE                                       
         1 -13.4010    179.8009     96.1571   5.3634132920e+01   2.6367162654e+01     2.449183     1.680437 -40.30   0.01198018    1.420    0.296
         2 -12.8082    158.2122    105.4519   6.0339813590e+01   2.9371563069e+01     2.003465      1.09569 -45.84  0.006868329    1.784    0.439
         3 -13.2018    206.7067     89.4177   4.7541130910e+01   2.1773478132e+01     1.862446    0.6514093 -47.49  0.006970085    2.670    0.625
         4 -14.8372    176.7346     57.0157   4.4368633571e+01   3.3638455144e+01     2.131677     1.110346  53.63  0.009835754    1.934    0.483
         5 -14.2480    208.9763     48.6515   3.8077521327e+01   2.7645057728e+01     1.828481      1.18229  73.11   0.01035981    1.510    0.338
         6 -13.8375    193.3323     33.9468   3.6543415053e+01   3.3016889469e+01     1.660076    0.9858558  83.77  0.008871214    1.649    0.394
         7 -12.5546    197.3724     12.8923   3.1376743946e+01   3.4565146249e+01    0.5515499    0.2560044 -54.20  0.002861218    2.013    0.503
         8 -12.4121      2.4555      5.4595   8.1395362595e+01   7.4038768834e+01    0.9236341    0.2144966 -42.69   0.00394527    3.928    0.745
         9 -15.0164    241.7257    199.3620   6.4426766642e+01  -3.7824711487e+00      3.64556     1.275152 -37.89   0.01436871    2.445    0.591
        10 -14.1287      7.2534    243.7797   1.2056712198e+02   2.0546193952e+01     2.993635     1.756394  61.22   0.01882636    1.363    0.266
        11 -15.4159     17.4705    167.1671   1.1271724201e+02   3.7420199559e+01     9.991702     3.035298 -86.36   0.02692379    5.796    0.827
        12 -10.7531     83.7200    217.7946   1.0166061386e+02   1.6999350976e+01    0.3199011    0.2268831  85.98 0.0008923342    1.614    0.380
        13 -10.5990     56.5628    210.7060   1.0734193892e+02   2.2360708498e+01    0.3312446    0.1501917  58.90  0.001330976    2.581    0.613
        14 -10.4609    202.5970    186.1685   6.9075264003e+01   4.2502428453e+00    0.4983732     0.336865  43.12  0.002388995    1.669    0.401
        15 -13.3144    206.6954    194.3211   6.9840338008e+01   2.0912357626e+00     1.982093     1.216451 -27.85  0.009988518    1.607    0.378
        16 -12.2132    199.3694    195.3996   7.1485871650e+01   3.0367498662e+00    0.9763114    0.4558853 -36.22  0.004234748    2.086    0.521
        17  -9.4901     50.9199    200.4819   1.0760659360e+02   2.5518956191e+01    0.1982634    0.1283077  35.19 0.0004865309    1.538    0.350
        18 -11.3082     43.1531    178.0935   1.0702536285e+02   3.2031031917e+01    0.3529371    0.2789231 -26.68  0.001195742    1.624    0.384
        19 -11.3417     50.8071    171.9492   1.0415179521e+02   3.2694789089e+01    0.2994733    0.2568253 -46.74  0.000462441    1.260    0.206
        20 -10.4228     63.6168    162.2170   9.9085695358e+01   3.3556875921e+01    0.2503921    0.2434133 -74.82 0.0003061747    1.064    0.060
        21 -12.7340     48.8344    158.5164   1.0280958732e+02   3.6417939339e+01    0.5540196    0.3390166 -33.02  0.001593036    2.141    0.533
        22 -11.8719     72.8775    155.5773   9.5258025063e+01   3.3967776837e+01    0.5731582    0.5175687   9.14  0.003088575    1.247    0.198
        23 -12.2158     68.1142    143.6440   9.4497232401e+01   3.7760587522e+01    0.7715343    0.4697373  63.90  0.002738872    2.243    0.554
        24 -11.9036    248.5029    103.0132   4.4747470844e+01   1.1497577449e+01    0.8819202    0.5585662 -22.61  0.004524937    2.202    0.546
        25 -13.6031    247.2592    130.6913   5.0400383070e+01   7.0514628587e+00     1.697402    0.7212629 -43.70  0.006005538    1.923    0.480
        26 -11.8993    249.3556    113.2692   4.6671133475e+01   9.6542180401e+00    0.8274981    0.2839599 -43.15  0.003503881    2.333    0.571
        27  -9.2812     89.1440    143.1630   8.8010583272e+01   3.4600375597e+01    0.2150619    0.1841995  78.93 0.0006331825    1.303    0.233
        28 -11.4896     76.7070    140.5989   9.1252513158e+01   3.7264943852e+01    0.3242155    0.2672029 -52.53 0.0005622459    1.160    0.138
        29  -9.7630    105.3079    130.6885   8.0432412914e+01   3.4832549285e+01    0.2977733    0.2733838 -14.35 0.0008370748    1.165    0.142
        30  -9.5011     90.2659    127.2090   8.4136164406e+01   3.8420987298e+01     0.244486    0.2089811  17.70 0.0005288286    1.273    0.214
        31 -11.7801    219.9019    114.2349   5.1015839814e+01   1.4760428693e+01     1.172908    0.3171955 -42.71  0.003983966    3.163    0.684
        32  -8.7650    102.6112    119.4704   7.8497539430e+01   3.8047148460e+01    0.1547152    0.1473019 -39.13 4.798921e-05    1.031    0.030
        33 -11.6668    225.1286     82.4364   4.3451181519e+01   1.9193761099e+01    0.8035931    0.4119401 -38.67  0.003896799    1.810    0.447
        34 -12.8376    195.5209     90.5975   4.9562889344e+01   2.3939313719e+01     1.366062    0.8525943 -42.57  0.006692579    1.493    0.330
        35 -11.4529     69.4946    246.4797   1.0800264215e+02   1.2784389880e+01    0.3676079    0.2270799 -67.55  0.002055736    1.754    0.430
        36 -12.5012    166.1235    110.1178   5.9807212492e+01   2.6681714823e+01     1.322525    0.8282198 -29.54  0.005642419    1.900    0.474
        37 -11.1339     67.6566    241.1442   1.0789317086e+02   1.4129524948e+01    0.3624884    0.1544961 -70.31   0.00162673    2.606    0.616
        38 -12.2332    128.5404     96.5360   6.5069531267e+01   3.7793233244e+01    0.6776369    0.5738981 -33.15  0.002598274    1.228    0.186
        39 -12.4311    128.2247     88.4505   6.2882364861e+01   3.9485114200e+01    0.9740758    0.7535598  21.96  0.004480157    1.572    0.364
        40 -11.5104     57.6790    241.0935   1.1005084544e+02   1.5433515695e+01    0.3777955    0.2123082  87.34  0.001231371    2.062    0.515
        41 -13.3193    213.0389     79.1973   4.4342150370e+01   2.2165337381e+01     1.102011    0.9275796  64.07  0.006704556    1.296    0.228
        42 -13.6279      9.5428    205.1277   1.1782175883e+02   2.8840789211e+01    0.7504173    0.6973556 -71.40 0.0009630233    1.281    0.220
        43 -11.1061    116.6612     69.4005   6.0260116824e+01   4.5597940986e+01    0.3522153    0.2674604 -33.34   0.00178977    1.394    0.283
        44 -11.7345    225.8777     62.3836   3.9119140075e+01   2.2156003953e+01    0.4452033    0.3047824 -47.05  0.002627503    1.285    0.222
        45 -10.7137     83.4324    243.6892   1.0469937125e+02   1.1464526168e+01    0.2243881    0.1272669 -72.70  0.001130384    2.056    0.514
        46  -8.4297    155.2864    238.6974   8.8219786659e+01   1.8382389075e+00    0.1229849     0.100188  58.62 0.0002349071    1.560    0.359
        47 -12.5086    127.8687     58.0514   5.3980793979e+01   4.4924245802e+01     1.056829    0.9027773  64.56  0.005912051    1.136    0.119
        48 -11.0763     13.3542     60.0483   9.6025944914e+01   6.3724169401e+01    0.2131097    0.1742819  13.03 0.0005701334    1.324    0.245
        49  -9.8296     95.6595    226.6946   9.9967311465e+01   1.3279901388e+01    0.1334333     0.105868 -11.13 0.0003425953    1.681    0.405
        50 -14.0826    198.8609     57.0673   4.1222358706e+01   2.8637298774e+01     1.113824    0.7890254 -88.30  0.006198497    1.429    0.300
        51 -11.7077    234.5141     32.0545   3.2125954367e+01   2.4589463245e+01     0.618427    0.4856474  21.77  0.001536788    2.461    0.594
        52 -11.3523    227.4980     32.8409   3.2879828125e+01   2.5887275944e+01    0.5117245    0.3839153  -8.48  0.003008866    2.389    0.581
        53 -14.0050     16.9728    198.1216   1.1560143003e+02   2.9807449167e+01     1.649416    0.8512518  59.87  0.005388061    1.872    0.466
