#   1 NUMBER                 Running object number                                     
#   2 MAG_AUTO               Kron-like elliptical aperture magnitude                    [mag]
#   3 X_IMAGE                Object position along x                                    [pixel]
#   4 Y_IMAGE                Object position along y                                    [pixel]
#   5 X_WORLD                Barycenter position along world x axis                     [deg]
#   6 Y_WORLD                Barycenter position along world y axis                     [deg]
#   7 A_WORLD                Profile RMS along major axis (world units)                 [deg]
#   8 B_WORLD                Profile RMS along minor axis (world units)                 [deg]
#   9 THETA_WORLD            Position angle (CCW/world-x)                               [deg]
#  10 FWHM_WORLD             FWHM assuming a gaussian core                              [deg]
#  11 ELONGATION             A_IMAGE/B_IMAGE                                           
#  12 ELLIPTICITY            1 - B_IMAGE/A_IMAGE                                       
         1 -14.5667    147.1975     58.8534   2.9054972020e+02   6.1845651543e+00   0.06075756   0.04962145 -25.97  0.003723191    1.324    0.245
         2 -14.7961    157.9000     43.6279   2.9032852869e+02   6.2906619319e+00   0.06172381   0.04596339 -56.45  0.003906978    1.350    0.259
         3 -14.6595    169.8587     10.9963   2.8998280236e+02   6.5862233017e+00   0.06165808   0.05260941  -4.53  0.004815827    1.256    0.204
         4 -12.6256    189.4240     14.0617   2.8977318034e+02   6.4292717636e+00   0.02752596   0.01779403  85.30  0.002295276    2.266    0.559
         5 -10.5483     12.4313    243.5286   2.9328397015e+02   4.9214588630e+00  0.006591009  0.006408402 -12.96 0.0001301626    1.027    0.026
         6 -13.4377    189.4320    249.5181   2.9125343912e+02   3.7552351299e+00   0.03319628   0.01743963  18.28  0.002914393    2.186    0.543
         7 -11.7604    176.0379    249.1620   2.9140755348e+02   3.8426009726e+00    0.0116978  0.009655316 -58.39 0.0006247186    1.229    0.186
         8 -19.8868     93.2555    232.7754   2.9227205386e+02   4.5431923618e+00    0.4341025    0.3954024  53.04   0.04694754    1.137    0.120
         9 -10.8397    150.9956    241.0894   2.9164942858e+02   4.0900634544e+00   0.01228084  0.009970757 -78.56  0.001335315    1.367    0.268
        10 -13.9355    195.6658    171.1490   2.9068913480e+02   4.6069263089e+00   0.04100733   0.02370389 -76.37  0.002854117    2.237    0.553
        11 -14.3126    207.4823    178.2398   2.9059566081e+02   4.4527205450e+00   0.04991366   0.03464313 -69.62  0.004128795    1.573    0.364
        12 -12.2464    203.1578    172.4898   2.9061004858e+02   4.5449997473e+00   0.01887323   0.01656862 -54.43  0.001563055    1.151    0.131
        13 -14.6846    177.6687    171.5113   2.9090167077e+02   4.7149329658e+00   0.04536064   0.03264049 -76.00  0.004793381    1.591    0.372
        14 -10.5095     28.2441    240.1765   2.9307822030e+02   4.8618068050e+00   0.01027365  0.007507423  62.45  0.001068139    1.624    0.384
        15 -12.6761    185.6580    167.9944   2.9078623931e+02   4.7051295419e+00    0.0241096   0.01102564 -58.86  0.002085101    2.169    0.539
        16 -12.1507    230.1524    166.8298   2.9025929500e+02   4.4409708999e+00    0.0175556  0.009712142 -76.18  0.001518472    2.408    0.585
        17 -13.3953    198.7417    223.2270   2.9098001790e+02   3.9960303079e+00   0.02111037   0.01710013 -26.51  0.001061623    1.338    0.253
        18 -12.0916    201.2143    165.2168   2.9058706189e+02   4.6397432003e+00   0.01830946   0.01225817  79.82  0.001074181    2.110    0.526
        19 -11.2833    222.6243    162.0282   2.9031699991e+02   4.5424638400e+00   0.01664735   0.01084118  83.36  0.001025704    2.240    0.554
        20 -12.8138     31.6115    220.2543   2.9291458660e+02   5.0676079455e+00   0.01686183   0.01299266 -57.32 0.0008931676    1.308    0.235
        21 -11.5493     29.2876    156.8405   2.9254558022e+02   5.8033546677e+00   0.01582624   0.01203119 -48.16  0.001286912    1.324    0.245
        22 -10.3002      4.1458    157.7776   2.9284584680e+02   5.9482188851e+00   0.01088842  0.007536339 -24.69  0.001091327    1.738    0.425
        23 -14.6590    152.9453    145.3194   2.9102621462e+02   5.1665465017e+00    0.0533141   0.02632665  54.78  0.004225205    2.863    0.651
        24 -12.7115    134.6441    109.6690   2.9101633515e+02   5.6855970988e+00   0.04995961  0.008071498 -62.03  0.002404169    7.134    0.860
        25 -14.4543    143.3103    143.7661   2.9112914083e+02   5.2441769519e+00   0.05085814   0.02624488 -75.79  0.004180768    2.708    0.631
        26 -11.7719    139.6607    148.9081   2.9120410819e+02   5.2084444358e+00   0.01426138   0.01095853  33.90 0.0003411967    1.269    0.212
        27 -10.1944     23.1253    156.1695   2.9261353986e+02   5.8491258293e+00  0.009046966  0.007655901  57.11 0.0004520973    1.269    0.212
        28 -11.2502    191.8593    154.1169   2.9062661223e+02   4.8241619770e+00   0.01860129  0.008690734 -40.39  0.001516485    2.539    0.606
        29 -11.2500     17.4942    154.1726   2.9266699145e+02   5.9066801621e+00   0.01380633   0.01078318 -33.38 0.0004958236    1.368    0.269
        30 -11.5645     18.5049    149.2967   2.9262465989e+02   5.9558846383e+00   0.01944766   0.01521798  54.23  0.002161474    1.385    0.278
        31 -12.6293    154.6150    152.7580   2.9105340017e+02   5.0716135020e+00   0.01531905   0.01157076  78.14  0.001621725    1.647    0.393
        32 -10.5333    182.8044    149.7516   2.9070499414e+02   4.9301935362e+00  0.009222181  0.007691643  65.17 0.0004657299    1.341    0.254
        33 -13.0685    174.0046    148.3605   2.9079910415e+02   5.0008311538e+00   0.02165761   0.01600254 -81.01  0.001489442    1.594    0.372
        34 -12.1960     28.6859    218.6337   2.9293869023e+02   5.1041489599e+00   0.01909813   0.01162762 -33.70  0.001535337    1.954    0.488
        35 -12.2264     27.6397    145.4050   2.9249332851e+02   5.9436161845e+00   0.02061728   0.01802935   2.58  0.001296475    1.191    0.160
        36 -12.2884    176.2778    142.7166   2.9073707261e+02   5.0507949043e+00   0.01195906   0.01021126  58.53 0.0007446266    1.261    0.207
        37 -14.4554    133.8138    146.0050   2.9125427441e+02   5.2778208021e+00   0.06999687   0.02720143 -72.27  0.004513719    4.330    0.769
        38 -10.8806     26.3324    138.8821   2.9246781548e+02   6.0258912979e+00   0.01198316  0.009511064  11.12 0.0005377668    1.330    0.248
        39 -10.6102      2.0151    135.9426   2.9273428370e+02   6.2097387799e+00   0.01107184  0.007839011 -20.38  0.001122672    1.713    0.416
        40 -12.3300     23.5192    218.2204   2.9299654000e+02   5.1408157001e+00   0.02100125   0.01035987 -50.15  0.001881916    2.010    0.503
        41 -11.8777    156.1729    132.8739   2.9091029414e+02   5.2878797137e+00   0.01009979   0.00898618  60.91 0.0003091383    1.201    0.167
        42 -13.4726    160.6466    128.2057   2.9082864112e+02   5.3130582866e+00   0.02236923   0.02038901  52.88  0.002400684    1.136    0.120
        43 -12.9404     38.7063    124.0274   2.9222984025e+02   6.1181868918e+00   0.02045686   0.01379586  17.15  0.001259736    1.582    0.368
        44 -10.0486     17.9840    222.0277   2.9308502645e+02   5.1317364505e+00  0.009484927  0.007308168 -30.03 0.0003879337    1.420    0.296
        45 -13.0864     11.7274    205.9674   2.9305802959e+02   5.3531383329e+00   0.03371588   0.01642847  22.38  0.002910062    2.204    0.546
        46 -19.1229     77.4590     94.9864   2.9159368081e+02   6.2079687173e+00    0.8312771   0.04155212 -61.13   0.02484967   18.501    0.946
        47 -11.2557     21.8678    238.6430   2.9314320606e+02   4.9186919975e+00  0.009979581  0.008414152 -42.89 0.0005396541    1.205    0.170
        48 -10.8937    205.4337    110.1482   2.9019150034e+02   5.2389202434e+00   0.01468062  0.009909194  13.94  0.001025614    1.638    0.389
        49 -14.0859    135.9190    127.6596   2.9111445350e+02   5.4732268511e+00   0.08256398   0.01907172 -65.71  0.003942969    7.484    0.866
        50 -11.8295     27.6670    105.6987   2.9224433297e+02   6.3949384315e+00   0.01813377   0.01237251   7.13  0.001202957    1.720    0.418
        51 -11.8231     41.2974     93.6715   2.9200916776e+02   6.4472239312e+00   0.02289123   0.01710291 -32.18  0.002131376    1.464    0.317
        52 -10.7792    124.4652     95.4652   2.9104619458e+02   5.9103288242e+00  0.006599168  0.006454577   9.50 7.204319e-05    1.002    0.002
        53 -11.9468     16.3354    250.0896   2.9327920392e+02   4.8226837960e+00  0.009702489  0.008091467 -53.38  0.001037849    1.206    0.171
        54 -12.0297     51.0836     91.7960   2.9188270659e+02   6.4078783307e+00   0.01624762   0.01203795  17.48 0.0007470023    1.400    0.286
        55 -11.5378      6.1630     89.0395   2.9239200007e+02   6.7173704727e+00   0.03103387   0.01424856   7.21  0.001951025    4.647    0.785
        56 -10.2353    105.9917     82.3336   2.9117995736e+02   6.1744362853e+00  0.009240116  0.008243649  25.73 0.0003185827    1.100    0.091
        57 -10.8499    142.1663     80.3525   2.9074393982e+02   5.9717896413e+00   0.01138865  0.008898783 -46.17 0.0006857463    1.295    0.228
        58 -11.0600    160.0867    247.5018   2.9158339685e+02   3.9606591169e+00   0.01767136   0.01138627   0.69  0.001666477    2.034    0.508
        59 -12.8914    198.3518    245.5361   2.9112439354e+02   3.7449771294e+00   0.02280203    0.0114599  55.16  0.001656348    2.799    0.643
        60 -13.2653    161.5599     34.8758   2.9023052999e+02   6.3671472449e+00   0.02096363   0.01965035 -35.58 0.0008729722    1.077    0.072
        61 -10.9382     13.3933     59.8622   2.9212421566e+02   7.0042023311e+00   0.01112316  0.008780201  40.48 0.0004484681    1.262    0.208
        62 -11.7327    167.7439    245.2789   2.9148007411e+02   3.9383121324e+00   0.01348985   0.00844034 -48.46 0.0009136111    1.609    0.379
