#   1 NUMBER                 Running object number                                     
#   2 MAG_AUTO               Kron-like elliptical aperture magnitude                    [mag]
#   3 X_IMAGE                Object position along x                                    [pixel]
#   4 Y_IMAGE                Object position along y                                    [pixel]
#   5 X_WORLD                Barycenter position along world x axis                     [deg]
#   6 Y_WORLD                Barycenter position along world y axis                     [deg]
#   7 A_WORLD                Profile RMS along major axis (world units)                 [deg]
#   8 B_WORLD                Profile RMS along minor axis (world units)                 [deg]
#   9 THETA_WORLD            Position angle (CCW/world-x)                               [deg]
#  10 FWHM_WORLD             FWHM assuming a gaussian core                              [deg]
#  11 ELONGATION             A_IMAGE/B_IMAGE                                           
#  12 ELLIPTICITY            1 - B_IMAGE/A_IMAGE                                       
         1 -13.8494    206.2886     29.3135   1.7127179522e+01   2.9546212451e+01    0.9814861    0.8680301 -62.85   0.00391355    1.085    0.078
         2 -10.0902     60.8610     21.1579   4.7245565182e+01   6.3976952134e+01    0.1792909     0.162159   6.01 0.0007083985    1.211    0.174
         3 -14.1325    245.5741    237.5721   5.7355341362e+01  -1.0647511246e+01     1.997435    0.8142772 -27.50   0.01004619    2.656    0.623
         4 -15.2873    120.8834    235.5854   8.0421687221e+01   9.8064031102e+00     6.265427     4.355709 -78.20   0.03745401    1.768    0.434
         5 -12.2198    173.3307    176.1706   6.0103326861e+01   1.1248588385e+01    0.6909609     0.476071 -51.17  0.001882014    1.629    0.386
         6 -12.0160    179.5496    169.2482   5.7367406154e+01   1.1316860883e+01    0.6429945    0.5691741 -34.83  0.002651835    1.179    0.152
         7 -18.7174     33.8618    133.6812   8.7011542636e+01   4.3921783742e+01     16.61661     3.302782 -69.90   0.04785734    5.222    0.809
         8 -12.4861    140.3690    173.5216   6.6934042822e+01   1.8328379427e+01     0.448966    0.3116269  63.74 0.0006716113    1.659    0.397
         9 -11.3987     62.9957    197.7169   8.7813573424e+01   2.5926770356e+01    0.1912266     0.147838  87.02 0.0003814999    1.132    0.116
        10 -12.6747    233.7854    168.2618   4.6446245414e+01   8.5454894896e-01    0.4991168    0.3425966 -51.62  0.001592603    1.893    0.472
        11 -10.3554      9.0947    166.5351   9.6365750893e+01   3.8629555913e+01    0.1501166    0.1174548 -86.98  0.000430771    1.072    0.067
        12 -10.2935    239.3138    161.3481   4.4004335451e+01   9.4867568692e-01    0.1445182   0.09891859   1.98 0.0007046845    1.720    0.419
        13 -11.0973    106.7929    160.4636   7.2521799383e+01   2.7475597792e+01    0.3716486    0.2304159  86.41  0.001362013    2.481    0.597
        14  -9.7012      2.8132    157.5512   9.7024203096e+01   4.1104674444e+01    0.1273226    0.1100854  47.72 0.0003518782    1.392    0.282
        15  -9.4787    139.0231    155.9976   6.3807179758e+01   2.2359707290e+01    0.1761877    0.1719305  89.98 0.0009659927    1.037    0.035
        16 -16.0664     69.1266    143.5594   7.9181601319e+01   3.7417773471e+01     2.593849     1.880357  75.11   0.01377137    1.498    0.333
        17 -11.9962    133.9842    146.6581   6.3062186340e+01   2.5444285925e+01     1.251276    0.3279572 -54.71   0.00304287    5.509    0.818
        18 -11.6923    111.5050    149.9931   6.9375040409e+01   2.9036359509e+01    0.5636987    0.3467305  88.70    0.0020362    2.795    0.642
        19 -12.2612    108.8791    145.4594   6.9143539790e+01   3.0566629596e+01     0.520647    0.3836226 -63.34  0.001087215    1.371    0.271
        20 -10.8012     15.0280    187.2157   9.6689934930e+01   3.3636720298e+01    0.2478817    0.1747819 -14.04  0.001448813    2.957    0.662
        21  -9.4652    141.5979    144.7357   6.0778904539e+01   2.4304227454e+01    0.1571318    0.1211605  10.49 0.0006969823    1.732    0.423
        22 -12.4436    106.6135    130.9929   6.6697149771e+01   3.4357302039e+01    0.6221554    0.4662424  53.00  0.001954596    1.385    0.278
        23 -11.9607     99.0246    130.4962   6.8643797567e+01   3.5836815590e+01    0.3008288     0.287419 -88.06 -0.0003476772    1.022    0.022
        24 -10.2159    125.0152    133.9976   6.2520720552e+01   3.0115838828e+01    0.4033357    0.2611541  85.24  0.001493394    2.741    0.635
        25 -11.0502    135.8937    128.8457   5.8537033407e+01   2.9029134503e+01    0.3664788    0.2175314 -51.98  0.001515856    1.737    0.424
        26 -10.5727     86.4729    128.0806   7.1591020686e+01   3.8518216269e+01    0.2217754    0.1352251 -57.58 0.0006248974    1.546    0.353
        27 -10.0955    116.2098    125.1677   6.2791938235e+01   3.3886043145e+01     0.229133     0.207535 -17.11 0.0007094922    1.245    0.197
        28 -10.0372    121.7117    123.0504   6.0819562015e+01   3.3275059766e+01    0.2242535    0.2044812 -49.70  0.001166236    1.086    0.079
        29  -8.9763    148.2843    129.2921   5.5568023004e+01   2.6253974115e+01    0.1527017    0.1249881   0.39 0.0006955265    1.537    0.349
        30 -10.6187    104.4295    120.1471   6.4825713618e+01   3.7287187210e+01    0.2640973    0.2245929  -7.32 0.0006627425    1.441    0.306
        31  -9.5362    111.2216    115.2609   6.1759066819e+01   3.7128760061e+01    0.2013084    0.1747901 -89.34 0.0003730133    1.293    0.226
        32 -11.9629    118.8456    109.9529   5.8310514812e+01   3.6811154346e+01    0.7556106    0.5240011  88.05  0.003040283    2.343    0.573
        33 -12.0104    116.4978    102.7409   5.7046639104e+01   3.8887665635e+01    0.7622607    0.4675668  72.23  0.002139583    3.032    0.670
        34 -10.8089    109.0163     96.9696   5.7586435462e+01   4.1652378728e+01    0.5173711    0.3130019  67.16  0.001922752    2.783    0.641
        35 -10.6034     86.1796    112.6569   6.8284876930e+01   4.2205734031e+01    0.2791537    0.1944222  52.10 0.0007245276    1.599    0.374
        36 -12.4007     86.3709    107.7387   6.7060382539e+01   4.3318350516e+01    0.6679246     0.398597  36.16   0.00141908    1.802    0.445
        37 -10.5085    134.5096    105.5316   5.2950529480e+01   3.4446631614e+01     0.450204    0.1501898 -47.64  0.001365717    3.124    0.680
        38  -9.3218     97.8508    103.8158   6.2676593532e+01   4.2238876969e+01     0.195889    0.1734028  86.80 0.0002758847    1.284    0.221
        39  -9.8438    120.2632     93.4749   5.3420282096e+01   4.0101960336e+01    0.2127496    0.1481425  58.07 0.0009379192    1.643    0.391
        40 -10.7550     66.1056     88.7555   6.8645111094e+01   5.0707203448e+01    0.3615507    0.1816809 -54.54  0.001604584    1.832    0.454
        41  -9.9192    101.7258     89.0686   5.7494302218e+01   4.4771682699e+01    0.2228003    0.1862358 -40.65 0.0009978685    1.151    0.131
        42 -10.4154     95.3009     86.5030   5.8700259582e+01   4.6516772265e+01    0.3384017    0.2319637  60.13  0.001540285    1.907    0.476
        43 -10.9865     87.5848     86.2100   6.1016942318e+01   4.7943497979e+01    0.3249222    0.2221824  51.90 0.0009561946    1.720    0.418
        44 -11.3620     58.5783    233.1058   9.1913682899e+01   1.9441981872e+01    0.1755558    0.1557341 -53.04  0.001277582    1.670    0.401
        45 -10.6065    158.0762     73.7855   3.8069183032e+01   3.5145606863e+01    0.2380926    0.2106813 -86.35 0.0007283794    1.251    0.201
        46  -9.3315    107.6579     89.3411   5.5818654016e+01   4.3561504172e+01    0.1547655    0.1214537 -89.06 0.0007048668    1.777    0.437
        47 -13.0508    168.5347     68.2700   3.4203090374e+01   3.3478795916e+01    0.6258215    0.5642658 -69.86 0.0009442301    1.167    0.143
        48 -10.3634    110.4992     71.4923   4.9533184342e+01   4.6589894938e+01    0.3612346    0.2447618  72.84  0.001419056    2.389    0.581
        49 -11.8711     71.4954    228.7853   8.9158455837e+01   1.8517917616e+01    0.1776643     0.153309  84.46 0.0007541674    1.203    0.169
        50 -10.6001    152.2125     68.7539   3.7865825056e+01   3.7481678580e+01    0.3024005    0.2504193 -76.74 0.0007905791    1.434    0.302
        51 -13.8189    183.7306     55.0689   2.7502057492e+01   3.1720818801e+01     1.307348    0.9985198  29.21  0.003938393    1.588    0.370
        52 -12.1093    189.7737     49.0161   2.4784842621e+01   3.1073377016e+01    0.4281651    0.3981804  49.57  0.000884746    1.134    0.118
        53 -12.6648     55.5274    227.4496   9.2019037042e+01   2.0904748637e+01    0.2707353    0.1834107 -75.75  0.001791553    1.467    0.318
        54 -11.6086     67.6821    213.0737   8.8415801810e+01   2.2111951677e+01    0.1889435    0.1462995  56.53 0.0003082307    1.138    0.121
        55  -9.7243     91.2729    185.0646   8.0106328838e+01   2.4540522449e+01    0.1869749    0.1571812 -86.81   0.00037388    1.129    0.115
        56  -9.5935    135.2421     54.0250   3.7161178115e+01   4.4077080205e+01    0.2007519    0.1911473 -16.08 0.0002948979    1.076    0.071
        57  -9.5285     60.5861     51.7466   5.9418329085e+01   5.9085319450e+01    0.1680284    0.1181473 -48.46 0.0002952512    1.469    0.319
        58  -9.3828    131.0487     51.5083   3.7348146070e+01   4.5474578358e+01    0.2172386    0.1415752  52.55 0.0003578584    1.480    0.324
        59  -9.8769    211.1150    198.8122   5.6783385692e+01   1.1302199082e-01    0.1900592    0.1695123  31.37  0.000491417    1.159    0.137
        60 -10.5465     69.4897    195.5428   8.6207592185e+01   2.5503425236e+01    0.4465681    0.1984183 -77.59  0.001947458    2.618    0.618
        61 -10.2133     69.2456     48.6033   5.5102490108e+01   5.8364999773e+01    0.2485306    0.1700668 -37.72 0.0007769435    1.368    0.269
        62 -11.3626     62.0441    245.5524   9.2261668279e+01   1.6725200138e+01    0.1990818    0.1614121 -22.95  0.001283367    2.559    0.609
