#   1 NUMBER                 Running object number                                     
#   2 MAG_AUTO               Kron-like elliptical aperture magnitude                    [mag]
#   3 X_IMAGE                Object position along x                                    [pixel]
#   4 Y_IMAGE                Object position along y                                    [pixel]
#   5 X_WORLD                Barycenter position along world x axis                     [deg]
#   6 Y_WORLD                Barycenter position along world y axis                     [deg]
#   7 A_WORLD                Profile RMS along major axis (world units)                 [deg]
#   8 B_WORLD                Profile RMS along minor axis (world units)                 [deg]
#   9 THETA_WORLD            Position angle (CCW/world-x)                               [deg]
#  10 FWHM_WORLD             FWHM assuming a gaussian core                              [deg]
#  11 ELONGATION             A_IMAGE/B_IMAGE                                           
#  12 ELLIPTICITY            1 - B_IMAGE/A_IMAGE                                       
         1 -12.9159    192.7425     69.6882   7.4963257826e+01   2.7986432064e+01     1.563328     1.003993 -39.44  0.007501331    1.583    0.368
         2 -15.0629    174.7474     69.1845   7.8008634266e+01   3.2424204876e+01     8.559236     3.875074 -61.99  0.006221655    4.644    0.785
         3 -15.4635    225.4125     43.4804   6.4226041513e+01   2.4292090810e+01     5.142792      1.93554 -57.01   0.01938877    3.168    0.684
         4 -13.3648    245.3654     34.7902   6.0323784777e+01   2.1104873078e+01     0.801591    0.4531858 -72.68  0.002324118    1.738    0.425
         5 -13.6152    249.1406      2.5489   5.3839005239e+01   2.4257540574e+01    0.8905143    0.4292831  72.02  0.005094014    1.852    0.460
         6 -13.8915    249.0930     25.5161   5.8164471494e+01   2.1530503522e+01    0.6013263    0.3910058 -47.48  0.000920743    1.421    0.296
         7 -15.6802    241.9622     17.0870   5.7135849027e+01   2.4080398687e+01      6.31318    0.4267181  61.73   0.01803535    7.001    0.857
         8 -13.5275    213.6382      3.9394   5.6938879035e+01   3.1773746575e+01     2.820992    0.5951446  73.00  0.009080154    4.343    0.770
         9 -15.6805    211.1285     64.7732   7.0912389771e+01   2.4412820897e+01     12.23829     4.133993 -51.97    0.0405898    3.512    0.715
        10 -10.7965    131.6209     21.1280   7.2482762739e+01   4.9178443750e+01    0.4976162    0.3113484 -50.67  0.002591007    1.993    0.498
        11  -9.6115    115.7951     12.4253   7.2915286754e+01   5.3545211370e+01     0.299407    0.1870308  55.20  0.001546504    1.349    0.259
        12 -11.2084    120.1937      8.8690   7.0854618933e+01   5.2895684367e+01    0.3992434    0.3840472  41.34  0.001442727    1.146    0.127
        13 -11.1117    151.0387      7.6953   6.5173454923e+01   4.5970734183e+01    0.3856082     0.189834 -26.48  0.001307966    2.390    0.582
        14 -10.0888    141.5285     10.0704   6.7356104253e+01   4.7966964348e+01    0.3224889    0.2377595 -48.97  0.001008863    1.574    0.365
        15  -8.3249    138.6176      5.4957   6.6493247397e+01   4.9035304441e+01    0.1736506    0.1277468  39.74 0.0001398855    1.369    0.269
        16  -9.6817    200.0379      6.4700   5.8791415627e+01   3.4611933519e+01    0.2572014    0.1570796 -35.33  0.001378632    1.831    0.454
        17 -10.2755    172.4157      3.7071   6.1216237706e+01   4.1318823520e+01    0.4908563    0.2239555 -60.99  0.002141803    2.918    0.657
        18  -8.3585     90.4580      7.5064   7.7080464132e+01   5.9229539148e+01    0.1213072   0.09959827  34.94 0.0001918152    1.008    0.008
        19  -9.4100      2.6673      7.6777   1.1034067009e+02   7.1607782247e+01    0.1108578   0.05810565 -15.43 0.0004746299    1.702    0.413
        20  -9.4591    244.5972    172.3463   8.9443305631e+01  -1.9190048250e+00    0.2566174    0.1705881  36.74  0.001347078    1.641    0.391
        21 -10.5000    230.6880    167.5010   9.0910738311e+01   1.4371400967e+00    0.3356775    0.2038334 -46.88  0.001595443    1.629    0.386
        22 -10.0456    215.6225    168.3167   9.3905832004e+01   4.1356220255e+00    0.4075382    0.2712916  66.06  0.001412006    2.208    0.547
        23 -10.2316    211.8317    166.3097   9.4214007921e+01   5.2654718296e+00    0.3040427    0.2408871  69.01  0.001232995    1.612    0.380
        24  -9.1375     72.4787    249.0223   1.3710625624e+02   1.3507909435e+01    0.1545561   0.09559036 -45.79 0.0008100198    2.533    0.605
        25  -8.9580     68.6697    245.6897   1.3750622425e+02   1.4709553329e+01     0.104784   0.09885915 -24.99 0.0007041863    1.668    0.400
        26 -10.9486    154.6462    137.3765   9.9994675127e+01   2.3588634346e+01    0.4100282     0.313682 -89.48  0.001815785    1.692    0.409
        27  -9.9567    197.6310    143.7172   9.2040159164e+01   1.2741895330e+01    0.3405111    0.2287744  86.88  0.001326056    2.567    0.610
        28 -10.1169    192.0306    144.0259   9.3254839423e+01   1.3890464391e+01    0.3216834    0.2234682  58.47 0.0007050806    1.600    0.375
        29  -9.3005    222.6259    145.1958   8.7582486939e+01   7.2189492307e+00    0.2256141    0.1996173  72.84 0.0005601112    1.294    0.227
        30  -7.9930    105.2688    143.3218   1.1391925446e+02   3.2288508541e+01    0.1494996    0.1179738 -25.65 0.0003070706    1.565    0.361
        31 -11.0109    188.6078    138.2125   9.2618321230e+01   1.5855122873e+01     0.334178     0.302992  31.94  0.001319945    1.185    0.156
        32 -11.5666    167.3617    136.8900   9.6926928048e+01   2.0873000161e+01    0.8378616    0.3754562 -55.04  0.002787139    2.723    0.633
        33 -11.4341    210.8995    136.5519   8.7814841492e+01   1.1343597859e+01    0.4519833    0.3732459 -37.11  0.002351453    1.172    0.147
        34 -10.9193    173.8397    136.9690   9.5495482579e+01   1.9407834235e+01    0.4355206    0.2462506 -51.72  0.001735804    1.831    0.454
        35 -10.4344    146.0009    136.3356   1.0183031933e+02   2.5715435175e+01    0.4486158    0.3015095  89.15  0.001597056    2.452    0.592
        36 -11.3320    189.5625    131.4015   9.0817065952e+01   1.7061631941e+01    0.4776261    0.3657769 -89.98  0.002187468    1.681    0.405
        37 -11.7527    223.0475    129.7803   8.4074728713e+01   1.0100875640e+01    0.5719556    0.4496265  73.16  0.002944974    1.501    0.334
        38 -11.3354    159.8531    129.0402   9.6754509770e+01   2.4276959630e+01    0.5249991    0.4672208 -18.73  0.002623267    1.268    0.212
        39  -9.7588    136.2432    128.0211   1.0224585359e+02   2.9712403010e+01    0.4540735    0.2490785 -45.64   0.00180116    1.803    0.445
        40 -10.6341    134.4895    123.0135   1.0144856067e+02   3.1220266087e+01     0.665189    0.2516374 -47.21  0.002201199    2.611    0.617
        41  -9.4019    171.1828    126.2014   9.3485409511e+01   2.2320386693e+01    0.2219682     0.186499 -83.66 0.0005081549    1.348    0.258
        42  -9.9810    210.8127    123.0901   8.4734712281e+01   1.4016055991e+01     0.285476    0.2055752 -23.63  0.001303848    1.674    0.403
        43 -10.4833    226.0210    122.6065   8.1949808884e+01   1.0843559935e+01    0.3670733    0.2436009  88.24  0.001576147    2.340    0.573
        44  -9.5158    151.5814    122.7807   9.7155160236e+01   2.7510167176e+01    0.2301512    0.1475155 -56.34 0.0009489498    1.684    0.406
        45 -10.5566    140.2738    120.7332   9.9409669019e+01   3.0473884921e+01    0.4689183    0.3144572 -87.57  0.001768793    2.506    0.601
        46 -10.0652    175.9111    115.9425   8.9914895169e+01   2.3383851324e+01     0.477508    0.2793899  75.19  0.001649997    2.932    0.659
        47 -11.2764    167.7502    114.0992   9.1225871575e+01   2.5661795700e+01    0.4943923    0.4467914 -39.28 0.0009893192    1.129    0.115
        48 -10.1655    157.3263    113.6857   9.3485301333e+01   2.8160036894e+01    0.5128515     0.312398 -73.61   0.00178392    2.884    0.653
        49 -10.5850    135.0000    109.4915   9.7831662894e+01   3.4084250701e+01     1.005666    0.2000082 -46.51  0.002401919    5.156    0.806
        50 -10.0562    126.0519    110.0214   1.0029786631e+02   3.5896979165e+01    0.2325803     0.224092 -56.86 0.0003639623    1.028    0.027
        51 -11.8039    245.8389    237.8872   1.0169911350e+02  -1.2526134566e+01     0.227358    0.1962457  -1.89 0.0004137659    1.146    0.127
        52 -13.3442    248.0982     44.9928   6.2103596305e+01   1.9121637023e+01     0.727541    0.5119375 -53.28  0.001017942    1.238    0.192
        53  -8.9021     71.3048    239.3627   1.3639303968e+02   1.5601762603e+01    0.1118079   0.09792385 -38.03 0.0007037887    1.734    0.423
        54  -9.4539     93.3140    236.3342   1.3172873160e+02   1.2893602032e+01    0.1167429    0.1044344 -15.91 0.0004120024    1.686    0.407
        55  -8.9936    141.7673    104.1926   9.4718121297e+01   3.3700001391e+01    0.2166406    0.1879928   1.64  0.000995707    1.374    0.272
        56  -9.7518    124.0570    101.9845   9.8669230138e+01   3.8040324791e+01    0.3876125    0.2047021  33.36  0.001458275    2.332    0.571
        57  -9.5094    133.8939     96.1762   9.4504749447e+01   3.7105004822e+01    0.2616625    0.2365913   8.12            0    1.228    0.185
        58 -10.2640    147.6022     99.5465   9.2047292887e+01   3.3323770016e+01    0.3587478    0.3215129 -47.34  0.001005609    1.118    0.105
        59  -9.9170    158.5389    216.0996   1.1510928518e+02   5.6722477612e+00    0.2483222    0.2016387  44.43 0.0003376889    1.134    0.118
        60 -10.6574     33.4441    213.6494   1.4136584044e+02   2.6037113074e+01    0.3049641    0.1668025  78.69   0.00164312    1.740    0.425
        61 -10.6348    157.9780     92.4227   8.7718729365e+01   3.2307266444e+01    0.5022474    0.4403446  10.59  0.002312174    1.367    0.268
        62  -8.7798    172.9458    153.5463   9.9530264580e+01   1.6001447746e+01    0.2236832    0.1528026  44.29 0.0003039968    1.482    0.325
        63 -10.4644    141.4040     89.0904   9.0659724878e+01   3.6809675651e+01    0.3442165    0.3053382 -81.31 0.0009318839    1.242    0.195
        64  -9.2319    203.9325    152.5220   9.2763145823e+01   9.6100205686e+00    0.2221373    0.1487806  45.76 0.0006978614    1.557    0.358
        65 -11.8606    156.0617     82.6280   8.5465576535e+01   3.4595907082e+01    0.4575407    0.3759391  56.35 0.0006275691    1.187    0.157
        66  -9.4217    151.5202     82.4962   8.6441847199e+01   3.5694848113e+01    0.2784752    0.2458516 -83.98 0.0007432842    1.220    0.180
        67 -11.3628      3.9429     81.5242   1.3171098264e+02   5.8695684693e+01    0.3192179    0.2272139 -86.04  0.002039477    1.716    0.417
        68  -9.9306     10.6011    206.1125   1.4518882761e+02   3.0124414718e+01    0.1991462    0.1698976  48.05  0.001322246    1.436    0.304
        69 -11.0373    151.4189     70.9025   8.3196541242e+01   3.7758409937e+01    0.6844046    0.3915886 -62.12  0.001807672    2.569    0.611
        70  -8.7832    147.9248     76.8061   8.5653336873e+01   3.7564012759e+01    0.2467896    0.2027359 -54.04 0.0003520142    1.280    0.219
        71  -8.9216    146.5356     73.0275   8.4889214746e+01   3.8549348025e+01    0.2738774    0.2173549 -38.08  0.001093477    1.311    0.237
        72 -10.7437    144.2224     68.3495   8.4061837267e+01   3.9884064295e+01    0.4109375    0.3298272  80.70  0.001459943    1.423    0.297
        73 -10.8355     62.9503    151.0377   1.2676524410e+02   3.7125729371e+01    0.3317591    0.2898172 -14.20  0.001906578    1.462    0.316
        74  -7.9221     98.2870     76.6743   9.8628603942e+01   4.8267837579e+01    0.1360469    0.1145678 -81.42 0.0004227493    1.608    0.378
        75  -8.0667     43.5155     80.4734   1.1769800973e+02   5.5711799838e+01    0.1292771    0.1089234 -34.81 0.0008098796    1.006    0.006
        76  -9.3571    156.1071     69.2001   8.1710455683e+01   3.6925616293e+01    0.2986736    0.2014057 -47.07 0.0007748223    1.548    0.354
        77 -10.6028     68.8833    159.3446   1.2661151887e+02   3.4270415836e+01    0.6740187    0.2786353  46.95  0.002656491    2.611    0.617
        78  -9.4964      9.3131     68.6723   1.2703356970e+02   6.0993042227e+01    0.1040749   0.08716026  83.62 0.0006738114    1.669    0.401
        79  -8.7977     86.5274     65.4926   9.8725086028e+01   5.2435571803e+01     0.138377    0.1226643  -1.66 -3.13171e-05    1.056    0.053
        80 -11.0908     99.0289     62.0969   9.3830215218e+01   5.0700271910e+01     0.435789    0.2810558  38.53  0.002184438    1.509    0.337
        81 -10.8854    106.9853     55.9782   8.9576433356e+01   5.0098550948e+01    0.3266273    0.2410388   3.28  0.001010743    1.623    0.384
        82  -8.9276     60.5057     62.4919   1.0643503497e+02   5.7073928319e+01    0.1304557    0.1120138 -15.15 -1.189447e-05    1.010    0.010
        83 -11.0932    144.3497     59.2348   8.1369081962e+01   4.1317337554e+01    0.4914869    0.3184734 -38.96  0.001455349    1.623    0.384
        84  -9.3531    148.4687     59.5009   8.0557942036e+01   4.0303459285e+01    0.2344241    0.1292633 -47.00 0.0005344238    1.989    0.497
        85 -13.0126     11.0189    196.1117   1.4433414489e+02   3.2285464481e+01    0.8091878    0.5122637  48.52  0.004846564    1.587    0.370
        86 -10.2788    114.2449     58.0012   8.8260664693e+01   4.8272261017e+01    0.1973392    0.1857841  -2.43  0.001168143    1.067    0.062
        87  -8.9534     72.5395     58.1128   1.0085684853e+02   5.6042541092e+01    0.1891442    0.1211731 -38.16 0.0005890217    1.509    0.337
        88 -11.4377     68.4307    144.6714   1.2416800397e+02   3.7930734218e+01    0.6626074    0.4551328  70.16  0.002276292    1.770    0.435
        89 -10.4656    179.8824     51.0639   7.2327546329e+01   3.3974188219e+01    0.4616122    0.2060241  58.39  0.001893572    2.045    0.511
        90  -8.9389     82.9526     52.2637   9.5472459769e+01   5.5251245681e+01    0.2172457    0.1707582 -41.29  0.000646266    1.393    0.282
        91 -10.0051    133.8849    147.0318   1.0731977934e+02   2.5811017025e+01    0.7521275    0.2247094 -52.34  0.002147026    3.565    0.719
        92 -10.5783    113.7860     42.3096   8.3292738045e+01   5.0646255907e+01    0.2710241    0.1977369  32.35  0.001475701    1.349    0.259
        93  -9.4026    132.6205    140.0534   1.0604303251e+02   2.7704704466e+01    0.6392136    0.1826245 -54.30  0.001636703    4.452    0.775
        94 -11.0962    108.5014     40.9924   8.4214438316e+01   5.1938644150e+01    0.3005701     0.228337 -49.02  0.001179582    1.597    0.374
        95 -11.6865    106.6980     37.6588   8.3563280595e+01   5.2747400963e+01    0.5669656    0.2604912  40.98  0.002338181    2.079    0.519
        96  -8.6556    106.9605    158.6514   1.1664854725e+02   2.8266841561e+01     0.196236    0.1818774  63.25 0.0003945799    1.078    0.072
        97 -10.4728    191.8148    152.1106   9.5137019869e+01   1.2251243729e+01    0.4854747    0.2763452 -59.44  0.001875419    2.268    0.559
        98 -12.5943     11.7371    189.9044   1.4367823806e+02   3.3607092606e+01    0.7337852    0.3373469  42.58  0.002972814    2.178    0.541
        99 -10.3046    219.3424    148.5659   8.8927166545e+01   7.2290220749e+00    0.2613119    0.2389654 -60.98  0.000327669    1.139    0.122
       100 -11.1515    178.9014    144.6576   9.6186838063e+01   1.6628918930e+01     0.571498    0.3412749 -47.65  0.002397474    1.655    0.396
       101 -10.8273    158.9992    142.1237   1.0009044586e+02   2.1567972812e+01    0.7244667    0.4520355  89.37   0.00234925    3.467    0.712
       102 -10.0475    193.0388    195.1182   1.0394297649e+02   3.2893087748e+00    0.9147157    0.4388843 -63.59   0.00235373    6.744    0.852
       103  -8.6596    204.9976    190.1666   1.0051839562e+02   1.9813269732e+00     0.230301    0.1677814  69.37 0.0009492429    2.045    0.511
       104 -10.7487    223.1613    176.7920   9.4241945429e+01   1.1065863310e+00    0.4416493    0.3239899  -3.26  0.002215417    1.668    0.401
       105 -13.4790     42.3901    172.1898   1.3505234105e+02   3.4549455553e+01    0.8783328    0.7788749 -14.06  0.002735459    1.574    0.365
       106  -8.7446    101.0028    175.9715   1.2136913788e+02   2.5136091291e+01    0.1975028    0.1828606  88.79            0    1.016    0.016
       107 -12.9441     53.6848    163.3153   1.3109261372e+02   3.5330595920e+01    0.9040533    0.7561624 -76.79  0.002888051    1.032    0.031
       108  -9.5928    200.6433    174.0590   9.8093138576e+01   5.9494007413e+00    0.3084616    0.1879772 -28.45 0.0009672645    1.905    0.475
       109 -10.0611    235.2097    173.9460   9.1430650493e+01  -5.5910829368e-01    0.3156207    0.2089618  48.72  0.001231081    1.722    0.419
