#   1 NUMBER                 Running object number                                     
#   2 MAG_AUTO               Kron-like elliptical aperture magnitude                    [mag]
#   3 X_IMAGE                Object position along x                                    [pixel]
#   4 Y_IMAGE                Object position along y                                    [pixel]
#   5 X_WORLD                Barycenter position along world x axis                     [deg]
#   6 Y_WORLD                Barycenter position along world y axis                     [deg]
#   7 A_WORLD                Profile RMS along major axis (world units)                 [deg]
#   8 B_WORLD                Profile RMS along minor axis (world units)                 [deg]
#   9 THETA_WORLD            Position angle (CCW/world-x)                               [deg]
#  10 FWHM_WORLD             FWHM assuming a gaussian core                              [deg]
#  11 ELONGATION             A_IMAGE/B_IMAGE                                           
#  12 ELLIPTICITY            1 - B_IMAGE/A_IMAGE                                       
         1 -12.4621    125.8978     28.3501   3.4889241405e+01   4.9866603351e+01    0.6578723    0.6234552 -48.23   0.00375023    1.092    0.084
         2 -12.6030    119.7662     37.8779   3.9875318412e+01   5.0137602507e+01     1.057326     0.531629 -51.34  0.003151417    2.442    0.590
         3 -12.4262    160.0086     29.7828   2.9592297749e+01   4.0901144322e+01    0.4762292    0.4343514 -21.75 0.0004950848    1.179    0.152
         4 -11.8233    105.8789     20.8914   3.6314896772e+01   5.6030655021e+01    0.5377218    0.4097092 -78.49  0.002021867    1.540    0.351
         5 -12.4148     20.4043     21.6698   7.7639461214e+01   7.3215052225e+01    0.5812564    0.3166028 -47.94  0.001963637    1.670    0.401
         6 -11.9964     48.2246     12.9104   5.3603677239e+01   7.0659717938e+01    0.7296378    0.3439896  44.87  0.003173514    2.020    0.505
         7 -10.9708     32.0455     29.2261   7.2677254068e+01   7.0234403378e+01    0.5935954    0.3009319 -64.70  0.001701467    2.687    0.628
         8 -11.8546     26.5782     27.9477   7.5874320227e+01   7.1179036409e+01    0.5270428    0.3451368 -57.30   0.00114058    1.552    0.356
         9 -11.7852     35.7204     17.9229   6.4382607510e+01   7.1991898794e+01    0.8290811    0.3049931 -39.51  0.003154733    2.846    0.649
        10 -11.6917    148.3858     16.2829   2.6733194646e+01   4.5394125296e+01     1.064429    0.3328385  46.32  0.003307086    4.134    0.758
        11 -12.1191    145.1442     24.2998   2.9975043779e+01   4.5346285084e+01     1.111952    0.4925324  58.98  0.004560163    2.082    0.520
        12 -11.5782    122.1871      5.3101   2.6471392036e+01   5.3394404221e+01    0.5057324    0.2872722 -24.07  0.001233423    1.883    0.469
        13 -10.8719    121.0971     11.5807   2.9201840490e+01   5.3076310153e+01    0.9772864    0.2529483  65.68  0.003056374    3.265    0.694
        14 -11.4261    135.0274     22.0579   3.0824915468e+01   4.8245916050e+01    0.5784497    0.4304271  50.33  0.002413702    1.348    0.258
        15 -11.9651    134.8867     14.8010   2.8163663702e+01   4.9085323681e+01    0.7747294    0.4358367  70.27  0.003533807    1.668    0.400
        16 -11.0907    127.3077     16.2001   2.9944024866e+01   5.0939837626e+01    0.3864077    0.2859211  -0.45  0.001182642    1.662    0.398
        17 -10.9537     90.7677     22.0409   4.0963191806e+01   5.9728327341e+01    0.6078082    0.3263128 -24.27  0.002567371    2.112    0.527
        18 -10.6567     87.6333      7.4291   3.4661783905e+01   6.2290294227e+01    0.6358478    0.3140016  64.00  0.002433561    1.879    0.468
        19 -11.3389     85.8709     14.2375   3.8644205235e+01   6.1958018532e+01    0.5337547    0.3584885 -27.11   0.00166164    1.593    0.372
        20 -11.2136    179.3640     20.4402   2.4384494101e+01   3.7186411679e+01    0.5540871    0.2733909  40.07   0.00229675    2.855    0.650
        21 -12.8412    164.2797     18.5696   2.5480312558e+01   4.1093167723e+01    0.5304646    0.3080758  42.15  0.002452531    2.077    0.519
        22 -11.8552     67.8148     18.2324   4.7221749525e+01   6.5726255310e+01      0.56907    0.4659857  58.61  0.002383003    1.265    0.209
        23 -12.0018    245.6685     18.5714   1.8815383986e+01   2.3269407354e+01    0.4331741   0.07771877 -37.93  0.001781471    3.089    0.676
        24 -12.4673    227.4521     15.1972   1.9134145022e+01   2.7094233516e+01    0.4672832     0.287048 -64.47  0.002788099    1.564    0.360
        25 -10.4962     13.1283      9.4273   7.7679157575e+01   7.6512944406e+01    0.4527508    0.3076747  81.12  0.002181327    2.775    0.640
        26 -11.7958     22.7151     11.2340   7.0210345492e+01   7.5100903353e+01    0.4636009    0.3216029  -2.06  0.001565392    1.558    0.358
        27 -12.3871    104.9220     12.7813   3.2949614711e+01   5.7230473766e+01    0.5813944    0.3980106 -24.25  0.001663692    1.583    0.368
        28 -11.8454    192.2499      8.4056   1.9830079211e+01   3.5346502432e+01    0.5909717    0.3564018   5.66  0.002661994    2.531    0.605
        29  -9.6068     98.4587     12.2759   3.4238353189e+01   5.8974254015e+01    0.2552233    0.1477119 -16.62  0.001080424    2.024    0.506
        30 -11.5074    212.0541      9.1782   1.8650425323e+01   3.0861895811e+01    0.5542949    0.3199257   3.99  0.002654635    2.830    0.647
        31 -11.0055    218.5795      3.7214   1.6921074740e+01   2.9984108536e+01    0.2672916    0.2296323 -60.61 0.0009034839    1.061    0.057
        32 -11.6103    223.7308      2.3421   1.6318213943e+01   2.9044385407e+01    0.5007306    0.2144855  87.03  0.002343793    2.529    0.605
        33 -10.1956      4.9836     10.7205   8.6221217544e+01   7.6857220340e+01    0.4042262    0.2179419 -50.41  0.001591636    1.577    0.366
        34  -9.7937      1.0000      8.7107   8.9391225451e+01   7.7507673088e+01    0.3092459   0.06170009 -66.18  0.001037103    4.127    0.758
        35 -11.3362    246.9929      6.0166   1.6021883523e+01   2.4202093871e+01    0.2147311    0.1783734   2.50  0.001045936    1.567    0.362
        36 -11.4126    169.7505      9.1928   2.1979902585e+01   4.0668841244e+01    0.4668364    0.2097574  58.83    0.0011414    2.186    0.543
        37 -10.6447    163.6236      5.7420   2.1495655465e+01   4.2522036556e+01    0.3267916     0.230867  13.29  0.001476317    1.886    0.470
        38 -10.7229    145.4152      9.6145   2.4806905689e+01   4.6839698073e+01    0.2632081    0.2192066  41.84 0.0004477394    1.321    0.243
        39 -10.0423     65.4597     10.3494   4.3737259727e+01   6.7353390098e+01    0.3129754    0.1708517  53.31  0.001186647    1.696    0.411
        40 -10.1868     62.4666      7.0282   4.2984322738e+01   6.8460394671e+01    0.2972568    0.2441748  -7.52  0.001316907    1.283    0.221
        41 -10.7314    232.8519      7.2030   1.6974915004e+01   2.6779168545e+01    0.2170507    0.1961913 -88.13 0.0009736966    1.237    0.192
        42 -11.5021    236.8255      4.8520   1.6243717258e+01   2.6221040592e+01    0.3199027    0.2036873 -39.38  0.001464053    1.252    0.201
        43 -10.6921    233.1492      2.6114   1.5914975916e+01   2.7136337506e+01    0.2349916    0.1645313 -44.15 0.0004799094    1.140    0.123
        44 -11.6101    184.4224      5.0073   1.9481070591e+01   3.7494165746e+01    0.5345092    0.4411195  57.11  0.003270931    1.345    0.256
        45 -11.4028    176.9028      5.8480   2.0329765230e+01   3.9223934113e+01    0.3824942    0.2094576 -87.94 0.0007705994    1.873    0.466
        46 -10.4043    152.4400      1.4391   2.1196725523e+01   4.5755923309e+01    0.3663299       0.1242  75.60 0.0005046835    2.756    0.637
        47 -10.5030    157.3447      7.3266   2.2643318540e+01   4.3970412801e+01    0.2333266    0.1671929  14.36  0.001197763    1.832    0.454
        48 -10.9255    157.8499      2.5210   2.1019551453e+01   4.4273656766e+01    0.3473104     0.292694   5.37  0.002034769    1.434    0.303
        49  -9.6461     78.1701      7.4228   3.7454721519e+01   6.4670820778e+01    0.2838821     0.135521  64.91  0.001159688    2.104    0.525
        50 -11.2305     74.4994      3.6418   3.6510030126e+01   6.5986623110e+01     0.700095    0.2942867  57.68  0.002871277    2.068    0.516
        51 -11.4817    206.4266      3.0749   1.7460474908e+01   3.2642174712e+01    0.4129934    0.2829012 -87.54  0.002500155    1.429    0.300
        52 -12.7084    135.3448      3.1758   2.3762118661e+01   5.0082729122e+01     1.237524    0.3792483  78.68  0.003973531    3.584    0.721
        53 -11.7138    114.2470      2.5812   2.6628637932e+01   5.5760087799e+01    0.6412139    0.2866951  76.37  0.002563811    2.216    0.549
        54 -11.2199    105.6540      2.6980   2.8224775417e+01   5.8040028819e+01    0.4680275    0.3173321 -78.01  0.001765376    1.675    0.403
        55  -9.6486     21.8869      3.7786   6.6016616310e+01   7.6597951369e+01    0.2202423    0.1741269 -77.51  0.001206152    2.110    0.526
        56 -10.7332    242.8363      2.8709   1.5526958085e+01   2.5256008302e+01    0.1599847    0.1481329 -37.90  0.001244059    1.226    0.184
        57 -10.9716      2.6225      1.9018   8.4418828423e+01   7.8891861932e+01    0.3198855    0.1847114 -10.50  0.001356831    1.759    0.432
        58 -10.1237     41.4476      4.0972   5.1728033447e+01   7.3298293680e+01    0.3383127    0.2170494   1.73  0.001614719    2.059    0.514
        59 -10.2586     82.2123      1.3185   3.2904465970e+01   6.4285886696e+01     0.229847     0.116978  62.66 0.0003338979    1.753    0.430
        60 -11.9775     15.8436     14.5143   7.7929556994e+01   7.5195777420e+01    0.6335449    0.3324765 -34.63   0.00284368    1.897    0.473
        61 -10.3366    232.8990    143.3330   4.6927095739e+01   1.0478928857e+01    0.2113064    0.1095109  49.60  0.001105474    2.589    0.614
        62 -11.6293    248.8104    249.7899   6.1773968336e+01  -3.0811399466e+00    0.3012067    0.2463593 -32.44  0.002516997    2.433    0.589
        63 -10.0311    217.2001    138.8335   4.8444885424e+01   1.3437808298e+01    0.1783665    0.1554035 -20.46  0.000535681    1.167    0.143
        64 -10.2503     40.3187    138.0067   9.3229343756e+01   4.2176268728e+01     0.314769    0.1767209  48.62   0.00148712    1.699    0.412
        65  -9.9368     79.0732    138.0547   8.0738465385e+01   3.7294152288e+01    0.2224173    0.2077123  46.34 0.0007390128    1.015    0.015
        66  -9.7079     32.0974    137.5137   9.5887116780e+01   4.3097534553e+01    0.3439532    0.1725886  36.04  0.001242559    1.789    0.441
        67 -11.2815     22.4714    136.0780   9.8938647186e+01   4.4281560301e+01    0.6463341    0.3055677  39.28  0.003011973    1.887    0.470
        68 -11.2170     29.9713    133.1347   9.6176002288e+01   4.4382426746e+01    0.3827651    0.2811058 -34.81 0.0008085383    1.624    0.384
        69  -9.3617     47.3835    135.1410   9.0555028878e+01   4.2132113943e+01    0.1947402    0.1276059  89.22 0.0007449065    1.673    0.402
        70 -10.0543    239.5059    146.5236   4.6579447328e+01   9.1399143158e+00    0.1173454   0.09241961 -11.17 0.0001129778    1.016    0.016
        71 -10.1424     73.1488    133.3518   8.1827017258e+01   3.9279526071e+01    0.2559921    0.1952307 -51.64 0.0009614365    1.385    0.278
        72  -9.7084     39.3392    133.4448   9.3047872204e+01   4.3412120691e+01    0.2294419    0.1348314  18.20 0.0008695456    1.816    0.449
        73  -9.4202    103.9756    130.7485   7.1830826310e+01   3.4969525723e+01    0.2072452    0.1780437  32.99  0.001098291    1.098    0.090
        74 -11.0617     10.3535    128.1976   1.0243945892e+02   4.7114314878e+01    0.4680213    0.2920941 -60.88  0.002112456    1.616    0.381
        75  -9.5192     92.9844    129.4866   7.4872973346e+01   3.7123437365e+01    0.2351685    0.1376833  36.61  0.001029738    1.597    0.374
        76 -11.3902     12.4043    136.2801   1.0225554134e+02   4.4973557236e+01     0.486451    0.3198018 -57.02  0.002665184    1.612    0.380
        77  -9.2438     22.7741    126.6282   9.8040942692e+01   4.6627844559e+01    0.1754202    0.1136371  36.00 0.0001903573    1.462    0.316
        78 -10.3004      2.2745    125.8601   1.0505498449e+02   4.8163608140e+01    0.2571764    0.1578433  62.89 0.0008896136    1.499    0.333
        79 -12.3767    103.9262    122.4213   7.0091267463e+01   3.6848633972e+01    0.3443526    0.3148002  19.20 0.0004154159    1.091    0.083
        80  -9.4037     84.8329    123.3395   7.6223337869e+01   3.9902083556e+01    0.2082365    0.1360521  21.52 0.0004063002    1.695    0.410
        81 -10.2173     49.4486    123.1274   8.8221959097e+01   4.4912855956e+01     0.335364    0.1990905   1.35  0.001407024    2.383    0.580
        82  -9.9057     56.3350    121.9025   8.5606054994e+01   4.4384616454e+01    0.2349572    0.1829823  42.98 0.0003810169    1.230    0.187
        83  -9.8117     45.0032    120.2316   8.9391100593e+01   4.6154957491e+01    0.2145126    0.1909616 -35.32 0.0006974412    1.237    0.192
        84 -10.4702     43.7883    116.7725   8.9335939597e+01   4.7173900156e+01    0.2998079    0.2331668  87.54 0.0007241003    1.325    0.245
        85 -10.6202      7.2015    114.8871   1.0269824014e+02   5.0662943170e+01    0.3123137    0.2308742 -72.90 0.0007429061    1.276    0.216
        86 -12.2950      2.4092    111.9787   1.0428510215e+02   5.1649840942e+01    0.4799141    0.2703246 -81.48 0.0007371661    1.614    0.380
        87 -11.2940      4.5713    104.8743   1.0302272425e+02   5.3362517219e+01    0.4477011    0.3089013  26.75  0.002302011    1.499    0.333
        88  -9.8369     79.1396    114.5921   7.6327486141e+01   4.2922551027e+01    0.2666945    0.2166216 -59.85  0.001053383    1.273    0.214
        89 -12.2344     17.5712    100.7796   9.7470863618e+01   5.3670680132e+01    0.6506419    0.4188654  77.41  0.001395457    1.592    0.372
        90 -12.0186      9.3305     97.3644   1.0052400801e+02   5.5061516311e+01    0.5036649    0.4150556  30.95  0.003002662    1.268    0.211
        91 -10.9737     29.6171     97.7140   9.2099235647e+01   5.3530513840e+01    0.8161325    0.2796951 -48.23   0.00288925    3.051    0.672
        92 -11.2299     35.3866     92.9060   8.8891481814e+01   5.4242977947e+01    0.6282174    0.3224278 -63.19  0.002761109    1.811    0.448
        93 -11.6473     27.6510     85.1957   9.0993825678e+01   5.6975866479e+01    0.7935286    0.5445708  13.09  0.001961719    1.584    0.369
        94 -11.4792     44.5048     85.0701   8.3397688762e+01   5.5272989648e+01    0.5647783    0.4855311  39.79  0.002200968    1.180    0.152
        95 -10.5659     37.2841     85.9279   8.6780417889e+01   5.5863312390e+01    0.3657654    0.2400801   9.21  0.001255128    1.750    0.428
        96 -11.6603     25.2329    107.4984   9.5165481860e+01   5.1348608627e+01      1.43812    0.7856826 -10.34  0.006114357    2.570    0.611
        97 -11.0320     28.1752    113.1257   9.4693761300e+01   4.9642745125e+01    0.3414469    0.2689897  13.95 0.0006236373    1.373    0.272
        98 -11.5428     22.5235     94.4810   9.4645432212e+01   5.4961078919e+01    0.4132473    0.3342089 -32.90  0.001770132    1.337    0.252
        99 -11.4957     18.2572     90.6923   9.6001790630e+01   5.6260886438e+01    0.5554489    0.3509833 -89.94  0.001515675    1.596    0.373
       100  -9.9363     48.7212    112.4729   8.6841495094e+01   4.7715176737e+01    0.2534803    0.2286656  72.18 0.0008799063    1.098    0.089
       101 -10.1805    249.5194    111.9828   3.8470732765e+01   1.1990858329e+01    0.1687904   0.08782864 -10.37 0.0008101058    2.536    0.606
       102  -9.2585     93.7983    112.5926   7.1036030668e+01   4.0915247274e+01    0.2192756    0.1339257  46.56 0.0009399089    1.648    0.393
       103  -9.7875     66.4688    110.7600   7.9989577626e+01   4.5807322042e+01    0.3464555    0.1655459  34.05  0.001386443    1.985    0.496
       104  -9.3013    170.5169    110.4472   5.0554569030e+01   2.6163445517e+01    0.1408789      0.13043  -1.57 4.985333e-05    1.021    0.021
       105 -10.1963    102.1061    109.1231   6.7594420290e+01   4.0190326840e+01    0.2327144    0.2051147   0.92 0.0004033139    1.248    0.199
       106 -11.3471     80.0237    108.1502   7.4631595978e+01   4.4340852846e+01    0.5241516    0.3049127  27.89 0.0006086777    1.807    0.447
       107  -9.3021    143.3822    106.1275   5.5468224954e+01   3.2509508908e+01      0.21042    0.1369082 -52.14 0.0009379302    1.737    0.424
       108 -11.4641     21.7067    114.2987   9.7261001120e+01   4.9863528452e+01    0.4773265    0.2918272  -7.38  0.001413375    2.097    0.523
       109 -10.7892     51.8285     99.2598   8.3265428976e+01   5.0725332596e+01    0.6496479    0.2187408 -51.32  0.002049261    2.876    0.652
       110 -11.4543     68.4160     96.1168   7.6090442726e+01   4.9160862496e+01    0.5750548    0.4053109 -14.69  0.002548398    1.944    0.486
       111  -9.1720    210.0216     98.2319   4.0786034517e+01   2.0410621894e+01    0.1568507    0.1083749  49.37 0.0006506821    1.605    0.377
       112 -10.8074     83.0096     93.0784   6.9919761323e+01   4.7440028931e+01     0.554774    0.3862187  47.39 0.0003201595    1.458    0.314
       113 -10.8559     78.3607     93.2664   7.1656844727e+01   4.8215805695e+01    0.4704253     0.337462  41.38  0.002228376    1.367    0.268
       114 -10.1523    249.3340     97.6796   3.5567856065e+01   1.3768609109e+01    0.1158362   0.07965633 -51.33 0.0007049553    1.701    0.412
       115 -12.0522    125.6865     94.9639   5.7033760937e+01   3.8463118018e+01    0.2870438    0.2706678  27.85 0.0002408451    1.042    0.040
       116 -10.3958    122.0000     93.9648   5.7768602757e+01   3.9456459662e+01    0.3220905    0.2075443 -44.51    0.0012217    1.589    0.371
       117 -10.6245     42.8648     94.6085   8.6031219179e+01   5.3003714811e+01    0.3385157    0.3005636 -69.62  0.001200518    1.100    0.091
       118 -10.9933     98.5821     91.0430   6.4023728014e+01   4.4948348708e+01    0.2939499    0.2294969  41.68  0.001423632    1.248    0.198
       119 -11.3647     89.6802     89.8897   6.6704424985e+01   4.6947751647e+01    0.5907786    0.3469629 -36.72  0.002415461    1.976    0.494
       120 -10.3761     49.3361     91.3920   8.2676419938e+01   5.3057991251e+01    0.2924537    0.2559031  61.12  0.001590398    1.187    0.157
       121 -11.8071      7.0303     88.7654   1.0072199727e+02   5.7414844220e+01    0.5843269    0.4059552   8.65  0.002254907    1.595    0.373
       122  -9.8603     66.1137     88.9057   7.5229332136e+01   5.1303228062e+01    0.3735343    0.2346663  -7.45  0.001420017    2.694    0.629
       123  -9.7296    104.3179     87.3050   6.1117357093e+01   4.4600509134e+01    0.2704164    0.2381905  -4.39  0.001002366    1.270    0.212
       124 -10.8138    143.2129     84.6103   4.9707797570e+01   3.6585000638e+01    0.2554717    0.2426486 -18.05 0.0003007975    1.059    0.055
       125 -10.6088    113.0086     83.0112   5.7194580620e+01   4.3653300297e+01    0.4143386     0.347506  77.35    0.0020413    1.417    0.294
       126 -10.6904     80.0209     83.8224   6.8484023542e+01   5.0159497502e+01    0.4200509    0.3894262  43.17  0.001893119    1.067    0.062
       127 -11.1776     74.5413     78.8087   6.9135472666e+01   5.2323187163e+01    0.6402944    0.4001669  47.97  0.002798969    1.679    0.404
       128  -9.9966     66.5726     81.7500   7.3164921485e+01   5.2980169038e+01    0.4837206    0.3046478  29.88  0.002155993    1.626    0.385
       129 -10.9485     58.2939     77.8063   7.5569880892e+01   5.5240413963e+01     0.388071    0.3272862 -84.92  0.002014706    1.335    0.251
       130 -11.4804     53.5078     76.4543   7.7311794740e+01   5.6273807744e+01    0.6779753    0.4949081  36.99  0.003363368    1.373    0.272
       131 -11.8237     13.7503     74.7370   9.5956902947e+01   6.0715173152e+01    0.6073793    0.4352378 -77.06  0.002890227    1.305    0.234
       132  -9.9596     14.0281     67.5917   9.4729610236e+01   6.2552006078e+01    0.4818024    0.2640567   1.35  0.002173167    2.104    0.525
       133 -10.9964     94.9874     76.6908   6.0980288603e+01   4.8837884763e+01    0.4982177    0.3065282  39.52  0.001685119    1.610    0.379
       134 -10.2694     92.0398     71.9798   6.0492486128e+01   5.0464835227e+01    0.2600528    0.2189555  42.95 0.0003786369    1.161    0.139
       135 -11.7745     84.4066     73.5586   6.3752616345e+01   5.1669768477e+01    0.8079367    0.3816389  38.65  0.003064755    2.111    0.526
       136 -10.9676     79.4497     68.0938   6.3856127244e+01   5.3853087257e+01      0.56099    0.3564509  61.94   0.00229662    2.134    0.531
       137 -10.1485    233.5204     77.5208   3.3015929534e+01   1.8899038908e+01    0.1228805    0.1029372 -31.22  6.38664e-05    1.013    0.012
       138  -9.8861    103.9653     74.8747   5.7452759792e+01   4.7307685871e+01    0.3318902    0.2234969  53.20  0.001473981    1.534    0.348
       139 -11.0977      1.9587     71.7358   1.0145262541e+02   6.2042994734e+01    0.4164504    0.1883834 -71.86  0.001806764    1.904    0.475
       140 -11.2659    186.8597     71.1230   3.7601483913e+01   2.8993039877e+01    0.6028352    0.3228006 -35.27  0.002099448    1.715    0.417
       141 -10.3549     24.4315     73.3364   9.0419458835e+01   6.0331500584e+01    0.2681596    0.2260967 -46.51 0.0006973766    1.147    0.128
       142 -10.2444     28.8066     71.9985   8.7971512183e+01   6.0298665599e+01    0.2888426    0.2158658  14.09 0.0008765286    1.425    0.298
       143 -11.1545     34.6654     71.5052   8.4950141893e+01   5.9850843568e+01    0.6280125    0.3076439  27.74   0.00269425    2.038    0.509
       144 -10.6257     41.3080     72.6770   8.1993022817e+01   5.8811668446e+01    0.2714961    0.2329602 -16.85  0.001092761    1.242    0.195
       145 -11.1424     39.8981     69.4799   8.1874371113e+01   5.9783933853e+01    0.3157079    0.2642432  29.86 0.0007453173    1.222    0.182
       146 -11.1832    123.0096     68.9836   5.0002685000e+01   4.4131229009e+01    0.4921964    0.2998881  45.34  0.001388324    1.622    0.384
       147  -9.0520     46.7060     70.3056   7.8793314568e+01   5.8730525448e+01    0.1453817    0.1108338  66.49 0.0001440379    1.580    0.367
       148 -10.7440    220.0608     66.9146   3.2105638727e+01   2.2732319780e+01    0.4138475    0.1960046  65.80  0.001956807    2.591    0.614
       149 -11.4594      9.7008     62.6769   9.6265835516e+01   6.4055201932e+01    0.7544168     0.230061 -51.21   0.00284635    2.765    0.638
       150 -12.3155      4.5873     61.9152   9.8952140734e+01   6.4476626138e+01    0.5786222    0.4427575 -41.25  0.001899063    1.264    0.209
       151 -11.3254     92.8888     62.7959   5.7083772165e+01   5.2201987061e+01    0.7918335    0.3116439  50.35  0.002513152    2.676    0.626
       152 -10.5125     59.1342     63.0838   7.0788824157e+01   5.8641830867e+01    0.3570672    0.2993433  85.90 0.0009807083    1.464    0.317
       153  -8.7076     50.8725     56.5807   7.2567017044e+01   6.1454496305e+01    0.5689437    0.2398585  43.54  0.002112406    2.592    0.614
       154 -10.4147     51.7368     48.2250   6.9103360281e+01   6.3222688669e+01    0.3367996    0.2616396  36.48 0.0007483897    1.292    0.226
       155 -11.3693     45.6024     48.4480   7.2416847525e+01   6.4110889299e+01    0.5161483    0.4201281 -43.61   0.00245066    1.194    0.162
       156 -11.9028     42.6467     43.9595   7.2349640366e+01   6.5553302199e+01    0.6891499    0.3066848  29.38 0.0003030929    2.309    0.567
       157 -11.4337     40.8357     57.0480   7.7889723040e+01   6.2738402719e+01    0.4552986    0.3317803  28.91  0.001740807    1.391    0.281
       158 -11.2724     43.4807     62.4331   7.8149252950e+01   6.1091112931e+01    0.3198411    0.2473452 -53.83 0.0005526438    1.249    0.199
       159 -10.2897     50.9999     61.5030   7.4125787731e+01   6.0275750999e+01    0.3469959    0.2374453  41.15  0.001669519    1.504    0.335
       160 -10.9567     46.3925     59.2595   7.5703373153e+01   6.1469067148e+01    0.3875901     0.318331  69.59   0.00108004    1.471    0.320
       161  -9.6918    157.9487     63.1243   4.0287392293e+01   3.6792308719e+01    0.5056596    0.1300672  47.22  0.001439638    4.308    0.768
       162 -11.3843    234.8042     60.9024   2.9134846831e+01   2.0695608196e+01    0.3348234    0.2926739  56.68  0.001905047    1.351    0.260
       163 -12.3664     75.1159     53.3091   6.0301506715e+01   5.7879038548e+01     1.141955    0.6154116 -56.54  0.004245488    2.325    0.570
       164 -10.0035     82.8714     46.8978   5.4700208112e+01   5.7518097294e+01    0.3232945    0.2327958  -6.30 0.0008674892    1.912    0.477
       165  -9.2468     65.4133     62.1488   6.7653567288e+01   5.7792503686e+01    0.2003809    0.1450169 -62.39 0.0004100862    1.552    0.355
       166  -9.2551    188.2280    248.9708   7.1482436416e+01   3.0856730538e+00    0.1182276   0.08016313 -26.46 0.0008729199    1.636    0.389
       167 -11.7401    117.1795     55.0996   4.6869470444e+01   4.8019667395e+01     1.508759    0.8055493 -63.45  0.004881805    3.591    0.722
       168 -11.9742    117.5709     43.8305   4.2661298527e+01   4.9788231601e+01    0.6062416    0.5521885 -59.23  0.003164345    1.149    0.130
       169  -9.4700    229.4946    248.4573   6.4534692109e+01  -1.1380377020e+00    0.1028322   0.06722711   6.61 0.0001201187    1.013    0.013
       170 -11.9878     25.4890     57.2098   8.6354363967e+01   6.4357994876e+01    0.8273286    0.7718752 -89.33  0.004740427    1.140    0.123
       171 -10.2351     34.6199     52.0114   7.9718965935e+01   6.4706720908e+01    0.4520294    0.2719544 -13.61  0.001955156    2.243    0.554
       172 -10.8804    106.0598     58.4980   5.1265195673e+01   5.0062342305e+01     0.294854    0.2166954 -59.31  0.001295934    1.600    0.375
       173 -10.4611     87.6770     56.6514   5.6712009581e+01   5.4571510497e+01    0.5230416     0.238106 -35.51  0.001881712    2.545    0.607
       174 -10.1495     91.6338     57.1468   5.5484383942e+01   5.3607595268e+01    0.3017226    0.2203221  56.97 0.0006521646    1.448    0.309
       175 -10.3176    157.7582     55.1463   3.7910212121e+01   3.8050153929e+01    0.4314166    0.2818297 -63.05  0.001948599    1.878    0.468
       176  -9.3945    125.3211     56.3298   4.5190194509e+01   4.5821509062e+01    0.1568851    0.1177974  19.37 0.0003376645    1.692    0.409
       177 -11.0326    109.6998     40.5031   4.3452051787e+01   5.2282420282e+01    0.9293782    0.4024259 -30.03  0.003391701    2.576    0.612
       178  -9.8870     67.1020     54.8100   6.4284982867e+01   5.9113856818e+01    0.2596446    0.2128362 -77.14  0.001265842    1.529    0.346
       179 -10.1628      7.6231     54.5838   9.6136370086e+01   6.6221995995e+01     0.242029    0.2107907  84.20 0.0009443667    1.193    0.162
       180 -11.4586     60.8119     48.0290   6.4543851372e+01   6.1719612636e+01    0.8988618    0.3551708 -45.12  0.003292344    2.543    0.607
       181  -9.7774     58.0858     42.0000   6.3373850762e+01   6.3473881762e+01    0.3384066    0.1504068  39.44  0.001319093    2.212    0.548
       182  -9.0324    201.4809     53.4944   3.0976090149e+01   2.8231323141e+01    0.1301428    0.1194705 -36.90 2.699461e-06    1.039    0.038
       183 -10.4638    245.4846     51.4821   2.6057630166e+01   1.9858220921e+01    0.1178454   0.09593783 -36.61  0.000810208    1.008    0.008
       184 -10.2530    240.4064     50.7622   2.6331395110e+01   2.0849330324e+01    0.1672764     0.101565 -19.78 0.0009474986    1.646    0.392
       185  -9.7254    174.9819     48.9939   3.3269582566e+01   3.4794391220e+01     0.262995    0.1745494  89.70  0.001252411    1.852    0.460
       186  -9.6284      1.8796     49.1100   9.8721879077e+01   6.7827300606e+01    0.1909441    0.1718101  68.66 0.0007187636    1.207    0.172
       187  -9.5722    201.5067     48.5616   2.9694406643e+01   2.8846529808e+01    0.1290748      0.11849 -43.13  0.000135196    1.028    0.027
       188 -10.0378    146.2190     47.2753   3.7559157005e+01   4.2050146417e+01    0.2569472    0.1990971 -18.70  0.001289708    1.435    0.303
       189 -11.4757     20.8621     46.1416   8.6174112408e+01   6.7496553462e+01     0.355955    0.2696959 -59.46  0.000767415    1.233    0.189
       190  -9.9629     13.2642     47.3640   9.1270108261e+01   6.7739966059e+01    0.3547311    0.1595687 -53.82  0.001588109    1.893    0.472
       191 -10.0393    138.7819     44.1964   3.7989207083e+01   4.4370041866e+01    0.4103366    0.2385169  28.99  0.001595109    2.564    0.610
       192 -10.0727    134.0124     45.7797   3.9527581350e+01   4.5341640693e+01    0.3116056    0.1802864  56.69  0.000665148    1.660    0.398
       193  -9.7836    200.9799     45.5026   2.8957529400e+01   2.9337806393e+01    0.1853703    0.1034874 -75.46 0.0008099773    2.537    0.606
       194  -9.0221    101.3456     44.6858   4.7512591003e+01   5.3649428597e+01    0.1555523    0.1194908 -80.90 0.0007047335    1.714    0.417
       195 -10.7396    155.7829     42.4156   3.4276341650e+01   4.0345115500e+01    0.2968816    0.2603619 -11.31 0.0009086515    1.264    0.209
       196 -10.6317     26.4912     42.8199   8.1615113235e+01   6.7784563639e+01    0.2633116    0.2079375 -21.39   0.00096382    1.276    0.216
       197 -11.2609      4.5269     36.2334   9.4603948207e+01   7.0930438026e+01    0.4353463    0.3360318 -26.80  0.002602081    1.250    0.200
       198 -10.1626     12.0389     29.9668   8.7377129454e+01   7.2036945534e+01    0.3427905    0.1690703 -34.49   0.00157311    2.026    0.506
       199 -10.0826      7.6701     30.5403   9.0864618241e+01   7.2160400673e+01     0.297248    0.1658335  -7.28  0.001054636    1.944    0.486
       200 -10.4922     93.0101     41.5754   4.8909267027e+01   5.6169350032e+01    0.4559667    0.2387375  48.67  0.001870373    1.814    0.449
       201  -9.7613     17.3492     41.7123   8.7184410787e+01   6.8852788477e+01    0.2932566    0.1479005 -35.48  0.001307487    2.046    0.511
       202 -10.2298    231.5469     38.8959   2.4376397733e+01   2.3830803147e+01    0.2937228    0.1365451 -34.90  0.001523376    1.723    0.419
       203  -9.6381     89.4807     29.2736   4.4726227584e+01   5.9004343625e+01    0.2393069    0.1982648 -69.32   0.00122365    1.446    0.309
       204 -10.5687     79.8597     38.8152   5.2435682308e+01   5.9669896325e+01    0.4783135    0.3183604  81.44  0.001890407    2.666    0.625
       205 -11.3804     79.8147     32.8033   4.9748760240e+01   6.0717959076e+01    0.6634474    0.3932072  29.72  0.002757978    2.101    0.524
       206 -10.0109     59.7250     23.6389   5.3780178912e+01   6.6613408781e+01      0.24491    0.1864577 -34.13 0.0004517261    1.353    0.261
       207  -9.6624     43.0276     28.0296   6.5116103022e+01   6.8880556976e+01    0.2057269    0.1557116  -8.90            0    1.478    0.324
       208 -11.3028     60.8505     36.3136   5.9505900496e+01   6.4093688718e+01    0.4668648    0.3279806 -30.57  0.001115963    1.515    0.340
       209 -10.2067     67.3014     32.6461   5.4803987548e+01   6.3481604087e+01    0.5636987    0.4644119  74.55  0.002913294    1.545    0.353
       210 -11.9432     57.4826     30.4310   5.8363132120e+01   6.5855459403e+01    0.5026738    0.4297571 -33.11  0.002344393    1.185    0.156
       211 -11.3538     48.3749     30.6386   6.3298748797e+01   6.7474320128e+01    0.7206203    0.3303195  31.61  0.002275849    2.359    0.576
       212 -10.6659     22.3607     37.1601   8.2404674655e+01   6.9521122483e+01    0.5722011    0.2355473  40.60  0.002280305    2.821    0.646
       213 -10.2707    176.6633     35.7315   2.9173716734e+01   3.6093684465e+01     0.315655    0.1927497 -47.26 0.0009397058    1.570    0.363
       214  -9.8751    132.7258     36.9537   3.6679847666e+01   4.6945691350e+01    0.3613026    0.2064742  86.47  0.001387977    2.517    0.603
       215  -8.7701    183.7143     38.3243   2.9037740480e+01   3.4110914849e+01    0.1428956   0.09222446 -57.68 0.0004382816    1.602    0.376
       216  -9.4775    227.4656     36.4676   2.4144647949e+01   2.4891729241e+01    0.1218516    0.1025629 -43.45 1.996027e-05    1.005    0.005
       217  -9.5869    153.5353     36.5141   3.2745077446e+01   4.1692026480e+01    0.1434171    0.1336585 -72.78 0.0003888817    1.036    0.035
       218  -9.9281     94.0651     35.7992   4.6129071661e+01   5.6876632666e+01    0.2257651     0.197277  89.24 0.0006731678    1.305    0.234
       219  -9.9856    174.9756    246.2934   7.3536450678e+01   4.8628763031e+00    0.1618799     0.107546  19.60 0.0007437274    1.087    0.080
       220 -12.1247    164.2769     27.6864   2.8346185403e+01   4.0080302950e+01    0.3168261    0.2849112 -49.91 0.0004135355    1.074    0.069
       221 -12.0204    126.4339    241.9378   8.2452430832e+01   1.1086125490e+01    0.3436924    0.2355326  40.61  0.002338204    1.397    0.284
       222 -11.6227    107.4999     31.1565   4.0268517892e+01   5.4240114397e+01     0.530369    0.3352514  18.44   0.00185166    2.370    0.578
       223 -12.2320    113.4845     25.3068   3.6377573635e+01   5.3494594588e+01     0.776814     0.312099  51.70  0.002271029    2.290    0.563
       224 -10.2820    239.7817     32.7194   2.2331974088e+01   2.2932519480e+01    0.2418073    0.1838552  33.19  0.001570309    1.762    0.433
       225 -11.2977     67.8355    240.9222   9.4662496358e+01   1.7896436573e+01    0.3445738    0.1828126  10.32  0.001524266    2.479    0.597
       226 -10.9711     74.3213    238.3859   9.3099480062e+01   1.7612421789e+01    0.4287648     0.134515  36.37  0.002079142    2.160    0.537
       227 -11.3611    146.7005    237.5197   7.7886509119e+01   9.2771007283e+00    0.3776813    0.2263147  35.49  0.002408668    1.436    0.304
       228  -9.5300    167.5454    238.5080   7.3962404201e+01   6.6652862297e+00    0.1140154   0.08281081  15.81 1.897823e-05    1.007    0.007
       229 -10.6228     38.8356     22.1771   6.4689334794e+01   7.0694443560e+01    0.2209203    0.1898498 -34.43 0.0004619154    1.155    0.134
       230  -9.6005    234.7516    239.9639   6.2572316999e+01  -8.3676520343e-01    0.1195075   0.06912965 -20.67 0.0006416977    1.557    0.358
       231  -9.1867    230.4669     30.5016   2.2508815558e+01   2.4945034580e+01    0.1192679    0.1014183 -42.01 0.0001252799    1.041    0.040
       232 -10.4432    197.7664     29.1448   2.4968776156e+01   3.1959076059e+01    0.3021902    0.2281792  43.75  0.001592838    1.573    0.364
       233 -10.9648    189.0509     27.9253   2.5513071992e+01   3.4082885726e+01    0.3588435    0.2858959  -5.85  0.001790782    1.485    0.327
       234 -11.1034    183.6145     25.3843   2.5367225222e+01   3.5637711905e+01    0.4718716     0.267691  53.01  0.002309378    1.906    0.475
       235 -10.2734    176.2568     30.5983   2.7715677920e+01   3.6803081163e+01    0.1903899    0.1193225  57.73 0.0009380063    1.632    0.387
       236 -10.0101     98.2806     28.9218   4.1858306599e+01   5.6888317055e+01    0.5558528    0.2452775 -51.66  0.001865673    3.324    0.699
       237  -9.8256    233.2969    235.3219   6.2156909217e+01  -2.3559779594e-01    0.1066419   0.05755114   0.94 0.0005221863    1.620    0.383
       238 -11.1554    156.8663     20.3504   2.6970349107e+01   4.2776872906e+01    0.3823116    0.1690508  62.74  0.001602644    2.099    0.524
       239  -9.0741    199.6573    234.7151   6.7627845255e+01   3.4189573482e+00    0.1133966   0.06404725   5.51 0.0004497391    1.640    0.390
       240 -10.4935    117.9531     16.3765   3.1748854631e+01   5.3396781282e+01    0.6504654    0.1215584  58.39  0.001901504    3.791    0.736
       241  -9.0142     15.3121    234.3221   1.0551956769e+02   2.4002747407e+01    0.0933847   0.07976902 -17.20 0.0007038658    1.653    0.395
       242  -9.2194     11.3028    244.3140   1.0659637488e+02   2.2636733241e+01   0.08835204   0.07707641 -10.42 0.0003292556    1.615    0.381
       243 -11.0741    247.0875    230.7173   5.9404203702e+01  -1.1565355163e+00    0.2650317    0.1059177  24.91  0.001635574    2.115    0.527
       244  -9.2767     75.4735    224.5076   9.1791402313e+01   1.9815657467e+01    0.1211578   0.09295548  36.63 0.0001565433    1.023    0.022
       245 -11.1758     50.1851    249.5048   9.8856621139e+01   1.8311357701e+01    0.2850403    0.1159976  41.56  0.001653492    1.721    0.419
       246 -10.1588    230.3528     26.5382   2.1593385469e+01   2.5381604223e+01    0.2227107    0.1296244 -27.18 0.0004807707    1.548    0.354
       247  -9.3356    214.0497     25.0000   2.2457387548e+01   2.8860758715e+01    0.1891559   0.06930973  72.78 0.0008035387    2.950    0.661
       248  -9.7925    169.3711     23.8805   2.6526393300e+01   3.9248909184e+01     0.287329    0.1566009  53.24  0.001328218    1.912    0.477
       249 -10.0887    164.7246    211.9822   7.0984486524e+01   1.0561677000e+01    0.2061169    0.1420513  24.36 0.0005747399    1.167    0.143
       250  -9.8247    242.5299    211.5335   5.7257982854e+01   1.2364728356e+00    0.1076282   0.07411882   0.36 0.0003457487    1.021    0.021
       251 -10.3882    152.5910    206.9304   7.2745639260e+01   1.2921735639e+01    0.2540015    0.2096782  88.97  0.001556764    2.206    0.547
       252  -9.0730     61.5060    206.4886   9.3615362454e+01   2.4677868593e+01    0.1246194    0.1003144  39.57 -6.463683e-05    1.001    0.001
       253  -9.8891     13.9371     23.0866   8.3416729738e+01   7.3486681130e+01    0.1988067    0.1642579 -31.35 0.0004801905    1.082    0.075
       254  -9.6878    223.6156     22.2661   2.1065933903e+01   2.7164394245e+01    0.2036539     0.132786 -80.23  0.000602955    1.637    0.389
       255  -9.3565      5.9649     21.7626   8.9548141375e+01   7.4312022891e+01    0.1798693    0.1527121 -24.53 0.0009783099    1.091    0.083
       256  -9.6388      4.2928    205.3534   1.0718250173e+02   3.0214579478e+01    0.1013194   0.08255684 -41.45 0.0007030295    1.682    0.406
       257  -9.1184     78.3426    203.7230   8.9295119918e+01   2.3256553790e+01    0.1324777   0.07721896  49.48 0.0003716891    1.623    0.384
       258 -10.6487    233.9791    196.5337   5.6214795779e+01   3.8308714001e+00    0.2220322    0.1373315 -21.77  0.001435124    1.395    0.283
       259  -9.3499    216.5333     20.5479   2.1162720714e+01   2.8799021660e+01    0.1219275    0.1054187 -49.77 6.207217e-05    1.027    0.027
       260 -10.0714     46.9488     19.2636   5.8112398258e+01   6.9844423672e+01    0.3032491    0.2428239 -23.81   0.00168642    1.257    0.204
       261  -9.6217     80.5107     19.4668   4.3037162997e+01   6.2592251140e+01    0.3090873    0.1332023  55.21  0.001200775    2.146    0.534
       262  -9.3373    135.4952    196.5305   7.4962066100e+01   1.6954385584e+01    0.1294864    0.1063826  22.34  6.41674e-05    1.014    0.013
       263  -9.5340    246.0000    191.9945   5.3650500296e+01   2.9558801699e+00    0.1686826   0.05057128 -32.13 0.0008047305    2.958    0.662
       264  -9.4258    171.6987    190.6260   6.6340432850e+01   1.2731385704e+01    0.1317734   0.08412991  -2.47 0.0007029211    1.755    0.430
       265 -10.6519    186.6906     14.9805   2.2113927918e+01   3.6005727654e+01    0.2384347    0.1876332  85.18 0.0005160431    1.247    0.198
       266 -11.6912      5.0979    185.8220   1.0646868045e+02   3.4120100605e+01    0.4498666    0.3476625  65.29  0.002252747    1.123    0.109
       267 -10.8194      2.6923    181.3450   1.0694893974e+02   3.5238484419e+01    0.2118009     0.166345  75.22   0.00100831    1.178    0.151
       268  -9.5462     86.2820    185.5661   8.5374770674e+01   2.5814881002e+01    0.1846894    0.1163007  20.41 0.0009459702    1.578    0.366
       269  -9.9932     74.5427     19.6104   4.5276767651e+01   6.3985595086e+01    0.2696028    0.2083531  33.85 0.0005328915    1.278    0.218
       270  -9.3498    175.5205    179.9879   6.3799345116e+01   1.3788232408e+01    0.1771877    0.1185349 -34.35  0.001019419    1.553    0.356
       271  -9.9439    250.5915    177.1931   5.0512599187e+01   4.0740759982e+00    0.1582805   0.08095298 -18.97 0.0009510184    1.698    0.411
       272  -9.4340    113.3949    175.8730   7.7168415158e+01   2.3929587904e+01    0.1801218    0.1200965 -36.15  0.000825199    1.750    0.428
       273  -9.3420     28.4662    175.5335   9.9893583059e+01   3.4469637157e+01    0.1261428    0.1067899  51.37  0.000192562    1.006    0.006
       274  -9.4047     51.7807    173.6097   9.3335630268e+01   3.2566273681e+01    0.1887731    0.1012501  37.73 0.0004175207    1.566    0.361
       275  -9.6579     89.5044     16.5073   3.8683531776e+01   6.0766508304e+01    0.2445925    0.1772313  16.07 0.0007758646    1.664    0.399
       276  -9.2097    207.4653    172.5099   5.6496565472e+01   1.0237210414e+01    0.1228243   0.09749668   0.13 0.0005007453    1.010    0.010
       277 -10.7051    244.4164    166.5687   4.9551205517e+01   6.0513044160e+00     0.294989   0.08997897 -33.03  0.001364019    2.830    0.647
       278  -9.5125    198.1848    167.8576   5.7304648538e+01   1.2227441778e+01    0.1755746    0.1253042  -0.06 0.0005334983    1.318    0.241
       279 -11.2393     14.1727    158.9514   1.0297094382e+02   3.9414468186e+01    0.4343752    0.1516404 -73.77  0.001857675    2.740    0.635
       280 -11.5417      9.4314    166.9498   1.0467472381e+02   3.7928061046e+01    0.3142682    0.2838296 -11.64  0.001505604    1.367    0.268
       281  -9.4367    187.6378    167.6846   5.9238364542e+01   1.3834774693e+01    0.1361339   0.08684977   3.40 4.027379e-05    1.761    0.432
       282  -9.7773     18.8729    164.7045   1.0192795218e+02   3.7724564173e+01    0.1919289    0.1578519 -10.39  0.001192939    1.512    0.338
       283 -10.3658    205.0099    163.2982   5.5242840138e+01   1.1866508153e+01     0.218208    0.1633623 -27.23 0.0006423491    1.283    0.221
       284 -10.3233     28.2565    161.4536   9.9033338599e+01   3.7683683434e+01    0.2955018    0.1464896 -73.67    0.0014353    2.035    0.509
       285  -9.7762    215.6574    157.0488   5.2253875417e+01   1.1166433130e+01    0.1747774    0.1357535  -9.67 0.0005800684    1.074    0.069
       286 -10.4113      9.4796    155.5153   1.0417057585e+02   4.0551824215e+01    0.2439833    0.1142511 -83.31  0.001148396    2.065    0.516
       287 -10.2256    104.4714    154.5114   7.6102483267e+01   2.9674325990e+01    0.3039572    0.2540756  -3.11   0.00166771    1.335    0.251
       288 -10.3841     30.6103    152.4813   9.7664820862e+01   3.9586159534e+01    0.2931744    0.2380978  86.79  0.001764938    1.203    0.168
       289 -12.4201     22.8404    149.0362   9.9787279792e+01   4.1083218182e+01    0.5725973    0.3075929 -36.32  0.001505578    2.582    0.613
       290 -10.1927    141.4028    152.2880   6.6216649100e+01   2.3984224828e+01    0.2796691    0.2082065  43.29 0.0009789682    1.352    0.260
       291 -10.2401      3.4323    152.9339   1.0583219956e+02   4.1552365157e+01    0.2953073    0.1475613  53.08  0.001522606    1.727    0.421
       292 -10.2764      3.2458    147.4962   1.0567954335e+02   4.2844882789e+01    0.2561024    0.1548955 -84.36 0.0008600781    1.563    0.360
       293  -9.9625     65.4004    149.8361   8.6723218396e+01   3.6394459339e+01    0.4183611    0.1956911   6.48  0.001237151    4.961    0.798
       294 -11.1023     47.6975    146.7734   9.1827372659e+01   3.9244814653e+01    0.5860528    0.4107543 -16.95  0.002938377    1.915    0.478
       295 -10.8722     16.1861    147.9593   1.0176466267e+02   4.1862291292e+01    0.2898342    0.2186185  41.09 0.0005560754    1.207    0.172
       296 -11.0820    249.4185    144.5754   4.4835214169e+01   8.0301023087e+00    0.2955978    0.1130361 -36.78  0.001479447    2.365    0.577
       297  -9.5599     74.0683    146.0009   8.3538443595e+01   3.6137456619e+01    0.2141015    0.1658892 -23.19 0.0004906489    1.594    0.373
       298 -11.1122     33.1234    144.4346   9.6199029872e+01   4.1298236205e+01    0.2808418    0.2343091  53.70 0.0006972005    1.089    0.081
       299 -10.8474      5.5458    142.4568   1.0476387973e+02   4.3909967617e+01    0.3248022    0.1980843  65.25 0.0006151319    1.485    0.326
       300 -11.1733      1.9507    140.9756   1.0581834600e+02   4.4479770394e+01    0.3870363    0.2205996  89.95  0.001546963    1.626    0.385
       301 -11.0063    238.6889     15.0640   1.8435319615e+01   2.4913127554e+01    0.1691828    0.1285324 -38.07  0.001147703    1.105    0.095
