#   1 NUMBER                 Running object number                                     
#   2 MAG_AUTO               Kron-like elliptical aperture magnitude                    [mag]
#   3 X_IMAGE                Object position along x                                    [pixel]
#   4 Y_IMAGE                Object position along y                                    [pixel]
#   5 X_WORLD                Barycenter position along world x axis                     [deg]
#   6 Y_WORLD                Barycenter position along world y axis                     [deg]
#   7 A_WORLD                Profile RMS along major axis (world units)                 [deg]
#   8 B_WORLD                Profile RMS along minor axis (world units)                 [deg]
#   9 THETA_WORLD            Position angle (CCW/world-x)                               [deg]
#  10 FWHM_WORLD             FWHM assuming a gaussian core                              [deg]
#  11 ELONGATION             A_IMAGE/B_IMAGE                                           
#  12 ELLIPTICITY            1 - B_IMAGE/A_IMAGE                                       
         1 -10.6925     37.3169      9.8658   1.0825903474e+02   7.1349616781e+01    0.9072842     0.362545 -45.25   0.00219611    2.430    0.589
         2 -11.0294     19.1018      6.9099   1.1794670458e+02   7.4082699633e+01     1.283897    0.8843135  62.42  0.006297227    3.023    0.669
         3 -11.1686     23.8566     32.0736   1.2637078274e+02   6.8442744390e+01     1.742087    0.4487107 -45.03    0.0039616    3.227    0.690
         4 -10.9254      6.5248     29.6960   1.3538349147e+02   7.0183470530e+01    0.7059922    0.4601889 -69.73  0.002218539    1.372    0.271
         5 -10.4475      5.3476      4.4254   1.2661451557e+02   7.5718413660e+01    0.4580485    0.4186593 -22.56  0.001461899    1.216    0.178
         6  -9.5484      2.1152     14.2177   1.3318139583e+02   7.3846256833e+01    0.5556188    0.2157619 -74.15  0.002265864    3.281    0.695
         7  -9.5881     63.2520     21.4918   1.0187139459e+02   6.5229790997e+01    0.4717945    0.3046622 -44.17  0.001104674    1.622    0.383
         8 -10.0787     64.2279     13.6810   9.7293635231e+01   6.6284783459e+01    0.6019089    0.3336375 -27.42  0.002635539    1.704    0.413
         9 -10.1773     46.1705     29.4280   1.1362044932e+02   6.6483224091e+01    0.5668018    0.2881094 -56.53  0.001480032    2.357    0.576
        10 -10.3403     50.8097     15.4177   1.0432480214e+02   6.8365862489e+01     1.204102     0.651069  -3.34  0.004281358    3.929    0.746
        11  -9.9789      9.7161     19.4006   1.3005765132e+02   7.2289445359e+01     0.823949    0.3034379 -26.39  0.003074223    4.088    0.755
        12  -9.6492    152.9795     28.1365   7.9718137016e+01   4.3690061998e+01    0.5765025    0.3156612  22.07  0.002192638    2.575    0.612
        13  -9.2776    102.7020     21.9966   8.8351966672e+01   5.6930755543e+01     0.596546    0.2691166 -25.14  0.001524243    2.219    0.549
        14  -8.7715    103.8137     15.4794   8.5015618869e+01   5.7495310067e+01    0.4207088    0.2216352  15.61  0.001545644    2.877    0.652
        15  -9.4499    119.0096     20.0929   8.3355831494e+01   5.3246308850e+01    0.6667407    0.3103215 -14.68  0.002284124    2.526    0.604
        16  -8.8149    125.0462     13.0640   7.9022660812e+01   5.2522949122e+01    0.3338867    0.2677793  22.02 0.0007077074    1.252    0.201
        17  -8.4666    126.8096      9.3593   7.7091555998e+01   5.2448095540e+01    0.2669888    0.2093799  43.13 0.0006812969    1.216    0.178
        18  -9.2820    124.4512      5.4774   7.5859777203e+01   5.3418019435e+01     0.611479    0.2581387  53.06   0.00245127    2.114    0.527
        19  -8.8971    112.2639     15.5172   8.2914642400e+01   5.5447122071e+01    0.4195725    0.2199358 -35.47 0.0006150964    1.924    0.480
        20  -9.0211    113.9579     10.1125   8.0065113704e+01   5.5620207077e+01    0.4073554     0.200482  42.83 0.0003842931    1.991    0.498
        21  -8.2056     72.1264      8.2996   9.1168930896e+01   6.5468472761e+01     0.353854    0.2684369 -60.65  0.001621575    1.949    0.487
        22  -9.3128     73.4284     19.5011   9.6726363031e+01   6.3630333071e+01    0.4623024      0.23499 -42.53  0.001487788    2.110    0.526
        23  -9.2307     73.3121     14.3333   9.4053953214e+01   6.4412788932e+01    0.5684928    0.2882761  -3.83  0.001924911    3.765    0.734
        24  -9.9292    132.2375     16.6789   7.9114703981e+01   5.0305447621e+01    0.5000918    0.3821993  29.59  0.002287246    1.328    0.247
        25  -9.5277     85.1674     13.0637   8.9253804360e+01   6.2076007899e+01    0.4370048    0.2650025 -51.06  0.001467386    2.275    0.560
        26  -7.7867     80.4886     12.5285   9.0523296554e+01   6.3161395751e+01    0.2534826    0.1121859 -38.50  0.001019326    2.353    0.575
        27  -9.2549     96.1078     15.0804   8.6941321339e+01   5.9353106002e+01    0.6563126    0.2772582 -15.96  0.001689843    2.944    0.660
        28  -9.2913    132.1115      5.3724   7.4452055685e+01   5.1454657490e+01    0.6182016    0.2832577  37.19  0.001780876    2.405    0.584
        29  -8.2302    136.2787      1.5753   7.2206248855e+01   5.0696578241e+01    0.2572036    0.1397739  74.98 0.0007705053    1.943    0.485
        30  -8.9223    110.5743      6.3568   7.9077162066e+01   5.6840080909e+01    0.4449332    0.2251332  -6.85  0.001807799    2.288    0.563
        31  -9.0658    115.0980      4.3492   7.7180243932e+01   5.5898445814e+01    0.3215456    0.2441165 -21.55  0.001252784    1.323    0.244
        32  -8.1821    101.9309      7.9727   8.1891971224e+01   5.8792473393e+01    0.2700938    0.1923386 -28.44  0.000657417    1.410    0.291
        33  -8.5872    104.4091      2.4093   7.8569458031e+01   5.8738408571e+01    0.5022673    0.2395998  43.23  0.002125238    1.990    0.497
        34  -8.9994     96.3063      4.6348   8.1659526971e+01   6.0484163993e+01    0.4660539    0.2325602 -35.93  0.001663071    2.093    0.522
        35  -8.4115     77.2965      6.3200   8.8224923968e+01   6.4621724813e+01    0.2456707    0.1864283  -6.59 0.0004956937    1.251    0.200
        36  -8.6308     78.5291      3.0242   8.5957940739e+01   6.4729818312e+01    0.2886829    0.2229715 -24.39 0.0008297123    1.281    0.219
        37  -8.6635     88.6798      2.4653   8.2583417103e+01   6.2494824038e+01    0.3371698      0.18979  -1.30  0.001121809    2.020    0.505
        38  -9.6766     63.7621      3.0368   9.1284704591e+01   6.7826780805e+01    0.3982586    0.2626763 -47.89  0.001597772    2.007    0.502
        39  -8.5884     31.9180      3.0315   1.0722455066e+02   7.3247484693e+01    0.3415054    0.1494999 -45.46  0.001538985    2.345    0.574
        40 -10.2256    108.0039     99.3682   1.1420563006e+02   4.1485388874e+01    0.7973171    0.4290689  60.36  0.002420742    3.060    0.673
        41  -9.7267    203.0606    249.1814   1.2038355474e+02   2.7192850321e+00    0.1850313    0.1602893  10.97  0.001613488    1.398    0.285
        42  -9.7338    194.7630    246.1325   1.2134988712e+02   4.0423050415e+00    0.2275002    0.1325528   3.19  0.001488946    1.988    0.497
        43 -11.0452    121.1741    110.6534   1.1341118453e+02   3.6689676994e+01     1.294226    0.6696849 -50.02  0.003851198    2.004    0.501
        44  -9.4742    127.5798    102.4973   1.0968916072e+02   3.7116789187e+01    0.3728516    0.3537049 -22.71 0.0008518761    1.030    0.029
        45  -9.1730     41.2186    121.8379   1.3846496778e+02   4.5707053759e+01    0.4804406    0.2078936 -85.67  0.001671475    2.933    0.659
        46  -9.5167     27.3463    123.0239   1.4262790025e+02   4.6685559416e+01    0.5233547    0.2296401  62.19  0.002338582    2.685    0.628
        47  -8.6390    129.2025    123.7932   1.1440628012e+02   3.2551018283e+01    0.2835977     0.231167 -21.24  0.001056308    1.334    0.251
        48 -10.3248    131.1377    119.3153   1.1290896817e+02   3.3079813051e+01    0.7126873    0.4738096  80.57  0.002299628    3.122    0.680
        49 -10.9211    133.5758    109.4105   1.0992058434e+02   3.4568092780e+01    0.9125019    0.4473362 -45.05  0.003668519    2.060    0.515
        50  -7.4669    152.2862    121.6520   1.0841614314e+02   2.8585483477e+01    0.1378871     0.116025 -80.20 0.0007021169    1.655    0.396
        51 -10.4950    244.1375    117.4979   9.0513068874e+01   1.1677906696e+01    0.2782916    0.2240322  -4.20 0.0004455766    1.021    0.020
        52  -9.6400    140.7360    118.3742   1.1034296572e+02   3.1437745544e+01    0.4228337    0.3228636 -81.90  0.001061971    2.032    0.508
        53 -10.1293     91.9221    113.3180   1.2209681494e+02   4.1178541572e+01    0.5686942    0.4006468 -88.51  0.001751487    1.965    0.491
        54  -7.5301      1.0000    116.0133   1.4962369884e+02   5.0102215698e+01    0.1956026   0.05511407 -80.28 0.0007999079    2.925    0.658
        55  -8.8086    152.5890    115.0908   1.0677469306e+02   2.9725226590e+01    0.2935905    0.2099492 -60.17  0.001051434    1.870    0.465
        56  -8.9289    149.8506    110.2851   1.0621305041e+02   3.1158866261e+01    0.2760557    0.2011083 -53.61 0.0005394725    1.609    0.379
        57 -10.1194     78.1076    113.0330   1.2607802542e+02   4.3320403625e+01    0.4825054     0.311448 -88.67  0.001752333    2.167    0.539
        58  -8.8464     55.2228    111.8278   1.3279484922e+02   4.6554206880e+01     0.518515    0.2250632 -77.70   0.00196619    3.078    0.675
        59  -8.2723     63.4205     82.1350   1.2400332625e+02   5.2527006345e+01    0.2200024    0.1764226 -83.52  0.001192433    1.409    0.290
        60 -10.7057     63.0473     96.8876   1.2750462633e+02   4.9115320957e+01      1.09338    0.4796475 -70.19  0.002379945    2.856    0.650
        61  -8.7670     68.9931    103.2869   1.2691227234e+02   4.6832820122e+01     0.242513    0.2260216 -78.90  0.001471534    1.041    0.040
        62  -8.8070     63.7102     86.5044   1.2496380799e+02   5.1466795474e+01    0.7018514    0.3867287   1.08  0.002420918    4.234    0.764
        63  -9.9778     65.5892    111.1342   1.2949094351e+02   4.5454017420e+01    0.4581655    0.3538837  72.97  0.001289127    1.433    0.302
        64  -9.0400     59.0042    109.5010   1.3122720740e+02   4.6654088588e+01    0.4383433     0.247064 -67.06  0.001515354    1.697    0.411
        65  -9.3976     36.0301    111.9142   1.3873612413e+02   4.8520474379e+01    0.3090492    0.2347318  55.59  0.001396863    1.339    0.253
        66  -9.8048     14.1186    111.5010   1.4540209700e+02   5.0350560966e+01    0.4355719    0.2045156  70.46  0.001577924    2.336    0.572
        67  -8.1057    158.7552    112.0208   1.0462496213e+02   2.9038196293e+01    0.2092701    0.1925814 -51.95 0.0005140631    1.246    0.197
        68 -10.9524     20.4646    100.2356   1.4221201661e+02   5.2569765167e+01     1.235269    0.5205731  78.72  0.004422687    3.345    0.701
        69  -8.0344     23.1660     69.1584   1.3649596561e+02   5.9854130944e+01    0.2518478    0.1844562  63.38 0.0006251976    1.580    0.367
        70 -10.2476     20.0112     84.7151   1.4031809950e+02   5.6326733081e+01     0.926708    0.1830208 -61.66  0.002923042    3.255    0.693
        71 -10.5237     25.7422     78.0330   1.3710751519e+02   5.7517702948e+01    0.7982183    0.4155495  80.83  0.001906426    2.669    0.625
        72 -10.4972     32.2279     64.3178   1.3170858259e+02   6.0269705226e+01     1.215355    0.4391629 -37.64  0.004074648    3.851    0.740
        73 -10.0900     34.5375     90.7891   1.3607603361e+02   5.3699967599e+01    0.5157198    0.2500156 -86.54  0.001701197    2.613    0.617
        74 -10.1833     36.6919     81.1984   1.3355637954e+02   5.5812142251e+01     1.165338    0.5238308 -22.53  0.003547119    5.951    0.832
        75 -10.8391     44.7006    102.5802   1.3459965448e+02   4.9891004469e+01    0.8144667    0.3909231  66.97  0.003075654    3.466    0.711
        76  -9.1270     39.9228    107.0953   1.3684231754e+02   4.9293980976e+01    0.3094608     0.169519 -73.49 0.0006242672    1.690    0.408
        77  -9.8953    139.5093    103.3690   1.0690550823e+02   3.4558707325e+01     0.717447    0.3272451 -40.04  0.001488515    2.180    0.541
        78  -7.9225     78.1654    105.3842   1.2449383560e+02   4.5061183305e+01    0.3322927    0.1847297 -21.91  0.001146066    3.931    0.746
        79  -9.7279      6.4031    103.9472   1.4710239087e+02   5.2593490599e+01    0.4327791    0.2179275  53.88  0.002185425    2.033    0.508
        80  -8.4853    165.8067    104.2160   1.0109084356e+02   2.8951146262e+01    0.2671582    0.1991183 -29.31 0.0005092552    1.306    0.234
        81  -9.4470    149.3784    103.2084   1.0450195926e+02   3.2562553097e+01    0.4150625    0.2813539 -53.85 0.0008869204    1.775    0.437
        82  -8.8157     93.0425    103.5699   1.1959224438e+02   4.3165117552e+01    0.5973724    0.3205006  16.44  0.002096507    3.566    0.720
        83  -8.9081     31.2926    107.5708   1.3964469825e+02   4.9968956829e+01    0.2274145    0.1139988  31.35  0.001142492    2.102    0.524
        84  -8.6422     13.9045    104.8664   1.4483018070e+02   5.1921196877e+01    0.1835481    0.1440452 -62.07  0.000436656    1.217    0.178
        85  -8.5231    190.1345    103.9386   9.6138177512e+01   2.3904673701e+01    0.2058714    0.1880892 -37.66 0.0003366783    1.220    0.181
        86  -9.5592     81.5012    100.2978   1.2234070098e+02   4.5727840152e+01    0.4560792      0.29649 -81.40  0.001038231    2.170    0.539
        87  -7.7863     82.2430     94.1590   1.2065701370e+02   4.7010999534e+01    0.3316501    0.1887554 -20.00  0.001152542    3.659    0.727
        88  -8.3322     73.5870    102.7875   1.2536212435e+02   4.6315190072e+01    0.2559206    0.1227739 -54.55 0.0006186845    1.930    0.482
        89  -9.8715    245.0905     98.3132   8.5961513554e+01   1.3855823600e+01    0.5932688    0.4279524  79.80   0.00315823    2.406    0.584
        90  -8.3716    158.8661    101.1656   1.0180095687e+02   3.0945341974e+01    0.2108596    0.2003194 -59.42 0.0004363061    1.224    0.183
        91  -7.2442    194.2834     98.7143   9.4026985430e+01   2.3839246079e+01    0.1325457    0.1115393 -58.51 0.0002284975    1.523    0.344
        92  -8.6831    126.1269     83.6778   1.0483129541e+02   4.1140292078e+01    0.5038608    0.3121288  10.92  0.001859089    2.861    0.650
        93  -9.4139    122.5996     96.8108   1.0949765908e+02   3.9243388320e+01    0.4314673    0.3744384 -79.11  0.001479999    1.414    0.293
        94  -9.9216    123.6582     90.9939   1.0761062361e+02   4.0203386574e+01    0.5329679    0.4372588  22.45  0.001349064    1.299    0.230
        95  -9.3871     94.2220     97.2287   1.1770452184e+02   4.4375029664e+01     0.325319    0.2578166 -76.48 0.0006997754    1.500    0.333
        96  -8.5665     95.7741     91.1365   1.1566204868e+02   4.5449550358e+01    0.4406933    0.2780981 -15.44  0.001746748    2.677    0.627
        97  -7.7355    171.4754     95.9956   9.7713472804e+01   2.9137747693e+01    0.2076254    0.1192451 -53.94 0.0004012445    2.484    0.597
        98 -10.6263      4.8455     87.1211   1.4603782237e+02   5.6657414729e+01     1.409128    0.3701192 -76.40  0.004016727    3.059    0.673
        99  -9.3663    151.0061    249.5826   1.2907624150e+02   9.1446579080e+00    0.2652372    0.1273087  53.48  0.001385451    3.250    0.692
       100 -10.7349     16.3576     66.0721   1.3873165073e+02   6.1067024147e+01     1.518749    0.2058197 -64.84  0.004888681    4.021    0.751
       101 -10.4336    176.2802    247.7642   1.2460231123e+02   6.1849055387e+00    0.2889441     0.226167  11.43  0.002367269    1.196    0.164
       102 -10.8321     21.8524     53.6360   1.3373478911e+02   6.3658580708e+01    0.8997788    0.4455723  84.99  0.002708845    3.878    0.742
       103 -10.7500    168.0799    246.8034   1.2587171800e+02   7.3207381996e+00    0.5339866    0.2440453  49.93  0.002783604    3.127    0.680
       104  -9.2566     69.5109    244.8282   1.4287243130e+02   1.9349655742e+01    0.1736104    0.1430922  41.24 0.0005211588    1.175    0.149
       105  -9.8784     14.6694     44.4719   1.3493739445e+02   6.6307670192e+01    0.4856641     0.265767 -41.48  0.001042365    1.676    0.403
       106  -9.8760      8.8282     47.0731   1.3842436636e+02   6.6034209781e+01    0.6593068    0.2243523  24.80  0.002935468    3.244    0.692
       107 -10.2418      4.6104     41.7453   1.3939738012e+02   6.7492022996e+01    0.5394836    0.3000209 -83.73  0.001507402    1.832    0.454
       108  -7.4054     94.4898    240.4791   1.3815395366e+02   1.7186980583e+01    0.1044177   0.07807163  43.33 -3.757964e-05    1.016    0.016
       109  -8.5419    164.5252     94.4551   9.8752014626e+01   3.0901940234e+01    0.3145881    0.2301735 -40.40 0.0006973621    1.385    0.278
       110  -8.2311    149.6889     97.6421   1.0294042126e+02   3.3520202821e+01    0.4715337    0.2734683  13.02  0.001613898    3.360    0.702
       111  -9.1777    138.5592     92.6258   1.0422722317e+02   3.6805801446e+01    0.3703843    0.3302961 -54.82    0.0012261    1.241    0.194
       112  -8.1057    139.2827     87.9982   1.0272967287e+02   3.7524138422e+01    0.3713937    0.2334939  20.36  0.001508966    2.213    0.548
       113  -9.1752    140.3551     82.6450   1.0089234701e+02   3.8284643142e+01    0.5872952    0.2667269 -41.21  0.001304816    2.167    0.538
       114  -9.0346    139.9524     75.9027   9.8934011129e+01   3.9598840323e+01    0.5241185    0.2886968 -42.23  0.001967296    1.818    0.450
       115  -8.4554    157.4960     91.4479   9.9449240396e+01   3.2951693492e+01    0.2825739    0.1426772 -35.86 0.0007362855    1.927    0.481
       116  -9.1751    110.9401     89.9110   1.1083431854e+02   4.2931776402e+01    0.6521906    0.3632841  24.92  0.002517498    2.551    0.608
       117  -8.7293    150.4360     89.3256   1.0044818676e+02   3.4867799265e+01    0.2535171    0.2312906  17.65 0.0006486306    1.075    0.070
       118 -10.6045     48.1312     82.8567   1.2967597393e+02   5.4239121188e+01     1.248408    0.4093615 -59.41  0.003190501    2.564    0.610
       119 -10.1116     85.1844     86.4922   1.1775299974e+02   4.8270377150e+01     0.484436    0.3683808 -87.99 0.0009203696    1.774    0.436
       120  -9.4587     87.4283     78.6356   1.1482551129e+02   4.9634570192e+01    0.4766506    0.3328155   5.98  0.001510549    2.033    0.508
       121  -6.8835     78.2871     89.6818   1.2082580998e+02   4.8641525109e+01    0.1394395    0.1099881  83.49 0.0004111849    1.592    0.372
       122  -7.2508    174.3033     88.6635   9.5123190964e+01   2.9724814152e+01    0.1466565    0.1159422 -62.92 0.0007038089    1.666    0.400
       123  -8.3029    163.5096     86.9173   9.6857085052e+01   3.2406780663e+01     0.285845    0.1441374 -29.86  0.001134859    2.004    0.501
       124 -10.2582    103.8418     82.5860   1.1082087734e+02   4.5819099899e+01    0.5144522    0.3151393 -56.41 0.0009073266    1.845    0.458
       125  -9.4810    104.9867     70.8383   1.0684762402e+02   4.8019002412e+01    0.8726498    0.3277446 -34.25  0.002764678    3.301    0.697
       126  -8.7178    157.7978     83.8222   9.7197985784e+01   3.4207435471e+01    0.2613634    0.2098631 -42.71 0.0004903111    1.289    0.224
       127  -7.6138    170.1577     83.2167   9.4413976482e+01   3.1533089905e+01    0.2034955    0.1720484 -52.80  0.001050138    1.356    0.262
       128  -8.8163    149.9181     80.2776   9.7916561000e+01   3.6588339531e+01    0.4228358    0.2102096 -34.11  0.001138108    1.968    0.492
       129  -8.8926    118.9558     80.5180   1.0583030722e+02   4.3250722857e+01    0.3082348    0.2290796 -44.71 0.0006278439    1.336    0.251
       130  -7.9420    119.8375     75.8939   1.0415765412e+02   4.3975506276e+01    0.2287277    0.1989039  -0.60 0.0004661213    1.211    0.174
       131  -9.1264     74.2382     79.4553   1.1951045324e+02   5.1590075062e+01    0.6576873    0.2525223 -51.46  0.001991863    2.375    0.579
       132  -8.1721     68.8625     78.9359   1.2125045085e+02   5.2507228596e+01    0.3363126    0.1673227 -44.58  0.001437154    1.938    0.484
       133  -8.0003    166.4502     78.9656   9.3931828814e+01   3.3064155424e+01    0.2254127    0.1416476 -30.75 0.0005779578    1.530    0.347
       134  -8.6528    157.0054     75.9548   9.5025613462e+01   3.5720979268e+01    0.6130108    0.2251583 -42.52  0.001674062    2.855    0.650
       135  -8.2825    156.5027     70.0567   9.3314547421e+01   3.6813570718e+01    0.4710301     0.193079 -25.29   0.00156101    2.918    0.657
       136  -8.0730    184.1898     78.0726   9.0237412344e+01   2.9168992877e+01    0.2262019     0.186224   1.23 0.0005556867    1.228    0.186
       137  -8.9668     17.5527     77.2962   1.4012221409e+02   5.8283820399e+01    0.2978422    0.1436452 -46.31  0.001460174    2.017    0.504
       138  -7.7739    213.9117     77.3423   8.5129170494e+01   2.2715322955e+01    0.1859645    0.1667565  15.37 0.0003245469    1.112    0.101
       139  -9.0940    129.9788     56.7663   9.5068630040e+01   4.5221424904e+01    0.7621663    0.2175455 -37.35  0.001442357    3.275    0.695
       140  -9.4637    127.2007     75.1473   1.0193160035e+02   4.2547468753e+01    0.4235798    0.3115116 -63.69  0.000835393    1.795    0.443
       141  -8.4901    129.1065     69.2534   9.9537403644e+01   4.3222427733e+01    0.5166907    0.2856067  19.82  0.001689526    3.488    0.713
       142  -8.3716    130.4433     64.7358   9.7694041054e+01   4.3734627407e+01    0.3434184    0.2120639 -38.55 0.0007674829    1.577    0.366
       143  -8.2980    162.9127     73.3595   9.2981561961e+01   3.4786635493e+01    0.2931004    0.1959734 -47.26  0.001071343    1.647    0.393
       144  -9.0769    115.2533     72.0116   1.0420749579e+02   4.5691707268e+01    0.5628445    0.2586159 -35.52  0.001639287    2.231    0.552
       145  -9.8177     81.5898     72.4608   1.1494799060e+02   5.1976983174e+01    0.3821605    0.2983243 -77.81  0.001004592    1.648    0.393
       146  -9.1778     83.4702     64.5377   1.1177616906e+02   5.3362422727e+01    0.6584321    0.3760506 -19.94  0.002433031    2.971    0.663
       147 -10.5482     55.0719     70.8818   1.2417095281e+02   5.6242820617e+01    0.7846065    0.5153212  70.92  0.001229042    2.342    0.573
       148  -9.4616     55.6518     62.9020   1.2168064034e+02   5.8007399849e+01    0.7739293    0.2796767  31.19   0.00293442    3.103    0.678
       149  -9.8819     61.9074     60.7944   1.1854781097e+02   5.7623200046e+01    0.4316959    0.2906168  30.10  0.002197544    1.640    0.390
       150  -8.3925    169.1519     70.7146   9.0916224077e+01   3.3755473437e+01    0.2730325    0.1850678 -39.13 0.0006495823    1.463    0.316
       151  -9.2580    146.9666     69.3531   9.5208326622e+01   3.9146324532e+01    0.3931236    0.2641658 -52.72  0.001210974    1.777    0.437
       152  -9.6808     94.7511     68.4669   1.0928461067e+02   5.0486658479e+01    0.4441764    0.2667617 -52.53 0.0008974439    1.765    0.433
       153  -9.2789     96.7383     58.9595   1.0539018719e+02   5.2022398795e+01    0.8036419    0.4576705 -17.96  0.002960028    2.813    0.645
       154  -9.2765    138.0632     66.2876   9.6313388478e+01   4.1724581093e+01    0.3592386    0.2324589 -36.40 0.0008270627    1.498    0.333
       155  -9.0818    121.1768     66.1766   1.0062856851e+02   4.5535828402e+01    0.3767516    0.2443417 -49.25 0.0007055869    1.682    0.405
       156  -7.9204    122.2082     61.5417   9.8766300642e+01   4.6154988668e+01    0.2873488      0.21228 -13.68 0.0006850687    1.514    0.339
       157  -8.5479     68.7096     60.8994   1.1594861169e+02   5.6585754017e+01    0.3410155    0.2657945 -68.76 0.0003202116    1.503    0.335
       158  -9.3249    109.8131     63.9438   1.0309779477e+02   4.8389729596e+01    0.3873459    0.2852129 -54.95 0.0008051482    1.552    0.356
       159  -8.7145    110.8607     58.2237   1.0078351216e+02   4.9244351489e+01    0.3607522    0.2761462  18.81  0.001108313    1.483    0.326
       160  -7.6820    146.9057     64.0645   9.3509698202e+01   4.0045186895e+01    0.2472068     0.176149  18.27   0.00111022    1.685    0.407
       161  -8.4647    157.0320     63.0524   9.0977479118e+01   3.7813201241e+01    0.3619684    0.2656277  43.26   0.00137799    1.379    0.275
       162  -8.3892     10.1291     60.3686   1.4037718718e+02   6.2802474075e+01    0.3328711    0.1577479 -83.82  0.001559663    2.161    0.537
       163  -9.7856     73.0994     59.3295   1.1376605700e+02   5.6227953011e+01    0.4973834    0.2621329 -56.45 0.0007514568    2.094    0.522
       164  -9.0613     75.2371     50.9823   1.0997583690e+02   5.7614729009e+01    0.5978543    0.3688356  -3.14  0.002323589    2.911    0.656
       165  -8.7484     79.6437     47.1685   1.0686677399e+02   5.7592246410e+01    0.4072579    0.2160742 -39.99   0.00116137    1.760    0.432
       166  -7.8934    152.4189     60.2623   9.1044518107e+01   3.9352351387e+01    0.2198868    0.1337827 -41.20 0.0007340432    1.662    0.398
       167  -8.6775    146.3271     58.9528   9.1941337919e+01   4.1013605914e+01    0.3003426    0.2500296 -33.35 0.0006825583    1.175    0.149
       168  -8.6159    148.0000     54.0146   8.9896945467e+01   4.1388518600e+01    0.3906035    0.1930394 -23.10  0.001476633    2.218    0.549
       169  -8.3895     87.6222     58.4668   1.0825221819e+02   5.3870958643e+01    0.2650606    0.2347615 -76.77 0.0007552364    1.387    0.279
       170  -9.3536    138.9173     56.9280   9.2949207426e+01   4.3100215831e+01    0.3219332    0.2063019 -40.01 0.0005110971    1.557    0.358
       171  -9.5104    121.4898     45.2937   9.3034368409e+01   4.9090265900e+01    0.9365119     0.349933 -23.41  0.002099422    3.831    0.739
       172  -9.2742    118.2143     55.4362   9.7692428861e+01   4.8133533633e+01    0.3636835    0.2785566 -63.15 0.0008322842    1.688    0.408
       173  -8.7350    196.2271     55.9760   8.1797794813e+01   2.9502906417e+01    0.2128123    0.2008743  44.16 0.0003230467    1.128    0.113
       174 -10.0209     49.9114     53.7330   1.2119963263e+02   6.0821654708e+01    0.7126278    0.3723133 -64.75  0.002574022    2.241    0.554
       175  -9.5930     56.0237     43.3386   1.1485504694e+02   6.2252212477e+01    0.7926667    0.4247224 -13.08  0.002562319    4.568    0.781
       176  -9.0921    162.7778     54.5044   8.7041906589e+01   3.7726386275e+01    0.3679984    0.1991939 -34.64  0.000881856    1.758    0.431
       177  -7.7019    157.4837     55.5497   8.8431416862e+01   3.8857952708e+01    0.1499237    0.1427241  -5.85  3.65895e-05    1.012    0.012
       178  -9.3881     44.1610     53.4892   1.2361626505e+02   6.1572889077e+01    0.3993014    0.1894134 -47.98 0.0009080663    1.812    0.448
       179  -8.9746    105.2655     51.8506   1.0010594256e+02   5.1609301310e+01    0.6057129    0.2677219 -32.76  0.001768796    2.320    0.569
       180  -9.4651    104.5139     39.3183   9.5384906284e+01   5.3936073123e+01    0.7589549    0.5180939 -35.83  0.002439602    1.422    0.297
       181  -9.2765    100.9571     31.8819   9.3290642919e+01   5.5909112407e+01    0.4380288    0.2776658 -36.39  0.001069905    1.548    0.354
       182 -10.4840     89.3642     38.2727   9.9763454184e+01   5.7351535070e+01     1.041568    0.4350757  33.45  0.003483796    3.396    0.706
       183  -8.3564     89.2688     52.7144   1.0558524614e+02   5.4702888344e+01    0.4237717    0.2761158   4.18  0.001746922    2.400    0.583
       184 -10.1715     85.1079     48.0688   1.0524952877e+02   5.6398274930e+01    0.4598746    0.3379962 -68.46 0.0009895682    1.978    0.494
       185  -8.3511    138.6757     51.7034   9.1176796477e+01   4.3994760681e+01    0.2577929    0.2065654  17.12  0.001036079    1.346    0.257
       186  -8.7466    141.9314     48.6016   8.9336736127e+01   4.3687045483e+01    0.2819813    0.2068207 -37.48  0.000396439    1.354    0.261
       187  -9.0611    157.4747     48.5319   8.6077101909e+01   3.9886477191e+01    0.4893067    0.2047848 -37.31  0.001174302    2.287    0.563
       188  -9.3444    149.5943     47.6771   8.7366608697e+01   4.1950084677e+01    0.4467396     0.220493 -31.31  0.001305139    1.933    0.483
       189  -9.3543    133.8923     31.0409   8.4537962411e+01   4.8161974566e+01     0.267907    0.2450723  15.32            0    1.060    0.057
       190  -9.2769    130.3576     47.0746   9.1471628149e+01   4.6712481534e+01     0.651823     0.260023 -27.41  0.001119403    2.668    0.625
       191  -8.9335    133.0147     36.9658   8.7030131682e+01   4.7573240060e+01    0.5815567     0.230818 -28.80  0.001232285    2.443    0.591
       192  -7.8727    162.5569     46.7884   8.4522467563e+01   3.8875666782e+01    0.2134209    0.1301504 -39.21 0.0006887139    1.629    0.386
       193  -8.7768    112.0974     45.7865   9.5777035483e+01   5.1166965365e+01    0.5999514    0.2966933 -22.80  0.001510515    2.463    0.594
       194  -8.6499     39.8019     35.2091   1.1922505383e+02   6.6112233742e+01    0.3637683    0.1942839  19.54  0.001357765    2.323    0.569
       195 -10.0045     37.9612     42.2944   1.2276889374e+02   6.4786853229e+01    0.5191393    0.3423627 -87.56  0.001466055    2.568    0.611
       196  -9.8568     35.5983     37.9265   1.2236202091e+02   6.6005778213e+01    0.2452558    0.2186401 -52.41 0.0003433013    1.133    0.117
       197 -10.2301     69.2526     40.5712   1.0819232722e+02   6.0718458939e+01    0.9215451    0.4642749 -44.49   0.00243991    1.860    0.462
       198  -8.7756     70.0804     26.0460   1.0131369983e+02   6.3219798469e+01    0.3184599     0.254367  33.76  0.001767482    1.293    0.226
       199  -9.9459     76.2909     31.8883   1.0164142901e+02   6.1047591225e+01    0.4256327    0.3429986  74.15  0.001417028    1.820    0.451
       200 -10.0648     79.2081     24.1068   9.6877545797e+01   6.1762467714e+01    0.7408126    0.3409091  34.60  0.002790403    2.589    0.614
       201  -9.0496     84.7005     21.9739   9.3901068827e+01   6.0948967851e+01    0.3071401    0.2469813 -11.52 0.0008011036    1.183    0.155
       202  -9.3803    250.5505     41.3636   7.1412874810e+01   1.9323910453e+01    0.2240793    0.1253747 -24.03 0.0002803326    1.515    0.340
       203  -9.4428    153.2839     41.0954   8.4316002753e+01   4.1961946907e+01    0.3969819     0.224366 -42.15 0.0008811859    1.837    0.456
       204  -8.9543    139.5993     40.4069   8.6870469148e+01   4.5462043428e+01    0.3433652    0.2283609 -46.89 0.0009843346    1.659    0.397
       205  -8.9553     53.2337     38.7250   1.1426379513e+02   6.3611792365e+01    0.5837992    0.1804139 -39.67  0.001937038    3.406    0.706
       206  -7.3130    160.4333     39.5106   8.2430677113e+01   4.0381984100e+01    0.1476962    0.1404672  -5.98 4.432272e-05    1.009    0.009
       207  -9.2247    144.4089     36.7906   8.4521440031e+01   4.4765259369e+01    0.3631347    0.2361106 -59.74  0.001207643    2.052    0.513
       208  -7.4588    178.9871    239.7483   1.2319436310e+02   6.7125131663e+00    0.1382608   0.06934093  33.57 0.0004481524    1.495    0.331
       209  -8.6913    119.0095     34.4413   8.9387933920e+01   5.1337058549e+01    0.3275194    0.2084445 -26.64 0.0008805633    1.538    0.350
       210  -9.3735     60.1971     33.5510   1.0896378508e+02   6.3580582561e+01    0.4201631    0.2686797 -54.76  0.001438292    1.830    0.454
       211  -8.9717     63.1085     26.9540   1.0464702749e+02   6.4313912749e+01    0.5206659    0.2569278  26.89  0.001745846    2.751    0.637
       212  -9.6087    187.9919    233.9503   1.2093844307e+02   6.1837638500e+00     0.200706     0.156264 -37.71  0.001368245    1.753    0.429
       213  -8.0669      4.1593    234.1893   1.5362840815e+02   2.7045738892e+01    0.1252652    0.1011764  57.46 0.0004068592    1.190    0.159
       214  -7.5355    135.7373    230.3142   1.2972651786e+02   1.3492891984e+01    0.1007482   0.07305303  54.82 0.0004168197    1.540    0.351
       215  -7.7443    141.3419    226.1638   1.2823769497e+02   1.3312840086e+01    0.1325596    0.1054835 -66.76  0.000959485    1.804    0.446
       216  -9.2087    110.1945     32.7357   9.1008691888e+01   5.3668604590e+01    0.4382376    0.2149908 -39.23  0.001127718    2.055    0.513
       217  -8.5140     46.9919    223.7856   1.4567620612e+02   2.4881986351e+01      0.15435      0.12442  71.21 0.0005834834    1.170    0.145
       218  -7.4632    245.2815     31.3416   6.9364204754e+01   2.1414600325e+01    0.1265643   0.09134959  14.76 0.0005911443    1.631    0.387
       219  -7.2476     43.7539    211.2862   1.4557543055e+02   2.7277367450e+01    0.1033794   0.06026048  60.08 0.0006833383    1.465    0.318
       220  -9.2888     91.3922     26.2722   9.3734553502e+01   5.8872773464e+01    0.5281897    0.2553297 -45.34  0.001120759    2.449    0.592
       221  -8.4064     92.7688     20.6528   9.0640659476e+01   5.9380969328e+01    0.2584345    0.2313497  25.01 0.0006866409    1.076    0.070
       222  -8.0780    136.1402     26.7671   8.2389338644e+01   4.8141694564e+01    0.2603429    0.1857131 -35.98 0.0005266137    1.411    0.292
       223  -8.4843    144.3116     25.6840   8.0373977167e+01   4.6195774541e+01    0.2304231    0.1453571 -26.62 0.0004309118    1.546    0.353
       224  -8.2593    144.9154     22.5006   7.9048865123e+01   4.6410218386e+01    0.2575381    0.2050306 -16.47 0.0004091735    1.250    0.200
       225  -8.8265    128.5361     24.5068   8.3082259683e+01   5.0335037068e+01    0.5341047    0.2760647 -12.82  0.001690544    2.271    0.560
       226 -10.1515     10.2249    207.4264   1.5177658718e+02   3.0942748933e+01    0.3730278    0.2556431  16.84  0.002776989    1.915    0.478
       227  -7.3293     65.5551    200.4046   1.4047554304e+02   2.6873821285e+01    0.1085397   0.09092342  50.67 0.0001270213    1.051    0.048
       228  -7.3727    191.7617     29.6183   7.4435526754e+01   3.3746502922e+01    0.1444455    0.1026194  15.55 0.0003466197    1.634    0.388
       229  -8.2278    140.1875     22.9747   8.0106834122e+01   4.7566816239e+01     0.246426    0.1480453 -49.81 0.0004655382    1.956    0.489
       230  -9.7782    190.0297    191.3266   1.1435738744e+02   1.1021970529e+01     0.395607    0.2904394 -61.24  0.002253102    2.607    0.616
       231  -7.2008    222.9972    188.0076   1.0803115951e+02   6.5323468416e+00    0.1406545    0.1076841   0.63 0.0003138912    1.096    0.088
       232  -8.0467    219.5207    186.6657   1.0838093464e+02   7.1955901046e+00    0.2360824    0.1143991  18.32  0.001133873    2.422    0.587
       233  -7.3397      4.3597    182.3211   1.5203381137e+02   3.5947166513e+01   0.09525278   0.07424966 -47.49 0.0007043533    1.770    0.435
       234  -8.7011    111.4095     21.5783   8.5845321827e+01   5.4919835650e+01    0.4386108    0.3124091   9.34  0.002109954    1.558    0.358
       235  -7.7617    189.5045    175.8006   1.1179788012e+02   1.3198144432e+01    0.1862939    0.1576837  37.56 0.0008648272    1.311    0.237
       236  -8.4424    230.2850    167.6352   1.0312289482e+02   7.8304525670e+00    0.1603596    0.1527093 -54.80 0.0007957199    1.783    0.439
       237  -7.6628    151.0000     20.9642   7.7411728191e+01   4.5015771776e+01    0.2400013   0.08174957 -22.40 0.0007982288    2.913    0.657
       238  -7.2123     17.3373    152.2385   1.4765963050e+02   4.1010389724e+01   0.09935236   0.08317816 -40.71 0.0003257942    1.547    0.353
       239  -8.6272    133.5434    146.2578   1.1799809734e+02   2.7433762384e+01    0.4881181    0.1376356 -51.37  0.001554649    4.321    0.769
       240  -8.8019    232.1583    147.8309   9.8897563054e+01   9.9433064153e+00    0.1820407    0.1258334   5.73 0.0007072149    1.322    0.243
       241  -8.5685     40.9507     20.8632   1.1222570051e+02   6.8857359302e+01    0.2005643    0.1662693 -24.04 0.0003570056    1.032    0.031
       242  -9.7651     67.1721    144.5527   1.3426935108e+02   3.7713745342e+01    0.5023677     0.304478  59.18  0.002630642    1.773    0.436
       243  -9.3165    236.9603    144.4621   9.7437904714e+01   9.5757927085e+00     0.269906    0.1957922 -52.47  0.001481078    2.361    0.576
       244  -7.3041    203.2775    138.6764   1.0189642321e+02   1.6133271095e+01    0.1195063    0.1064523 -55.51 0.0001681595    1.585    0.369
       245  -9.1675    133.7756    137.6095   1.1623779277e+02   2.9033773051e+01    0.2434129    0.2197743   3.72 0.0002953113    1.122    0.109
       246  -9.1032     65.4784    136.4566   1.3360704534e+02   3.9698482070e+01    0.2738076    0.1186449 -63.77  0.001223243    2.221    0.550
       247  -8.2736    112.2112    133.8548   1.2079260541e+02   3.3480784472e+01    0.2783818    0.1969911  72.27  0.001297843    1.976    0.494
       248  -8.5792    135.7881    131.4252   1.1446794370e+02   2.9859270894e+01    0.4753992    0.1075668 -43.69  0.001370762    4.604    0.783
       249  -9.5208     98.5022    128.7736   1.2338903076e+02   3.6763762978e+01    0.5596234     0.341608  72.90  0.002299217    2.819    0.645
       250 -10.4417     69.9877    126.3237   1.3081920109e+02   4.1402036071e+01    0.6651884    0.5944781 -49.36  0.002236795    1.176    0.149
       251  -9.9617     58.3731    124.7338   1.3388581056e+02   4.3195136441e+01    0.6527534    0.3377998  71.77   0.00251943    2.996    0.666
       252  -8.3960    198.2910    126.4597   1.0008106742e+02   1.8847094336e+01    0.2261235    0.1861912  -6.78 0.0002552328    1.099    0.090
       253  -9.3088    130.8749     96.6686   1.0728599439e+02   3.7614936416e+01    0.5358633    0.2780686  28.09  0.001965922    2.708    0.631
       254  -9.7486    117.0110    125.4767   1.1785751028e+02   3.4389544128e+01    0.5594751    0.3922903 -83.03  0.002375522    2.222    0.550
       255  -9.9499    108.5663    114.5569   1.1770451986e+02   3.8145094633e+01    0.5869362     0.390746 -86.98  0.001600352    2.646    0.622
       256  -9.3421    108.7756    106.2994   1.1571563431e+02   3.9868201318e+01    0.5809105    0.5155652  25.30  0.003015394    1.161    0.139
