#   1 NUMBER                 Running object number                                     
#   2 MAG_AUTO               Kron-like elliptical aperture magnitude                    [mag]
#   3 X_IMAGE                Object position along x                                    [pixel]
#   4 Y_IMAGE                Object position along y                                    [pixel]
#   5 X_WORLD                Barycenter position along world x axis                     [deg]
#   6 Y_WORLD                Barycenter position along world y axis                     [deg]
#   7 A_WORLD                Profile RMS along major axis (world units)                 [deg]
#   8 B_WORLD                Profile RMS along minor axis (world units)                 [deg]
#   9 THETA_WORLD            Position angle (CCW/world-x)                               [deg]
#  10 FWHM_WORLD             FWHM assuming a gaussian core                              [deg]
#  11 ELONGATION             A_IMAGE/B_IMAGE                                           
#  12 ELLIPTICITY            1 - B_IMAGE/A_IMAGE                                       
         1 -13.4654    206.5561      3.5575   6.0384376756e+01   3.2829267016e+01     1.137818    0.7024997  76.36  0.003026962    1.465    0.317
         2 -14.1823    185.2197     27.2456   6.9445953562e+01   3.5732223608e+01     1.697355      1.17169  19.06  0.005365019    2.034    0.508
         3 -14.1241    193.0359     20.1025   6.6353576949e+01   3.4532532372e+01     2.162867      1.25625 -19.29  0.008166539    2.057    0.514
         4 -12.5463    199.2462     12.4265   6.3493807494e+01   3.3774793932e+01    0.5243519    0.4464674  51.43  0.001191825    1.284    0.221
         5 -11.7180     32.7863      7.7750   1.0304810868e+02   7.0916392245e+01    0.3277164    0.1243379 -32.07  0.001573025    2.405    0.584
         6 -16.3956      9.4358    239.5571   1.5002933831e+02   2.5044859518e+01     8.477874     1.886578 -78.05   0.01590977    3.941    0.746
         7 -12.8430    246.8729    247.8700   1.0928295700e+02  -1.0281846461e+01    0.6741548    0.4514125  24.39  0.004781555    1.133    0.118
         8 -13.0748    185.3104    248.3129   1.1987658705e+02  -1.1276552031e+00    0.9491341    0.2512798  38.09  0.003734611    3.201    0.688
         9 -12.8818    199.7612    249.5895   1.1750836136e+02  -3.5476015183e+00    0.9266213    0.1838595  38.69  0.003224327    4.216    0.763
        10 -11.3491    149.3099    249.2285   1.2644697723e+02   4.4858280361e+00    0.2337364    0.1947513  66.64   0.00166261    1.304    0.233
        11 -12.6135    139.7132    249.1082   1.2816423454e+02   6.0251797870e+00    0.7047076    0.4462479 -62.86  0.004376861    2.085    0.520
        12 -12.2950    125.6908    245.2339   1.3027708076e+02   8.8218356127e+00    0.4403376    0.2911392  75.33  0.002452727    1.831    0.454
        13 -14.3120     52.2738    234.0342   1.4253599182e+02   2.1229497224e+01     1.665718       0.9053 -60.46  0.007865297    2.253    0.556
        14 -15.9831     56.4573    206.7086   1.3963174451e+02   2.5914037399e+01     10.24855     3.261786  57.27   0.03575566    3.350    0.701
        15 -13.5805     52.9053    222.7652   1.4160842655e+02   2.3234312537e+01    0.7593618    0.5917854 -26.15  0.004104776    2.702    0.630
        16 -11.5519     35.6422    206.3549   1.4363838670e+02   2.8489760069e+01    0.4157198    0.1636927  51.79  0.001581955    2.070    0.517
        17 -10.3023    226.4155    201.3860   1.0500603472e+02  -1.6086781827e+00    0.2344227    0.2160913 -57.66 0.0009194684    1.556    0.357
        18 -10.9579    193.0800    194.8766   1.1003208407e+02   5.2786291584e+00    0.8176817    0.4080235 -61.39   0.00251067    6.040    0.834
        19 -14.1725     10.3365    206.6148   1.4834840513e+02   3.1066784266e+01     1.012745    0.5254719  27.49  0.005373217    2.675    0.626
        20 -11.3667     67.2553    196.0647   1.3643360870e+02   2.6664620772e+01    0.3904112    0.2176774  58.21  0.001933929    1.603    0.376
        21 -11.9641     74.9484    190.7063   1.3422675519e+02   2.6715673820e+01    0.3872416     0.279621 -44.19  0.001540639    1.940    0.484
        22 -11.9196     79.1364    184.2652   1.3255336462e+02   2.7484174991e+01    0.2863399    0.2406598 -61.32 0.0007484011    1.352    0.261
        23  -8.8710     90.6752    184.2829   1.3000304550e+02   2.5732987545e+01    0.1386714   0.08886537  68.28 0.0002728783    1.598    0.374
        24 -12.9037     57.9880    130.7851   1.3017642881e+02   4.2653573767e+01     2.323353    0.7257087 -74.06  0.005783184    6.793    0.853
        25 -13.3917     89.4029    163.7368   1.2735925067e+02   3.0458102052e+01     4.887405    0.8943697  47.61  0.001951917    6.242    0.840
        26 -13.2370     67.5493    144.1276   1.2976139788e+02   3.8238183758e+01    0.9377151    0.5683892  81.29  0.004426362    1.998    0.500
        27 -11.6809     87.2909    173.2001   1.2925099175e+02   2.8671345140e+01    0.4003503    0.2561875  70.36 0.0005078009    1.668    0.401
        28 -13.3929     75.1148    169.7363   1.3160152704e+02   3.1267022380e+01    0.4525962    0.2821888 -44.76  0.001605127    2.107    0.525
        29 -10.9158     37.0485    160.6567   1.3941126252e+02   3.8109974556e+01    0.4207245    0.2278104 -78.12  0.002282865    1.600    0.375
        30 -16.2301      1.7128     73.2430   1.3812732869e+02   6.0868603557e+01     13.41118     0.318847 -69.61   0.02340774   16.706    0.940
        31 -10.3605    133.7061    143.8747   1.1290176580e+02   2.6899868599e+01    0.6604038    0.1552967 -54.30  0.001531087    6.181    0.838
        32 -10.4810    104.3936    148.2615   1.2104145707e+02   3.1482686406e+01    0.3567485    0.2473541 -56.91 0.0008125477    1.428    0.300
        33 -10.0079    106.3214    144.9838   1.1993252450e+02   3.1892409949e+01    0.3662612      0.21055 -40.30  0.001533904    2.167    0.539
        34 -12.4139     93.2452    147.8138   1.2377757318e+02   3.3488289385e+01    0.2745261    0.2638738 -42.85 0.0004822838    1.228    0.186
        35 -11.6945     55.7624    144.5642   1.3286553139e+02   3.9673323197e+01    0.3878155    0.3495443  64.46  0.002498739    1.164    0.141
        36 -10.8770     39.9053    143.2963   1.3674538822e+02   4.1795741235e+01    0.2481485    0.1801716  83.96 0.0006861237    1.245    0.197
        37  -9.3013     25.6336    139.1432   1.3987370701e+02   4.4166280222e+01    0.1721551    0.1253311 -78.07 0.0005443037    1.116    0.104
        38 -10.1109    113.5582    134.8137   1.1601223883e+02   3.2894099811e+01    0.3153016    0.2414978 -24.43  0.001055592    1.758    0.431
        39 -11.4885     70.2924    134.6911   1.2748755494e+02   4.0089063264e+01    0.3649702    0.2536696  45.23  0.001289554    1.491    0.329
        40 -12.6993     44.3263    129.2584   1.3367839732e+02   4.4617768789e+01    0.7096267    0.3815376  88.82  0.003272151    2.229    0.551
        41 -10.9599    101.2479    131.6800   1.1858105738e+02   3.5876642211e+01    0.2745726    0.2413657 -22.47 0.0005433604    1.402    0.287
        42  -9.2245    106.1231    131.1964   1.1718446975e+02   3.5111155299e+01    0.2114527    0.1717085  81.46  0.001075695    1.336    0.251
        43  -9.6067    161.1496    127.9992   1.0277385593e+02   2.4402999086e+01    0.2672271    0.1839615 -72.34   0.00109831    2.058    0.514
        44  -9.9984    118.8412    127.2956   1.1297877979e+02   3.3588461193e+01    0.2846654     0.197558 -24.14   0.00107999    2.089    0.521
        45  -9.7986    109.5234    122.3573   1.1431464119e+02   3.6519536185e+01    0.2349536    0.2130837  61.53 0.0003825833    1.107    0.096
        46 -11.2344     44.8678    115.0588   1.3127604797e+02   4.7921124243e+01    0.2945461    0.1703424  72.31  0.001375543    2.303    0.566
        47 -10.7657    168.2992    113.1000   9.7414725264e+01   2.5789258983e+01     0.368726    0.2999107 -80.73  0.001021649    1.493    0.330
        48  -9.4842    205.5732    110.3103   8.9139813907e+01   1.7536366205e+01    0.2716371     0.179806  32.75  0.000926247    1.798    0.444
        49 -11.0077     23.0866     93.5106   1.3430688348e+02   5.4976213548e+01    0.4439379    0.1692549  38.13  0.001979624    2.966    0.663
        50 -10.7518    131.9546     55.4645   8.8779632567e+01   4.5412711645e+01     0.371721    0.2744406  83.92 0.0008104232    1.810    0.448
        51 -11.3230    127.3286     52.5214   8.8924113154e+01   4.6995851799e+01    0.4855627    0.3395915 -88.29  0.001330811    2.230    0.552
        52 -10.3201    116.3011     46.5611   8.9682337762e+01   5.0504184185e+01     0.343147    0.2516655  78.16 0.0007058829    1.860    0.462
        53 -11.8165    229.7066    248.7726   1.1225915597e+02  -7.9488174383e+00    0.3662812    0.1746371  48.62  0.001894797    2.595    0.615
        54 -11.1042    178.3766    218.9108   1.1689753013e+02   4.1453357725e+00     0.270401    0.1661571  35.85  0.001108186    1.408    0.290
        55  -9.7673    169.9715    215.9845   1.1806288444e+02   6.0705505359e+00    0.1922006     0.149335  70.73 0.0005689776    1.641    0.391
        56 -12.1010     39.9999    212.9058   1.4328195780e+02   2.6694317525e+01    0.4015356     0.245648  71.51  0.002235028    1.323    0.244
        57 -11.6635     20.7134     36.0422   1.2116420564e+02   6.7425610026e+01    0.2574661    0.1993075  29.57  0.001596506    1.590    0.371
