#   1 NUMBER                 Running object number                                     
#   2 MAG_AUTO               Kron-like elliptical aperture magnitude                    [mag]
#   3 X_IMAGE                Object position along x                                    [pixel]
#   4 Y_IMAGE                Object position along y                                    [pixel]
#   5 X_WORLD                Barycenter position along world x axis                     [deg]
#   6 Y_WORLD                Barycenter position along world y axis                     [deg]
#   7 A_WORLD                Profile RMS along major axis (world units)                 [deg]
#   8 B_WORLD                Profile RMS along minor axis (world units)                 [deg]
#   9 THETA_WORLD            Position angle (CCW/world-x)                               [deg]
#  10 FWHM_WORLD             FWHM assuming a gaussian core                              [deg]
#  11 ELONGATION             A_IMAGE/B_IMAGE                                           
#  12 ELLIPTICITY            1 - B_IMAGE/A_IMAGE                                       
         1 -14.5675    168.6401     67.9079   6.6880219336e+01   3.3842673077e+01     3.218174     1.366945 -24.64   0.01027949    2.993    0.666
         2 -15.5714    138.0047     26.9097   5.8795333033e+01   4.7942254718e+01     4.148191     3.096249 -32.89   0.01413242    1.344    0.256
         3 -15.6471    184.3829     86.7157   6.9433029437e+01   2.6648913430e+01     6.828619     2.416957 -45.77   0.01057103    3.165    0.684
         4 -16.8578    240.7744     97.7725   6.2957619243e+01   1.1925591966e+01     9.716818     3.123096 -28.85   0.03324478    2.977    0.664
         5 -15.6537    233.0927      6.9882   4.0265598438e+01   2.5577940194e+01     1.016584    0.6200632 -40.69  0.005376101    1.428    0.300
         6 -14.1664    222.1508     11.4655   4.2323949183e+01   2.7751124129e+01    0.6988567    0.5444807   6.44  0.003316517    1.621    0.383
         7  -9.8092    189.9408     14.0315   4.6256523041e+01   3.5685854120e+01    0.3619895    0.1720672 -58.80  0.001387265    2.535    0.606
         8 -10.8716    146.0502     13.3353   5.2091480358e+01   4.7401631444e+01    0.2942967    0.2073997 -24.14 0.0006203706    1.453    0.312
         9 -11.3767    207.2611      7.5192   4.2541432038e+01   3.1872851301e+01    0.2436986    0.1679302 -30.63  0.000604807    1.410    0.291
        10 -11.6789    208.8849      3.0326   4.1122139323e+01   3.1899363278e+01    0.2172417    0.1814398 -31.60 0.0005911806    1.206    0.171
        11 -17.5594    239.9446     18.0017   4.2556613544e+01   2.2796947164e+01     6.564331     2.091605  57.80   0.02514611    3.254    0.693
        12 -10.8430    135.4720      2.2678   4.9537064226e+01   5.1203592309e+01    0.3905099    0.2263251  -8.17   0.00145917    1.931    0.482
        13 -10.0532    138.6863      1.2834   4.8633636063e+01   5.0451572525e+01    0.1930707    0.1199071  58.65 0.0002639274    1.463    0.317
        14  -9.5379    182.5395      3.9438   4.3905576510e+01   3.8627488435e+01     0.359945    0.1726544  71.74  0.001383751    1.971    0.493
        15 -12.0350    160.8622    128.4590   8.5476326823e+01   2.4165032469e+01    0.4166344    0.3302709 -57.21  0.001604893    1.385    0.278
        16 -13.5418    206.8811    246.3393   9.7820326439e+01  -2.3227895287e+00    0.8440648    0.5569953  25.06  0.005929275    1.210    0.174
        17 -15.2320     18.3145    190.4597   1.2695481515e+02   3.3021837418e+01     0.971021    0.7003618  89.54  0.003800771    1.177    0.150
        18 -10.7465    151.8577    107.2533   8.2169636828e+01   3.0435599616e+01    0.3012736    0.2283224 -68.45 0.0004638959    1.630    0.386
        19 -10.6240    127.0000    104.9487   8.7697408711e+01   3.6362188656e+01    0.2624194   0.08567394 -45.71 0.0008071051    2.975    0.664
        20 -10.2745    140.9889    104.3226   8.3987269723e+01   3.3474000012e+01    0.2179648    0.1986865  41.51 0.0005840419    1.127    0.112
        21 -10.5257    112.0059    103.9934   9.1461027066e+01   3.9620805735e+01    0.1823258    0.1778998 -84.07 0.0005180696    1.037    0.036
        22 -12.1385    156.3275    101.4078   7.9539455903e+01   3.0593377999e+01    0.4782352    0.3099415 -44.97  0.001927643    1.528    0.345
        23 -11.3527    146.3322    100.1583   8.1540496682e+01   3.3139562032e+01    0.3349345    0.3012812 -25.67 0.0006168152    1.140    0.123
        24 -10.0787    189.6574    148.3418   8.3972085727e+01   1.4412445041e+01    0.1419559    0.1161742 -84.60 0.0007048147    1.780    0.438
        25 -11.0428    133.0182     96.6236   8.3851834968e+01   3.6858104555e+01     0.310388    0.2602803 -44.72 0.0007229811    1.157    0.136
        26 -12.7634    224.0827     94.1690   6.4558328276e+01   1.6081071655e+01     0.742915    0.4428488 -50.73  0.002542157    1.919    0.479
        27 -11.3377    218.6478     86.0969   6.3287840191e+01   1.8579116818e+01    0.4870096    0.1820025 -39.74  0.001740967    2.449    0.592
        28 -11.8334    217.2588     80.1859   6.1913906878e+01   1.9825865858e+01     1.041664    0.5118651  53.14  0.004281166    2.138    0.532
        29 -13.5048     70.1728    148.2032   1.1147582880e+02   3.6237405253e+01     1.791019     0.974783 -69.39  0.006469161    1.734    0.423
        30 -11.7362    139.8062     89.7468   8.0142136498e+01   3.6761821392e+01    0.3375909     0.308905 -79.25 0.0007923793    1.191    0.160
        31 -11.9504    158.8551     83.3307   7.3727074392e+01   3.3507947177e+01    0.3965649    0.3333721 -50.14  0.000995633    1.207    0.172
        32 -12.7901    153.3945     83.5870   7.5039145849e+01   3.4781422105e+01    0.3816054    0.2739389 -31.70  0.001175992    1.400    0.286
        33 -11.2683    133.9423    146.5329   9.5643210852e+01   2.5962843050e+01    0.7886761     0.202388 -55.42  0.001906058    6.348    0.842
        34 -10.6867    207.0104     78.8279   6.3168851789e+01   2.2473893113e+01     0.233887     0.191961 -62.35   0.00066834    1.352    0.260
        35 -10.3845     87.2259     76.2643   9.0987726879e+01   5.0483041377e+01    0.3953396    0.1753135 -63.99  0.001097708    4.774    0.791
        36 -10.1870    224.3994     75.2524   5.9517331259e+01   1.8915694321e+01    0.2533028     0.156451 -39.35 0.0002427049    1.477    0.323
        37 -10.2055    124.1810     74.0733   7.9307330152e+01   4.3488148720e+01    0.3867523    0.1922725 -58.32  0.001244486    3.182    0.686
        38 -10.5929    156.0047     69.1171   6.9917346780e+01   3.6817870606e+01    0.2587518    0.2179942 -40.55 0.0004494678    1.159    0.138
        39 -12.4145    149.7902     70.0700   7.1617870326e+01   3.8189882483e+01    0.7816487    0.6092671 -89.39  0.003119084    1.652    0.395
        40 -12.2850    192.1618     54.8119   5.8577434755e+01   2.9900901768e+01    0.3811431    0.2543884 -48.18  0.000533423    1.511    0.338
        41 -13.6907    204.0867     61.0798   5.8577458009e+01   2.5945267605e+01    0.9236088    0.7471833  11.09  0.003106927    1.462    0.316
        42 -12.9508    197.3640     60.3339   5.9405853316e+01   2.7746454810e+01    0.5390862    0.4227047 -23.85  0.001214014    1.272    0.214
        43 -11.1083    130.7350     66.1157   7.4923331324e+01   4.3523184854e+01    0.3095636    0.2777713 -20.37  0.001270971    1.119    0.106
        44 -11.6051    148.4580     60.0449   6.8590231989e+01   4.0294062618e+01    0.4389252    0.2577691 -45.30  0.000665826    1.749    0.428
        45 -14.8148     47.9563    170.3359   1.1931362534e+02   3.4090138175e+01     1.780146     1.340626   2.53  0.001463447    2.337    0.572
        46 -10.1423    214.7624     58.6505   5.6323689783e+01   2.3664793324e+01     0.254329    0.1350932  58.24 0.0007036962    1.965    0.491
        47 -11.7847    208.5550    144.3779   7.9476291639e+01   1.1267322385e+01    0.2656723    0.2251325  85.13 0.0008826343    1.708    0.414
        48 -11.2798    192.3359    193.9728   9.2353384234e+01   6.5699121464e+00    0.7977165    0.4055461 -61.18    0.0022325    8.537    0.883
        49 -10.1721    203.8810     45.6686   5.4093864814e+01   2.8211146994e+01    0.2226918    0.1992238  23.51 0.0004499574    1.254    0.202
        50 -11.1548    204.0374     41.0036   5.2695369522e+01   2.8800952100e+01    0.3012033    0.2029597 -29.48 0.0007831036    1.423    0.297
        51 -10.0579    185.9827     45.1283   5.6563309724e+01   3.2903061733e+01    0.2266529     0.187873 -56.43 0.0002892393    1.225    0.184
        52 -11.2231    246.2773    164.1645   7.7192864512e+01   1.3978276608e+00    0.3816603    0.2086231   9.76  0.001715221    2.529    0.605
        53 -11.6836    211.2458     41.2666   5.1838365810e+01   2.6942619471e+01    0.3551385      0.19289 -46.64 0.0008286479    1.787    0.440
        54 -13.5165    187.8149     71.0121   6.4198019641e+01   2.8470513267e+01      1.04066    0.4501598  41.35  0.003505268    2.892    0.654
        55 -14.3873     54.5285    165.7135   1.1737198663e+02   3.4316796049e+01     1.137853    0.9966544 -80.25  0.002621692    1.200    0.166
        56 -11.2771    136.0000    129.9373   9.1595541937e+01   2.9076168308e+01     0.643346    0.1477944 -47.99  0.001740081    4.418    0.774
        57  -9.6364    186.2400     21.3143   4.8989386168e+01   3.5865848269e+01    0.1395128    0.1090983  24.68 0.0006870861    1.506    0.336
        58 -13.8456     59.6508    160.6000   1.1561933241e+02   3.4813611442e+01    0.6435525    0.4402257  71.90  0.001698574    1.363    0.266
        59 -13.4000    215.9428     51.6070   5.4178003503e+01   2.4374219424e+01    0.5775391    0.3371037  37.89  0.002454986    2.180    0.541
        60 -11.2415    135.1420    121.3753   8.9798932015e+01   3.1091353494e+01    0.7319751    0.2005829 -49.34  0.002085572    3.854    0.741
        61 -10.6806     97.6844    222.8632   1.1436028938e+02   1.7276005711e+01    0.2338423    0.1099681  57.93  0.001072639    2.087    0.521
        62 -13.3778      3.3675    206.8014   1.3046624917e+02   3.1247733322e+01    0.7409415    0.3860541  80.66  0.005083389    1.469    0.319
        63 -11.9680    162.8660    119.7707   8.2904100550e+01   2.5452128213e+01     0.337489    0.2707075  42.75  0.001670918    1.253    0.202
        64 -12.9128    168.3729    114.3479   8.0311457727e+01   2.5283602203e+01    0.4725009    0.4432564  69.04 0.0007692949    1.147    0.128
        65 -11.4764    176.6015    116.2808   7.9051635829e+01   2.3054007804e+01    0.4010523    0.2453151  73.57 0.0008182102    2.882    0.653
        66 -11.8760    134.7834    108.1643   8.6558387149e+01   3.4011914991e+01     1.132053    0.2530894 -44.49  0.002944184    4.382    0.772
