#   1 NUMBER                 Running object number                                     
#   2 MAG_AUTO               Kron-like elliptical aperture magnitude                    [mag]
#   3 X_IMAGE                Object position along x                                    [pixel]
#   4 Y_IMAGE                Object position along y                                    [pixel]
#   5 X_WORLD                Barycenter position along world x axis                     [deg]
#   6 Y_WORLD                Barycenter position along world y axis                     [deg]
#   7 A_WORLD                Profile RMS along major axis (world units)                 [deg]
#   8 B_WORLD                Profile RMS along minor axis (world units)                 [deg]
#   9 THETA_WORLD            Position angle (CCW/world-x)                               [deg]
#  10 FWHM_WORLD             FWHM assuming a gaussian core                              [deg]
#  11 ELONGATION             A_IMAGE/B_IMAGE                                           
#  12 ELLIPTICITY            1 - B_IMAGE/A_IMAGE                                       
         1 -13.4740    134.4420    147.5726   3.6732786309e+01   2.5469544794e+01     5.283178     1.352036 -49.19   0.01567375    3.890    0.743
         2 -13.1178    190.9897    114.2147   1.7471671053e+01   2.1635765214e+01      1.93897     1.194606 -38.53  0.009177438    1.427    0.299
         3 -15.7600    242.6791    127.3552   1.2691917188e+01   1.1187886375e+01     4.319425     1.962519 -34.04   0.02281049    1.745    0.427
         4 -13.6253    207.8334    116.5177   1.5288427493e+01   1.8271057447e+01     2.572316     1.481865 -23.38   0.01150933    1.956    0.489
         5 -14.6416    244.1810     79.7868   2.9207703951e+00   1.7675155265e+01     5.248558     1.533282 -50.85   0.01837373    4.575    0.781
         6 -13.8186    173.5909    112.1593   2.0100749750e+01   2.5284315518e+01     4.129671     1.274836 -40.54   0.01325849    2.949    0.661
         7 -13.6103    214.9933     81.5417   6.4918445090e+00   2.2467993456e+01     5.294384     2.381738 -17.20   0.01226931   10.197    0.902
         8 -10.7557    222.7930     22.6222   3.5230218790e+02   2.8681195796e+01    0.4079562    0.2627818  27.19   0.00213252    3.100    0.677
         9 -11.6739    202.1128     17.2381   3.5244246308e+02   3.3441854130e+01    0.6078767    0.2639282 -55.86  0.002985489    2.043    0.511
        10 -10.5774    249.4765     16.8072   3.4957032630e+02   2.4437411388e+01    0.3572264    0.1705226 -44.79  0.001642703    1.474    0.321
        11 -10.3808    220.9948     14.4565   3.5057702936e+02   2.9914899836e+01    0.2767229    0.2448764  13.63 0.0009863131    1.658    0.397
        12 -11.2691    222.9395      8.5423   3.4914997629e+02   3.0148885228e+01    0.5524248    0.3088456  45.87  0.002986927    2.919    0.657
        13 -12.3346    237.3397      6.1077   3.4794004520e+02   2.7688760098e+01     1.109731    0.3550057  59.17  0.004105174    4.221    0.763
        14 -10.9844    232.5144      3.5590   3.4761558849e+02   2.8829354267e+01    0.5093656    0.2524938  56.43  0.002863378    2.791    0.642
        15 -10.5042    206.0199     11.4904   3.5079100290e+02   3.3234701964e+01    0.2585942    0.2029933 -78.42 0.0005278591    1.171    0.146
        16  -8.2175     99.4521     11.9906   3.2040975515e+00   5.8557279780e+01    0.1835193    0.1356803 -25.86 0.0003332466    1.482    0.325
        17 -10.9930    190.7283     15.0129   3.5272091056e+02   3.6120613616e+01    0.3023733    0.2406701 -80.81  0.001964735    1.150    0.131
        18  -9.4134    120.3876      9.4608   3.5847786045e+02   5.3525377227e+01    0.3003918    0.2477852 -47.01 0.0009320916    1.234    0.190
        19 -10.7856    192.5253      8.2760   3.5087107562e+02   3.6423145574e+01    0.3858814    0.1594156 -35.84  0.001908101    2.011    0.503
        20 -11.3271    183.5909      5.6297   3.5079271196e+02   3.8651241710e+01    0.6242183    0.2603731 -43.88  0.003070749    1.951    0.487
        21 -10.4806    176.8283      6.4799   3.5150802995e+02   4.0095049000e+01    0.2961348    0.2679452 -66.41  0.002017605    1.128    0.113
        22  -9.3258    171.5937      2.8235   3.5088575375e+02   4.1643187791e+01     0.267339    0.1416937 -56.15  0.001266451    1.670    0.401
        23  -9.6345     11.4389    200.9081   7.6943512188e+01   2.9118725726e+01    0.2083599    0.1693762  22.12 0.0004616838    1.318    0.241
        24 -11.6389    245.8961    246.6233   3.2274110494e+01  -4.7141139577e+00    0.6630514    0.3837173  16.50  0.003757029    1.486    0.327
        25 -11.8661    227.0430     77.6465   4.2326764293e+00   2.0864017091e+01    0.4428444    0.3247235 -30.05 0.0006273219    1.269    0.212
        26  -9.7976    246.1060    233.2021   3.0330905178e+01  -3.2434412260e+00    0.2495396    0.1720221  38.89  0.001774259    2.494    0.599
        27  -9.5811    180.1403    193.6968   3.5343731253e+01   9.5366606579e+00    0.2267948    0.2192522  33.81  0.001351983    1.408    0.290
        28 -10.0697    227.4390    192.0175   2.6741928170e+01   3.8571105968e+00    0.2326475    0.1974968 -16.55 0.0005382104    1.247    0.198
        29 -10.9249    230.8717    184.3208   2.4894859656e+01   4.5301368060e+00    0.3807424    0.2414946 -17.47 0.0009276103    1.365    0.267
        30 -10.2732    237.0117    185.6456   2.4188455907e+01   3.6360127629e+00    0.3078148    0.2140617 -49.58  0.001951889    2.085    0.520
        31  -9.5608    208.0288    193.0154   3.0114686537e+01   6.0359871596e+00    0.1591973    0.1476741 -53.14 0.0006251485    1.658    0.397
        32 -11.8517    199.9534    179.7785   2.9223209534e+01   9.1168291395e+00     0.554065    0.3801414 -47.88  0.001736817    1.717    0.418
        33  -8.7120    203.1251    187.8916   3.0090584972e+01   7.4301097134e+00    0.2153642    0.1855041  88.49  0.001205257    2.277    0.561
        34  -7.9411    165.0155    188.0281   3.7419927976e+01   1.2602444915e+01    0.1559086    0.1328145 -19.43 0.0003471171    1.095    0.087
        35  -8.9066     88.1968    185.9722   5.5394553197e+01   2.4124175901e+01    0.2906864    0.1944859 -29.21  0.001397159    1.914    0.477
        36  -7.9480     26.4971    179.4637   7.1745322171e+01   3.2867406229e+01    0.1325396    0.1188441  62.21 0.0001816436    1.033    0.032
        37 -10.4341    238.9312    228.6918   3.0750757983e+01  -2.0609768559e+00    0.3658605    0.1786823  34.63   0.00169568    2.452    0.592
        38 -10.2667    129.7451    175.6053   4.3193175478e+01   2.0275482015e+01      0.38695    0.2555078 -63.09  0.001281451    1.882    0.469
        39  -8.4245    215.1763    167.6726   2.4416287323e+01   8.9547364166e+00    0.1626026     0.153119  38.32  0.001061956    1.464    0.317
        40 -10.9857    148.5862    167.4864   3.7306481500e+01   1.8955249556e+01    0.3542134     0.287086  36.65   0.00198566    1.260    0.207
        41  -9.2316    114.9469    158.5413   4.3883271412e+01   2.6354353532e+01    0.3121912    0.2062238 -58.21 0.0008743746    1.623    0.384
        42  -8.9341    234.0163    225.5214   3.1036864725e+01  -1.2100569210e+00    0.1781265    0.1226873  31.52  0.001058129    1.823    0.452
        43  -9.5698    116.2120    163.0775   4.4380700780e+01   2.5125630099e+01     0.276393     0.192859 -48.51  0.001291223    1.460    0.315
        44  -9.3297    203.5110    152.7986   2.3525567757e+01   1.2986800240e+01    0.3027909    0.1999805 -42.66    0.0014106    1.444    0.308
        45 -12.8773    241.0026     95.1582   6.4250372857e+00   1.6053455224e+01    0.4932909    0.3858416 -26.30  0.003353014    1.204    0.169
        46 -10.3777     68.0444    144.1308   5.5057797517e+01   3.7155754392e+01    0.7469296    0.3858491  55.35  0.002866573    2.353    0.575
        47 -11.8162    162.1731    141.4016   2.9053295976e+01   2.1827573930e+01    0.9117667    0.4900379  24.46  0.003199325    2.622    0.619
        48 -11.8122    160.9087    130.3242   2.6881007485e+01   2.4231294984e+01    0.8329588    0.3816905 -43.48  0.003401001    2.052    0.513
        49  -9.6615    165.8044    133.7088   2.6612191947e+01   2.2672397611e+01    0.2513668     0.180559 -31.28  0.000705438    1.357    0.263
        50 -10.3902      1.8729    138.0471   7.6536169956e+01   4.5399349892e+01    0.2172066    0.1736903 -83.56 0.0003387367    1.129    0.115
        51  -9.5349     66.4804    227.5699   6.5255376737e+01   1.7979517752e+01    0.2039175    0.1848622  12.58  0.001389905    1.198    0.165
        52  -8.4759    113.3099    128.0661   3.8058527589e+01   3.3701027811e+01     0.216991    0.1853399 -52.40 0.0004893533    1.166    0.142
        53 -10.3568    153.6461    126.3054   2.7535964093e+01   2.6399983942e+01    0.3320234    0.2311616  43.95  0.001626927    1.516    0.341
        54 -13.5658    191.0281    191.2756   3.2862286913e+01   8.4783019623e+00     4.276877     2.725316  66.10   0.01344127    8.238    0.879
        55 -11.3312    209.7230    105.3491   1.2553977361e+01   1.9744747958e+01    0.2808537    0.2293017 -30.84 0.0004276876    1.096    0.087
        56  -8.4788     79.8564    122.8863   4.7176044985e+01   4.0876514605e+01    0.2201379    0.2018161 -28.85 0.0002501215    1.166    0.142
        57 -11.9388    155.2547    118.5265   2.5348047144e+01   2.7649689480e+01    0.7698196    0.4814683  44.18  0.003588397    1.695    0.410
        58  -9.8722    148.6551    113.7159   2.5636295555e+01   2.9930068779e+01    0.3101426    0.2858127 -47.05 0.0008510844    1.048    0.046
        59 -11.0460    158.4776    113.7124   2.3494148674e+01   2.7962755082e+01    0.5688405    0.3868667  45.77  0.002107234    1.570    0.363
        60 -10.8595    157.3681    108.8483   2.2528746355e+01   2.9134437787e+01    0.3468582     0.270381 -37.74   0.00109271    1.216    0.178
        61  -8.8431    116.0406    121.4445   3.5749550267e+01   3.4723713789e+01    0.2417358    0.1972913 -50.71 0.0004445775    1.211    0.174
        62  -8.7034    121.9355    120.8524   3.3994141191e+01   3.3719274652e+01    0.2305226    0.2058723 -12.09  0.000398902    1.225    0.184
        63 -11.5720     66.1854    107.6446   4.8603227719e+01   4.7007327065e+01     1.229269     1.048422  75.02  0.006239274    1.277    0.217
        64 -11.7729     53.5243    110.9602   5.4108252421e+01   4.7960715347e+01    0.8327091    0.5915186 -40.10  0.002587828    1.515    0.340
        65 -12.7058     45.4681    107.3374   5.6540923662e+01   4.9968545387e+01     1.406942     1.026445  -2.81  0.006653956    1.696    0.410
        66 -11.3309     36.7969    107.1001   5.9992882815e+01   5.1029243008e+01    0.4873834    0.3811905  12.96 0.0008281207    1.417    0.294
        67 -12.1056      5.1827    108.0876   7.3066736349e+01   5.3295836885e+01    0.8049304    0.6370628  39.93  0.004260313    1.326    0.246
        68 -11.6075      6.7539    102.6731   7.1878601712e+01   5.4683767904e+01      0.75015     0.433158  33.65  0.002772676    1.801    0.445
        69  -8.1495    102.7888    112.8186   3.7493956991e+01   3.9291247466e+01    0.2103481    0.1832498  87.18 0.0004958545    1.293    0.227
        70 -10.2725    124.9842    106.4027   2.9540852067e+01   3.6319519052e+01    0.4304318     0.217353 -39.06  0.001651487    2.087    0.521
        71  -9.9103    217.8799    106.2031   1.1600901895e+01   1.8202615499e+01    0.3412629    0.2323835  60.33  0.001196784    1.874    0.466
        72 -10.1801    142.7371    105.7127   2.4964951314e+01   3.2771897042e+01    0.4041372      0.35946  43.66  0.001088544    1.178    0.151
        73  -9.0049    181.9116    105.5999   1.7020805477e+01   2.4852103600e+01    0.2256227    0.1793033 -28.80 0.0004818169    1.221    0.181
        74  -9.2635    250.5039    222.6627   2.8122090721e+01  -2.4288951915e+00    0.1942049   0.08960582 -27.47 0.0005958257    1.723    0.420
        75  -9.6209    159.3414    101.1096   2.0165562991e+01   3.0216000409e+01    0.2515518    0.2052798  33.32 0.0008764864    1.384    0.278
        76  -9.5163    155.0229     95.5128   1.9596191205e+01   3.2185841671e+01    0.4658601    0.2422636 -41.64  0.001966177    1.800    0.444
        77  -9.4280    109.8799     92.9504   3.0029731436e+01   4.2433909569e+01    0.5611986     0.401309  -2.81  0.002308781    2.242    0.554
        78  -8.1667     85.5190     95.0648   3.8409453542e+01   4.6842999540e+01    0.2289832    0.1505704 -50.45 0.0004994003    1.496    0.331
        79  -9.0305    200.1292     93.7374   1.1295469578e+01   2.3357315851e+01    0.2524444    0.1663683 -30.87  0.000802351    1.429    0.300
        80 -13.1179    227.7495    167.0042   2.2305277922e+01   7.3994114268e+00     2.584334     1.853771 -78.86   0.01140537    4.898    0.796
        81  -8.1245    134.3024     93.6856   2.3736626799e+01   3.7017992805e+01    0.1529966    0.1183137 -79.16 0.0003432417    1.616    0.381
        82 -14.0531    209.2313    177.2176   2.7148474417e+01   8.2775037137e+00     4.059929     2.398345 -61.76   0.01589725    4.897    0.796
        83  -7.8425    244.3510    198.2925   2.5206562629e+01   1.1598434587e+00    0.1137363   0.06622963  -6.92 0.0007029835    1.676    0.403
        84 -12.3879    245.0858    179.1596   2.1895552488e+01   3.5978323104e+00    0.6813096    0.4969974 -13.20  0.002993285    1.098    0.090
        85  -8.7025    157.0537     88.7121   1.7371060980e+01   3.3017567520e+01    0.2865708     0.196231 -34.77  0.000832296    1.443    0.307
        86  -8.8123    127.1520     87.0959   2.3628581412e+01   3.9923948474e+01     0.219938     0.204419 -12.92 0.0003156558    1.185    0.156
        87  -8.8933    179.0433     60.7234   6.0788248476e+00   3.2856939032e+01    0.2212822     0.175281 -42.55 0.0003024653    1.147    0.128
        88  -9.9926    181.1636     64.7497   6.8450141183e+00   3.1786308948e+01    0.4764291    0.2640859 -19.72  0.002005641    2.565    0.610
        89 -10.4879    183.7829     78.3600   9.9811587571e+00   2.9092296687e+01    0.6568502    0.3570485 -31.92  0.002429477    1.814    0.449
        90  -8.3397    149.2887     82.9077   1.7351400986e+01   3.5792787692e+01    0.2005868    0.1786598 -37.57 0.0003333753    1.112    0.100
        91  -8.2228    139.4827     79.4298   1.8459508577e+01   3.8645483328e+01    0.1454497     0.143039 -25.47 0.0002694647    1.088    0.081
        92 -10.8398    177.9568     72.7297   9.4200990484e+00   3.1231151758e+01    0.6459686    0.4167177 -36.99  0.002378228    1.426    0.299
        93  -9.2852     88.0210     75.8042   3.1707953851e+01   5.0788759812e+01    0.2652508    0.2109547 -41.46 0.0004293513    1.269    0.212
        94  -9.7392    199.6263     71.4803   6.0486024593e+00   2.6920881649e+01    0.5448091    0.2153163 -29.53  0.001923146    2.751    0.636
        95  -9.6214    203.2255     69.3694   5.0854123129e+00   2.6516865917e+01    0.3560317    0.2216086 -36.62  0.001617611    1.398    0.284
        96  -8.4043    133.2509     73.0184   1.7949251771e+01   4.1264163384e+01     0.209619    0.1933795 -52.00 0.0003786873    1.051    0.048
        97  -8.4247     73.2543     70.6624   3.5432696388e+01   5.4863784821e+01    0.2783161    0.1274543 -47.39  0.000881172    2.163    0.538
        98  -8.3212    184.1163     69.1916   7.5806253804e+00   3.0470969040e+01    0.1899222    0.1768081 -12.33  0.000573004    1.249    0.199
        99  -8.4485    173.1443     64.8433   8.0552095135e+00   3.3527991996e+01    0.1802791     0.166836  15.27 0.0004107643    1.320    0.243
       100  -8.9733    148.0164     64.6737   1.2316781097e+01   3.9288364499e+01     0.199096    0.1840826  75.30 0.0004275432    1.097    0.088
       101  -8.6517    214.7072     63.8955   2.4685147962e+00   2.5064368285e+01    0.2969456    0.1431145  44.51   0.00134744    3.049    0.672
       102  -9.6557    154.5578     62.5336   1.0473269286e+01   3.8116279697e+01    0.3279847    0.2528062 -23.99 0.0009417052    1.461    0.316
       103 -10.3629    145.1229     56.7413   1.0455593297e+01   4.1263932027e+01    0.6479577    0.3290842 -22.17  0.002394415    2.858    0.650
       104  -9.0563    206.8599     58.9267   2.1523199146e+00   2.7287506186e+01     0.274871    0.2168456 -58.40  0.001711446    1.134    0.118
       105  -8.3721    192.2802     59.0207   3.8817593568e+00   3.0260888744e+01    0.1916483     0.178816  27.76 0.0003324662    1.343    0.256
       106  -9.8242    196.8870     54.3534   2.1545943983e+00   2.9955449989e+01    0.4646427    0.2723472 -18.23  0.002187338    2.312    0.567
       107  -9.8919    200.7066     49.1088   4.2830348250e-01   2.9877143705e+01    0.3239503     0.245717  44.58 0.0009481671    1.705    0.413
       108  -9.5779    164.7153     41.4684   2.7069592510e+00   3.8865974577e+01    0.2846317    0.2334168  -3.63  0.001008402    1.598    0.374
       109 -10.1095    158.4620     53.2547   7.0851962509e+00   3.8650942104e+01    0.4278525     0.270668 -18.44  0.001384442    2.081    0.519
       110  -8.9755    161.4821     47.0305   4.7906676691e+00   3.8852316198e+01    0.3273525    0.2269219   0.05  0.001156067    2.306    0.566
       111  -9.6509    183.7016     53.2655   3.4715552301e+00   3.2924422973e+01    0.2920981    0.1941117 -38.00  0.001049659    1.364    0.267
       112  -8.6646    114.6789     52.3958   1.5608745476e+01   4.9297947624e+01    0.3362899    0.2084015 -21.35  0.001102414    2.124    0.529
       113  -8.4184    191.4733     52.9150   2.4233693294e+00   3.1296277306e+01    0.1858133    0.1612612 -88.65 0.0003198882    1.181    0.153
       114 -12.7314    189.9222    171.4530   2.9531646494e+01   1.1882662785e+01     1.247308    0.7511449  14.58  0.006334392    2.012    0.503
       115  -8.3917    116.8896     46.8246   1.3084280672e+01   4.9667621686e+01    0.2067204    0.1932085  32.71 0.0003241473    1.176    0.149
       116 -10.1603    248.7679     42.2767   3.5479105504e+02   2.1700707712e+01    0.3543155     0.237623 -25.87  0.001949892    1.551    0.355
       117  -8.2822    180.0745    201.6594   3.6674133560e+01   8.2503838506e+00    0.1658764    0.1333014   9.73 0.0003657781    1.097    0.088
       118 -10.9932    246.2141     25.3000   3.5146615783e+02   2.4085863355e+01    0.4784667    0.3383302  48.44  0.003145943    2.101    0.524
       119  -7.8279    100.4709     28.5238   1.0004439252e+01   5.6363363130e+01     0.140933    0.1322885  73.93 5.939204e-05    1.012    0.012
       120  -7.9768     84.4604     27.4702   1.3964609089e+01   6.0378668922e+01     0.139535    0.1321651  62.30 7.685005e-05    1.029    0.029
       121  -9.9033    205.0327     25.9748   3.5435292689e+02   3.1858138230e+01    0.1814035    0.1559274 -58.81 0.0003547876    1.083    0.077
       122  -9.6557    192.9850     25.0359   3.5511099085e+02   3.4520702175e+01    0.2235236     0.118056 -59.25  0.001135293    1.765    0.433
       123 -10.1053    178.6757     23.6563   3.5605292689e+02   3.7857546275e+01    0.4025386    0.2589293 -73.57  0.002200964    1.513    0.339
       124  -9.6342    238.2120    220.0811   2.9566545807e+01  -9.5514293790e-01    0.3539806    0.3017352  83.68  0.002074453    4.346    0.770
       125  -8.3965    142.3479     23.0572   1.0100841294e-01   4.6583420966e+01    0.1852627    0.1624551 -43.02 0.0005635541    1.167    0.143
       126  -8.6547    204.5367    221.2563   3.5255589222e+01   2.4052871686e+00     0.186189    0.1009979 -41.15 0.0007530138    1.966    0.491
       127  -9.7044    199.9220    220.1018   3.5892399101e+01   3.0804060285e+00    0.2319667    0.1593736  12.86 0.0004617911    1.251    0.200
       128 -10.3072    244.1708     17.5409   3.4998235540e+02   2.5284571090e+01    0.1931986    0.1760747 -38.78 0.0005272264    1.344    0.256
       129  -9.4018    215.9503     17.2285   3.5151312784e+02   3.0613162063e+01    0.1998642    0.1429504 -42.49 0.0004875412    1.187    0.157
       130  -8.3140    159.0498    220.2821   4.3715326477e+01   7.9293559213e+00    0.1688332    0.1348004  13.42 0.0002804172    1.057    0.054
       131  -9.1219    225.4874    219.0110   3.1399857363e+01   4.5956023620e-01    0.2018393    0.1402671  35.10 0.0007827737    1.881    0.469
       132  -9.4963    220.8345    215.9872   3.1688881690e+01   1.3417057778e+00    0.2380204    0.2033272  44.79  0.001236079    2.035    0.509
       133  -9.9817    215.7569    212.4591   3.1978370473e+01   2.3650616430e+00     0.300978    0.2430156  57.20 0.0008187655    2.600    0.615
       134  -8.5935     57.5103     14.4939   1.6967744965e+01   6.8226997295e+01    0.1359244    0.1206624  31.42 -3.880083e-05    1.040    0.039
       135  -8.2294    143.0113    215.2513   4.6357890549e+01   1.0813444920e+01    0.1673162    0.1420928  12.20  0.000332301    1.014    0.014
       136  -8.8852    174.9147    211.9622   3.9307661834e+01   7.2696780914e+00    0.1712334     0.150538  54.13  0.001127295    1.710    0.415
       137  -9.7781    242.1806    206.3329   2.6823085684e+01   3.5928953811e-01    0.2904932    0.2482135  41.20  0.001896865    2.030    0.507
       138  -9.1964    213.9993    206.0445   3.1251732964e+01   3.4464207144e+00     0.236927    0.1688897  37.61  0.001150358    1.807    0.446
       139  -9.9685    218.4861    247.7107   3.6713222913e+01  -2.3784480581e+00    0.2319299    0.1166277 -17.99  0.001083797    1.868    0.465
       140  -8.5095    190.2390    243.9799   4.1053416640e+01   9.0030426850e-01    0.1525881    0.1155362  -2.69 0.0004424714    1.062    0.059
       141 -14.2178    176.8177    163.6921   3.0580858195e+01   1.5201649005e+01     2.492784     1.990682  72.51   0.01353059    2.044    0.511
       142 -12.8152    212.6537    131.0070   1.7627410025e+01   1.5129123507e+01     1.522533    0.4128926 -35.27  0.005317424    3.499    0.714
