#   1 NUMBER                 Running object number                                     
#   2 MAG_AUTO               Kron-like elliptical aperture magnitude                    [mag]
#   3 X_IMAGE                Object position along x                                    [pixel]
#   4 Y_IMAGE                Object position along y                                    [pixel]
#   5 X_WORLD                Barycenter position along world x axis                     [deg]
#   6 Y_WORLD                Barycenter position along world y axis                     [deg]
#   7 A_WORLD                Profile RMS along major axis (world units)                 [deg]
#   8 B_WORLD                Profile RMS along minor axis (world units)                 [deg]
#   9 THETA_WORLD            Position angle (CCW/world-x)                               [deg]
#  10 FWHM_WORLD             FWHM assuming a gaussian core                              [deg]
#  11 ELONGATION             A_IMAGE/B_IMAGE                                           
#  12 ELLIPTICITY            1 - B_IMAGE/A_IMAGE                                       
         1 -13.9342      2.2979     69.3120   1.3336745505e+02   6.4011128295e+01     3.630739    0.2738847 -77.14  0.006406816   13.137    0.924
         2 -12.6160    214.6322     10.9290   5.1718842199e+01   3.0151673944e+01    0.6383607    0.4065363 -57.47  0.003861295    1.278    0.217
         3 -11.9721    208.2069     20.1098   5.4341801628e+01   3.0569631288e+01    0.3006634    0.2608649  34.64  0.001061966    1.591    0.372
         4 -14.6628    244.0901    234.0329   9.2838047408e+01  -4.3605493231e+00      2.25421    0.8174655 -30.02   0.01268538    2.508    0.601
         5 -12.7784    176.3227    238.9556   1.0529749404e+02   2.7464082808e+00     1.181373    0.7824625  -7.54  0.007535952    1.548    0.354
         6 -14.0503    153.3085    243.7575   1.1045643367e+02   4.9864416320e+00     1.635943    0.9125667  39.38  0.009260167    1.666    0.400
         7 -12.0495    145.6512    245.6104   1.1223502670e+02   5.6968676058e+00    0.6023348     0.343839 -14.57  0.003114026    2.620    0.618
         8 -13.1465    134.7821    247.6588   1.1470752830e+02   6.7849135398e+00    0.6338007    0.5635468  34.74  0.003298332    1.260    0.206
         9 -13.3806    124.1750    247.6246   1.1691840605e+02   8.1489026555e+00    0.8999471    0.6125271  12.89  0.004344251    1.451    0.311
        10 -12.6353     97.9412    248.0408   1.2256077273e+02   1.1417716535e+01    0.6718509    0.4757272  25.14  0.003450436    1.203    0.169
        11 -11.6118    107.7084    239.6970   1.1962577145e+02   1.1558760792e+01    0.6917222    0.4440382  47.38  0.004123793    1.481    0.325
        12 -11.7665    118.7537    238.9695   1.1713716935e+02   1.0230839441e+01    0.6230797    0.3839517  12.87  0.003043326    1.779    0.438
        13  -9.6013     86.0161    251.0000   1.2538739236e+02   1.2400679649e+01    0.2053065   0.05299604  30.44 0.0008002897    2.928    0.658
        14  99.0000     69.1462    249.0666   1.2888542536e+02   1.4747834106e+01     1.040441     0.192101  33.18  0.003938353    3.266    0.694
        15 -11.3251     71.4064    245.2151   1.2811415122e+02   1.5153474332e+01    0.4001227    0.2482148  51.93  0.001877502    1.433    0.302
        16  99.0000     21.4511    212.2922   1.3760577676e+02   2.7049670533e+01     2.177939     1.105169  66.14   0.01165799    1.806    0.446
        17 -13.7359     31.7317    239.1892   1.3648044544e+02   2.0666261019e+01    0.4900095     0.270254  53.80    0.0014321    1.448    0.309
        18  -9.6122     20.5524    234.5499   1.3873612417e+02   2.2653873951e+01     0.251091   0.09427698  38.12 0.0007644605    1.831    0.454
        19  -9.6367     18.4263    231.4828   1.3908960453e+02   2.3448869592e+01    0.1228567   0.08440783  51.55 0.0001614522    1.096    0.087
        20 -11.5774    182.7649    230.4798   1.0288661362e+02   3.0935617857e+00    0.5854497     0.317334  38.59  0.003327911    1.856    0.461
        21  99.0000    101.9763    215.2345   1.1826518487e+02   1.6725414658e+01     2.048738     1.918083  79.89    0.0107475    1.251    0.201
        22 -12.5205    162.5004    209.6553   1.0386189246e+02   8.9573134832e+00      1.45911     0.583791 -42.13  0.006577342    2.740    0.635
        23 -14.5513    128.2891    220.1500   1.1278580998e+02   1.2107657665e+01     1.799947     1.502949 -44.06   0.01006403    1.430    0.301
        24 -11.9983    167.9016    226.9201   1.0528806329e+02   5.5365799506e+00    0.7774709    0.5042039  -2.01  0.004529031    1.690    0.408
        25 -10.3415     54.1382    214.5093   1.2980813761e+02   2.3093398301e+01    0.3292227    0.1521944  30.28  0.001584769    1.818    0.450
        26 -10.6242     55.6407    202.1404   1.2843576748e+02   2.5544265395e+01     1.258548    0.7634914 -80.27  0.006651058    1.842    0.457
        27 -11.1875     51.2188    192.6971   1.2877867448e+02   2.8173846235e+01    0.3661842    0.2638224 -67.45  0.001849811    1.528    0.345
        28 -10.2100      2.1568    213.8677   1.4219311459e+02   2.8433928507e+01    0.1951345    0.1115092  53.16 0.0007818143    1.328    0.247
        29 -14.9840    186.9639    149.5684   8.8061049572e+01   1.5260266890e+01     2.458256     1.707113 -32.01   0.01318192    1.384    0.278
        30 -12.7990    201.2879    192.1764   9.3375822168e+01   6.1121694372e+00     2.493448     1.234053   3.83  0.008732143    4.785    0.791
        31 -14.0329    202.1533    170.6492   8.9357076091e+01   9.2743985798e+00     2.220981     1.025838 -29.18   0.01011204    2.302    0.566
        32 -11.3108    155.9046    196.8860   1.0326709098e+02   1.2085738870e+01    0.4487716    0.3244708  43.41   0.00252786    1.443    0.307
        33  -9.2864     66.6931    196.7156   1.2506581108e+02   2.5351650045e+01    0.4124449    0.2993233  22.85  0.002270529    1.393    0.282
        34  99.0000     21.0297    192.6133   1.3674366108e+02   3.1398268779e+01    0.4631145    0.2258171  31.92  0.002265623    1.752    0.429
        35  99.0000     29.1101    194.9145   1.3477366000e+02   3.0093901489e+01     0.667271    0.3675912  76.23   0.00319827    1.824    0.452
        36 -11.2106     31.7704    188.7256   1.3367422647e+02   3.1237467236e+01    0.6571444    0.3400398  69.78  0.002543681    1.961    0.490
        37 -14.9292     40.9647    222.5571   1.3351427532e+02   2.2934634145e+01     2.996516     1.304489  74.27   0.01363249    2.820    0.645
        38 -14.4342    145.5531    215.9428   1.0840232503e+02   1.0362266633e+01     1.500679     1.453649 -14.22  0.009491051    1.262    0.207
        39 -16.3279     18.1069    245.4988   1.3964860522e+02   2.0835217911e+01     2.917368    0.6707464  36.10   0.01356666    2.472    0.595
        40  -9.8823     65.3590    191.6794   1.2490622141e+02   2.6645853393e+01     0.212693    0.1603569   6.33  0.001132776    1.637    0.389
        41 -11.5794    153.4677    188.4277   1.0241089159e+02   1.3969983358e+01    0.7481703    0.3401624  31.71  0.003246976    2.060    0.515
        42 -12.4608    180.6762    185.2733   9.6116583901e+01   1.0233081427e+01    0.7161227     0.566871  44.00  0.004290625    1.458    0.314
        43 -10.6572      4.3552    182.9519   1.4067186478e+02   3.5038228681e+01    0.3722224     0.273463  28.37  0.001598805    1.366    0.268
        44  99.0000     16.5944    177.5326   1.3711986930e+02   3.5305281414e+01     1.336045    0.9641133 -66.07  0.007823181    1.506    0.336
        45 -13.0391     27.9988    157.3479   1.3240136109e+02   3.9221867587e+01     1.778054     1.081091  -6.21  0.008085096    2.440    0.590
        46 -15.0783     15.9390    144.8015   1.3523369189e+02   4.3483863260e+01      2.62814     1.760357  74.46    0.0140115    1.391    0.281
        47 -13.9005     37.5316    140.4769   1.2763545164e+02   4.2605140594e+01     1.587603     1.174365  15.17  0.007758877    1.516    0.340
        48 -11.3673    167.5074    184.4513   9.8681597953e+01   1.2436023608e+01    0.4883151    0.3075181  18.22  0.002468842    1.691    0.409
        49 -13.3044    103.7844    175.8662   1.1251591467e+02   2.4596019565e+01     1.911324     1.104354  37.66  0.008191834    1.533    0.348
        50 -11.8275     66.5383    183.8401   1.2374704516e+02   2.8278653493e+01    0.9366041    0.5353889  26.82  0.004426321    1.687    0.407
        51 -10.7981     81.3369    167.9452   1.1755468515e+02   2.9920465620e+01      0.37355    0.3005473 -71.12  0.001097285    1.339    0.253
        52 -13.0419     74.4819    172.8535   1.2019207543e+02   2.9758454738e+01    0.9340126    0.8994448  55.76  0.005580307    1.090    0.083
        53 -13.2577     70.3158    164.2483   1.2025744567e+02   3.2421625771e+01    0.7592763    0.6689312   1.45  0.002147444    1.330    0.248
        54 -10.2727     51.0626    186.2339   1.2824328637e+02   2.9675594208e+01    0.3020575    0.1953082   6.58  0.001453977    2.072    0.517
        55 -10.2683     54.3641    182.0744   1.2693513593e+02   3.0247439483e+01    0.3138724    0.2745399 -56.27  0.001374254    1.323    0.244
        56 -13.3745    147.9235    166.8772   9.9843500586e+01   1.8972179565e+01      1.38963     1.149195 -16.02  0.007660874    1.289    0.224
        57 -10.6310     30.2726    168.4026   1.3261429740e+02   3.6240357960e+01    0.3345208    0.2807934  72.76  0.001303739    1.079    0.074
        58 -10.6770     53.1255    165.0414   1.2549188759e+02   3.4514756910e+01    0.5870272    0.3278042 -81.02   0.00264883    1.960    0.490
        59 -11.8471     58.0662    163.7217   1.2385242687e+02   3.4214606192e+01    0.7016217    0.4744105 -55.63  0.002595048    1.605    0.377
        60 -11.6801    106.9696    163.3445   1.0960673143e+02   2.6877732037e+01    0.6646719    0.4722919  48.41  0.003252899    1.369    0.269
        61 -14.4335    136.6589    144.2686   9.8068152872e+01   2.5685702824e+01     1.975129     1.580018 -51.52   0.01009853    1.327    0.246
        62 -12.7923     69.2875    143.6192   1.1751986152e+02   3.7727963012e+01     1.225498    0.9501511  39.17   0.00589127    1.216    0.178
        63 -11.3282     89.5067    143.9684   1.1120874871e+02   3.4432580139e+01    0.2851689    0.2712428 -22.87 0.0005548364    1.164    0.141
        64 -13.6401     88.0866    137.3461   1.1039874170e+02   3.6308876022e+01     1.414593     1.249473  34.30  0.005749895    1.113    0.101
        65 -12.8483     77.3165    125.5790   1.1158694113e+02   4.1085843363e+01    0.9888886    0.7808838 -29.90  0.004759167    1.518    0.341
        66 -12.3251     76.1671    151.3987   1.1659431351e+02   3.4734284297e+01    0.8682538    0.7235666 -48.33  0.003444408    1.318    0.241
        67 -10.0571     98.5673    129.1996   1.0546087725e+02   3.6437805721e+01    0.2902201    0.2066852  14.98  0.001059314    1.795    0.443
        68 -11.5948     87.2896    118.1802   1.0663873536e+02   4.1222562057e+01     0.566107    0.3830344 -67.83  0.002362489    1.652    0.395
        69 -14.5800    165.4148    128.8768   8.7948850626e+01   2.3108886960e+01     1.440808     1.188349  45.19  0.007724376    1.236    0.191
        70  -9.9409     46.6825    116.9636   1.2101697449e+02   4.7784240597e+01    0.2170454    0.1896683 -79.05  0.001165843    1.115    0.103
        71 -13.1316     30.3564    106.1218   1.2572111904e+02   5.2463191342e+01     1.186423     0.680909  21.22  0.005401558    1.844    0.458
        72 -12.7265     39.7748    102.8196   1.2126735870e+02   5.2358602557e+01    0.9364427    0.4441359 -68.93  0.003778233    2.069    0.517
        73 -12.6239     61.8181    106.1320   1.1308573355e+02   4.8561499527e+01     1.127454    0.9093048 -85.37  0.005617429    1.339    0.253
        74 -12.7220    192.5902     34.3391   5.9307043104e+01   3.2448060841e+01    0.4897727    0.3441965  51.24  0.002390018    1.684    0.406
        75 -10.4842    144.6769     25.6638   6.2700017709e+01   4.5449858077e+01    0.1454788    0.1038337  38.34 0.0007050803    1.713    0.416
        76 -10.4215    185.9268    244.3460   1.0420995512e+02   8.6382721140e-01     0.262136    0.2196914 -27.74  0.001978317    1.485    0.327
        77 -10.3557    194.5292    232.6673   1.0099888275e+02   1.3354979777e+00    0.2869205    0.1915897 -31.05  0.001913084    1.581    0.368
