#   1 NUMBER                 Running object number                                     
#   2 MAG_AUTO               Kron-like elliptical aperture magnitude                    [mag]
#   3 X_IMAGE                Object position along x                                    [pixel]
#   4 Y_IMAGE                Object position along y                                    [pixel]
#   5 X_WORLD                Barycenter position along world x axis                     [deg]
#   6 Y_WORLD                Barycenter position along world y axis                     [deg]
#   7 A_WORLD                Profile RMS along major axis (world units)                 [deg]
#   8 B_WORLD                Profile RMS along minor axis (world units)                 [deg]
#   9 THETA_WORLD            Position angle (CCW/world-x)                               [deg]
#  10 FWHM_WORLD             FWHM assuming a gaussian core                              [deg]
#  11 ELONGATION             A_IMAGE/B_IMAGE                                           
#  12 ELLIPTICITY            1 - B_IMAGE/A_IMAGE                                       
         1 -14.9320      7.4283    147.0847   1.4278475948e+02   4.2417003282e+01     5.162378     1.383571 -88.17   0.02160076    3.990    0.749
         2 -11.8903      2.1956     24.8810   1.3002497304e+02   6.8935846969e+01    0.8452551    0.1111409 -66.87  0.002644496    5.263    0.810
         3 -12.7375      2.2894      8.2124   1.2509325811e+02   7.2405208771e+01      1.26235    0.5321015 -49.83  0.007124486    1.610    0.379
         4 -13.1368    192.0147     29.1510   6.9579032699e+01   3.3296505948e+01     1.420645      1.35796  22.38  0.007244537    1.023    0.022
         5 -13.5085    206.5249     10.3246   6.1634172516e+01   3.1404459339e+01     1.753742     1.092151  29.92  0.008027524    1.789    0.441
         6 -11.0220     10.9707    239.4572   1.4591289550e+02   2.6555302710e+01    0.3368743    0.1032832  59.12   0.00151015    2.266    0.559
         7 -11.0556    139.4705    249.1705   1.2662132819e+02   1.0813399014e+01     0.248954    0.1927937  56.39  0.002071857    1.290    0.225
         8 -11.0621    123.3199    249.9669   1.2927532059e+02   1.2855954089e+01    0.4575439   0.09668278  44.94  0.002067833    3.306    0.698
         9  -9.8862    111.7728    250.6439   1.3116201990e+02   1.4253047214e+01    0.2145826   0.06457753  42.96 0.0007242808    2.277    0.561
        10  -9.9380    101.4876    246.5038   1.3247443085e+02   1.6060183306e+01    0.1388866     0.106808  29.03 0.0007302423    1.524    0.344
        11 -10.3837     98.1209    249.0563   1.3319394483e+02   1.6146739083e+01    0.1814421    0.1699377 -59.34  0.001718757    1.556    0.357
        12  -9.8415     97.1889    245.4050   1.3307649101e+02   1.6731266803e+01    0.1556506    0.1155907  73.44 0.0004436212    1.382    0.276
        13 -10.7981     33.6889    247.6757   1.4290771533e+02   2.3355297071e+01    0.3375994    0.2918435  -1.19  0.003102277    2.285    0.562
        14 -10.5017     34.7284    244.0527   1.4261208990e+02   2.3755120380e+01    0.2243725    0.1801884  39.55  0.002133827    1.527    0.345
        15  -8.6274      9.3191    250.3219   1.4644857002e+02   2.5193390561e+01   0.06625928   0.06174401  81.22 0.0005220448    1.669    0.401
        16 -10.7642      1.6044    240.0383   1.4725986286e+02   2.7254723326e+01    0.4559264   0.09564352 -81.36  0.002523279    4.465    0.776
        17  -9.8410      1.9070    249.8657   1.4745316769e+02   2.5874648760e+01     0.178155     0.136808  77.39  0.001413909    1.329    0.248
        18  -9.7466      5.6759    248.2931   1.4689857616e+02   2.5776087016e+01    0.1342858   0.07717861  60.81  0.000677485    1.126    0.112
        19  -9.8646    234.7077    238.7748   1.1014098444e+02  -1.5296515538e+00    0.1578124    0.1258843 -46.42  0.001110336    2.518    0.603
        20  -9.0362     24.4425    237.7060   1.4388946990e+02   2.5613121883e+01    0.1489722   0.06933851  87.41 0.0007437763    2.041    0.510
        21 -13.8576      8.7228    203.6294   1.4509166108e+02   3.2181298390e+01     6.034324       1.5177  42.41  0.008069597    2.613    0.617
        22 -11.0056    248.3538    248.5115   1.0939357980e+02  -4.1447106050e+00    0.2914569    0.1854331  42.96  0.002126595    1.781    0.439
        23 -10.3691    173.4613    222.2282   1.1798013768e+02   9.1148626334e+00    0.2714596    0.1285303  35.45  0.001541723    1.674    0.403
        24 -10.0912    230.5183    231.9821   1.0984503571e+02  -3.5954850632e-01     0.198705     0.190143 -49.09  0.001064556    1.998    0.499
        25  -9.7925    228.4988    228.0172   1.0959858860e+02   2.8364974661e-01    0.2166245    0.1955912 -67.46  0.001608094    2.364    0.577
        26  -8.5712     94.8159    216.8432   1.3119623441e+02   2.1019703325e+01     0.145014   0.09687363  61.35            0    1.334    0.250
        27 -10.7194      3.6134    228.1698   1.4666084784e+02   2.8799714095e+01    0.2945298   0.09971517  53.33  0.002081963    1.915    0.478
        28  -8.7654    152.5246    212.9773   1.2049390822e+02   1.3449073884e+01    0.1327718    0.1151577 -43.03 0.0003550084    1.481    0.325
        29  -9.1904     34.7303    202.3850   1.4067086743e+02   3.0080275071e+01    0.1417169    0.1072809  41.91 0.0005763894    1.382    0.277
        30  -9.7594    193.5856    196.0267   1.1068202923e+02   9.0986411962e+00    0.5814713    0.3102471 -59.54  0.001843505    8.509    0.882
        31 -11.3010     64.7618    198.2081   1.3505280596e+02   2.7628613325e+01    0.2591178     0.207594 -42.55   0.00105535    1.861    0.463
        32  -8.3903     51.1981    197.0953   1.3744093445e+02   2.9305499366e+01    0.1414988   0.08942374  65.49 0.0003814171    1.318    0.241
        33 -11.9222     56.6462    226.1001   1.3833343459e+02   2.4115919151e+01     1.399918    0.9563832 -39.74  0.008305445    2.856    0.650
        34  -9.4811     42.5124    194.1478   1.3881714848e+02   3.0701110208e+01    0.2194889   0.08834448  51.51  0.001308886    1.987    0.497
        35 -11.5417     70.3964    190.3285   1.3335573068e+02   2.8313603646e+01     0.209151    0.2010018  74.54 0.0005186222    1.299    0.230
        36 -12.9619     66.9902    175.6177   1.3269533061e+02   3.1330695222e+01    0.3835752    0.2373054 -46.94  0.001413061    2.193    0.544
        37  -8.7494    101.9359    178.0683   1.2585971757e+02   2.6365794917e+01    0.1851705    0.1201651  65.35 0.0006689974    1.657    0.397
        38 -10.6701     79.9214    177.6083   1.3028044480e+02   2.9394370222e+01    0.1998384    0.1755976  56.54  0.000380213    1.109    0.098
        39 -11.5691     87.3084    168.2237   1.2771427944e+02   3.0154478527e+01    0.5474183    0.4444051  51.52  0.003771148    1.103    0.094
        40 -12.1887     23.8143    156.2199   1.3994993568e+02   3.9370426450e+01    0.4617748    0.2436691  57.41  0.002978126    1.670    0.401
        41  -9.7950     99.4282    152.2209   1.2295539717e+02   3.1499709080e+01    0.2416486    0.2201133  77.13 0.0008080592    1.053    0.050
        42  -8.9184    102.0570    147.9803   1.2172061887e+02   3.1935035069e+01    0.2435919    0.1751355 -13.75 0.0003836829    2.308    0.567
        43 -11.6797     88.0830    151.4696   1.2541513248e+02   3.3254545506e+01    0.2364502    0.2180216 -36.34 0.0005928757    1.318    0.242
        44 -12.6552     66.3788    142.9071   1.2929244517e+02   3.7755734401e+01     1.221344    0.6119376  77.78  0.003353146    3.133    0.681
        45  -9.4789    110.5170    137.0008   1.1792971902e+02   3.2786457558e+01    0.3099621     0.215087 -24.86  0.001241957    2.070    0.517
        46 -10.1635     84.6391    135.1596   1.2386144293e+02   3.7019576842e+01    0.2332535     0.181575  61.03 0.0005165723    1.273    0.214
        47 -10.2825     97.8052    134.5096   1.2055624894e+02   3.5263708275e+01     0.229833    0.2058873 -34.05 0.0007299065    1.279    0.218
        48 -12.3683     39.1684    232.5364   1.4144503439e+02   2.4962502253e+01    0.2240279     0.196769  86.16 0.0007322842    1.419    0.295
        49  -8.1429    210.2982    125.3002   9.3685166253e+01   1.5569470257e+01    0.1478361   0.09907573  14.18 0.0002743109    1.578    0.366
        50  -9.2511    107.2767    123.9875   1.1631459444e+02   3.5940755334e+01    0.1996704    0.1780846  43.63 0.0003350076    1.110    0.099
        51 -12.1372     29.9171    144.7239   1.3779126897e+02   4.1121755652e+01     0.373456    0.2404061  49.02  0.002544662    1.467    0.318
        52 -14.3243     45.1550    224.2806   1.4009455087e+02   2.5588568790e+01     3.463144     1.114343  37.85   0.01560189    2.519    0.603
        53 -10.3464    167.9237    113.1025   9.9373417059e+01   2.6463757192e+01     0.321057    0.2939378 -87.43 0.0006822626    1.405    0.288
        54  -9.1663    203.4682    111.4916   9.1631957864e+01   1.9033566481e+01    0.1507359     0.129255  11.58 8.218765e-05    1.039    0.038
        55  -9.7348     74.2184     86.8550   1.1765133113e+02   4.8899229738e+01    0.2265892    0.1957853  68.79 0.0007214362    1.306    0.234
        56  -8.3032     36.9694     63.7834   1.2478909771e+02   5.8206041604e+01    0.1371158    0.1039422  19.76 0.0003955442    1.601    0.375
        57 -10.1485     29.5620     60.9177   1.2685102310e+02   5.9450985373e+01    0.2535674    0.1848647  35.16 0.0008089943    1.656    0.396
        58  -9.8783      7.9950    226.2656   1.4595536921e+02   2.8720652174e+01    0.1721773    0.1192673  44.89 0.0007795832    1.389    0.280
        59  -9.8048    154.5021    228.4843   1.2199325888e+02   1.1175467853e+01    0.1110497   0.08253272  39.99  0.000266953    1.015    0.015
        60  -9.0408     46.3150    248.3606   1.4108268689e+02   2.2022976175e+01    0.2575379   0.08733226  64.55  0.001492147    3.027    0.670
        61  -9.5556    238.3221    248.6441   1.1092613424e+02  -2.8158658439e+00   0.08967313   0.07226536  42.55  0.000704589    1.762    0.432
        62  -9.6542    198.7389    245.9801   1.1675429022e+02   2.8963134673e+00    0.1095006   0.08759541 -12.90 0.0005978378    1.550    0.355
