#   1 NUMBER                 Running object number                                     
#   2 MAG_AUTO               Kron-like elliptical aperture magnitude                    [mag]
#   3 X_IMAGE                Object position along x                                    [pixel]
#   4 Y_IMAGE                Object position along y                                    [pixel]
#   5 X_WORLD                Barycenter position along world x axis                     [deg]
#   6 Y_WORLD                Barycenter position along world y axis                     [deg]
#   7 A_WORLD                Profile RMS along major axis (world units)                 [deg]
#   8 B_WORLD                Profile RMS along minor axis (world units)                 [deg]
#   9 THETA_WORLD            Position angle (CCW/world-x)                               [deg]
#  10 FWHM_WORLD             FWHM assuming a gaussian core                              [deg]
#  11 ELONGATION             A_IMAGE/B_IMAGE                                           
#  12 ELLIPTICITY            1 - B_IMAGE/A_IMAGE                                       
         1 -15.2863     29.0537    180.9724   1.3656747115e+02   3.3766617176e+01     10.70315     4.084242  90.00   0.03434065    4.510    0.778
         2 -12.8544    198.8974     33.6558   6.2315050417e+01   3.2057204660e+01     1.107644    0.7832221  63.34  0.006469827    1.351    0.260
         3 -13.6236    214.6754     16.4135   5.6861138428e+01   3.0590632010e+01     1.207871    0.8938962  44.13  0.007441651    1.907    0.476
         4 -11.6072      2.6415     15.1750   1.1048933244e+02   7.0807864729e+01    0.4253712    0.2161672 -49.33  0.002594763    2.342    0.573
         5 -11.2724      2.0820      6.0085   1.0694363048e+02   7.2062549383e+01    0.6236748    0.1504691 -40.51  0.002959252    3.506    0.715
         6 -11.1791     18.0583     25.9538   1.0732041745e+02   6.8008865659e+01    0.3445512    0.1941038  41.04  0.001977079    2.747    0.636
         7 -11.0299    174.3144    249.5776   1.1351403521e+02  -3.5665703943e+00    0.3822674    0.1871054  47.41  0.001751027    2.136    0.532
         8 -10.7476    162.4543    250.1088   1.1602051835e+02  -1.7287619567e+00    0.2930708    0.1630413  44.59  0.001463964    1.652    0.395
         9 -11.6541    126.2727    245.8364   1.2293186471e+02   5.0427397710e+00    0.3516078    0.2993279  79.82  0.002149679    1.256    0.204
        10 -10.4963    101.5341    249.4618   1.2850838512e+02   8.3252218903e+00    0.2436055    0.1776035  37.41 0.0007214251    1.343    0.255
        11 -11.5291     93.3831    249.7299   1.3019613203e+02   9.5379471007e+00    0.4789297    0.3124171  52.65  0.002708708    1.311    0.237
        12 -10.9327     95.4028    242.6826   1.2897706135e+02   1.0649296239e+01    0.3570586    0.1774074 -62.69  0.001599659    2.161    0.537
        13 -12.2553      4.6042    223.7847   1.4530537819e+02   2.6405311470e+01    0.9290262    0.4461918  78.03  0.005090513    1.859    0.462
        14 -11.8043     18.6543    233.4555   1.4334315512e+02   2.2893276604e+01    0.4932502    0.2983541  67.67  0.002430814    1.362    0.266
        15 -11.5601     38.7915    247.2192   1.4060625222e+02   1.7671051725e+01    0.6929517    0.4325856  77.72  0.004247782    1.379    0.275
        16 -11.3046     30.8635    248.8556   1.4218287366e+02   1.8298172018e+01    0.4752935    0.4381471  68.64  0.003581572    1.388    0.279
        17 -11.5628     15.5244    248.7799   1.4490796719e+02   2.0063844620e+01     1.497432    0.3693071  59.12  0.005515574    4.456    0.776
        18  -9.5432      8.4560    250.4953   1.4622709886e+02   2.0478978716e+01    0.2791032    0.1549185  41.64 0.0009113377    1.773    0.436
        19 -11.3305      2.5586    248.7624   1.4713012074e+02   2.1434030256e+01     0.898307    0.2476435 -79.39   0.00404668    3.202    0.688
        20 -11.8093     19.5760    243.9322   1.4388319545e+02   2.0603461754e+01    0.9802176    0.1959536  51.39  0.002423567    3.929    0.745
        21 -12.3384     12.0940    237.9448   1.4484030708e+02   2.2651335423e+01    0.6987621    0.3364579 -85.43  0.003025948    1.774    0.436
        22 -10.2470     47.7475    236.0093   1.3796623648e+02   1.8891868285e+01    0.3492025    0.1631482  77.02  0.001554841    2.594    0.615
        23 -14.5090    101.2439    228.8474   1.2601935230e+02   1.2628591620e+01     5.429754    0.5301932  43.37    0.0128598    6.773    0.852
        24 -10.5058    227.2239    203.1311   9.4790648526e+01  -4.0729449038e+00    0.3790533    0.2491598 -60.21 0.0008279243    2.291    0.564
        25  -8.1883    181.5336    192.4533   1.0196126419e+02   6.0068804852e+00    0.1450388     0.139103   2.00 0.0001165387    1.009    0.009
        26 -11.5586     64.0622    185.4736   1.2873039717e+02   2.8419300777e+01    0.3111869    0.2916552  89.94 0.0005345079    1.116    0.104
        27 -10.7059     74.5661    173.5549   1.2431744051e+02   2.9871299832e+01    0.2726899    0.2373303 -62.69 0.0004135554    1.125    0.111
        28 -12.5726     29.2789    225.0545   1.4067771429e+02   2.3522520263e+01    0.3371113    0.2851722 -62.26 0.0007474324    1.457    0.314
        29 -13.0311     61.2091    170.8771   1.2733464700e+02   3.2430310378e+01    0.5807869    0.2922533 -45.32  0.001975879    2.306    0.566
        30 -11.6523     82.6348    164.9076   1.2075392108e+02   3.0806690680e+01    0.6703779    0.5932953  63.55  0.003690642    1.136    0.120
        31 -13.7431     35.7252    217.3490   1.3871965300e+02   2.4489044529e+01    0.9259191    0.7106028  84.57  0.002512924    1.058    0.055
        32  -9.7364     95.8510    149.8226   1.1429837502e+02   3.2406429065e+01    0.3145848    0.2601249 -60.61 0.0006843078    1.153    0.132
        33  -9.0256     99.1592    145.8219   1.1255139376e+02   3.2820418760e+01    0.2326767    0.1826975 -22.69 0.0003486952    1.592    0.372
        34 -11.8120     84.3310    148.5446   1.1722733463e+02   3.4640422451e+01     0.325313    0.2546067 -46.25 0.0005479642    1.278    0.217
        35 -12.2396     67.4436    143.8492   1.2107524222e+02   3.8348117208e+01     0.776277    0.5461186  70.60  0.002944179    1.752    0.429
        36 -11.3785     57.3639    133.0042   1.2192757059e+02   4.2377202574e+01     0.821279    0.3536394 -76.02  0.002460608    4.481    0.777
        37 -13.1274      9.9972    207.1340   1.4310458519e+02   2.9551018326e+01     0.814015    0.6654186  40.49  0.002945107    1.476    0.322
        38  -9.2944    108.5102    135.4747   1.0766837133e+02   3.3640301771e+01    0.3485343    0.2348063 -14.22  0.001355426    2.465    0.594
        39 -10.2897     95.4130    132.5108   1.1067859913e+02   3.6737595437e+01    0.2844195    0.2395044 -24.70 0.0008301706    1.338    0.253
        40  -8.8607    105.9728    122.7047   1.0534174773e+02   3.7151366885e+01    0.1958781    0.1893162  32.15 0.0002447211    1.073    0.068
        41 -10.5604     53.1803    117.4098   1.2004430422e+02   4.6656044155e+01    0.3654622    0.1918399 -65.41  0.001607962    1.962    0.490
        42  -9.6906    167.5709    112.6665   8.7166134909e+01   2.6177175240e+01    0.3429284    0.2619071 -75.39 0.0009488974    1.553    0.356
        43  -8.8666    203.4668    111.4845   7.9738713746e+01   1.8301376411e+01    0.1470393     0.138062 -57.87 0.0004368237    1.054    0.052
        44 -10.8451    241.8565    101.8898   7.1523767003e+01   1.2016191663e+01    0.2037727    0.1851276 -33.23 0.0008804898    1.274    0.215
        45 -11.0105    243.3607     93.6340   6.9603916976e+01   1.3155737752e+01    0.3522511    0.1542608  51.04  0.001526921    2.667    0.625
        46 -10.6789    183.7794    249.5667   1.1159487497e+02  -5.0800334046e+00    0.3240315    0.1096233  39.83  0.001294397    2.624    0.619
        47 -11.4295     57.7213    192.8327   1.3122659384e+02   2.7483229896e+01    0.3864543    0.2648488 -46.07  0.001354848    1.743    0.426
        48 -10.9728     13.0092     61.3558   1.2094570024e+02   6.2460246401e+01    0.2731026    0.1447493 -51.36  0.001166352    1.559    0.359
        49 -10.8329      2.0000     59.0019   1.2477210761e+02   6.3586237685e+01    0.4425411   0.05282721 -59.66  0.001255041    6.962    0.856
        50 -11.2058    138.9370    248.6153   1.2066950523e+02   2.4213019494e+00    0.2793388    0.2601064  76.94  0.001769564    1.164    0.141
        51 -11.5977    106.1353    243.5996   1.2685447901e+02   8.7653109234e+00    0.3013405    0.2958907  25.81  0.001648463    1.253    0.202
        52  -9.2563     56.0323    240.9836   1.3678121916e+02   1.6744491794e+01    0.1907942    0.1540815  72.57 0.0004565572    1.022    0.022
        53 -10.1515     95.1058    237.6668   1.2844282160e+02   1.1734530631e+01    0.1907292    0.1541226  50.58 0.0005194591    1.115    0.103
