#   1 NUMBER                 Running object number                                     
#   2 MAG_AUTO               Kron-like elliptical aperture magnitude                    [mag]
#   3 X_IMAGE                Object position along x                                    [pixel]
#   4 Y_IMAGE                Object position along y                                    [pixel]
#   5 X_WORLD                Barycenter position along world x axis                     [deg]
#   6 Y_WORLD                Barycenter position along world y axis                     [deg]
#   7 A_WORLD                Profile RMS along major axis (world units)                 [deg]
#   8 B_WORLD                Profile RMS along minor axis (world units)                 [deg]
#   9 THETA_WORLD            Position angle (CCW/world-x)                               [deg]
#  10 FWHM_WORLD             FWHM assuming a gaussian core                              [deg]
#  11 ELONGATION             A_IMAGE/B_IMAGE                                           
#  12 ELLIPTICITY            1 - B_IMAGE/A_IMAGE                                       
         1 -14.8802      7.1280    144.2061   1.4268445296e+02   4.3003394875e+01     5.193449     1.003216 -82.15   0.01886337    5.192    0.807
         2 -13.5192    197.0235     26.0868   6.7843228280e+01   3.2318722376e+01     1.939969     1.480942  17.57  0.008146753    1.373    0.272
         3 -13.4535    211.6825      7.8391   6.0300554532e+01   3.0290015810e+01     1.123117    0.9218647  38.18  0.004368465    1.234    0.190
         4 -11.8956      3.7924     20.8776   1.2819895597e+02   6.9720360997e+01    0.4195101    0.2282066 -43.34  0.002590933    1.461    0.316
         5 -11.3384      2.1051     13.9934   1.2707416976e+02   7.1229392708e+01    0.2480892    0.2205911 -81.98  0.001899424    1.384    0.277
         6 -11.5044      3.9186      3.7677   1.2251209196e+02   7.3218561435e+01    0.3836884    0.2889176 -16.60  0.002785513    1.373    0.272
         7 -10.7235     21.8787    244.6414   1.4450736267e+02   2.4870260353e+01    0.2205267   0.09037524  54.06  0.001029721    1.621    0.383
         8 -11.1408    172.6943    248.0688   1.2116602948e+02   6.3604476172e+00    0.3409392    0.1776008  56.57  0.001944282    2.715    0.632
         9 -12.2909    143.5598    249.1732   1.2596497074e+02   1.0261414267e+01    0.6454549    0.2362127  33.57   0.00331904    2.693    0.629
        10 -12.0514     35.0723    245.9398   1.4263723048e+02   2.3461104780e+01    0.6028736    0.4444528 -66.72  0.005586551    1.863    0.463
        11 -12.5400     48.9536    216.5961   1.3905050238e+02   2.6376413160e+01    0.5580509    0.4751278  65.27  0.003371516    1.223    0.182
        12 -12.8366     34.1401    234.7645   1.4231591742e+02   2.5127455912e+01     0.220942    0.1824012  69.34 0.0007697622    1.267    0.210
        13 -13.8795     39.0610    227.7334   1.4123760189e+02   2.5680454503e+01     0.634097    0.4250047  57.02  0.002371453    1.071    0.066
        14 -11.7851     56.1017    225.3752   1.3837984590e+02   2.4282448292e+01     1.022168    0.6171438 -39.68  0.006215641    3.851    0.740
        15 -10.0626     12.3182    250.0663   1.4602647216e+02   2.4970897765e+01    0.1240822    0.0784631  65.87   0.00117294    1.099    0.090
        16 -10.3678      3.3089    248.7195   1.4723452194e+02   2.5914666030e+01    0.2264633    0.1452738  88.42  0.002195541    1.477    0.323
        17  -9.7479     82.4971    243.4680   1.3526996998e+02   1.8746096464e+01   0.09797037   0.06967141  52.99 -8.969795e-06    1.006    0.006
        18 -11.0347     12.4090    241.1541   1.4575670239e+02   2.6192741374e+01    0.2140976    0.1170251  50.78  0.001858888    1.281    0.220
        19  -9.3830    184.3187    238.3233   1.1815548638e+02   5.7203609732e+00    0.1088967   0.06674364  20.54 0.0004314249    1.671    0.402
        20  -9.0531     22.8256    237.0938   1.4410684855e+02   2.5847843899e+01    0.1076635   0.09099603  66.88  0.001067504    1.345    0.257
        21 -12.6637    125.2025    232.2492   1.2737229902e+02   1.4830789994e+01    0.7517092    0.1707205  39.79  0.003220143    3.346    0.701
        22 -12.8943     94.1981    228.2613   1.3225462013e+02   1.9433067387e+01     1.458994   0.07098543  45.76  0.004265045    7.824    0.872
        23  -9.2287    248.4895    230.4893   1.0681726524e+02  -2.7695108046e+00    0.1111284   0.07392579  21.93 0.0008104988    1.007    0.006
        24 -10.1140    173.5130    222.0821   1.1795256533e+02   9.1243122768e+00    0.2316904    0.1724314  52.01  0.001634274    1.438    0.305
        25 -11.6280     55.7969    211.0275   1.3755140941e+02   2.6529160169e+01     0.970609    0.1890349  53.73  0.003551738    5.659    0.823
        26 -11.5930     35.4803    193.6107   1.4004846217e+02   3.1483139821e+01     1.681597    0.4064244  63.16  0.004176342   12.992    0.923
        27 -11.4979    124.9154    249.8436   1.2901058715e+02   1.2662998901e+01    0.4152889    0.1114209  42.00   0.00210871    2.573    0.611
        28 -11.9297     67.1421    191.6992   1.3408846578e+02   2.8458815890e+01    0.2080755    0.1873621 -86.48 0.0004333669    1.258    0.205
        29  -9.0288    152.6579    213.0032   1.2047324300e+02   1.3425431884e+01    0.1439795    0.1250794  38.91  0.000330391    1.123    0.109
        30 -13.2432     64.1018    176.9424   1.3339771704e+02   3.1423925615e+01    0.3892304    0.2369284 -47.03  0.001748762    2.265    0.558
        31 -10.7153     77.4723    178.5260   1.3086802633e+02   2.9535933040e+01    0.1971475    0.1717536  65.51 0.0009599645    1.065    0.061
        32  -9.5453     99.2685    176.0758   1.2616402482e+02   2.7092607814e+01    0.2812883     0.148926  66.77  0.001131446    2.623    0.619
        33 -12.3852      9.8194    206.9018   1.4503166110e+02   3.1563089266e+01    0.5639797    0.2975363  33.02  0.003268661    2.014    0.504
        34 -11.8265     85.1393    169.0516   1.2826789433e+02   3.0287799717e+01    0.5516536    0.5156905 -40.75  0.004047682    1.356    0.263
        35 -10.4463     56.5943    206.4817   1.3711402004e+02   2.7173280843e+01    0.3631906    0.1035981  57.12  0.001588003    3.910    0.744
        36 -10.2372     97.5249    153.1799   1.2352314598e+02   3.1591059710e+01    0.3330611    0.2324749 -48.53 0.0008775407    1.602    0.376
        37  -9.3366    100.5157    148.9426   1.2222047652e+02   3.1976766137e+01    0.1753185    0.1694259 -12.23 0.0004164604    1.218    0.179
        38 -12.0049     86.1865    152.4121   1.2597118860e+02   3.3327461841e+01    0.2484819    0.2179105 -49.00 0.0006264081    1.316    0.240
        39  -8.8794    134.0000    146.6113   1.1423167189e+02   2.6999930849e+01    0.4133902   0.07652554 -48.61  0.001149642    5.868    0.830
        40 -12.1488     67.4406    143.5798   1.2912837413e+02   3.7491638355e+01    0.6115437    0.3566601  63.09  0.003357767    1.853    0.460
        41 -11.7143     60.7495    200.2600   1.3593754163e+02   2.7738298477e+01     0.208294    0.1920856 -83.45 0.0004642565    1.347    0.258
        42  -9.9614    109.4618    137.8516   1.1832987777e+02   3.2786467155e+01    0.3813626    0.2587747 -15.82  0.001705506    2.538    0.606
        43 -10.4314     96.5730    135.3223   1.2099065847e+02   3.5281815927e+01    0.2197925    0.2058906 -15.09 0.0003369998    1.258    0.205
        44 -10.5560     55.7712    131.0282   1.3034963061e+02   4.1438123252e+01    0.3961517    0.2405849 -88.81  0.002222465    1.734    0.423
        45 -10.4226     32.8135    132.2387   1.3602545785e+02   4.3432945870e+01    0.2441033    0.1349357  55.71  0.001454307    1.769    0.435
        46  -8.4472    115.3288    130.3140   1.1554531876e+02   3.3328673463e+01    0.1337229    0.1061319  -6.37 0.0003494539    1.673    0.402
        47 -10.9041     22.3026    126.6724   1.3801837265e+02   4.5464733574e+01    0.3828791    0.0971958  45.28  0.001681407    3.585    0.721
        48  -8.9606    106.6657    124.1957   1.1650806413e+02   3.5997078786e+01    0.1695922    0.1595497 -48.52 0.0003353105    1.095    0.087
        49  -9.4300    167.8409    112.9149   9.9345356777e+01   2.6513950997e+01    0.2486269    0.2160846  63.95  0.001232534    1.377    0.274
        50  -9.0623    203.4025    111.8066   9.1723359614e+01   1.9000763950e+01     0.206551     0.132629 -14.15 0.0006937071    1.661    0.398
        51  -8.5067     38.5675     94.7915   1.2996164520e+02   5.1077919051e+01    0.1613259    0.1022267 -81.40 0.0003718797    1.501    0.334
        52 -10.0413    157.6580     76.1056   9.1539069542e+01   3.5230449384e+01    0.2624964    0.2187245  58.25 0.0006733995    1.342    0.255
        53  -8.8934     39.0207     65.2603   1.2438313575e+02   5.7694461110e+01    0.1942498    0.1277308  62.17  0.001050884    2.050    0.512
        54  -9.7084    193.3175    195.7002   1.1067854174e+02   9.1831260706e+00     0.612344    0.3078755 -57.44   0.00193168    8.424    0.881
        55 -11.2685     13.5749     54.6858   1.3154621727e+02   6.1887861628e+01    0.2683868    0.1943122  41.50 0.0009321547    1.720    0.419
        56 -10.7111     99.1134    248.9771   1.3303215105e+02   1.6035683028e+01    0.2796309    0.2001649 -25.43  0.001981272    2.971    0.663
        57  -9.9984     81.6519    249.2054   1.3577247449e+02   1.8083356651e+01    0.1413614   0.08946826  52.77  0.001147372    1.122    0.109
        58 -10.9691     16.9954    198.2555   1.4350334187e+02   3.2374265929e+01    0.2083324     0.124019  51.82 0.0004402808    1.322    0.244
        59  -9.5544     47.2016    249.0002   1.4098031937e+02   2.1846756719e+01    0.1750749    0.0747722  75.13    0.0011562    2.537    0.606
        60 -10.5565    237.8469    247.1250   1.1079557937e+02  -2.6334403398e+00    0.1548896    0.1108849  30.55 0.0008875586    1.249    0.199
