#   1 NUMBER                 Running object number                                     
#   2 MAG_AUTO               Kron-like elliptical aperture magnitude                    [mag]
#   3 X_IMAGE                Object position along x                                    [pixel]
#   4 Y_IMAGE                Object position along y                                    [pixel]
#   5 X_WORLD                Barycenter position along world x axis                     [deg]
#   6 Y_WORLD                Barycenter position along world y axis                     [deg]
#   7 A_WORLD                Profile RMS along major axis (world units)                 [deg]
#   8 B_WORLD                Profile RMS along minor axis (world units)                 [deg]
#   9 THETA_WORLD            Position angle (CCW/world-x)                               [deg]
#  10 FWHM_WORLD             FWHM assuming a gaussian core                              [deg]
#  11 ELONGATION             A_IMAGE/B_IMAGE                                           
#  12 ELLIPTICITY            1 - B_IMAGE/A_IMAGE                                       
         1 -13.5296    207.9342     28.3693   4.7950658728e+01   2.9456987096e+01      0.84666     0.684898 -53.26  0.003953105    1.176    0.150
         2 -12.8208    214.4867     22.1441   4.5518136323e+01   2.8568370564e+01    0.5648516     0.368592  32.50  0.001529366    2.152    0.535
         3 -13.3245     11.6503     26.6957   1.0309372311e+02   6.9185724449e+01     1.133447    0.4084901 -46.36  0.005820433    1.984    0.496
         4 -13.5969    226.7525      8.6533   4.0862992699e+01   2.7094667061e+01    0.7483293    0.5966045 -67.03  0.002594121    1.107    0.096
         5 -11.5766     71.8587      5.4063   6.7159445417e+01   6.4649157480e+01    0.3316456    0.1619555  -4.22  0.001426502    2.771    0.639
         6 -11.7808    111.9976      4.2001   5.5553918434e+01   5.6346068404e+01    0.3641188    0.1116655  65.86  0.001195254    3.813    0.738
         7 -14.3300    150.9239    217.3725   1.0353670826e+02   8.4918409418e+00     1.660746     1.310369  34.42   0.01029309    1.201    0.167
         8 -10.4069    226.2624    250.5793   9.4739930372e+01  -8.2564953170e+00    0.2760397   0.08508208  37.98  0.001277426    2.560    0.609
         9 -11.2665    216.5079    250.0013   9.6306162351e+01  -6.7559547031e+00    0.3598623    0.1539046  41.09  0.001931366    1.910    0.477
        10 -11.5217    218.5147    244.0471   9.5082866215e+01  -6.3810138385e+00    0.4519404    0.2879266  -8.61  0.002400366    1.853    0.460
        11 -11.8387    177.4921    244.0259   1.0228763157e+02   4.7855219867e-02    0.6401102    0.4484134  -5.73  0.003874962    2.034    0.508
        12 -13.1600    207.9498    235.5871   9.5642025186e+01  -3.7301085736e+00     1.062318    0.6587962  21.04   0.00626475    1.587    0.370
        13 -13.1774    210.9585    221.1531   9.2812897336e+01  -2.3485401996e+00     0.999556    0.6774608 -57.23  0.005452217    2.523    0.604
        14 -12.6888    194.7804    248.2354   9.9807266977e+01  -3.2304068372e+00    0.8433052    0.3665748  32.71  0.004253515    2.065    0.516
        15 -12.1155    183.6815    249.5103   1.0192767668e+02  -1.6518295694e+00    0.6310743    0.2361352  40.18   0.00308413    2.084    0.520
        16 -12.5818    138.4986    247.8535   1.0974509846e+02   5.7328374201e+00    0.5286989    0.4506291  37.87   0.00284159    1.197    0.164
        17 -13.8800     76.1889    243.3532   1.2029027720e+02   1.5702782407e+01     1.171356    0.3931009  52.22  0.005755393    2.377    0.579
        18 -14.6423     63.6282    246.2493   1.2264218680e+02   1.6879166047e+01     0.769964    0.4677716  62.27  0.003497714    1.251    0.201
        19 -14.3426     55.3596    243.3105   1.2382208759e+02   1.8434204677e+01    0.8916467    0.4335352  72.51  0.004496346    1.966    0.491
        20 -10.5802     38.2056    240.4005   1.2647561857e+02   2.1009285558e+01     0.350252   0.09650338  40.01  0.001710185    3.036    0.671
        21 -11.7302     38.7330    250.0030   1.2693378983e+02   1.9301309569e+01    0.3390225    0.1395046  47.63  0.002095785    1.809    0.447
        22 -12.8323     30.4971    246.9883   1.2807298227e+02   2.0749990929e+01    0.4990303    0.3921778  82.25  0.002857452    1.279    0.218
        23 -14.5371     65.9869    141.9070   1.1107290172e+02   3.8160360104e+01     1.965429     0.950665  83.87  0.006229342    4.340    0.770
        24 -14.2225     81.4290    164.1409   1.1065396539e+02   3.0793260166e+01     1.851332     1.131733  24.25  0.008703343    2.371    0.578
        25 -15.5707      6.3157    140.6620   1.2564440287e+02   4.4565883325e+01     4.745655     1.141842 -79.54   0.01730302    3.882    0.742
        26 -12.5025     34.2529    213.6364   1.2548214903e+02   2.6396011390e+01    0.2737538    0.2272743 -56.05 0.0007447008    1.758    0.431
        27 -12.9064      5.0811    249.0491   1.3204245423e+02   2.3073027350e+01    0.3026095    0.1750685  50.49  0.000723547    1.429    0.300
        28 -14.6993      5.5810    237.0464   1.3150038374e+02   2.5078026416e+01     1.490144    0.4370222 -88.31  0.007508051    3.255    0.693
        29 -14.0802     23.1821    192.1150   1.2606535354e+02   3.1891110361e+01    0.7479097    0.5051728  52.66  0.005170112    1.370    0.270
        30 -13.1867     44.6586    212.7646   1.2353007365e+02   2.5361471155e+01    0.6258143    0.2989464  63.99  0.002610892    1.854    0.461
        31 -15.8901     40.1355    197.2645   1.2318288373e+02   2.8996605423e+01     2.318165     1.376538 -84.42   0.01151351    1.456    0.313
        32 -12.1043    140.5042    223.4440   1.0638523638e+02   9.2514034753e+00    0.5161173    0.2976389  44.75  0.002826346    1.435    0.303
        33 -10.4049     30.7958    224.3580   1.2676767784e+02   2.4746342625e+01    0.1815965    0.1082822  76.02 0.0007637803    1.311    0.237
        34 -13.4065    129.3974    219.6631   1.0803527631e+02   1.1751141784e+01    0.9708947    0.6489119  45.70  0.004964256    1.256    0.204
        35 -14.6331     71.2978    188.9218   1.1607598480e+02   2.6797376492e+01     2.407785    0.6526902  52.19  0.008292797    4.057    0.754
        36 -12.0820    134.1300    228.0639   1.0819342984e+02   9.5408083272e+00    0.5043136    0.3160002  51.46  0.002289177    1.355    0.262
        37 -11.1931    110.7274    215.9775   1.1121804241e+02   1.5457534935e+01    0.3537196    0.2569766 -38.76  0.002053645    2.006    0.501
        38 -10.3572     27.7573    214.7849   1.2671199538e+02   2.6889837181e+01    0.2102957   0.09011669  60.70 0.0008913698    1.929    0.482
        39 -10.7702    114.3316    225.5745   1.1164828565e+02   1.3161728298e+01    0.3026261    0.1894356  37.85  0.001524294    1.540    0.351
        40 -11.0885    122.1054    208.0954   1.0795956991e+02   1.5056663100e+01    0.3034212    0.2698267 -61.69  0.001969794    1.294    0.227
        41 -12.9361    197.3121    198.7448   9.1501042094e+01   3.2478987308e+00    0.8190126    0.6185788  71.61  0.004336899    2.051    0.512
        42 -12.4634    206.6808    197.8357   8.9559130525e+01   1.7043387996e+00    0.4593206     0.362886   6.42  0.002728336    1.270    0.212
        43 -12.6289    230.9491    202.6471   8.6010613403e+01  -3.1679301805e+00    0.7598352     0.432592  30.26  0.004066598    1.609    0.379
        44 -12.8609    129.3396    192.3152   1.0420466121e+02   1.6831571317e+01    0.7314571    0.6140409  44.94  0.004038174    1.125    0.111
        45 -14.2095    130.0226    176.9183   1.0157282865e+02   1.9811595837e+01     1.428002     1.281718  71.85  0.008385779    1.066    0.062
        46 -13.7729    246.9749    181.9250   7.9266718586e+01  -2.9997128535e+00    0.9304051    0.5087357 -18.66  0.004591683    1.965    0.491
        47 -15.8128     78.1414    215.1973   1.1745042317e+02   2.0522330217e+01     1.802517     1.643146  86.14   0.01250303    1.273    0.214
        48 -11.8999    164.1325    161.8487   9.1209253811e+01   1.6225748864e+01    0.3080304    0.3027966 -58.73  0.001774472    1.071    0.066
        49 -13.8462    244.4451    166.6895   7.6599567280e+01  -3.8024463064e-01    0.9758833    0.3788131 -28.56  0.003885823    2.700    0.630
        50 -11.5728    111.3416    172.5748   1.0504341566e+02   2.4072406298e+01    0.5159017    0.4176979 -22.25  0.002752918    1.781    0.438
        51 -15.6616     61.8955    204.3407   1.1955716475e+02   2.4875934265e+01     2.081131     1.056219 -78.19   0.01045153    1.942    0.485
        52 -14.5969    247.3606    148.2630   7.2170290158e+01   1.8713227473e+00      1.53694    0.6952495 -23.95  0.006190888    2.513    0.602
        53 -14.8494     67.3245    169.5826   1.1464505704e+02   3.1573668834e+01     1.878616    0.9562833  85.77  0.003514436    2.647    0.622
        54 -12.1217     86.2406    144.2017   1.0629311823e+02   3.4674986592e+01    0.2726497    0.2398777 -57.00 0.0005663567    1.184    0.155
        55 -10.9832     34.7336    228.9723   1.2637534341e+02   2.3453062616e+01    0.1946557    0.1249779  54.72 0.0006810858    1.265    0.209
        56 -11.0660     23.4674    226.2301   1.2811426384e+02   2.5196705953e+01    0.2774131    0.1325976  46.83  0.001776105    1.732    0.423
        57 -14.1115    243.1575    130.7801   6.8940208842e+01   5.4246128057e+00     1.072442    0.2917329 -33.95  0.003457204    3.434    0.709
        58 -13.5297     15.9121    221.5367   1.2912964243e+02   2.6851803625e+01    0.5803615    0.2934261  74.38  0.002992713    1.558    0.358
        59 -10.3992    105.7983    131.5761   9.8797992818e+01   3.4350796318e+01    0.2574686    0.2096322 -71.97  0.001100201    1.225    0.184
        60 -14.0424     76.2673    229.0200   1.1907820760e+02   1.8207021737e+01    0.9171383    0.5033296  54.99  0.003640669    1.464    0.317
        61  -9.5809    106.5175    120.6392   9.6187097069e+01   3.6771365136e+01    0.1445805    0.1398005  89.27 0.0002926953    1.042    0.041
        62 -14.1391     10.2186    206.3834   1.2931142053e+02   3.0302266346e+01    0.7929516     0.595777  57.16  0.003657992    1.296    0.229
        63 -10.1306    168.0292    113.0576   7.8954584320e+01   2.5307360968e+01    0.2633163    0.1979074 -80.19   0.00113435    1.822    0.451
        64 -10.8078    204.4585    111.0182   7.0933971207e+01   1.7163738961e+01    0.3440101    0.1818871  34.64  0.001278482    2.451    0.592
        65 -10.7585     96.5563    129.4241   1.0078319028e+02   3.6476644920e+01    0.2602787    0.2366636 -30.51  0.001154607    1.273    0.214
        66  -9.9466     52.6521     89.6944   1.0496757359e+02   5.2226911408e+01    0.1386105   0.09294353 -31.95 0.0006085947    1.699    0.411
        67 -12.1930     33.6461     51.2971   1.0158247856e+02   6.2624868330e+01    0.3859586    0.3530754  10.61  0.002546322    1.283    0.221
        68 -12.1866     21.0009     52.1891   1.0697256852e+02   6.3508059333e+01    0.3371758    0.2506483 -28.07  0.002226487    1.301    0.231
        69 -12.9993     35.8737     42.1484   9.7647211982e+01   6.4220641920e+01    0.6331189    0.4745635 -67.51  0.003807414    1.738    0.425
        70 -11.1322      3.6833     44.2494   1.1207002317e+02   6.6221488743e+01     0.288858    0.1942394 -12.68  0.001945155    1.683    0.406
        71 -13.0477    200.1737     34.6393   5.0693247478e+01   3.0634966257e+01    0.5376985    0.4171294  55.32  0.001708791    1.316    0.240
        72 -13.6689    246.0686    230.9121   8.8330221304e+01  -8.9870175382e+00     1.675526     1.366194  10.68   0.01229879    1.132    0.117
        73 -13.6584    248.2594    214.8427   8.5216364902e+01  -7.4593368061e+00    0.8743476    0.6264309 -34.30  0.005472593    1.649    0.394
        74 -11.0316    230.9620    244.4289   9.3022377429e+01  -8.2745061188e+00    0.4500981    0.1861324  28.68  0.002245666    2.294    0.564
        75 -11.8532    165.0477    237.1321   1.0361063288e+02   3.0312545795e+00    0.4381397    0.3422762  -4.82  0.002276342    1.709    0.415
        76 -11.7576     25.7462    233.3766   1.2812261003e+02   2.3652949629e+01    0.1871799    0.1225442  72.99 0.0002996441    1.094    0.086
