#   1 NUMBER                 Running object number                                     
#   2 MAG_AUTO               Kron-like elliptical aperture magnitude                    [mag]
#   3 X_IMAGE                Object position along x                                    [pixel]
#   4 Y_IMAGE                Object position along y                                    [pixel]
#   5 X_WORLD                Barycenter position along world x axis                     [deg]
#   6 Y_WORLD                Barycenter position along world y axis                     [deg]
#   7 A_WORLD                Profile RMS along major axis (world units)                 [deg]
#   8 B_WORLD                Profile RMS along minor axis (world units)                 [deg]
#   9 THETA_WORLD            Position angle (CCW/world-x)                               [deg]
#  10 FWHM_WORLD             FWHM assuming a gaussian core                              [deg]
#  11 ELONGATION             A_IMAGE/B_IMAGE                                           
#  12 ELLIPTICITY            1 - B_IMAGE/A_IMAGE                                       
         1 -12.1212     76.7623     24.3991   2.9105690610e+02   6.9660200764e+00   0.02316745   0.01921505 -85.23  0.001234882    1.372    0.271
         2 -11.2917     90.2174     16.0126   2.9085241435e+02   6.9878268292e+00   0.01711927   0.01093709 -57.60 0.0003488656    1.531    0.347
         3 -11.0737     92.7534      9.1015   2.9078272553e+02   7.0518417982e+00   0.01665436  0.009779619 -47.95 0.0006876868    1.663    0.399
         4  -9.8956     90.5715      2.9016   2.9077171402e+02   7.1332813922e+00   0.02082937   0.01140272  42.85  0.001447638    1.948    0.487
         5 -10.1216     87.6660     10.8946   2.9085200417e+02   7.0591072649e+00   0.02120374  0.009855215 -57.44  0.001922508    2.048    0.512
         6  -9.4568     88.6940      6.6675   2.9081542267e+02   7.1010781221e+00     0.010435  0.007866529 -20.74 0.0005591075    1.449    0.310
         7 -10.6720     13.5872     16.1319   2.9173923761e+02   7.3984749596e+00   0.02309011   0.01157293  37.07  0.002156488    1.982    0.496
         8  -9.7871     26.6063     16.5240   2.9159091563e+02   7.3242169919e+00   0.01559591   0.01430694  38.49   0.00116156    1.126    0.112
         9 -11.5162     42.4442     17.7618   2.9141495073e+02   7.2252439141e+00   0.03373342   0.02329716  10.59  0.003630292    1.553    0.356
        10 -10.6416     43.0965      5.8181   2.9133771106e+02   7.3560197077e+00   0.02446919   0.01302501  10.79  0.002198216    2.279    0.561
        11 -10.9475     38.3006      2.4281   2.9137340143e+02   7.4198949480e+00   0.02122652   0.01735118   0.22  0.002086981    1.276    0.216
        12  -9.4137     32.9087      2.8090   2.9143800081e+02   7.4445741464e+00  0.009651037  0.006612977  21.81 0.0002916986    1.462    0.316
        13 -11.6320     34.9354     12.9626   2.9147379885e+02   7.3195423758e+00   0.02279226   0.01592071 -80.87   0.00144623    1.720    0.419
        14 -11.3947     39.6347     10.5483   2.9140535717e+02   7.3214438367e+00    0.0164634   0.01335574  69.32 0.0001773195    1.457    0.314
        15 -12.0740     30.0835      7.1599   2.9149607125e+02   7.4108350728e+00   0.02804813   0.01981631 -66.85  0.002831928    1.482    0.325
        16 -10.5474    190.1661     14.5029   2.8968952687e+02   6.4646727641e+00   0.01444873   0.00812234 -55.53  0.001426082    1.711    0.415
        17 -10.2073    155.8044     14.3918   2.9008536752e+02   6.6519247287e+00    0.0172456   0.01018127  -8.29  0.001562275    2.347    0.574
        18 -10.5218    212.4277     12.0198   2.8941829086e+02   6.3718966823e+00   0.01228197   0.01088375  31.56 0.0006732317    1.137    0.120
        19 -10.7119     67.3619     11.5164   2.9109035908e+02   7.1614629877e+00   0.03504687   0.01690262  62.27  0.002382653    4.451    0.775
        20 -11.3163     70.6781      6.6792   2.9102376756e+02   7.1979876433e+00   0.01976065   0.01569368  64.56  0.001817946    1.484    0.326
        21 -10.4243     66.4596      6.4863   2.9107141775e+02   7.2228620325e+00   0.01243655  0.009660161  39.16 0.0008048161    1.320    0.242
        22 -10.0230    184.5102     12.0137   2.8974019681e+02   6.5232702500e+00   0.00864392  0.005594738  78.47 0.0005338308    2.273    0.560
        23 -10.1582    118.8471     11.9908   2.9049810005e+02   6.8786075079e+00   0.01096284  0.009091518  21.20 0.0006287391    1.198    0.165
        24  -9.8849    109.6615     11.9744   2.9060412546e+02   6.9283656269e+00  0.009581141  0.007813305 -55.26  0.001123861    1.212    0.175
        25 -10.2408    223.3884     10.8206   2.8928493360e+02   6.3259085432e+00  0.009662923  0.005497822 -49.46 0.0005991894    1.703    0.413
        26 -11.3731     22.1624      9.4298   2.9160095020e+02   7.4278329755e+00   0.01770706   0.01290789 -21.12  0.001128562    1.525    0.344
        27 -10.6056     11.5108      8.0228   2.9171598316e+02   7.5007876901e+00   0.02590778   0.01748281 -32.80  0.002744879    1.597    0.374
        28  -9.8776     15.5647      8.4741   2.9167170944e+02   7.4739727372e+00   0.01218504  0.009453401 -16.34 0.0006735905    1.396    0.284
        29 -10.3622      7.8440      5.1695   2.9174177587e+02   7.5525255567e+00   0.01347918    0.0113075  24.72 0.0009039845    1.184    0.155
        30 -10.5784      9.9856      1.5108   2.9169565835e+02   7.5821745385e+00   0.01408321  0.009558875  20.23  0.001024252    1.488    0.328
        31 -11.0901      4.2562      9.8074   2.9181033013e+02   7.5196128878e+00   0.01552999   0.01449598 -19.62 0.0007957548    1.047    0.045
        32 -10.2771      2.5134      6.5539   2.9181153176e+02   7.5655323425e+00   0.01286366  0.009106766   6.61  0.000830472    1.538    0.350
        33 -11.9604     55.9687      5.3996   2.9118638881e+02   7.2915203939e+00   0.03161989   0.02925211 -23.89  0.004002906    1.059    0.056
        34 -11.7224    151.2082      7.1598   2.9009611386e+02   6.7580353677e+00   0.01868338   0.01499451 -53.47  0.000761648    1.225    0.183
        35 -10.6136    150.9463      2.4530   2.9007159611e+02   6.8123281075e+00   0.01207835  0.008671148  41.60 0.0005139101    1.447    0.309
        36 -11.5624     80.4755      1.7158   2.9088149658e+02   7.2010107369e+00   0.02083455   0.01135141  15.69   0.00111405    2.028    0.507
        37  -9.9982    210.4775      7.9467   2.8941691986e+02   6.4282103334e+00   0.01006643  0.006269785 -59.82  0.001030542    1.589    0.371
        38 -10.1661    218.6189      7.1756   2.8931855312e+02   6.3927099981e+00  0.009354413  0.005534812 -49.27 0.0003804772    1.641    0.391
        39 -10.4898    119.9801      4.5885   2.9044172797e+02   6.9556732087e+00   0.01888546   0.01066341   5.77  0.001174885    2.246    0.555
        40  -9.7130    235.5083      4.5386   2.8910847673e+02   6.3306546830e+00   0.00650131  0.006136343 -19.97 0.0001094088    1.033    0.032
        41  -9.9478    199.1614      3.3721   2.8952060897e+02   6.5409323436e+00   0.01072835  0.007997122 -68.53 0.0008121786    1.419    0.295
        42  -9.8780     76.7595      8.3252   2.9096307102e+02   7.1467414970e+00   0.01485488  0.008218283 -36.68 0.0007341796    2.021    0.505
        43 -11.5201    129.9574      2.9258   2.9031674857e+02   6.9204698888e+00   0.02890012  0.009824097  39.57  0.002204546    2.997    0.666
        44 -11.0026     19.0532      2.6450   2.9159734871e+02   7.5207901783e+00   0.02085304    0.0118953   9.12  0.001957117    2.090    0.521
        45 -10.0151      2.0633      2.7072   2.9179431521e+02   7.6111906535e+00   0.01077871  0.009469842  -1.07  0.000749213    1.149    0.129
        46  -9.7477     96.0295    113.5162   2.9135399833e+02   5.8594920568e+00  0.009142168  0.004766875  48.21 0.0005793903    2.276    0.561
        47 -12.5282      5.1315    240.5754   2.9313957601e+02   4.9160276880e+00   0.03207312   0.02101221  27.59  0.003425959    1.503    0.335
        48 -10.8022      1.7155    248.7243   2.9322600725e+02   4.8424802715e+00   0.02413125  0.009494823 -61.58  0.001998557    2.493    0.599
        49 -12.8657      8.8412    246.4333   2.9313067564e+02   4.8301517898e+00    0.0388356   0.02470276   1.31  0.003874012    1.896    0.473
        50 -11.7088      4.3391    232.6362   2.9310283074e+02   5.0097416871e+00   0.01686229   0.01494272 -52.66  0.001025846    1.116    0.104
        51 -12.1939      8.7124    227.9718   2.9302546282e+02   5.0388928375e+00   0.02598679   0.01913987  21.39  0.001981782    1.358    0.264
        52  -9.7854    248.7001    111.6677   2.8958340061e+02   5.0554777374e+00  0.006930917  0.004675278 -29.33 0.0007032528    1.649    0.394
        53 -11.4932      5.2210    108.7749   2.9237502607e+02   6.4006530383e+00   0.01956723   0.01205301  17.73  0.001919094    1.694    0.410
        54 -10.5991     58.3465    107.4603   2.9175378466e+02   6.1303960998e+00   0.01487178  0.009363428 -22.58   0.00145376    1.947    0.486
        55  -9.5558     79.2665    106.9987   2.9150954887e+02   6.0230997372e+00  0.009060846  0.008577117 -40.36  0.000464117    1.039    0.037
        56 -11.2157     62.6189     99.7610   2.9165964013e+02   6.1941243049e+00   0.01390061  0.009198383  51.48  0.001434219    1.745    0.427
        57 -11.7521     18.5545     94.4840   2.9213794321e+02   6.4901269222e+00   0.02319548   0.01817379 -49.94  0.002327563    1.246    0.197
        58  -9.2606    129.5054     97.5209   2.9087446530e+02   5.8591233573e+00  0.006427889  0.006235802 -14.22 0.0001671743    1.010    0.010
        59  -9.6986     90.4966     96.5621   2.9131911236e+02   6.0801524939e+00  0.006403636  0.006214445  -6.31  5.98909e-05    1.016    0.016
        60 -10.5686     78.8184     94.8171   2.9144378555e+02   6.1626567463e+00   0.01004261  0.008321573 -26.78  0.000385083    1.235    0.190
        61 -10.9819     84.4321     93.7673   2.9137284960e+02   6.1442623110e+00   0.01502047   0.01176637   0.01  0.001664521    1.363    0.266
        62 -11.1221     27.5387     90.8426   2.9201296637e+02   6.4829414293e+00   0.03218203   0.01500099  50.21  0.002625548    2.845    0.649
        63 -10.4229     25.2067     84.8112   2.9200482918e+02   6.5633592187e+00   0.01234429  0.009958565 -67.40 0.0005134711    1.291    0.226
        64  -8.7991     38.3169     92.2687   2.9189673939e+02   6.4090387537e+00  0.006642399  0.004757524 -23.32 0.0002131685    1.556    0.357
        65 -11.4633     11.1794     88.0358   2.9218567320e+02   6.6022695627e+00   0.03053532    0.0129294 -60.21  0.002451487    2.283    0.562
        66  -9.9647     13.5299     82.4582   2.9212607975e+02   6.6524691851e+00  0.009992559  0.007312293 -28.86 4.901995e-05    1.462    0.316
        67  -9.6074     16.2225     89.5562   2.9213623794e+02   6.5581166763e+00   0.01395497   0.00846995   8.45  0.001288377    1.910    0.477
        68  -9.8061     19.1553     87.1424   2.9208831254e+02   6.5695698857e+00   0.01145746   0.00931801 -57.95 0.0007957826    1.224    0.183
        69  -9.7014    118.6504     90.3174   2.9095772325e+02   5.9987389379e+00  0.006886601  0.004818857  58.42 0.0007047821    1.733    0.423
        70 -10.4479     76.4656     89.2390   2.9143846345e+02   6.2381095198e+00   0.01157761   0.01105941  -4.57 0.0004994593    1.022    0.022
        71 -10.0660     44.1156     89.6072   2.9181426437e+02   6.4078669364e+00   0.01499763  0.006648174  36.35    0.0013145    2.206    0.547
        72 -10.1383      1.7048     89.6402   2.9230448770e+02   6.6349701640e+00    0.0115169  0.008326883 -59.11 0.0004936405    1.371    0.271
        73 -11.1201    104.2957     88.0289   2.9111007394e+02   6.1018744411e+00   0.01430476  0.009088985  40.30 0.0009347788    1.621    0.383
        74  -9.8697    124.0047     86.7264   2.9087498415e+02   6.0102744097e+00  0.009278054  0.008376325  19.28 0.0006430701    1.100    0.091
        75  -9.0431    114.2388     86.3021   2.9098522605e+02   6.0677140236e+00  0.006492143  0.004615789 -33.36 -0.000275831    1.483    0.326
        76 -11.0070     54.5912     84.5518   2.9166382012e+02   6.4085016864e+00   0.01872906   0.01188038 -59.91 0.0007614709    1.560    0.359
        77  -9.7459     78.0937     83.2560   2.9138480434e+02   6.2966949049e+00  0.008842576  0.007929505  24.89 0.0003401475    1.113    0.101
        78 -10.3739      3.9673     82.5239   2.9223697738e+02   6.7029750270e+00   0.01332667  0.009750034 -57.72  0.001026538    1.348    0.258
        79 -11.7573     64.0131     81.0463   2.9153456680e+02   6.3973120501e+00   0.02537213   0.01872746 -59.69  0.002865057    1.350    0.259
        80  -9.5966     37.9817     82.0489   2.9184114402e+02   6.5258969516e+00  0.007772348   0.00750166 -21.33 0.0003976001    1.006    0.006
        81  -9.9789    250.3713     80.7969   2.8938370697e+02   5.3934487184e+00  0.009385298   0.00559341 -50.63  0.000608596    1.621    0.383
        82 -10.0574     89.3083     80.3490   2.9123834999e+02   6.2690440222e+00   0.01233349  0.008931978 -78.28 0.0007338941    1.593    0.372
        83  -9.4450     65.7987     75.1750   2.9147973591e+02   6.4537950224e+00  0.008976011     0.007175 -23.53  0.001029433    1.313    0.238
        84  -9.2931    163.6985     79.3016   2.9037367953e+02   5.8794865426e+00  0.006558938    0.0049071  60.17 0.0003426977    1.587    0.370
        85  -8.9526    124.6405     79.3214   2.9082444705e+02   6.0901693896e+00  0.006951462  0.004794259  58.31 0.0007043649    1.770    0.435
        86  -9.5603     24.2352     78.5915   2.9197987162e+02   6.6385923879e+00   0.00910142  0.006167671   5.97 0.0009410984    1.650    0.394
        87  -9.6547      2.9548     78.4571   2.9222503635e+02   6.7541860665e+00   0.00956476  0.006246637  25.50 0.0004566766    1.515    0.340
        88  -9.8580    176.9065     77.1274   2.9020866034e+02   5.8325366878e+00   0.01021862  0.008850618  51.22   0.00123014    1.245    0.197
        89  -9.8429     75.0764     75.8109   2.9137627038e+02   6.3967284663e+00   0.00914234  0.008345353  43.42 0.0002317964    1.146    0.127
        90 -10.7682     55.7726     75.6596   2.9159838789e+02   6.5022468129e+00     0.014601   0.01207908   6.18  0.000793985    1.239    0.193
        91 -10.6969     15.7787     75.9827   2.9206242706e+02   6.7133135172e+00   0.01144266  0.009413871  22.32 0.0008323053    1.208    0.172
        92 -10.2112    224.0455     74.2401   2.8964850294e+02   5.6098344217e+00  0.009956285  0.009043781 -52.68 0.0003396309    1.095    0.087
        93 -10.1815    151.0071     75.0091   2.9049501683e+02   5.9963473537e+00  0.007765155  0.007446699 -33.22 0.0003487853    1.022    0.022
        94  -9.8408     32.5999     73.2619   2.9185218854e+02   6.6537019979e+00   0.01257345     0.008387  41.91 0.0006618421    1.565    0.361
        95 -10.9826     35.7578     72.2423   2.9180975938e+02   6.6482274240e+00   0.02345856   0.01953679 -72.58  0.002022746    1.284    0.221
        96  -9.6997    136.5499     74.2986   2.9065768631e+02   6.0824113032e+00  0.008840655  0.005801884 -48.41 0.0009249832    1.486    0.327
        97 -10.7792      3.7595     73.7719   2.9218849219e+02   6.8026184940e+00   0.02049213   0.01059049  26.08  0.001301872    1.902    0.474
        98  -9.6060     48.9399     74.0000   2.9166766833e+02   6.5576450694e+00    0.0105299  0.003650515  24.79 0.0005676877    2.878    0.653
        99  -9.5339    216.8468     72.1926   2.8971946091e+02   5.6718497348e+00  0.009111096  0.007227891 -30.34  0.000516565    1.299    0.230
       100 -10.3776    105.9257     71.4326   2.9099447155e+02   6.2798547323e+00   0.01120796   0.00893622 -49.34 0.0004487666    1.226    0.184
       101  -9.4633     92.4620     72.4516   2.9115588777e+02   6.3409343763e+00   0.01002468  0.007823503  62.16 0.0008972752    1.507    0.336
       102  -9.0797     90.7079     69.3407   2.9115800507e+02   6.3853889388e+00   0.01006469  0.006272776 -69.22 0.0003326388    1.745    0.427
       103 -10.1071     80.8329     71.7684   2.9128621663e+02   6.4112419149e+00   0.01242542  0.008385221  76.87  0.001194329    2.067    0.516
       104 -10.5985     47.5976     69.0461   2.9165432692e+02   6.6206149669e+00   0.02805309   0.01089044  13.80  0.001954043    3.772    0.735
       105  -9.9601     10.8175     69.0269   2.9207930732e+02   6.8182097490e+00    0.0129666  0.007605239 -60.08  0.001297751    1.681    0.405
       106  -9.1057      5.4475     67.9409   2.9213506575e+02   6.8592125314e+00  0.009149021  0.005628596  81.72   0.00080809    2.541    0.607
       107 -11.4196     17.0742     64.3815   2.9197995101e+02   6.8369535225e+00   0.01678235   0.01627686 -24.71  0.001427028    1.015    0.014
       108 -10.9097     34.6133     64.9754   2.9178067631e+02   6.7361629534e+00    0.0141622   0.01199979 -46.66 0.0005926067    1.155    0.134
       109 -10.9384     39.2690     62.8671   2.9171458886e+02   6.7348919273e+00    0.0217121   0.01250531 -33.69  0.001404356    1.993    0.498
       110 -10.7670     41.0066     59.2488   2.9167342950e+02   6.7662800967e+00   0.01668955   0.01177167  -9.95  0.001773516    1.647    0.393
       111  -9.5569    126.8520     61.6416   2.9069573284e+02   6.2771395206e+00  0.009415493  0.006287465  24.17 0.0002949502    1.488    0.328
       112 -10.1485    133.3704     64.1294   2.9063501569e+02   6.2139723971e+00    0.0139825   0.01020409 -65.12  0.001553846    1.413    0.292
       113 -11.5896      3.2529     60.0781   2.9211469584e+02   6.9594709018e+00   0.02501744   0.01051541  37.55  0.002144844    2.352    0.575
       114 -10.8475     71.6687     62.1535   2.9133602993e+02   6.5687583249e+00    0.0198946  0.009081641  51.32  0.001559771    3.078    0.675
       115  -9.9054     71.4748     57.8053   2.9131291827e+02   6.6187281148e+00  0.009060973   0.00747856 -48.12 0.0004242987    1.185    0.156
       116 -10.7890     62.8395     61.8922   2.9143652050e+02   6.6191940679e+00   0.01108095  0.008941471  -3.46 0.0008060786    1.311    0.237
       117 -10.4784     60.5645     57.8668   2.9143934621e+02   6.6767235000e+00   0.01194318   0.01080921  70.88 0.0006069292    1.230    0.187
       118 -11.1485     53.0941     61.5778   2.9154730214e+02   6.6751262450e+00   0.02394387   0.01563111  43.23  0.002225421    1.621    0.383
       119 -10.6487     54.5181     58.4764   2.9151277302e+02   6.7023721497e+00   0.01569579   0.01030286  52.95  0.001374968    1.796    0.443
       120 -10.2659      1.5276     54.7075   2.9210339507e+02   7.0291566896e+00  0.009686354  0.006400445 -62.83  0.001016907    1.532    0.347
       121 -11.2184      7.7345     49.9328   2.9200383343e+02   7.0496288034e+00   0.04420436    0.0235762 -10.11  0.003557748    3.057    0.673
       122 -12.8038     20.9617     57.3423   2.9189403535e+02   6.8953265795e+00   0.02584002   0.01556338  30.40  0.001353518    1.624    0.384
       123 -10.7720     19.8200     51.6466   2.9187407086e+02   6.9655452355e+00   0.01859402   0.01255312 -45.38   0.00141934    1.460    0.315
       124 -11.6870     17.5036     45.2960   2.9186387187e+02   7.0494258553e+00   0.02833819    0.0237192  12.10  0.002821828    1.203    0.169
       125  -9.0285    178.0036     59.0063   2.9009012295e+02   6.0303782599e+00   0.00761813  0.007275232 -37.57            0    1.031    0.030
       126  -9.4054    119.3012     59.6173   2.9077108813e+02   6.3406529508e+00  0.006865846  0.004885684  65.10 0.0007021334    1.778    0.438
       127  -8.8860    158.3276     57.3189   2.9030722908e+02   6.1557528006e+00  0.006979419  0.004702748 -26.88 0.0007046786    1.682    0.405
       128 -10.7852      7.5309     55.8585   2.9204067811e+02   6.9840356460e+00   0.01269141   0.01068112  28.86  0.000828723    1.186    0.157
       129 -10.7114    114.6316     54.2787   2.9079384055e+02   6.4258934832e+00   0.01474919   0.01172551   1.58  0.001000299    1.327    0.247
       130 -11.1983    105.9311     53.7588   2.9089128201e+02   6.4786616223e+00   0.01721788   0.01598364 -10.21  0.002175202    1.061    0.058
       131 -11.6044     86.5211     53.6841   2.9111504635e+02   6.5840955390e+00   0.02755924   0.01306559  30.81  0.002526651    2.023    0.506
       132  -9.4489     76.8147     54.8272   2.9123385469e+02   6.6234971270e+00  0.008535163   0.00725698  52.13 0.0002739762    1.278    0.218
       133 -10.2066     34.5030     53.4844   2.9171502527e+02   6.8660703251e+00   0.01501502  0.008947382 -36.93  0.001074182    1.818    0.450
       134 -10.3510    169.7709     52.9269   2.9014954550e+02   6.1432625453e+00   0.01000443  0.008912142  18.34 0.0002874144    1.114    0.102
       135 -11.8265     66.7378     52.3839   2.9133604340e+02   6.7052110765e+00   0.03031294   0.01189112  21.15  0.002404182    2.757    0.637
       136  -9.2193    212.0047     48.9607   2.8963938722e+02   5.9592047749e+00  0.007723889  0.007108754  13.54 0.0003212315    1.076    0.070
       137  -9.0758    176.3337     52.2813   2.9007007107e+02   6.1150210195e+00  0.006786167  0.004756849 -23.49 0.0001980579    1.613    0.380
       138 -10.4491     38.2697     48.8710   2.9164460354e+02   6.8977543206e+00   0.01098194  0.009074919  -4.98  0.001205087    1.266    0.210
       139  -9.5196    146.2336     48.1902   2.9039344914e+02   6.3237615262e+00  0.008385937   0.00731206  69.09 0.0002216524    1.299    0.230
       140 -10.1970     31.6742     46.3784   2.9170632973e+02   6.9612119633e+00   0.02020985   0.01038714 -78.62  0.001681317    2.800    0.643
       141 -10.4973     77.6202     46.0672   2.9117344935e+02   6.7177094087e+00   0.01438459   0.01061334  16.82  0.001147857    1.379    0.275
       142 -10.6446     68.5201     46.7347   2.9128250203e+02   6.7591767569e+00   0.01117788  0.009880202  -8.47 0.0001906661    1.143    0.125
       143  -9.7236     91.0559     44.5550   2.9100938676e+02   6.6623595083e+00  0.009739537  0.008349716 -56.00 0.0004632386    1.160    0.138
       144 -10.8898     26.0207     43.7400   2.9175632496e+02   7.0212403607e+00    0.0204969   0.01385424  55.62  0.002132054    1.776    0.437
       145 -10.5627     22.4804     38.5071   2.9176677504e+02   7.0991086021e+00   0.01493948   0.01011319  50.43  0.001570952    1.676    0.403
       146 -11.0747     26.6033     35.0622   2.9169902266e+02   7.1157382955e+00   0.02137252   0.01262424 -35.67  0.001332334    1.869    0.465
       147 -10.1227     70.3960     41.8620   2.9123239914e+02   6.8038954092e+00   0.01497993  0.008550172 -63.72  0.001470306    1.791    0.442
       148 -10.0841      2.4768     42.4750   2.9202121954e+02   7.1617174411e+00   0.01291105  0.008860334 -15.30  0.001012355    1.720    0.419
       149  -9.2827      5.5073     39.9928   2.9197171843e+02   7.1734063077e+00   0.01312203  0.005585963 -55.04 -0.0001158813    2.188    0.543
       150  -9.0085    183.3080     41.6924   2.8992771716e+02   6.1963069024e+00  0.006618474  0.004900227  60.19  0.000702034    1.613    0.380
       151 -10.7819    139.7946     40.7412   2.9042424518e+02   6.4423027756e+00   0.01111582   0.01029079  73.18 0.0003745447    1.189    0.159
       152 -10.4443     36.1515     40.4441   2.9161998249e+02   7.0039367300e+00   0.01865759    0.0104762 -50.12  0.001843783    1.717    0.418
       153  -9.3910     51.2576     39.9458   2.9144243539e+02   6.9283832276e+00  0.008128133  0.005587407 -63.39 0.0004675189    1.481    0.325
       154  -9.5371     43.6398     40.3548   2.9153288688e+02   6.9647189972e+00   0.01284815  0.007512362  -6.40  0.001129787    2.367    0.577
       155 -10.5176     13.1231     38.1411   2.9187285556e+02   7.1534142363e+00   0.01892433  0.008714206 -57.77  0.001706106    2.066    0.516
       156  -9.2925    134.5121     39.5655   2.9047835953e+02   6.4840551934e+00  0.006376181  0.006229654   6.84 5.211126e-05    1.034    0.033
       157  -9.3608    102.2376     38.9516   2.9084749924e+02   6.6651149485e+00  0.008616194  0.005434498 -62.94 0.0008774643    1.608    0.378
       158  -9.7343    130.8864     37.8510   2.9051020262e+02   6.5229122275e+00   0.01042815   0.00847315 -26.72 0.0008597251    1.271    0.213
       159 -11.6286    121.2885     36.1780   2.9061125830e+02   6.5935374378e+00   0.02318661   0.02026907  63.10  0.002824196    1.279    0.218
       160 -10.0658     70.2261     34.8162   2.9119325505e+02   6.8840593357e+00    0.0161709  0.005928592 -52.38  0.001102511    2.506    0.601
       161 -10.7487      2.2965     34.3956   2.9197626157e+02   7.2535806568e+00   0.02315879   0.01195778 -47.75  0.001820738    1.892    0.471
       162 -10.4638      2.2566     28.5965   2.9194294832e+02   7.3190266902e+00   0.01143724  0.009646963  -1.50  0.001364561    1.221    0.181
       163 -10.2596      7.2825     28.2302   2.9188267611e+02   7.2962140595e+00   0.01477632  0.007964701  32.74   0.00101914    1.806    0.446
       164 -11.6893     50.6711     33.8697   2.9141378225e+02   6.9998813843e+00   0.01883435   0.01062196  30.84  0.000773442    1.726    0.421
       165 -11.4762    145.0305     33.1572   2.9031947703e+02   6.4992747706e+00   0.01086068   0.01050872  -6.48   0.00027933    1.013    0.013
       166 -10.8223    141.1274     30.3229   2.9034796638e+02   6.5522263140e+00   0.01435183   0.01132102 -60.53 0.0004917338    1.274    0.215
       167 -11.0292    134.5201     34.0380   2.9044596590e+02   6.5461574796e+00   0.01070762  0.008751768  -1.01 0.0004251048    1.281    0.219
       168 -11.0772     19.3804     31.8954   2.9176410039e+02   7.1901152471e+00   0.02446263   0.01444833 -15.36  0.002234894    2.318    0.569
       169  -9.4936     24.3059     29.9991   2.9169608378e+02   7.1850191534e+00   0.01660868  0.009445473   7.58  0.001538195    2.149    0.535
       170  -9.7971    166.7020     31.1398   2.9005756541e+02   6.4047728592e+00   0.01580913  0.005309652 -59.13  0.001224275    2.773    0.639
       171 -11.6055     43.8011     28.8793   2.9146410916e+02   7.0929311273e+00   0.02547023   0.01923121 -41.19  0.002904959    1.318    0.241
       172 -10.2763    150.7510     29.8329   2.9023400810e+02   6.5057235985e+00   0.01471915   0.00913029  29.26  0.001393192    1.580    0.367
       173  -9.1720    163.5513     37.4356   2.9013073759e+02   6.3510527328e+00  0.006491781  0.006086817 -20.81 0.0001133553    1.042    0.040
       174 -10.3336    104.6397     29.4160   2.9076405969e+02   6.7593881777e+00    0.0147134   0.00946752 -14.38  0.001447359    1.949    0.487
       175  -9.4529    187.5205     29.5049   2.8980783856e+02   6.3104623245e+00   0.01163115  0.006340834   8.00   0.00102927    2.316    0.568
       176  -9.2730    162.2221     29.0100   2.9009680435e+02   6.4529421985e+00  0.008512931    0.0052549 -61.06 0.0007167074    1.617    0.382
       177 -10.1162     69.8774     28.4010   2.9115984731e+02   6.9580817585e+00   0.01240727  0.009092319 -51.22 0.0006216947    1.329    0.248
       178 -10.0716    195.3186    249.6942   2.9100213349e+02   3.7909601987e+00  0.006675743  0.004880567  59.19 0.0004479394    1.632    0.387
       179 -10.0977    229.5983     25.6185   2.8930003809e+02   6.1260480624e+00   0.01396085  0.003737174 -49.03 0.0009542219    3.499    0.714
       180  -9.7830    200.9719     25.3168   2.8962821234e+02   6.2846503469e+00   0.01593863   0.00621593 -61.69  0.001301817    2.538    0.606
       181 -10.0346    113.9621     25.2789   2.9063219696e+02   6.7556123793e+00   0.01114683  0.009183781 -58.84 0.0006143263    1.215    0.177
       182 -10.1770    110.7191     21.9661   2.9065030174e+02   6.8103512923e+00  0.009429738  0.008907194 -34.75 0.0006236133    1.033    0.032
       183  -9.7977    153.4242     25.5711   2.9017823168e+02   6.5391713510e+00    0.0121245  0.005787078  31.20 0.0007421647    2.011    0.503
       184 -10.1655     58.9049     24.5115   2.9126399439e+02   7.0608550534e+00   0.01285834   0.01072716 -45.05  0.001068627    1.174    0.148
       185 -10.1407     52.1355     23.3329   2.9133538614e+02   7.1105108548e+00   0.01766347  0.008351315 -53.66  0.001446484    1.995    0.499
       186  -9.2788    248.9789     22.9702   2.8906129524e+02   6.0506035470e+00  0.007746358  0.007426842  -4.33 0.0004219514    1.019    0.019
       187  -9.7069     84.7431     21.3485   2.9094685051e+02   6.9573359187e+00   0.01299025  0.008193849 -10.86  0.001250645    2.035    0.509
       188 -10.1821     89.1260     21.9162   2.9089951185e+02   6.9273398965e+00   0.02086346  0.009297138 -74.26  0.001601193    3.196    0.687
       189 -11.5609     17.4742    249.1292   2.9304678764e+02   4.7535378688e+00   0.02171028   0.01078875  -2.00  0.001612082    3.534    0.717
       190  -9.3090    229.7295    247.9903   2.9059644824e+02   3.6244821474e+00   0.00837603  0.005615446 -60.56 0.0008819799    1.487    0.328
       191 -10.3649     34.1954    247.3671   2.9284395370e+02   4.6837883081e+00  0.009384235  0.005605102  35.52 0.0005423867    1.661    0.398
       192  -9.7916    217.5426    245.0000   2.9071920028e+02   3.7239025932e+00   0.01457661  0.003652561  25.04 0.0009405043    3.981    0.749
       193  -9.5843    146.3281    244.3371   2.9153484458e+02   4.1153058158e+00  0.007084363  0.004663905 -28.01 0.0007051865    1.728    0.421
       194 -11.2037     13.3891     20.5535   2.9176730177e+02   7.3498136873e+00   0.01939863    0.0133341  44.32   0.00105484    1.550    0.355
       195 -12.5348      9.3426    232.3105   2.9304328311e+02   4.9866230963e+00   0.02873283    0.0208325 -21.64  0.002533949    1.538    0.350
       196  -9.6026      2.6115     20.9489   2.9189428969e+02   7.4031406722e+00   0.01480188  0.007224427 -43.76  0.001329954    2.109    0.526
       197  -9.5646    125.2622     21.6356   2.9048038223e+02   6.7355715084e+00  0.006563051  0.004952084  69.06 0.0006981695    1.641    0.391
       198 -10.6617     30.9060     19.5595   2.9155888413e+02   7.2670017708e+00    0.0135654   0.01100281  82.94   0.00118071    1.468    0.319
       199  -9.6005    202.4843    240.0190   2.9086344777e+02   3.8612107811e+00  0.009743467  0.006313486 -60.66 0.0007611407    1.537    0.349
       200  -9.6006     22.5905     21.3995   2.9166579512e+02   7.2909416612e+00  0.006473158  0.005945988 -22.54            0    1.071    0.066
       201  -9.2236    130.3576     20.7115   2.9041613376e+02   6.7184424842e+00  0.006804678  0.004781296  55.80  0.000467667    1.682    0.405
       202  -9.6390    100.8599     19.8247   2.9075170038e+02   6.8876015682e+00  0.008994568  0.007537086  56.88  0.000516684    1.329    0.247
       203  -9.2191     60.0140    241.0000   2.9250964480e+02   4.6170286943e+00   0.01744648  0.003651897  24.96  0.001032781    4.767    0.790
       204 -12.2503     26.3184    235.9024   2.9286841366e+02   4.8552027893e+00   0.02141376   0.01544413 -55.16  0.001550509    1.355    0.262
       205  -8.9773    155.5690    235.5152   2.9137722461e+02   4.1648677608e+00  0.006410745  0.006197149 -24.26 4.005383e-05    1.010    0.010
       206  -9.8396    249.1697    234.1409   2.9029234423e+02   3.6753359907e+00    0.0098081  0.008489321 -21.17 0.0005489622    1.172    0.147
       207  -8.9151     79.7166    231.3691   2.9222684251e+02   4.6197265698e+00  0.006716779  0.004925432  66.34  0.000701684    1.698    0.411
       208  -9.6035    140.4208    227.2043   2.9150338124e+02   4.3400638300e+00   0.00883634  0.006325771 -81.47 0.0006133357    1.664    0.399
       209  -9.5095    109.6950    226.6676   2.9185418353e+02   4.5115105066e+00  0.006959992  0.004672264 -29.17 0.0007038113    1.661    0.398
       210 -10.0218    237.0000     18.0017   2.8917016061e+02   6.1714159105e+00    0.0105276  0.003655916 -62.31 0.0003713308    2.883    0.653
       211  -9.5784    115.3259     17.5833   2.9057146843e+02   6.8347576225e+00  0.009709863  0.007349504  61.07 0.0005842655    1.569    0.363
       212 -11.4835    108.2156     16.6821   2.9064834730e+02   6.8832534398e+00   0.01233326   0.01068408  37.59 0.0003419749    1.181    0.154
       213 -10.9300     20.1154     16.8114   2.9166767663e+02   7.3558171222e+00   0.01220279  0.008929195  23.47 0.0003805495    1.358    0.264
       214 -10.2307     32.6501    225.3640   2.9273447055e+02   4.9400174849e+00    0.0162589  0.007342091  31.85  0.001449883    2.114    0.527
       215  -9.5233    175.4810     15.4810   2.8986466028e+02   6.5332141359e+00  0.006439415  0.006212687 -16.79 0.0008100776    1.001    0.001
       216 -10.0902     25.6199    225.1465   2.9281424274e+02   4.9801540502e+00  0.009755389  0.005457418 -49.98 0.0009471481    1.725    0.420
       217  -9.1283      1.2832     15.3077   2.9187678776e+02   7.4736973919e+00  0.006720286  0.004685639 -29.30 0.0002614534    1.564    0.361
       218  -9.7527    144.0459     14.3728   2.9022100347e+02   6.7157166152e+00  0.009016898  0.007933442  19.56 0.0004559143    1.128    0.113
       219 -11.1734      2.3603    220.3030   2.9305434494e+02   5.1593277379e+00   0.01755839  0.008323663 -72.45  0.001461917    2.653    0.623
       220 -11.0553      7.7246    217.6375   2.9297709105e+02   5.1606468772e+00   0.01625315   0.01402099 -49.13   0.00151419    1.137    0.120
       221  -9.7519    209.3187    211.9916   2.9062174671e+02   4.1397822309e+00  0.009394804  0.008163229 -52.67 0.0008788403    1.137    0.120
       222 -10.5454      3.8488    212.5864   2.9299255970e+02   5.2383233860e+00   0.01524256  0.007825187  32.78  0.001441019    1.888    0.470
       223  -9.4836    249.4848    211.4987   2.9015685155e+02   3.9283568688e+00  0.006488292  0.006178638 -20.69 -3.797155e-06    1.018    0.018
       224  -9.5855     20.3775    209.7069   2.9278532633e+02   5.1822421430e+00  0.006921056   0.00473148  55.56  0.000101337    1.742    0.426
       225  -9.7338    246.7199    206.8799   2.9016173352e+02   3.9952616000e+00   0.01062733  0.007390774 -45.73  0.001150602    1.415    0.293
       226 -10.3407      2.4766    205.9312   2.9296988447e+02   5.3206737424e+00   0.00988529  0.006353894 -62.55 0.0007450064    1.568    0.362
       227  -9.5007    197.2518    203.9981   2.9071409400e+02   4.2948994921e+00  0.008404789  0.005501034 -61.22 0.0005623247    1.528    0.346
       228 -10.7236      9.5287    203.4052   2.9287394706e+02   5.3113785321e+00   0.01163243   0.01118511 -19.22 0.0007373584    1.004    0.004
       229  -8.9849    181.5232    199.5071   2.9086903077e+02   4.4303460852e+00  0.006388724  0.006274915  -6.07 -5.246301e-06    1.030    0.029
       230  -9.5302     23.2346    197.5611   2.9268205523e+02   5.3038035610e+00  0.008878258  0.006230719   5.92 0.0004198572    1.567    0.362
       231  -9.3614      6.5242    191.5085   2.9283973540e+02   5.4615388371e+00  0.006371991  0.006278784  -1.45 5.891379e-05    1.036    0.035
       232 -10.3449     15.4652    185.4457   2.9270149043e+02   5.4819672808e+00   0.01274539  0.006457034 -64.70  0.001166501    2.046    0.511
       233  -9.1545    250.4751    183.4585   2.8998202866e+02   4.2384459997e+00  0.006498143  0.006142431 -20.42 0.0008085091    1.029    0.028
       234 -10.6244      4.7268    167.4573   2.9272116541e+02   5.7421943574e+00   0.01573637   0.01057929  51.58  0.001262701    1.710    0.415
       235  -9.2990     41.6390    158.2287   2.9224168638e+02   5.6482855851e+00   0.00924549  0.005670429 -52.23 0.0009391585    1.572    0.364
       236  -9.2158    247.4626    155.5412   2.8985383026e+02   4.5687772317e+00  0.006457069  0.006173883 -19.34 9.431698e-05    1.012    0.012
       237  -9.5409    243.0000    154.9850   2.8990192861e+02   4.5991816138e+00   0.01048289  0.003657989 -62.37 0.0005575233    2.867    0.651
       238  -9.9859     21.9382    143.3260   2.9238257234e+02   5.9218620342e+00    0.0112871  0.009135975 -78.75  0.001275431    1.373    0.272
       239 -10.6530     12.7248    130.5513   2.9241479987e+02   6.1151600938e+00   0.02167204   0.01126757  53.08  0.001480777    2.570    0.611
       240  -9.9558     29.1058    128.7605   2.9221525457e+02   6.0475049176e+00   0.01272348  0.009222636 -84.89 0.0009828515    1.676    0.403
       241  -9.4630     21.1486    126.1441   2.9229194024e+02   6.1196520249e+00  0.008670209  0.007413659  53.07  0.000409894    1.274    0.215
       242 -11.3619     23.6263    121.3398   2.9223542482e+02   6.1604810860e+00   0.02529519   0.01521017  87.75  0.001146296    2.573    0.611
       243  -9.1235     75.3564    119.7434   2.9162886678e+02   5.9006274897e+00  0.006675383  0.004728759  52.59 0.0002726594    1.614    0.380
       244  -9.9583      3.3825    119.1671   2.9245660560e+02   6.2934504791e+00   0.00903796  0.006283178 -77.35  0.000926287    1.668    0.400
       245 -10.5176      3.3546    114.0104   2.9242698903e+02   6.3516830275e+00   0.01912733  0.008313071  11.16  0.001426553    3.304    0.697
