#   1 NUMBER                 Running object number                                     
#   2 MAG_AUTO               Kron-like elliptical aperture magnitude                    [mag]
#   3 X_IMAGE                Object position along x                                    [pixel]
#   4 Y_IMAGE                Object position along y                                    [pixel]
#   5 X_WORLD                Barycenter position along world x axis                     [deg]
#   6 Y_WORLD                Barycenter position along world y axis                     [deg]
#   7 A_WORLD                Profile RMS along major axis (world units)                 [deg]
#   8 B_WORLD                Profile RMS along minor axis (world units)                 [deg]
#   9 THETA_WORLD            Position angle (CCW/world-x)                               [deg]
#  10 FWHM_WORLD             FWHM assuming a gaussian core                              [deg]
#  11 ELONGATION             A_IMAGE/B_IMAGE                                           
#  12 ELLIPTICITY            1 - B_IMAGE/A_IMAGE                                       
         1 -18.0581     13.2251     90.8845   1.2300355805e+02   5.5261474544e+01     5.905039     1.128307 -68.79   0.02234855    3.453    0.710
         2 -14.6748    100.3848     57.5305   8.7072923451e+01   5.1439751580e+01     2.242383    0.8923813 -47.57  0.008256576    2.512    0.602
         3 -15.8154    101.4738    100.7084   9.9256013466e+01   4.2162256906e+01     1.873882     1.024673 -62.16   0.00777177    1.996    0.499
         4 -14.7276    128.0830     38.3110   7.2490437346e+01   4.8759454694e+01      1.56209     1.189654 -28.85  0.006997634    1.280    0.219
         5 -14.3911    140.9828     36.1446   6.8717587254e+01   4.5927333917e+01     1.048792    0.8425767 -35.05  0.003630861    1.229    0.186
         6 -13.7636    180.2965     43.6754   6.3804587898e+01   3.4674860898e+01    0.6451803    0.4299476  83.49  0.002798609    1.849    0.459
         7 -15.9576     11.0738     26.6324   1.1063293805e+02   6.9442866152e+01     1.861704    0.9628438 -64.76  0.007623911    1.717    0.417
         8 -14.6330     87.3088      7.2379   6.9973707647e+01   6.2146125081e+01     1.511502    0.6318182  46.07  0.005649494    2.319    0.569
         9 -10.5472     43.2731    244.6653   1.2869879835e+02   2.2280474706e+01    0.1017485   0.04862143  65.14 0.0005880117    1.599    0.375
        10 -16.6681    246.2133     39.3253   5.3739569184e+01   1.8607058008e+01     7.103191     0.781893 -26.51   0.01590572    7.198    0.861
        11 -16.2033     12.1291    227.7638   1.3272100127e+02   2.8130540261e+01     1.507119     0.731355  57.91  0.009196433    1.402    0.287
        12 -17.9096    209.6765    140.4930   8.4672077255e+01   1.2383066446e+01     7.018125      4.90939 -87.18   0.03018383    2.987    0.665
        13 -16.7851    124.3088    175.2293   1.0786210926e+02   2.2838639710e+01     1.706262    0.9761057 -58.35  0.009023694    1.935    0.483
        14 -18.2358     61.8472    214.4635   1.2388657428e+02   2.4928369452e+01     4.032268     2.268879  61.99   0.02715478    1.406    0.289
        15 -17.6627    109.2958    191.2014   1.1295542436e+02   2.2399209922e+01     2.206665     1.312806  52.73   0.01287093    1.429    0.300
        16 -14.5168     89.2724    110.7846   1.0476963623e+02   4.1991794497e+01    0.8310574    0.7882828  85.07  0.003381859    1.088    0.081
        17 -14.4610     11.6476    202.6542   1.3179359950e+02   3.2404939660e+01    0.6796053    0.4329881  58.44  0.004026691    1.211    0.174
        18 -14.5297    111.3587     84.4691   9.2349146514e+01   4.3809538744e+01     1.392352     1.021315  70.64  0.005644694    1.698    0.411
        19 -13.5286      7.4412    195.2419   1.3218820217e+02   3.4108877054e+01    0.4084349    0.2170907  87.24  0.002130966    1.469    0.319
        20 -13.9320     99.5579     85.5548   9.5919104584e+01   4.5808033432e+01     1.000353    0.4960197 -63.00  0.003746049    2.701    0.630
        21 -18.7950    185.0621    182.8919   9.7372140513e+01   1.0785432274e+01     8.294861     4.553952  47.58   0.04305805    1.640    0.390
        22 -12.5569     74.5517    110.4690   1.0865396710e+02   4.4294692716e+01    0.4119162    0.2464619 -37.04   0.00190997    2.341    0.573
        23 -12.6604     80.1123    106.3870   1.0632855156e+02   4.4402009037e+01    0.3498397     0.271998  43.66  0.001220116    1.392    0.282
        24 -12.5904    228.8566    110.3546   7.4434677854e+01   1.2856885365e+01    0.4494383    0.3692286  53.98  0.002075358    1.331    0.249
        25 -18.0236    126.5205    138.2492   1.0115429213e+02   2.9587436978e+01     4.714804     2.611317  47.46   0.02195144    1.733    0.423
        26 -13.4321     35.9697     83.1324   1.1475666133e+02   5.5157737037e+01    0.5824513    0.4181634 -65.48  0.003617441    1.133    0.117
        27 -13.3376     45.7784     75.6802   1.1002508505e+02   5.5849397288e+01    0.7395112    0.4414482 -54.13  0.004044551    1.415    0.293
        28 -13.3538     69.1687     78.9435   1.0324591138e+02   5.2184941695e+01    0.5327377    0.4653901 -20.16  0.001939506    1.360    0.265
        29 -11.8040     92.0487     74.8530   9.5085788022e+01   4.9446048852e+01    0.3335459    0.1901344 -45.31  0.001469304    1.629    0.386
        30 -12.3822    136.2022     66.9135   8.0559172229e+01   4.1958403812e+01    0.5753865    0.3577666  50.53  0.002137196    1.647    0.393
        31 -15.8514    245.5262    112.1529   7.2280917308e+01   9.1216644868e+00     2.432854    0.9808142 -26.16  0.007623271    2.429    0.588
        32 -13.5501    114.1170     54.2494   8.1992692572e+01   4.9237840364e+01    0.9307188    0.3806563  46.19  0.003450888    2.556    0.609
        33 -12.6092    116.8061     47.8021   7.8932826143e+01   4.9800498289e+01    0.4384203    0.3699566 -60.75  0.001247254    1.337    0.252
        34 -11.6711     39.5360    188.7445   1.2606107738e+02   3.2122206234e+01    0.2635074     0.136648  57.69 0.0009534202    1.554    0.356
        35 -17.1454    104.2618    208.2491   1.1580592557e+02   2.0247054660e+01     2.094983    0.7059108  44.06  0.009333327    2.377    0.579
        36 -13.6910    174.3555     45.4755   6.5419226988e+01   3.5974458548e+01     0.499445     0.442239  17.19  0.002163428    1.213    0.176
        37 -16.7052      8.6599    154.4151   1.2984724406e+02   4.1844904697e+01     1.328367    0.7489521  89.61  0.008848771    1.368    0.269
        38 -13.9967      1.9510    135.1288   1.3005897170e+02   4.6356612875e+01    0.6548735    0.1479117 -77.65  0.002764123    3.352    0.702
