#   1 NUMBER                 Running object number                                     
#   2 MAG_AUTO               Kron-like elliptical aperture magnitude                    [mag]
#   3 X_IMAGE                Object position along x                                    [pixel]
#   4 Y_IMAGE                Object position along y                                    [pixel]
#   5 X_WORLD                Barycenter position along world x axis                     [deg]
#   6 Y_WORLD                Barycenter position along world y axis                     [deg]
#   7 A_WORLD                Profile RMS along major axis (world units)                 [deg]
#   8 B_WORLD                Profile RMS along minor axis (world units)                 [deg]
#   9 THETA_WORLD            Position angle (CCW/world-x)                               [deg]
#  10 FWHM_WORLD             FWHM assuming a gaussian core                              [deg]
#  11 ELONGATION             A_IMAGE/B_IMAGE                                           
#  12 ELLIPTICITY            1 - B_IMAGE/A_IMAGE                                       
         1 -11.5753    207.6868     31.0081   4.6589359464e+01   2.9164103533e+01    0.9246428    0.7320276 -65.27  0.004886152    1.214    0.176
         2 -11.0284    214.7548     23.7247   4.3860410621e+01   2.8301885593e+01    0.6299534     0.394241  47.43  0.001757343    1.857    0.461
         3 -10.9329      2.1592     34.8180   1.0873514975e+02   6.8409394552e+01    0.8815429    0.1435068 -61.42  0.002876688    5.227    0.809
         4 -10.1081      1.7391     19.1622   1.0375057910e+02   7.1368660655e+01    0.3723648    0.0935201 -50.50  0.001688876    2.592    0.614
         5 -11.3081      2.1372      6.9342   9.8472106922e+01   7.3436807814e+01     1.073543    0.2613707 -54.66  0.003777667    5.535    0.819
         6 -11.8324    224.8454     12.8461   4.0132097427e+01   2.7107675319e+01    0.7489151    0.6213533 -60.29  0.002743355    1.084    0.078
         7 -10.6371    141.6273    242.4097   1.0681972073e+02   5.6602720019e+00    0.4083416    0.1525592  49.02  0.001812035    2.419    0.587
         8 -10.7820    119.8505    247.8455   1.1148358197e+02   8.2316143723e+00    0.3443502    0.1838977  45.04  0.001878292    1.458    0.314
         9 -10.2870    114.7486    242.8065   1.1188876083e+02   9.8331380781e+00    0.3597057    0.1397373 -63.00  0.001665628    3.358    0.702
        10 -11.0237    103.6381    250.1420   1.1465963250e+02   1.0305835405e+01     0.883545    0.2134691  36.37  0.002912088    5.084    0.803
        11 -10.6081     81.0449    249.9997   1.1866288697e+02   1.3561254372e+01    0.5755422    0.1564116  38.95  0.002443098    3.217    0.689
        12  -8.7648     83.4953    246.4802   1.1793617651e+02   1.3815628110e+01    0.1935204    0.1065995 -75.98 0.0001498584    2.055    0.513
        13  -8.2370     53.0383    250.5949   1.2351451708e+02   1.7135528554e+01    0.1557855   0.08164232  46.32 4.287206e-05    1.521    0.342
        14 -11.9352     27.9270    215.5625   1.2564888201e+02   2.6520503442e+01    0.8269801    0.3278666 -89.75  0.003431521    2.546    0.607
        15 -12.2402      4.7968    184.2412   1.2807083215e+02   3.5157239626e+01     1.254883    0.4476183 -85.86  0.003602471    2.417    0.586
        16 -14.2818      4.0922    142.5774   1.2526284896e+02   4.4369144064e+01     7.511995     1.444634 -78.34   0.02413763    4.908    0.796
        17 -11.5736    113.0247    229.8992   1.1079114806e+02   1.2304031729e+01    0.7265077    0.2177232  46.35  0.002953506    2.728    0.633
        18  -8.8097    150.2926    229.3525   1.0347221513e+02   6.3092825204e+00    0.1214693   0.09411585   8.17 0.0006874311    1.679    0.405
        19  -9.2338    159.6789    228.3522   1.0150870567e+02   4.8902001964e+00     0.203804    0.1444228  64.59   0.00114586    1.747    0.428
        20 -10.8828     96.4570    224.5123   1.1341458895e+02   1.5837893296e+01    0.5039032    0.2171046  40.85   0.00197258    2.007    0.502
        21  -9.0436     83.4807    241.9331   1.1754624672e+02   1.4600162557e+01     0.155918      0.10697 -75.26 0.0007891164    1.582    0.368
        22  -8.6467    164.4486    225.5009   1.0016776780e+02   4.5325266292e+00    0.1286175    0.1074468  36.25 0.0001770805    1.016    0.016
        23  -8.1051    163.6665    241.6657   1.0259159733e+02   2.2044466130e+00    0.1224935   0.08655622  14.35  0.000705222    1.735    0.424
        24 -10.1239     47.9176    224.2665   1.2259899499e+02   2.2533641780e+01    0.2837387    0.1987587  58.15  0.000296182    1.151    0.131
        25 -10.0640     44.9966    219.6976   1.2280075864e+02   2.3767346249e+01    0.2228424    0.1509927 -85.30 0.0007158546    1.330    0.248
        26 -10.0470     38.3081    223.9036   1.2431616251e+02   2.3743931389e+01    0.2763392    0.1627661  42.55  0.001779355    1.606    0.377
        27 -10.3910     73.7156    219.2971   1.1731573116e+02   2.0130456497e+01    0.4081609    0.1700195  50.90  0.002013202    2.024    0.506
        28 -11.2591     34.8900    211.0477   1.2406071460e+02   2.6647526655e+01    0.3971598    0.3143193 -62.58 0.0009373858    1.591    0.372
        29 -10.5871    118.3697    238.5279   1.1074425238e+02   9.9826374590e+00    0.4337839    0.1703656  52.61  0.001947517    2.445    0.591
        30  -9.9480     62.2226    182.2671   1.1586911743e+02   2.9403707534e+01    0.3681126      0.25041 -43.06  0.002000122    2.052    0.513
        31  -9.9499     67.4327    176.4227   1.1400760437e+02   3.0011386823e+01     0.285313    0.2179573 -53.16 0.0008728458    1.502    0.334
        32  -7.4618     49.3478    181.2816   1.1859376565e+02   3.1245645720e+01    0.1122121   0.09492037 -41.56 0.0007014077    1.644    0.392
        33  -9.3118     85.0228    237.9911   1.1691330743e+02   1.5073144290e+01    0.2072801    0.1120323  65.47  0.001149093    1.826    0.452
        34  -7.8608    195.4583    168.5379   8.3732552558e+01   8.5063500936e+00    0.1428881    0.1336618  15.82 0.0008077459    1.034    0.032
        35  -9.8838     77.0846    166.1159   1.1037541319e+02   3.1002623557e+01    0.3599708    0.2251937 -61.27 0.0005096701    1.535    0.349
        36 -10.9436     83.8579    159.9098   1.0779480614e+02   3.1431768297e+01    0.6467863    0.4808773 -37.17  0.001305394    1.745    0.427
        37 -10.4735     74.0603    155.6150   1.0956387504e+02   3.3891973126e+01    0.8380131    0.3673457  67.03  0.002440671    5.293    0.811
        38 -11.6305     64.3702    162.4808   1.1293125852e+02   3.3620748321e+01    0.4892841    0.2867365 -46.79  0.001595238    2.058    0.514
        39 -10.6270    135.3965    230.7737   1.0655572409e+02   8.5490380401e+00    0.4653483    0.2259531 -36.26  0.001994384    3.694    0.729
        40 -12.9209      8.6962    207.5212   1.2865185860e+02   3.0048322304e+01     1.070269    0.9011906  39.73  0.004667405    1.574    0.365
        41 -10.4978     70.4747    145.5143   1.0889329522e+02   3.6801727114e+01    0.4711877    0.2749537 -53.80  0.001440146    1.661    0.398
        42 -11.1952     67.6013    142.7800   1.0920370512e+02   3.7854226075e+01    0.5944885    0.4027734 -70.91   0.00207603    1.358    0.264
        43 -10.4013     86.4557    143.2179   1.0430730402e+02   3.4974585870e+01    0.2936523    0.2603998 -50.40 0.0005798014    1.199    0.166
        44  -8.7530     97.6647    144.7477   1.0165844343e+02   3.2773778707e+01    0.2629594    0.1901347  24.65  0.001267466    1.721    0.419
        45  -8.9272    108.5766    132.0767   9.6183267587e+01   3.3832094356e+01    0.5708887    0.2170644  39.49  0.001987086    2.730    0.634
        46  -9.0651     96.6602    128.7836   9.8701106393e+01   3.6741633701e+01    0.2840115    0.2265739 -21.03 0.0007188152    1.621    0.383
        47  -7.9335    106.5330    120.4904   9.4104143876e+01   3.6934267795e+01    0.1505998     0.144169 -56.00 0.0001542223    1.033    0.032
        48  -8.1289    168.0206    113.0437   7.6573928184e+01   2.5336291347e+01    0.2572964    0.1966561 -77.68 0.0008321851    1.747    0.428
        49  -7.6114    205.6712    110.3214   6.8103447071e+01   1.7036273443e+01    0.1562487    0.1194269 -71.25 0.0007048608    1.691    0.409
        50  -8.4830     73.3454     84.0367   9.4805435544e+01   5.0988628381e+01    0.2043942    0.1740833 -48.23 0.0007529235    1.073    0.068
        51 -13.8469      7.3790    240.0866   1.3040405324e+02   2.4067296970e+01     2.091016     1.397098  69.55   0.01382606    1.013    0.013
        52  -9.2810     13.3155     60.5612   1.1066866819e+02   6.2502970281e+01    0.2139818    0.1254965 -69.88 0.0009760554    1.632    0.387
        53  -8.7394    194.4886     49.5095   5.3525843647e+01   3.0006231012e+01    0.1476946    0.1391964 -77.40 0.0002551682    1.008    0.008
        54  -8.9262    141.7839     47.5877   6.2820947123e+01   4.3815662001e+01     0.240624    0.2084104 -79.74 0.0005931355    1.338    0.252
        55  -9.4468    137.9599     44.3376   6.2574507883e+01   4.5248909509e+01    0.4320299    0.2845388 -77.82  0.001744343    2.486    0.598
        56 -11.3806    199.1992     37.0392   4.9332542447e+01   3.0531568150e+01    0.7244023    0.4980299  64.93  0.002605074    1.405    0.288
        57 -10.9327     96.5782    246.3924   1.1557934702e+02   1.1960374593e+01    0.4933194    0.2708021  49.85  0.002479321    1.415    0.293
        58 -13.5734     44.9754    200.4227   1.2128462166e+02   2.7652966217e+01     2.377332     1.009485  64.48   0.01120153    2.481    0.597
        59 -10.1707    128.6486    246.5376   1.0972126190e+02   7.0739596214e+00    0.2038892    0.1553205 -68.78   0.00136281    1.620    0.383
        60 -10.3329     71.9375    243.6076   1.1975352783e+02   1.5898705505e+01    0.3240452    0.1402528  55.98  0.001745891    1.933    0.483
        61 -10.3270     64.8042    241.3068   1.2083690323e+02   1.7251549441e+01     0.331573      0.20509 -56.86  0.001546474    2.122    0.529
