#   1 NUMBER                 Running object number                                     
#   2 MAG_AUTO               Kron-like elliptical aperture magnitude                    [mag]
#   3 X_IMAGE                Object position along x                                    [pixel]
#   4 Y_IMAGE                Object position along y                                    [pixel]
#   5 X_WORLD                Barycenter position along world x axis                     [deg]
#   6 Y_WORLD                Barycenter position along world y axis                     [deg]
#   7 A_WORLD                Profile RMS along major axis (world units)                 [deg]
#   8 B_WORLD                Profile RMS along minor axis (world units)                 [deg]
#   9 THETA_WORLD            Position angle (CCW/world-x)                               [deg]
#  10 FWHM_WORLD             FWHM assuming a gaussian core                              [deg]
#  11 ELONGATION             A_IMAGE/B_IMAGE                                           
#  12 ELLIPTICITY            1 - B_IMAGE/A_IMAGE                                       
         1 -11.7272    211.2042     34.1125   4.1894945805e+01   2.8413094842e+01    0.9488708    0.6890092 -47.68  0.004662957    1.298    0.229
         2 -11.7244    229.7590     15.6107   3.5691597381e+01   2.6380480254e+01    0.6971679    0.5624395 -66.60  0.002677431    1.058    0.054
         3  -9.4449      2.0000      5.9888   9.2765417174e+01   7.3465937769e+01    0.2363282    0.1085336 -43.74  0.001038234    1.804    0.446
         4  -8.0807    124.0569      4.5546   4.5915655400e+01   5.2746576305e+01    0.2022006    0.1170676  66.07  0.001013433    1.577    0.366
         5  -9.9785    126.9982    239.3529   1.0429739642e+02   7.7846070551e+00    0.2713981    0.2159838  72.01   0.00170161    1.455    0.313
         6 -11.7038     82.0308    243.6990   1.1370100113e+02   1.3559096249e+01    0.9585108    0.3359533  30.91  0.003853356    3.475    0.712
         7 -11.2836     60.5638    248.7311   1.1817253502e+02   1.5443355403e+01     1.021857    0.4240809  29.82  0.004175769    2.954    0.661
         8  -9.6001     74.4820    250.3859   1.1572407882e+02   1.3366376144e+01    0.5134699     0.193227  39.64   0.00256358    2.145    0.534
         9 -11.9221     84.3272    248.7985   1.1372817760e+02   1.2332059254e+01     1.587196    0.4747234  30.38  0.005230179    5.301    0.811
        10 -12.2053     18.2137    219.3155   1.2405226085e+02   2.5850796597e+01     1.161807     0.478998  67.46  0.005821317    2.356    0.576
        11 -13.7260      3.2012    132.2189   1.2074442813e+02   4.6528366290e+01     8.692797    0.9701335 -75.25   0.01913179    9.530    0.895
        12 -13.6360     38.0936    194.5076   1.1821512475e+02   2.9046271896e+01     3.913394     1.511104  70.88   0.01391403    4.271    0.766
        13 -10.1692     33.6741    236.4366   1.2224513497e+02   2.0885223778e+01    0.4624574      0.17394  84.01  0.002004303    3.581    0.721
        14  -9.4124    136.1845    237.0132   1.0213173471e+02   6.7628099627e+00    0.1943683    0.1421925 -13.14  0.001082702    1.948    0.487
        15 -10.9376     83.6669    227.7077   1.1180992698e+02   1.6345402127e+01    0.9792607    0.4588228 -82.57  0.004175243    3.301    0.697
        16 -11.0167     88.0018    226.8637   1.1082979824e+02   1.5899423320e+01     0.607611    0.3636166 -88.85  0.002132623    2.113    0.527
        17  -9.9669    121.3211    224.7667   1.0360124721e+02   1.1293642803e+01    0.3177445    0.2159461  30.66  0.001757976    1.431    0.301
        18 -13.1962      5.3219    241.0570   1.2744839258e+02   2.2898888845e+01       1.8362     1.032857 -82.29   0.01281619    1.581    0.367
        19 -11.3342    125.6711    230.3901   1.0342758528e+02   9.5754738581e+00    0.4845817    0.3827804  88.77  0.002923328    1.576    0.366
        20 -10.3705     97.2976    227.5627   1.0898352343e+02   1.4421738642e+01    0.3781635    0.2060862  47.30  0.001985248    1.589    0.371
        21 -10.0717     33.1694    227.0678   1.2172915679e+02   2.2757675289e+01    0.2961392    0.1438869 -78.15  0.001095808    1.938    0.484
        22 -10.4612     30.7353    218.8253   1.2163386457e+02   2.4671166487e+01    0.4325429    0.2191003  79.35  0.002381501    1.933    0.483
        23  -9.2932    164.5295    218.4825   9.3532781496e+01   5.3699191794e+00    0.3229946    0.1624175 -43.98  0.001513552    2.223    0.550
        24  -9.1719    123.9808    219.1926   1.0228012575e+02   1.1924817560e+01    0.3206631    0.1699929 -74.93   0.00128269    3.442    0.709
        25  -9.5601     73.1952    219.3633   1.1311742509e+02   1.9443958981e+01    0.2668641    0.2406203  38.58  0.001807068    1.257    0.204
        26  -9.3948     72.7306    214.4435   1.1270810189e+02   2.0516714087e+01    0.2707222    0.1278532  49.46  0.001315956    1.907    0.476
        27 -12.7923      8.9177    207.4243   1.2511960247e+02   2.9152608543e+01    0.9935257    0.8395548  34.11  0.005975767    1.500    0.333
        28  -9.0859     61.3338    235.2771   1.1696266231e+02   1.7847351205e+01    0.2330588    0.2108581  61.12 0.0007671064    1.206    0.171
        29  -9.3086     57.3360    238.9919   1.1802634406e+02   1.7640489608e+01    0.2539517    0.1759544  80.93   0.00114949    1.343    0.256
        30 -10.8653     20.8413    194.5785   1.2189471832e+02   3.0785089671e+01    0.3521922     0.262981 -70.07  0.002368921    1.324    0.245
        31 -11.5083     30.7222    207.9378   1.2085518970e+02   2.6928494299e+01    0.5525511    0.3833161 -43.76  0.002171277    2.075    0.518
        32 -10.0649     59.1538    180.0799   1.1190612145e+02   2.9868113617e+01    0.3923351    0.2582613 -37.83  0.001997471    2.077    0.519
        33 -10.0672     64.7019    174.3423   1.0983675791e+02   3.0502478843e+01    0.3113903    0.2416676 -48.12 0.0009739622    1.433    0.302
        34 -10.7655     31.4460    167.7753   1.1718170135e+02   3.5845625014e+01     0.463464    0.3056734  85.04  0.002435701    1.414    0.293
        35 -11.0550     81.9430    158.5210   1.0306543603e+02   3.1890739146e+01    0.7087251    0.5774481 -50.93  0.002189027    1.242    0.195
        36 -10.7602     72.8715    155.1868   1.0493066150e+02   3.4002664342e+01    0.7823991    0.4129645 -70.05  0.003392992    1.982    0.495
        37 -11.6780     61.7768    160.7725   1.0871231304e+02   3.4120887364e+01    0.5248764    0.3042282 -43.79  0.001369693    2.008    0.502
        38  -9.8933     74.6659    164.6346   1.0594531150e+02   3.1466697438e+01    0.2755893    0.2676231   8.38 0.0005619723    1.198    0.165
        39 -11.7105     30.9353    247.7014   1.2340941104e+02   1.9087206685e+01     1.269503    0.4805223  43.32  0.007147188    2.041    0.510
        40 -10.3120     40.5857    235.0825   1.2088333023e+02   2.0372268269e+01    0.2641727    0.2033218  84.51 0.0005019389    1.161    0.139
        41 -10.6729     70.4903    145.4980   1.0395985601e+02   3.6704454512e+01    0.4756388    0.4373947 -30.10  0.001610212    1.218    0.179
        42 -10.9930     67.5063    142.5111   1.0427885197e+02   3.7843869515e+01    0.4967836    0.4294152  40.01  0.001647079    1.240    0.193
        43  -9.2968     97.2690    143.9823   9.6230469639e+01   3.3000032017e+01     0.333627    0.2153142 -33.40  0.001220455    1.902    0.474
        44 -10.4339     84.8135    142.2292   9.9353975585e+01   3.5425714393e+01    0.3231405    0.2715749 -40.05 0.0004189671    1.243    0.195
        45  -8.8840     30.7881    143.8258   1.1463851985e+02   4.1643838081e+01    0.2109098    0.1801383 -80.29  0.001341766    1.019    0.018
        46 -10.1323     58.9318    133.4967   1.0516358415e+02   4.1173451181e+01    0.3699574    0.2074289 -76.03   0.00162386    1.997    0.499
        47 -10.4214     73.9816    135.9269   1.0123297860e+02   3.8576759254e+01    0.5449314    0.2986449  43.36  0.002414549    1.940    0.484
        48  -9.0935    107.4314    131.7454   9.0763457944e+01   3.4170606095e+01    0.4497451    0.2605413  43.60  0.001712118    1.784    0.440
        49  -8.9832     95.9582    127.8410   9.3156394295e+01   3.7124969498e+01    0.3323641    0.2546556 -22.05   0.00156094    1.568    0.362
        50  -8.2256    115.2868    126.3461   8.7294229058e+01   3.3980442605e+01    0.1594873    0.1205139 -17.06 0.0003642178    1.652    0.395
        51 -10.0202     37.9274    230.9325   1.2109560895e+02   2.1474600843e+01    0.2342749    0.1876631 -83.45 0.0004262473    1.259    0.206
        52  -7.9515    105.9002    120.1716   8.8460459747e+01   3.7192913056e+01    0.2011766    0.1747611  -8.85 0.0002547011    1.278    0.217
        53  -7.9125    168.1542    112.9841   7.0373518726e+01   2.5646034080e+01    0.2633755    0.1791547 -65.53  0.001067334    2.051    0.512
        54  -8.2040    205.2715    110.6143   6.2157520370e+01   1.7778546452e+01    0.2037014    0.1397418  40.60 0.0009489233    1.575    0.365
        55  -8.4442    134.4151    103.7651   7.6151237421e+01   3.5125539449e+01    0.2320089    0.1471802 -30.67 0.0009486839    1.734    0.423
        56 -10.0669     12.7840     59.7110   1.0587706530e+02   6.2756901041e+01    0.3374316     0.238539  62.96  0.001449919    2.226    0.551
        57  -8.0332     39.9657     58.3312   9.3998911051e+01   6.0788723544e+01    0.1757868    0.1552523  -7.51  0.001125478    1.145    0.127
        58 -12.0122      4.2760    184.5557   1.2466006309e+02   3.4428295739e+01     1.133979    0.4623596 -86.69  0.005705936    2.156    0.536
        59 -11.6550    203.0568     39.2205   4.4179926898e+01   2.9683853457e+01    0.6465334    0.5444986  77.69  0.002956894    1.141    0.123
        60 -11.5443    115.3973    240.3212   1.0675509483e+02   9.3785615231e+00    0.4672931    0.4430079  88.63  0.003318001    1.203    0.169
        61 -10.9917    218.5271     26.7824   3.9315590723e+01   2.7615859294e+01     0.536375      0.35627  48.84  0.001277277    1.762    0.433
        62  -8.4525    135.0960     41.8781   5.6635315373e+01   4.6027689668e+01    0.2165818    0.1919128 -83.80 0.0004738873    1.312    0.238
        63 -11.8033    114.9509    230.5246   1.0567103370e+02   1.1212704910e+01    0.8593555     0.339109  44.26  0.003811068    2.171    0.539
        64  -9.3182     53.0168    241.0782   1.1899659374e+02   1.7776535661e+01    0.2852181     0.154683 -44.02  0.001437707    3.348    0.701
