#   1 NUMBER                 Running object number                                     
#   2 MAG_AUTO               Kron-like elliptical aperture magnitude                    [mag]
#   3 X_IMAGE                Object position along x                                    [pixel]
#   4 Y_IMAGE                Object position along y                                    [pixel]
#   5 X_WORLD                Barycenter position along world x axis                     [deg]
#   6 Y_WORLD                Barycenter position along world y axis                     [deg]
#   7 A_WORLD                Profile RMS along major axis (world units)                 [deg]
#   8 B_WORLD                Profile RMS along minor axis (world units)                 [deg]
#   9 THETA_WORLD            Position angle (CCW/world-x)                               [deg]
#  10 FWHM_WORLD             FWHM assuming a gaussian core                              [deg]
#  11 ELONGATION             A_IMAGE/B_IMAGE                                           
#  12 ELLIPTICITY            1 - B_IMAGE/A_IMAGE                                       
         1 -14.8876      7.3981    151.5165   1.4478171460e+02   4.2574388951e+01     10.82358     4.476952  69.94   0.04742584    3.410    0.707
         2 -13.4885    210.8423      9.4385   6.2742537626e+01   3.1588638310e+01     1.275976    0.8974525  47.41  0.004647583    1.663    0.399
         3 -11.1949      2.2699      4.0891   1.1464208242e+02   7.1789594639e+01    0.3374715    0.1647425 -45.31  0.002170025    2.015    0.504
         4 -11.9835      2.3179     15.4565   1.1919753671e+02   7.0170027773e+01    0.4001249    0.1902231 -37.20  0.002608269    1.537    0.350
         5 -13.4466    196.2601     29.3296   6.9407448202e+01   3.2847196703e+01     1.410747     1.332488  56.36  0.007941069    1.181    0.153
         6 -11.3812    107.1562    248.8722   1.3521211561e+02   9.4920198466e+00    0.4289014     0.252824  70.15   0.00237721    1.790    0.441
         7 -12.1474    247.0008    248.7183   1.0968374666e+02  -1.3474519162e+01    0.7181097    0.3405418  39.21  0.003941101    1.880    0.468
         8 -11.3883    227.9416    249.8011   1.1320371843e+02  -1.0738550134e+01     0.440102    0.1313313  44.05   0.00178724    3.178    0.685
         9 -11.8046    150.9980    247.7106   1.2702118932e+02   2.3996750512e+00    0.4114518    0.3372224  67.45  0.002682215    1.243    0.195
        10 -11.1357     98.4760    248.4711   1.3672490705e+02   1.0926365794e+01    0.3143653    0.2382916  64.27  0.002102535    1.038    0.036
        11 -10.8197    100.7821    246.0350   1.3605757411e+02   1.1002238873e+01    0.2387716    0.1768165 -78.95 0.0008047408    1.406    0.289
        12 -10.2140     29.1420    249.1631   1.4843514895e+02   2.0259042350e+01    0.3648951    0.1883857 -66.90  0.002229781    2.021    0.505
        13 -10.7897     33.1289    249.4999   1.4783090175e+02   1.9729237836e+01    0.3240431    0.2220814 -62.81  0.002053089    1.881    0.468
        14 -11.0037     35.6032    243.6745   1.4705125630e+02   2.0505134328e+01    0.3390995    0.2532506  37.13  0.002425863    1.844    0.458
        15 -10.6611      2.6707    248.2446   1.5239486447e+02   2.3300078002e+01    0.3234067    0.1731063 -79.41  0.002322983    1.579    0.367
        16 -10.7458     21.0807    243.8667   1.4937184108e+02   2.2145503193e+01    0.4206609    0.1353044  63.72  0.002016346    2.989    0.665
        17 -11.6219     11.5842    240.0012   1.5062393483e+02   2.3885286928e+01    0.3568204    0.1746812  69.48  0.001886128    1.590    0.371
        18 -10.3198      5.9113    240.9482   1.5154383332e+02   2.4295972324e+01    0.1683606    0.1279789  59.37 0.0005017028    1.379    0.275
        19 -11.8756    139.3914    248.8470   1.2932108549e+02   4.1904643834e+00    0.4183002    0.3370106  88.44  0.002721079    1.400    0.286
        20  -9.6548     22.3902    236.6962   1.4872443075e+02   2.3338814292e+01    0.2306766    0.1451401 -51.26  0.001443625    2.638    0.621
        21  -8.9335     91.5356    213.6284   1.3412777559e+02   1.8718859900e+01    0.3099181    0.1632532  73.36  0.001370935    2.472    0.595
        22  -8.7800    152.4930    212.9616   1.2164861971e+02   8.2273559517e+00     0.179167    0.1370159 -55.00 0.0003615855    1.453    0.312
        23 -12.4809      9.5722    206.8295   1.4891401366e+02   3.0545754526e+01    0.6812375    0.4141198  40.97  0.003115992    1.845    0.458
        24 -11.4754     61.0386    198.8610   1.3851855595e+02   2.6319952521e+01    0.2767506    0.2249313 -60.43 0.0005207511    1.425    0.298
        25  -9.4910    192.0475    193.1084   1.1002538730e+02   4.3112374899e+00    0.3762086    0.1988354 -58.81   0.00145508    2.925    0.658
        26 -11.0094     16.6865    198.0107   1.4700301453e+02   3.1670053762e+01     0.261466    0.1595188  65.21 0.0004355068    1.420    0.296
        27 -12.6090     34.3841    233.0119   1.4650698841e+02   2.2669354986e+01    0.2827784    0.2224361 -80.16   0.00073858    1.349    0.259
        28 -11.1592      5.4896    188.6693   1.4836208967e+02   3.4683467913e+01    0.3381971    0.1868506  39.83  0.002173861    2.008    0.502
        29 -10.5652    153.8546    229.1602   1.2387453939e+02   5.0262860781e+00    0.3545347   0.08613732  40.80  0.001129795    3.832    0.739
        30 -11.7661     67.2906    190.5714   1.3626456991e+02   2.7283747074e+01    0.2720828    0.2293514 -66.64 0.0004496874    1.275    0.216
        31 -13.0356     64.1132    176.0033   1.3509089338e+02   3.1003301972e+01    0.4899651    0.2698812 -47.32  0.001577216    2.225    0.551
        32 -10.7204     77.4434    177.7080   1.3235769043e+02   2.8726828898e+01    0.2400021    0.2045124  83.53 0.0004168368    1.027    0.027
        33  -9.9744     97.9951    174.7321   1.2724424315e+02   2.6172665593e+01    0.3026749    0.1896355 -69.15 0.0004031493    1.601    0.376
        34 -11.6335     85.1152    168.6350   1.2923913257e+02   2.9655017108e+01    0.6253702    0.5716506  37.16  0.003773739    1.307    0.235
        35 -14.1118     39.7833    225.5848   1.4502437610e+02   2.3476197060e+01     1.110576     1.086457  61.24  0.005990622    1.626    0.385
        36  -9.8485     97.5262    152.5057   1.2346544299e+02   3.1418606375e+01    0.2883372    0.2618556 -74.00 0.0008037615    1.036    0.035
        37 -11.9301     86.2050    151.7115   1.2611833537e+02   3.3449526732e+01    0.2972261    0.2460759 -46.61 0.0004865189    1.307    0.235
        38  -8.9256    100.6536    148.1313   1.2184850868e+02   3.1912675390e+01    0.2022589    0.1718665 -57.93  0.000533637    1.136    0.119
        39 -12.1226     67.2520    143.7117   1.2945701268e+02   3.8109850819e+01    0.6809165    0.4505533  69.27  0.003447511    1.785    0.440
        40  -9.5565    109.2015    137.6327   1.1752140740e+02   3.2851100808e+01    0.3930137    0.2635315 -20.32  0.001602056    2.505    0.601
        41 -10.2800     96.5891    134.7139   1.2015800273e+02   3.5760917142e+01    0.2617342     0.231992 -33.67  0.001102618    1.261    0.207
        42  -9.8153    173.9089    222.7786   1.1894129305e+02   2.4882744345e+00    0.3165179     0.159113  47.96  0.001459207    1.822    0.451
        43  -9.4021     89.7628    130.4480   1.2105521298e+02   3.7892697579e+01     0.225012    0.1912048  83.55 0.0005062897    1.256    0.204
        44  -8.6600     79.1915    131.4047   1.2406480278e+02   3.9312699405e+01    0.1888217    0.1253731  53.63 0.0003698851    1.685    0.406
        45  -8.2337    192.0047    144.0314   9.9598529156e+01   1.3886187801e+01    0.1786699    0.1713279 -40.47 0.0003727401    1.035    0.034
        46 -10.7798     21.6114    126.0567   1.3835210437e+02   4.7157861358e+01    0.2473427    0.1514754  51.47 0.0009063526    1.918    0.479
        47  -8.6730    106.6135    124.0206   1.1513897872e+02   3.6479246013e+01    0.1969459    0.1719357 -52.98 0.0005917032    1.089    0.082
        48  -9.7534    167.6005    112.8172   9.7209219696e+01   2.5935922476e+01    0.3014383    0.2484052  85.92  0.001211037    1.415    0.293
        49  -9.0760    203.4639    111.5093   8.9456603758e+01   1.7698922567e+01    0.1519795     0.148042 -45.48 0.0001263179    1.037    0.036
        50  -8.9246     38.7066     94.9479   1.2805781362e+02   5.2595097539e+01    0.1746077    0.1383564 -59.45 0.0003484966    1.098    0.089
        51  -9.7108    242.3371     91.3282   7.8060701438e+01   1.2426681146e+01     0.139854    0.1130501  11.59  0.000705188    1.728    0.421
        52  -8.5755    184.6361     77.6806   8.4258525555e+01   2.8523221412e+01    0.1584539    0.1188053  23.32 0.0007040587    1.777    0.437
        53  -9.4901    157.5286     76.4921   8.9496770820e+01   3.5390374820e+01    0.1504473     0.147434  71.56 0.0001137322    1.005    0.005
        54 -11.2564      2.2611     68.2745   1.3415508502e+02   6.0837404572e+01    0.4924293   0.06109247 -62.00  0.001613567    5.070    0.803
        55  -8.7500     36.9553     64.4715   1.2116845881e+02   5.9049237566e+01    0.1420575    0.1004775  56.20 0.0005272615    2.245    0.554
        56  -9.7569     43.2062     67.6361   1.1987665665e+02   5.7807435615e+01    0.2499823    0.1895798  54.54   0.00119665    1.905    0.475
        57 -10.6799     14.7050     55.4217   1.2672660652e+02   6.2593560876e+01    0.1996422     0.194942  56.95 0.0007746969    1.422    0.297
        58 -11.2227      2.4956     46.0725   1.2885667230e+02   6.5061311914e+01    0.3229712    0.1744015 -68.19  0.001871992    2.221    0.550
        59 -10.3447     80.9618    248.2922   1.3979310024e+02   1.3600803906e+01    0.3706989    0.1717996  69.68  0.001772663    2.555    0.609
        60 -10.1460     47.0254    249.3099   1.4559333028e+02   1.8057115448e+01    0.1591443    0.1114777  65.64 0.0003787144    1.091    0.083
        61 -11.2825    198.1364    245.6040   1.1794303532e+02  -5.3516189621e+00    0.2652216    0.2421302 -50.60  0.001830193    1.403    0.287
