#   1 NUMBER                 Running object number                                     
#   2 MAG_AUTO               Kron-like elliptical aperture magnitude                    [mag]
#   3 X_IMAGE                Object position along x                                    [pixel]
#   4 Y_IMAGE                Object position along y                                    [pixel]
#   5 X_WORLD                Barycenter position along world x axis                     [deg]
#   6 Y_WORLD                Barycenter position along world y axis                     [deg]
#   7 A_WORLD                Profile RMS along major axis (world units)                 [deg]
#   8 B_WORLD                Profile RMS along minor axis (world units)                 [deg]
#   9 THETA_WORLD            Position angle (CCW/world-x)                               [deg]
#  10 FWHM_WORLD             FWHM assuming a gaussian core                              [deg]
#  11 ELONGATION             A_IMAGE/B_IMAGE                                           
#  12 ELLIPTICITY            1 - B_IMAGE/A_IMAGE                                       
         1 -11.3048     19.3468     16.7904   7.0086993934e+01   7.5544685008e+01    0.3761582    0.3419334  26.55  0.002380871    1.172    0.147
         2 -11.7668     31.1977     13.3947   5.8225505924e+01   7.4496332624e+01    0.4037083    0.3175852 -58.06 0.0005141993    1.584    0.369
         3 -10.0614     15.2677     13.6686   7.2001312192e+01   7.6648472786e+01    0.1901912    0.1711031 -25.13 0.0004346418    1.050    0.047
         4 -10.9216     11.3180     14.6318   7.6393471769e+01   7.6843215543e+01    0.3337006    0.1903091 -26.61  0.001188035    1.894    0.472
         5 -12.1914    238.0874     17.6052   1.5624628771e+01   2.5378740919e+01     0.243726    0.1605171 -43.98 0.0002770636    1.150    0.130
         6 -10.6828     77.0989     10.1684   3.3427484599e+01   6.4992703835e+01     1.186414    0.3009995  46.91  0.003531706    4.064    0.754
         7 -10.7105     73.6305     16.9551   3.8296150678e+01   6.5020168611e+01    0.5192591    0.2376366 -52.39   0.00185724    3.238    0.691
         8 -11.6832      3.4278     16.3480   8.5186436129e+01   7.7047879322e+01    0.3935926    0.2620509  51.04   0.00177824    1.906    0.475
         9 -10.3801     51.1149     15.7253   4.7257775436e+01   7.0341070675e+01    0.3324863    0.1794281 -42.67  0.001504498    2.022    0.505
        10 -11.1431    129.7907     12.3952   2.3435236961e+01   5.0899275599e+01    0.4742025    0.2122079 -49.58  0.001927446    2.291    0.563
        11 -11.8663    154.9236      9.6910   1.9490382730e+01   4.4637559848e+01    0.4240289    0.2481886 -41.01   0.00152709    1.574    0.365
        12 -10.9797     37.1306      7.6189   4.9941201324e+01   7.4376241298e+01    0.3331442    0.2615337  78.52 0.0007251786    1.894    0.472
        13 -10.8466    165.0216     11.4785   1.9089693147e+01   4.1926751658e+01    0.2666449    0.1544516 -46.95 0.0006806854    1.543    0.352
        14 -11.8553    176.8448     10.5907   1.7810103930e+01   3.9140221897e+01     0.314995    0.2214956  56.54  0.001469585    1.613    0.380
        15 -11.9017    145.7036      8.0316   1.9889329281e+01   4.7163566243e+01    0.4682394    0.2924857 -20.52  0.002336526    1.795    0.443
        16 -11.9826      9.4245      7.9997   7.4498395498e+01   7.8399287703e+01    0.3103777    0.2466268  20.81 0.0007742092    1.261    0.207
        17 -10.9953     11.3608      2.9657   6.8844663109e+01   7.9184605172e+01    0.3099023    0.2443291 -50.28  0.001699821    1.357    0.263
        18 -11.0000    213.2650      7.6635   1.4645144731e+01   3.1273352706e+01     0.275636    0.1730005  -9.84  0.001521376    2.126    0.530
        19  -9.7664    118.2664      7.6401   2.3257230654e+01   5.4438160926e+01    0.1492728   0.09417983 -58.20 0.0003930833    1.640    0.390
        20 -11.6800    230.9283      5.7157   1.3328564570e+01   2.7916349531e+01    0.3423516    0.1606992 -77.95  0.001127294    2.199    0.545
        21 -10.7471    222.6457      5.6033   1.3682751801e+01   2.9556095322e+01    0.2236008     0.182889 -10.83  0.001124854    1.543    0.352
        22 -10.9164     18.3127      3.8699   6.2248203621e+01   7.8136851396e+01    0.5051845    0.3109826  67.81  0.001778431    5.332    0.812
        23 -11.0742    164.2720      4.8056   1.7096886200e+01   4.2761788811e+01    0.2431549    0.1979335 -61.82 0.0004503649    1.067    0.063
        24 -10.4208    241.6516      9.0199   1.3583942772e+01   2.5576905024e+01    0.1590405    0.1153521 -44.21 0.0004885431    1.071    0.066
        25 -10.4919    201.7128      3.6934   1.4283260694e+01   3.4120960718e+01    0.2090611    0.1731489  53.13 0.0008067132    1.533    0.348
        26 -11.1230    179.0174      3.9054   1.5728688558e+01   3.9271163720e+01    0.1973292    0.1627517 -65.61  0.000291957    1.014    0.014
        27  -9.7501    106.0215      4.0130   2.3673358692e+01   5.8047419288e+01    0.1651196    0.1379255  77.14            0    1.076    0.071
        28 -11.5834     27.4387      3.0495   5.3442115027e+01   7.6835677697e+01    0.2684264    0.2500019 -72.14  0.001480285    1.426    0.299
        29  -9.9105     22.4968      1.4984   5.6350927495e+01   7.7902488056e+01    0.1891177     0.112913  27.15 0.0009637183    1.705    0.414
        30 -10.2243    243.4798      3.4640   1.2318488175e+01   2.5773938368e+01    0.1161293   0.08122101 -50.68 2.691911e-06    1.056    0.053
        31 -10.2678    126.0607      2.6492   2.0186487968e+01   5.2818583042e+01    0.1986884    0.1626859  78.27 0.0009072971    1.110    0.099
        32 -10.7505    129.7483      1.8129   1.9422476600e+01   5.1913402737e+01    0.2242161    0.1504067  88.54 0.0004080473    1.373    0.272
        33 -10.7193    168.0536      1.9600   1.5935432791e+01   4.2092211636e+01    0.1966531    0.1646974 -69.28  0.000307191    1.010    0.010
        34  -9.7682     90.8986      2.1215   2.5628317127e+01   6.2233298750e+01    0.1767395    0.1507824  36.10 0.0002902465    1.249    0.199
        35  -9.6063     73.4956      1.5021   2.9547718140e+01   6.6798003971e+01    0.1390401    0.1247193  58.36 -3.566416e-05    1.009    0.009
        36 -10.4215     34.7975      1.4399   4.6691038680e+01   7.5703880888e+01    0.3382281    0.1268538  54.78  0.001279848    3.048    0.672
        37 -11.2622     15.6944    193.1023   1.0048964027e+02   3.1400602228e+01    0.3034473    0.1800237  24.44  0.001043279    1.569    0.362
        38 -10.0441    110.0024    250.0083   8.2348002144e+01   1.0644634574e+01    0.1430437    0.1066846  26.40   0.00070855    1.001    0.001
        39 -11.3548     89.4928    249.5151   8.6606063474e+01   1.3019004174e+01    0.2953842    0.1658628  27.85  0.001052899    1.348    0.258
        40 -10.5825     12.0275    250.5536   1.0307886691e+02   2.0505539151e+01     0.163802    0.0807974  29.05 0.0003734314    1.541    0.351
        41 -13.0003      6.6451    244.7684   1.0407319937e+02   2.1951776176e+01    0.7730017    0.3415104  23.39  0.003271478    1.948    0.487
        42 -12.1950     22.5091    248.6661   1.0084465425e+02   1.9926845936e+01    0.4254704    0.1672478  37.32  0.001419863    1.669    0.401
        43 -11.9456     17.7577    247.3578   1.0180519478e+02   2.0568219792e+01    0.3361468    0.1473897  40.34  0.001232613    1.528    0.346
        44 -10.8612    244.3537    187.8599   4.9121884558e+01   3.2546731600e+00    0.1642034    0.1323068  15.45 0.0007054826    1.354    0.262
        45  -9.9766     61.6370    184.7610   8.7578404450e+01   2.8565649322e+01    0.1784773     0.123125  87.58 0.0009457855    1.645    0.392
        46 -12.6853     18.3871    181.2804   9.9254130737e+01   3.3831980448e+01     0.696363     0.334031  15.60  0.002911719    2.273    0.560
        47 -11.1956    244.1916    178.9182   4.7661827897e+01   4.3406685044e+00    0.2489699    0.1148902 -26.02 0.0009403617    1.849    0.459
        48 -10.3672    248.2859    168.6526   4.5342295257e+01   5.1114548815e+00   0.09858438   0.07730599 -40.74 0.0004992821    1.653    0.395
        49 -10.5362      5.5272    167.9887   1.0232034951e+02   3.7954634402e+01    0.1892737    0.1157655 -88.51 0.0009219986    1.570    0.363
        50 -11.2894     50.7095    161.3896   8.8346940166e+01   3.5336622231e+01    0.6517761    0.3740243  78.43   0.00293715    2.049    0.512
        51 -11.0748     35.4808    161.1452   9.2979908572e+01   3.7056198864e+01    0.2868706    0.2262845  13.76 -0.0001211807    1.398    0.284
        52 -10.9275     36.9781    165.9420   9.2924111639e+01   3.5729647835e+01    0.2400917    0.2055562  52.67 0.0006825331    1.015    0.015
        53  -9.6994     66.1674    161.8240   8.3734298872e+01   3.3309674417e+01    0.1792967    0.1620433 -31.86  0.000453013    1.285    0.222
        54 -11.2570     21.1706    156.9924   9.7090906094e+01   3.9420384809e+01    0.3991928    0.2918718 -12.12  0.002144807    1.775    0.437
        55  -9.9647    216.4665    154.5118   4.7461221284e+01   1.1104147872e+01     0.121187   0.09937622 -13.66 1.956902e-05    1.008    0.008
        56 -10.5183     10.8012    153.0864   1.0010469770e+02   4.1216586287e+01    0.2878629    0.1853249  17.20  0.001523591    1.644    0.392
        57  -9.8022    222.5644    151.5165   4.5951125302e+01   1.0661979549e+01    0.1194934   0.09704243 -16.67 0.0001082853    1.023    0.023
        58 -10.7836    234.4570    146.9813   4.3357083134e+01   9.6326897193e+00    0.1815537   0.09474714 -31.98 0.0009926849    1.588    0.370
        59  -9.4369     21.2927    147.7293   9.6423611495e+01   4.1747692935e+01     0.143074   0.08601049  54.46 0.0001999512    1.514    0.340
        60  -9.8112      7.7674    145.7602   1.0071162465e+02   4.3276939642e+01    0.2176399   0.08912966  79.23 0.0008804086    2.437    0.590
        61 -10.0161    216.6873    144.6971   4.5544343474e+01   1.2480017579e+01    0.1235089   0.08407903  -2.66 0.0003619364    1.613    0.380
        62  -9.8770    187.7582    144.1751   5.0321934327e+01   1.7101157575e+01    0.1758181    0.1385864   0.68 0.0005102296    1.291    0.225
        63 -10.6671      9.3794    136.5879   9.9692014062e+01   4.5523813883e+01    0.3060027    0.1090079 -74.97  0.001202202    2.566    0.610
        64 -13.0124    241.9665    133.4263   3.9765283373e+01   1.0397981784e+01    0.3850299    0.2352145 -15.16  0.001464708    1.645    0.392
        65  -9.8901     20.7066    134.3526   9.5603490600e+01   4.5265182544e+01    0.1538282   0.08783699  58.87  0.000388487    1.682    0.405
        66 -11.8372     36.4586    131.3391   8.9711189784e+01   4.4601051411e+01    0.4658086    0.2475046 -56.13 0.0008741574    1.921    0.480
        67 -10.7189     54.2279    132.4364   8.3578742642e+01   4.2248100488e+01    0.3307263    0.1451754  24.61  0.001243612    2.371    0.578
        68 -10.8723     73.5615    129.0444   7.6399583551e+01   4.0391858244e+01    0.3172663     0.270303  57.14  0.001247226    1.150    0.130
        69 -10.9916      4.9576    129.9731   1.0087130497e+02   4.7527500378e+01    0.2214576    0.1447074 -45.93  0.001134919    1.748    0.428
        70 -10.4295    249.3159    134.3364   3.9004268734e+01   9.2788887250e+00    0.1160076   0.07475577  -5.84 0.0006340693    1.696    0.410
        71 -10.3061     56.7002    126.8385   8.1847604221e+01   4.3388260096e+01    0.2394311    0.1953421  16.31 0.0002242937    1.341    0.254
        72  -9.8686     22.1174    126.1149   9.4379712543e+01   4.7331281296e+01    0.1971266    0.1459179  62.79 0.0003618297    1.274    0.215
        73 -11.2169     15.2048    125.3129   9.6863833182e+01   4.8082139698e+01    0.4323928    0.1761995  24.34    0.0017843    2.338    0.572
        74 -11.2731     10.7566    122.3800   9.8298971871e+01   4.9169634315e+01    0.3475589    0.2062549  82.54  0.001553907    1.604    0.376
        75  -9.7241    219.3218    124.3245   4.1056713824e+01   1.5025998853e+01    0.1259118   0.08768422  -2.09 0.0007047034    1.682    0.405
        76 -11.6243    243.6971    122.0553   3.7338179235e+01   1.1649347208e+01    0.1733589      0.12239 -28.26 0.0008189583    1.122    0.109
        77 -11.1284     19.8968    120.7802   9.4715605159e+01   4.8938618171e+01    0.3458654    0.1880189 -80.97  0.001568701    1.755    0.430
        78 -11.5010     24.2407    118.3939   9.2808204520e+01   4.9223719768e+01    0.4590398    0.2372589 -84.51  0.001979738    1.934    0.483
        79 -11.8229    249.5663    117.9770   3.5834620794e+01   1.1342636803e+01    0.2539061    0.1583975 -33.12 0.0009649612    1.262    0.208
        80 -10.5700      1.3699    118.7276   1.0160234062e+02   5.0683975365e+01    0.2310688    0.1170491 -89.23 0.0004228825    1.811    0.448
        81 -10.4840     52.5777    116.1569   8.1578795045e+01   4.6753659118e+01    0.2556666    0.2056009  31.50 9.999904e-05    1.242    0.195
        82 -12.1037     23.5551    106.8138   9.1761670370e+01   5.2418502652e+01    0.7476891    0.3527229  -9.14  0.002632024    3.501    0.714
        83 -12.0492     14.4957    110.1543   9.5850950350e+01   5.2201843211e+01    0.4111015    0.3245457  41.94  0.001121947    1.246    0.198
        84 -11.0298    182.3779    114.4307   4.4860731578e+01   2.3025002977e+01    0.3222868    0.2361043  23.43  0.001365967    1.609    0.379
        85  -9.8638    105.8188    114.8506   6.3048908055e+01   3.8216699767e+01    0.2124526    0.1831883  81.00 0.0007712801    1.304    0.233
        86 -12.4407    248.3350    112.2341   3.4848690661e+01   1.2259080811e+01    0.3997829    0.2595929  30.93  0.001962665    1.942    0.485
        87 -10.0201     94.5285    112.0507   6.5890505813e+01   4.1031028727e+01    0.2345046    0.1524025 -53.30 0.0006227632    1.569    0.363
        88 -11.1448     55.0294    109.5511   7.9437107209e+01   4.8178106904e+01    0.2857294     0.220674 -70.09 0.0005737803    1.291    0.226
        89 -10.5876     33.6850    108.5608   8.7808985608e+01   5.1004194251e+01    0.3538003    0.1514512  13.42  0.001261735    2.951    0.661
        90 -11.0605     15.8786    115.1443   9.5753532117e+01   5.0757553717e+01    0.2715141     0.183882 -82.03 0.0007061385    1.381    0.276
        91 -11.2009      2.6340    106.8614   1.0043463092e+02   5.3782282758e+01    0.4050088     0.275784 -78.58  0.002153692    1.340    0.254
        92 -12.0396    248.5351    105.5151   3.3488187151e+01   1.3095916197e+01    0.2437733    0.1802687 -61.86  0.001601035    1.782    0.439
        93 -10.4480     37.7825    102.3145   8.5124666148e+01   5.2263330015e+01    0.4353141    0.2230218  60.45  0.001678506    2.401    0.584
        94 -10.1627     33.9436     97.6191   8.5984359671e+01   5.3945856467e+01    0.3307357    0.1848565 -57.40  0.001454785    1.704    0.413
        95 -11.2097     62.0666     99.1774   7.4492240768e+01   4.9878388346e+01    0.5015382    0.3276339 -37.27  0.002173982    1.817    0.450
        96  -9.4349    111.6984    105.7622   5.9049678366e+01   3.9121352224e+01    0.1459318    0.1207989   7.94 -0.000275831    1.481    0.325
        97  -9.1413    144.6612     99.3181   4.8779799363e+01   3.3468541590e+01    0.1528003    0.1179378 -82.74 0.0007049145    1.707    0.414
        98 -10.6233     21.2150     98.3297   9.1698498755e+01   5.4918258247e+01    0.2415755    0.1773739 -64.74 0.0005771911    1.290    0.225
        99  -9.7707      9.5635     99.0830   9.6906226690e+01   5.5512031068e+01    0.2008338    0.1262594 -85.64 0.0004209609    1.482    0.325
       100 -10.4185     41.1917     96.8299   8.2682847420e+01   5.3354831885e+01    0.2223613    0.1922181  70.44   0.00052664    1.166    0.142
       101 -10.1061    104.0931     95.4452   5.8579250186e+01   4.3025265284e+01    0.2421535    0.1513261  40.24  0.001021803    1.607    0.378
       102  -9.8802    227.2003     93.3836   3.3427374316e+01   1.8111684770e+01    0.1472309    0.1188928  81.20 0.0005784575    1.630    0.387
       103 -10.1617      1.5009     93.0054   9.9984334970e+01   5.7555072843e+01    0.2093882    0.1230547 -83.52 0.0005802477    1.542    0.352
       104 -10.7710     38.1692     90.9995   8.2893123148e+01   5.5272983534e+01    0.4185109    0.1693257 -61.30  0.001114158    2.247    0.555
       105 -11.1307    249.6089     91.2457   3.0487505020e+01   1.4756570534e+01    0.1684293   0.09178988 -25.36 0.0009509717    1.645    0.392
       106 -11.3378    158.4393     90.2846   4.3416897397e+01   3.2150389000e+01    0.4691789    0.2817706  33.07  0.001702472    2.195    0.544
       107 -10.4774     83.7432     89.2184   6.3652441174e+01   4.8590480810e+01    0.3493402    0.2599656  47.73  0.001630139    1.333    0.250
       108  -9.8009     56.5049     90.5413   7.4735929874e+01   5.2970926144e+01    0.1492629    0.1470566 -87.23 -8.333226e-07    1.022    0.021
       109 -10.3835     65.5226     87.1368   7.0103174692e+01   5.2409608947e+01    0.3096763    0.2176271 -76.24  0.001084958    1.660    0.397
       110 -10.3339     47.4848     88.0576   7.8072100233e+01   5.4902147572e+01    0.2076924    0.1981311  39.36 0.0002996687    1.065    0.061
       111 -10.7469    250.1899     87.1716   2.9596033808e+01   1.5180680610e+01    0.1625833    0.1110865 -45.87 0.0005576317    1.318    0.242
       112 -11.0422     21.9419     87.0308   8.9759876717e+01   5.7930764960e+01    0.2217674    0.2066708 -88.31  0.001283674    1.022    0.021
       113  -9.7287     54.1230     85.9017   7.4614656590e+01   5.4529693555e+01     0.192195    0.1701776 -28.09 0.0009947816    1.232    0.189
       114 -10.3506      9.8790     86.2127   9.5450738878e+01   5.8979672480e+01    0.3239409    0.1342864  40.51  0.001073936    2.408    0.585
       115 -10.0284    107.2465     84.7179   5.4508379554e+01   4.4727259865e+01    0.1976299    0.1789977  10.76 0.0003209174    1.264    0.209
       116 -11.1158    247.0493     84.5064   2.9358816764e+01   1.6010433195e+01    0.1440056    0.1181361  63.54 0.0006130127    1.557    0.358
       117 -10.7204     15.9001     83.4080   9.2158644995e+01   5.9363583892e+01    0.2321639    0.1837171  82.93 0.0004302707    1.249    0.199
       118 -11.6455     30.4536     81.7120   8.4687448496e+01   5.8593194713e+01    0.3297441    0.2950303 -28.36 0.0005906112    1.186    0.157
       119 -10.3599     10.4789     90.8863   9.5680076020e+01   5.7680222872e+01    0.1934599    0.1843948  23.43  0.000443681    1.136    0.120
       120 -10.2552     68.8478     82.2186   6.7370778931e+01   5.3061913916e+01    0.2190938    0.1997929  72.58 0.0003105491    1.135    0.119
       121  -9.4298     62.3017     82.3097   7.0124918407e+01   5.4162624939e+01    0.1540701    0.1188756 -21.91 0.0003211579    1.604    0.377
       122 -10.6228     42.2462     82.0615   7.9080788541e+01   5.7163778478e+01    0.2055801    0.1863417 -80.45 0.0003599017    1.096    0.087
       123 -10.8844      7.2817     81.3141   9.6176385874e+01   6.0439588313e+01    0.3501231    0.1922195 -39.80  0.001610626    1.926    0.481
       124  -9.9648    119.8075     80.7904   4.9711204964e+01   4.2721180837e+01    0.2055173    0.1756081  85.67 0.0003207444    1.294    0.227
       125  -9.9274    111.8205     78.2241   5.1154948114e+01   4.5075707253e+01    0.2057562    0.1840618   5.70  0.000487395    1.318    0.241
       126 -10.5969     88.1281     77.3944   5.8516800990e+01   5.0464987822e+01    0.2556366    0.2123444 -52.46  0.000149587    1.220    0.181
       127 -10.5904     99.8739     76.6497   5.4301802365e+01   4.8097989182e+01    0.2800936    0.2227244 -56.44 0.0004117731    1.301    0.232
       128 -14.4032     16.7546     67.5196   8.9116171656e+01   6.3558831650e+01    0.6686957    0.5331863 -82.27  0.001325777    1.231    0.188
       129 -12.0116      6.9036     73.0372   9.5393400666e+01   6.2678383519e+01    0.6526605     0.328681   6.91  0.002918932    2.218    0.549
       130 -12.8310      3.4603     64.4289   9.6214891993e+01   6.5114695474e+01     1.068929    0.4903842  89.58  0.004508082    2.265    0.559
       131 -11.3450     44.8002     74.9051   7.6061154356e+01   5.8694662518e+01    0.2468439    0.2068439  37.64   0.00024799    1.205    0.170
       132 -11.8261    167.7252     73.4261   3.7090524210e+01   3.2961544650e+01    0.2523014    0.2235044 -53.85 0.0002888253    1.065    0.061
       133  -9.1154     61.6791     73.3099   6.7747706345e+01   5.6498170937e+01    0.1566825    0.1176735  71.42 0.0003028597    1.646    0.392
       134 -10.4916     53.6998     72.2568   7.1057506551e+01   5.8066865082e+01    0.2230099    0.2033594  66.34  0.001189016    1.146    0.128
       135 -11.8822     50.2616     68.3879   7.1526847688e+01   5.9559141034e+01    0.4019262    0.2776863 -68.40 0.0005808101    1.564    0.361
       136 -10.8325    122.8418     67.2808   4.4638500146e+01   4.4638251382e+01    0.2634027     0.211029 -41.80 0.0005288922    1.258    0.205
       137 -10.2554    139.6840     66.0884   4.0322220715e+01   4.0779292257e+01      0.25684     0.198025  70.10  0.001265137    1.351    0.260
       138 -11.8764    156.0313     63.6043   3.6342089240e+01   3.7267110241e+01    0.2719395    0.2336253 -45.41  0.000368743    1.112    0.100
       139  -9.6096    106.0791     63.9863   4.8131196982e+01   4.9277886726e+01    0.1785513    0.1729925  88.49            0    1.013    0.012
       140 -11.5102     30.1825     61.7921   8.0187765211e+01   6.3847542325e+01    0.6487525    0.4114873  40.56   0.00309508    1.643    0.392
       141 -10.4629    202.1132     62.3961   2.9225048109e+01   2.7145455015e+01    0.2084254    0.1598068 -28.35  0.001212484    1.267    0.210
       142  -9.5205    168.8096     62.6183   3.3883754385e+01   3.4421260430e+01    0.1738367    0.1327302  82.44 9.861447e-05    1.432    0.302
       143 -10.7210     76.9235     62.0732   5.7504131640e+01   5.6204480654e+01    0.2219523    0.2151697  56.66  0.000285388    1.012    0.012
       144 -10.9638     46.0573     60.6663   7.1180388537e+01   6.2088098175e+01    0.3737999    0.2290328 -54.83 0.0009457655    1.594    0.372
       145 -10.0286    114.9346     60.0438   4.4255249627e+01   4.7894569401e+01    0.3162866     0.192133  31.41  0.001228998    2.330    0.571
       146  -9.9365     98.2196     60.0379   4.9143919776e+01   5.1900596373e+01    0.2019735    0.1964969 -82.19            0    1.028    0.027
       147 -10.9835     58.9721     59.2275   6.4254707387e+01   6.0315823906e+01    0.3076694    0.2527584  14.62 0.0007216095    1.365    0.267
       148  -9.7538    137.9756     59.3366   3.8541839410e+01   4.2346940336e+01    0.2796569    0.1369805 -60.87 0.0009186798    3.225    0.690
       149 -10.6953    231.3229     58.6604   2.5282731567e+01   2.1956794803e+01    0.1307503   0.07414992 -54.71 0.0003865486    1.722    0.419
       150 -11.2863     10.9734     61.9466   9.1435404069e+01   6.5402930354e+01    0.3839106    0.2174897  50.16  0.001634414    1.977    0.494
       151 -10.1548     80.7035     56.0585   5.3766863588e+01   5.6672044391e+01    0.4439738    0.2805441  -6.43  0.001482506    3.593    0.722
       152  -9.8377    115.7755     56.3091   4.2719292052e+01   4.8362185766e+01    0.2090268    0.1323369  49.74 0.0003243155    1.567    0.362
       153 -10.8276     74.9752     55.9390   5.5976631978e+01   5.7923844190e+01    0.2349835    0.2167448 -35.43 0.0004565861    1.125    0.111
       154 -12.3847     12.7717     48.0603   8.7396441731e+01   6.8872627762e+01    0.5425087    0.2650397 -63.45 0.0002328172    1.819    0.450
       155 -11.1404     11.2707     44.3325   8.7502510153e+01   6.9907658294e+01    0.2821857    0.2031093 -65.78 0.0007241925    1.299    0.230
       156 -12.5968    105.1984     52.4947   4.4227009331e+01   5.1645629631e+01    0.3642436    0.2923399  65.95  0.000238619    1.247    0.198
       157 -12.9217     38.0593     49.6751   7.1764359832e+01   6.5871048115e+01    0.7155116    0.6383669 -54.36  0.003753368    1.115    0.103
       158 -10.9610     27.8263     52.9554   7.9027010189e+01   6.6329596594e+01    0.3822753    0.2292756 -48.24  0.001220094    1.584    0.369
       159 -10.9645     27.3198     49.3182   7.8195737882e+01   6.7282226614e+01    0.3095666     0.244422 -83.32  0.001648664    1.435    0.303
       160 -11.2177      7.9811     51.5082   9.1358465515e+01   6.8277581658e+01    0.3458633     0.248584  12.69  0.001370648    1.478    0.324
       161 -11.9298      3.5689     48.6198   9.3766536349e+01   6.9219724181e+01    0.7488233    0.2650318 -64.72  0.003062907    2.301    0.565
       162 -10.3554      6.9187     42.3496   9.0138794346e+01   7.0654382418e+01    0.4337317    0.1566033 -65.00  0.001770443    2.320    0.569
       163 -10.1595    154.6030     52.5889   3.3258870425e+01   3.9331691461e+01    0.2654989    0.1322503  58.36  0.001111887    1.999    0.500
       164 -11.3523    129.0057     50.3378   3.7456276460e+01   4.6063727992e+01    0.2999333    0.2696732  30.73 0.0003921659    1.273    0.215
       165 -11.0567    132.3092     49.6109   3.6498947598e+01   4.5345588793e+01    0.6790273    0.3690355 -87.67  0.002264593    3.429    0.708
       166  -9.8380     78.6567     50.2968   5.2264849207e+01   5.8282487692e+01    0.2483618    0.1429884 -52.24 0.0003088615    1.925    0.481
       167 -10.4394     37.4662     39.5218   6.8069346451e+01   6.8284915945e+01    0.2361465    0.1779649 -43.49 0.0009358746    1.303    0.232
       168 -11.2797     51.7018     46.2285   6.2790019276e+01   6.4513512017e+01    0.4147868    0.2423587 -56.89  0.001453945    1.884    0.469
       169 -10.7524     69.0942     48.0523   5.5251632690e+01   6.0783547568e+01    0.2150618    0.2086892  39.25 0.0003491139    1.006    0.006
       170  -9.7869     82.5156     47.5422   4.9668136908e+01   5.7949564255e+01    0.1501914    0.1447188  53.62 2.676207e-06    1.008    0.008
       171  -9.5944    104.4695     46.4363   4.2114273651e+01   5.2885541690e+01    0.1510445    0.1432778  73.77 0.0001066137    1.006    0.006
       172  -9.4394    143.4163     45.5464   3.2970230999e+01   4.3161808009e+01     0.142943    0.1372409 -79.16 0.0001249498    1.056    0.053
       173 -10.2568    112.2734     45.2545   3.9562392514e+01   5.1124272103e+01    0.2093589    0.2017185  36.30 0.0007567045    1.124    0.110
       174  -9.8130     14.1471     34.4079   8.2419652867e+01   7.2129347835e+01    0.1909392    0.1307418  14.63 0.0004420849    1.500    0.333
       175 -11.1242     17.9039     31.1148   7.8251216190e+01   7.2573760402e+01    0.4691068    0.2916434  15.08  0.002381761    1.667    0.400
       176 -13.2673     27.1224     37.2263   7.3920349502e+01   7.0178942586e+01    0.5395109    0.3922652  45.09  0.001366902    1.530    0.346
       177 -10.6400     96.3949     42.3792   4.2853617053e+01   5.5572971099e+01    0.3168731    0.2326549  23.73 0.0007972437    1.774    0.436
       178 -10.8016     72.7222     42.7242   5.1416307837e+01   6.1054795026e+01    0.3363155    0.2294954 -51.40  0.001564546    1.590    0.371
       179 -10.2400     67.0335     42.1714   5.3594641143e+01   6.2382627125e+01    0.2705009    0.1848002 -28.89  0.001142127    1.697    0.411
       180 -10.5462     18.1719     42.3838   8.2073289770e+01   6.9871908380e+01    0.2417265    0.1647348 -49.61 0.0008143704    1.352    0.260
       181 -10.8257     89.2803     41.3894   4.4700555296e+01   5.7475456430e+01    0.2588477    0.2383038  73.51  0.001397337    1.080    0.074
       182 -10.2550     60.5159     40.4395   5.5802835967e+01   6.4060205192e+01    0.2584829    0.1977141  -0.02 0.0007953322    1.703    0.413
       183 -10.6887    236.0124     39.7214   2.0655623127e+01   2.3363078875e+01    0.1602252    0.1315594 -50.91 0.0003991616    1.064    0.060
       184  -9.6791    130.6403     40.2108   3.3555519440e+01   4.7202504017e+01    0.1944622    0.1425872 -19.25 0.0003979579    1.619    0.382
       185 -11.5065     44.8490     38.1192   6.2995535201e+01   6.7427013368e+01    0.2267526    0.2213588 -10.76  0.001335436    1.037    0.036
       186 -10.0676    159.4525     38.1172   2.8016914833e+01   4.0192592088e+01    0.2109236     0.172656  78.09 0.0003838181    1.202    0.168
       187 -10.8252     83.0408     36.2427   4.4565547069e+01   5.9846896465e+01     0.425966    0.2779399   2.30  0.001664267    2.728    0.633
       188 -10.4903     53.8787     36.7572   5.7384588986e+01   6.6085339400e+01    0.2814411    0.1946234 -64.05 0.0007079117    1.880    0.468
       189 -12.1060     57.7531     34.0640   5.4102918065e+01   6.5844563893e+01    0.3093143    0.2859459 -44.85 0.0004643883    1.134    0.118
       190 -10.0618      1.4707     37.0575   9.3055508047e+01   7.2210075345e+01    0.1984962    0.1166216 -69.60   0.00101143    1.542    0.352
       191 -10.5620    248.1374     36.1652   1.9057652413e+01   2.1592245190e+01    0.1600452    0.1357379 -33.18 0.0004619316    1.203    0.169
       192 -10.3105    193.5026     35.5265   2.3234017318e+01   3.2499850538e+01    0.3707148     0.156738 -59.80   0.00136228    2.798    0.643
       193 -11.2747     74.5155     35.9933   4.7624267469e+01   6.1880082342e+01    0.3009516    0.2706325 -52.13 0.0003337658    1.177    0.150
       194 -10.7316     76.6817     33.3219   4.5525841535e+01   6.1836448860e+01    0.3027905    0.2361593  65.36  0.001116126    1.337    0.252
       195  -9.9326    226.5117     40.4907   2.1550094206e+01   2.5059648671e+01    0.1231994   0.09834007 -47.19 0.0001122358    1.002    0.002
       196  -9.6015    135.4710     34.9854   3.0793212287e+01   4.6694123288e+01    0.2133773    0.1013936 -53.06 0.0008070398    2.368    0.578
       197 -11.6298    111.3340     34.7110   3.5678123912e+01   5.2997496264e+01    0.2842174    0.2481586  79.97 0.0003488279    1.105    0.095
       198 -10.2982      8.9848     34.5145   8.6507064164e+01   7.2468229504e+01    0.2319168    0.1592198 -41.21  0.001261439    1.341    0.254
       199 -11.0662      7.9744     30.7526   8.6169171082e+01   7.3434861151e+01    0.3097683    0.2359274  50.77  0.001198951    1.540    0.351
       200 -10.0173    177.5701     34.2212   2.4557256279e+01   3.6312653570e+01    0.1820959    0.1295061 -18.05   0.00094873    1.635    0.388
       201  -9.4701    140.4480     33.6037   2.9454452661e+01   4.5596088796e+01    0.1429114    0.1317941 -89.07 7.403642e-07    1.032    0.031
       202 -10.2467    122.5584     33.1772   3.2598222121e+01   5.0298302327e+01     0.302487    0.1708045  48.88  0.001300041    1.842    0.457
       203 -10.9555     44.5290     43.2202   6.5444546889e+01   6.6379449268e+01    0.2876773    0.2457032  57.94 0.0008320518    1.319    0.242
       204 -10.8597    221.6583     31.7804   1.9886737554e+01   2.7011395968e+01    0.2170951    0.1552978 -48.71 0.0002310636    1.126    0.112
       205 -10.8000     49.6160     29.0461   5.5778303846e+01   6.8379893532e+01    0.4460281    0.2618484 -30.31  0.001452451    1.997    0.499
       206 -10.5434      1.3817     30.9740   9.1742166629e+01   7.3705992277e+01    0.1852702    0.1146356 -70.33 0.0003379921    1.504    0.335
       207 -10.3628    217.0561     29.7938   1.9755102923e+01   2.8159175038e+01    0.1898485    0.1321891 -55.67 0.0003941774    1.222    0.182
       208  -9.8022    166.6495     30.7001   2.4796331153e+01   3.9370604187e+01    0.1368204     0.103079  37.28 0.0004398219    1.692    0.409
       209 -10.1322    145.0470     30.1202   2.7534073547e+01   4.4865954485e+01    0.2012457    0.1870148  48.83 0.0002911572    1.211    0.174
       210 -10.6812    101.1751     28.5119   3.5617962035e+01   5.6509694814e+01    0.3590085    0.2119409 -45.56  0.001034221    1.782    0.439
       211 -11.9154    156.7982     28.2418   2.5266340578e+01   4.2113548666e+01    0.2427719    0.2113535 -68.72 0.0002702118    1.036    0.035
       212 -10.8866     79.2139     28.7583   4.2399220643e+01   6.1971325534e+01    0.2822382    0.2326031  -3.67            0    1.442    0.306
       213 -10.9170    238.1947     27.9024   1.7887889210e+01   2.4275724166e+01    0.1811927    0.1175512 -48.94 0.0002718349    1.206    0.171
       214 -10.7225    197.9220     28.0337   2.0848692635e+01   3.2407287401e+01    0.1975497    0.1714803 -64.83 0.0007969259    1.061    0.057
       215 -10.8587    112.2764     27.0742   3.2369075074e+01   5.3814995547e+01    0.3366687    0.2421325 -10.77 0.0008844715    1.759    0.431
       216 -11.3142    215.9330     25.1588   1.8719102486e+01   2.8904080828e+01    0.2639042    0.1918978  77.62 0.0008395758    1.493    0.330
       217 -11.0612     23.9094     41.9125   7.7927114353e+01   6.9438478768e+01    0.4893685    0.1961261 -59.12  0.001768881    2.300    0.565
       218 -10.5344      1.9930     25.7531   8.9814470460e+01   7.4936085148e+01    0.2243005    0.1751442 -21.06 0.0008363549    1.229    0.186
       219 -10.8342      2.4198     22.4935   8.8418383126e+01   7.5685834805e+01    0.2733091    0.2039428 -19.15 0.0005438225    1.289    0.224
       220 -10.3902    226.0644     23.5940   1.7670547455e+01   2.7045696574e+01    0.2888227    0.1116094 -42.93  0.001433444    1.922    0.480
       221 -10.5119     10.9550     24.0856   8.1188971396e+01   7.4787118125e+01    0.2789401    0.1314931 -46.90 0.0008532001    1.895    0.472
       222 -10.0248      7.0247     25.0000   8.5048433050e+01   7.4850687218e+01    0.2501253    0.1484422  11.79  0.001005484    1.726    0.421
       223 -10.2903    128.7403     22.4752   2.7402920987e+01   5.0055319138e+01     0.415807     0.212002 -20.45  0.001711649    2.359    0.576
       224 -12.3494    133.0170     18.8931   2.5389697160e+01   4.9345183355e+01    0.3075805    0.2607486  75.64 0.0003783972    1.110    0.099
       225 -10.8530     22.3028     24.1241   7.1570347293e+01   7.3659346360e+01    0.2430583    0.1855403 -23.40 0.0007877587    1.317    0.241
       226 -10.7132    224.4773    248.4928   6.1084215293e+01  -1.4418115706e+00    0.1534461   0.08725702 -40.95  0.001042773    2.538    0.606
       227 -11.0251     28.5728     19.6711   6.4186284043e+01   7.3739051904e+01     0.316381    0.2387016  -1.02 0.0009204355    1.458    0.314
       228  -9.6046    160.6719    249.6440   7.2249921256e+01   4.9803320654e+00    0.1154622   0.06893296  -0.77 0.0007045119    1.779    0.438
       229 -10.7794    219.1158    247.6501   6.1820193813e+01  -8.4787053362e-01    0.1579024    0.1175312 -18.76 0.0009520968    1.416    0.294
       230  -9.9926     54.2501     23.2129   5.0103861486e+01   6.8490019501e+01    0.1845007    0.1643416  82.59 0.0002483685    1.348    0.258
       231  -9.7523    155.7259     21.9525   2.3381402290e+01   4.3126794750e+01    0.1898801    0.1690311 -54.01 0.0005060608    1.085    0.078
       232  -9.7374    206.9696     20.9560   1.8321687563e+01   3.1234659351e+01    0.1521827    0.1224627 -51.11 0.0003853556    1.029    0.028
       233  -9.9760     82.8493     21.6237   3.7651489827e+01   6.2120100420e+01    0.2042861    0.1334176  71.91 0.0006906223    1.643    0.391
       234  -9.4109     74.6655     21.2762   4.0240232963e+01   6.4177485120e+01    0.1430708    0.1111401 -81.51 0.0006996993    1.605    0.377
       235  -9.8305     67.0261     20.9677   4.3003199940e+01   6.6029595143e+01    0.1744764    0.1574533  48.67 0.0003847585    1.040    0.039
       236 -11.1861     58.8788     20.9180   4.6533948501e+01   6.7873845535e+01    0.2260592    0.2179299  30.87 0.0004715026    1.035    0.034
       237  -9.9390     83.6487    248.3291   8.7756942846e+01   1.3851575544e+01    0.1238349    0.0655773  48.09 0.0007047802    1.769    0.435
       238 -10.1772    181.2343     19.8193   2.0080006161e+01   3.7130997983e+01    0.1986862    0.1506501 -56.99 0.0004367805    1.144    0.126
       239  -9.5953     87.3189     20.2509   3.5612761396e+01   6.1177935644e+01    0.1460187    0.1028694  37.87 0.0001852788    1.530    0.347
       240 -11.0584     28.2414    245.1979   9.9511776199e+01   2.0012725710e+01    0.2535031    0.1427211 -73.06  0.001612123    2.184    0.542
       241 -10.5782    108.1130     18.2378   2.9546786159e+01   5.6014633009e+01    0.2331505     0.199607  10.23  0.001213026    1.400    0.286
       242 -10.7187     41.5401     18.8012   5.4656653454e+01   7.1739799581e+01    0.2730279    0.2662709  37.95  0.001326359    1.130    0.115
       243 -10.6792     72.8626    244.8889   8.9827944222e+01   1.5589684348e+01    0.2631716    0.1793231  21.01  0.001319283    1.312    0.238
       244 -12.1097     75.7124    238.3870   8.8728973021e+01   1.6373514871e+01    0.4567847    0.4071904 -33.46   0.00337721    1.439    0.305
       245 -10.8727     76.5770     15.6594   3.6588670988e+01   6.4464296447e+01    0.3505851    0.2386179  66.51 0.0002871565    1.443    0.307
       246  -9.8557    195.4420    238.4924   6.4549152909e+01   2.5668504654e+00    0.1091946   0.07860474   6.18 0.0001515747    1.018    0.018
       247 -10.7583    194.3740     16.7457   1.8158046546e+01   3.4441369280e+01     0.226075    0.1835057 -80.82 0.0008599387    1.164    0.141
       248 -10.3529    103.3074     17.0709   3.0063814479e+01   5.7420288951e+01    0.1915863    0.1762653 -64.64 0.0003926499    1.106    0.096
       249 -11.2748     16.8652    235.6947   1.0166453694e+02   2.2723352133e+01    0.2895804    0.1199058  61.38 0.0008607453    2.151    0.535
       250 -11.1032    233.1051     15.5241   1.5424031913e+01   2.6529040066e+01    0.2236774    0.1469863 -12.45  0.001337981    1.929    0.482
       251 -10.1022    185.4839     14.4498   1.8217865875e+01   3.6711388619e+01    0.1314832    0.1096961 -61.97 0.0001120416    1.007    0.007
       252 -11.1367    183.4321    234.1845   6.6106762748e+01   4.4086821665e+00     0.213247     0.180859  -1.64  0.001348184    1.262    0.207
       253 -11.1496     59.8919     13.8960   4.1927702221e+01   6.8676370712e+01    0.2160878    0.1962476  37.94 0.0006894593    1.028    0.027
       254 -11.0764    185.0018    228.1219   6.5003093709e+01   5.0037250039e+00    0.3867676    0.1853686 -21.17  0.002041186    2.561    0.610
       255 -10.6119    159.8385    235.4259   7.0693908308e+01   6.9536993950e+00    0.1663252   0.08758791  18.77 0.0005973182    1.668    0.401
       256 -11.0810     29.9763    233.7289   9.8691742060e+01   2.1909228649e+01      0.32179    0.1153633  63.07  0.001490714    2.947    0.661
       257  -9.9019    166.6144    232.7586   6.9050363742e+01   6.5233492810e+00     0.130786    0.1078904 -40.15 0.0009493033    1.592    0.372
       258  -9.5008    250.6846    238.3456   5.5793682365e+01  -2.8087240963e+00   0.08067369    0.0686722  -3.47 0.0007047874    1.717    0.418
       259  -9.7442     24.0429    232.0326   9.9954641544e+01   2.2766440709e+01    0.1404293    0.1060897  45.46 0.0004253931    1.025    0.025
       260  -9.4437    236.3290    230.3157   5.6783408247e+01  -6.7549098085e-01    0.1073626   0.05802118  -1.86 0.0007045407    1.678    0.404
       261 -10.0196    151.5170    228.5013   7.1463239035e+01   8.9239008655e+00     0.118622   0.09252825  17.26 0.0003087457    1.020    0.020
       262 -10.3685    191.2302    226.4720   6.3653995427e+01   4.5038560598e+00     0.192277    0.1409105 -24.25  0.001389971    1.377    0.274
       263 -10.3903      3.5505    226.2300   1.0437360985e+02   2.5592524052e+01    0.1929606   0.09699725  81.67 0.0009769684    2.000    0.500
       264 -11.5403     14.3071    222.2479   1.0183883819e+02   2.5480609928e+01    0.3102453    0.1661377  20.49  0.001352913    1.789    0.441
       265 -10.1830    211.9781    218.5415   5.8940503877e+01   3.1622818870e+00    0.1688818    0.1194735 -17.29  0.001154071    1.240    0.193
       266  -9.6736    230.2050    221.9288   5.6514782900e+01   8.3886747832e-01    0.1296213   0.06911598 -30.11 0.0008606361    1.725    0.420
       267  -9.8995     50.4920    218.0088   9.3106906839e+01   2.2860462307e+01    0.1586588   0.08958016 -43.34 0.0008103033    2.527    0.604
       268 -10.7078     29.2970    215.7545   9.8070798558e+01   2.5425093107e+01    0.2362186    0.1514329  18.28  0.001280439    1.582    0.368
       269 -10.4236     24.1387    216.1427   9.9320618970e+01   2.5823133396e+01    0.1717719    0.1068194  51.53 0.0004407282    1.291    0.225
       270 -12.0150     11.5037    209.6968   1.0211820409e+02   2.8223175919e+01    0.4417551    0.2004464  71.24  0.002299717    2.111    0.526
       271 -10.7324    216.6547    211.6651   5.7142295531e+01   3.4777621758e+00    0.3126016   0.07824196 -32.05  0.001248149    4.335    0.769
       272 -10.8246      1.8037    206.1822   1.0436313847e+02   2.9712878421e+01    0.2189515    0.1486962 -19.34  0.001148928    2.209    0.547
       273 -10.4242    237.1191    208.8285   5.3503177727e+01   1.6008354969e+00     0.150034   0.09293626  -6.44 0.0005601185    1.336    0.252
       274 -11.0191    175.4256    202.3401   6.3052057450e+01   9.7462567723e+00    0.2221168    0.1750937  11.24 0.0005067948    1.043    0.041
       275 -10.9888     20.0154    200.7352   9.9693767878e+01   2.9375963171e+01    0.4186583    0.1517023 -66.67  0.001887123    3.001    0.667
       276  -9.7134    250.4435    200.5110   5.0278575258e+01   1.1592007663e+00    0.1054856   0.07407509  -8.07 0.0001803565    1.015    0.015
       277  -9.7042    236.7536    197.0401   5.1716565690e+01   3.0070998434e+00    0.1379152   0.07484604 -29.68 0.0008843357    1.591    0.372
       278 -12.3799      5.7463    208.2190   1.0346245036e+02   2.8989357573e+01    0.4028246    0.2034616 -84.98  0.002244579    2.073    0.518
