#   1 NUMBER                 Running object number                                     
#   2 MAG_AUTO               Kron-like elliptical aperture magnitude                    [mag]
#   3 X_IMAGE                Object position along x                                    [pixel]
#   4 Y_IMAGE                Object position along y                                    [pixel]
#   5 X_WORLD                Barycenter position along world x axis                     [deg]
#   6 Y_WORLD                Barycenter position along world y axis                     [deg]
#   7 A_WORLD                Profile RMS along major axis (world units)                 [deg]
#   8 B_WORLD                Profile RMS along minor axis (world units)                 [deg]
#   9 THETA_WORLD            Position angle (CCW/world-x)                               [deg]
#  10 FWHM_WORLD             FWHM assuming a gaussian core                              [deg]
#  11 ELONGATION             A_IMAGE/B_IMAGE                                           
#  12 ELLIPTICITY            1 - B_IMAGE/A_IMAGE                                       
         1 -11.2275     86.5463     22.7421   4.7173741369e+01   5.9431443603e+01    0.7270821    0.4678612  64.74  0.001979243    2.475    0.596
         2 -11.8568     78.6206     45.5701   5.8736173838e+01   5.7231259142e+01     1.074741    0.7136757  -1.41  0.002176711    1.978    0.494
         3 -11.1388     86.8354     35.3986   5.2200421021e+01   5.7523980489e+01    0.9644349    0.4800778 -39.83  0.003484386    1.969    0.492
         4 -11.0490     18.3932     28.2208   7.5696555844e+01   6.7392294727e+01    0.4365177    0.2981149 -65.12 0.0009092843    1.776    0.437
         5 -10.4432    126.3456     13.5834   3.2759252116e+01   5.2061338285e+01    0.5609155    0.3440146 -40.80  0.001590827    1.863    0.463
         6 -11.3915    132.8703     12.7020   3.1020887141e+01   5.0590230805e+01    0.3066606     0.273137  -2.38 0.0003338666    1.155    0.134
         7 -10.9825    131.7104     22.6231   3.4968347774e+01   4.9760720167e+01    0.7034392    0.3434441 -30.55  0.002453083    2.083    0.520
         8 -10.5038     64.5897     16.2308   5.1863028000e+01   6.4053683919e+01      1.24135    0.3399194  47.55  0.004304287    4.834    0.793
         9 -11.1269     73.3824     27.5989   5.3588272514e+01   6.1021445017e+01    0.6884683    0.4414771   4.03  0.003537931    1.900    0.474
        10 -10.4978     69.1459     11.6302   4.8136001385e+01   6.3929197752e+01    0.3749132    0.2099742  41.14 0.0009942839    1.791    0.442
        11 -10.9315     35.5912     18.3668   6.4456370657e+01   6.7530450509e+01    0.4088507    0.2560784   8.60  0.001712718    1.770    0.435
        12 -10.8445     50.4315     22.1258   5.9876829245e+01   6.5198310665e+01    0.3090504    0.1936399 -24.32 0.0005882237    1.426    0.299
        13 -12.1065    105.0208     21.1689   4.1050583339e+01   5.5974394532e+01     0.413924    0.2717095  -7.69 0.0004592263    1.655    0.396
        14 -10.9284    151.7344     18.0471   2.9226043152e+01   4.5314716435e+01    0.4562964    0.3168839 -13.88 0.0003199237    1.600    0.375
        15 -11.4822    116.5049     15.3816   3.5750062151e+01   5.4144967590e+01    0.3286366    0.3061054 -72.59 0.0002101144    1.332    0.249
        16 -10.6154    205.7871     18.7680   2.1218823100e+01   3.1056703102e+01    0.4401889    0.3476766 -61.69   0.00236888    1.273    0.214
        17 -10.4698    195.9484      3.4581   1.8070697518e+01   3.5240466802e+01    0.8575295       0.2454  54.90  0.002997201    3.032    0.670
        18 -10.7373    207.9155      3.7480   1.6828199213e+01   3.2100709981e+01    0.6113997    0.3051131 -66.48  0.002513392    2.466    0.594
        19  -9.3151    191.5882     11.3085   2.0874636982e+01   3.5598665927e+01    0.3712057    0.2564402 -29.91  0.001147991    1.534    0.348
        20  -9.3515    190.8014      7.0945   1.9738714264e+01   3.6234391989e+01    0.2116366    0.1780029 -71.57 0.0004553774    1.196    0.164
        21  -9.1742    210.2687     13.3383   1.9182658461e+01   3.0494695229e+01    0.2452627    0.1950677 -29.93 0.0006598416    1.340    0.254
        22  -9.6223    211.4085      9.8263   1.8099763356e+01   3.0576564621e+01    0.2763999    0.2421905  26.24 0.0008076801    1.359    0.264
        23 -10.2721    144.6518     12.7961   2.8711854512e+01   4.7669372139e+01    0.4123797    0.2019334  60.26 0.0008635906    1.844    0.458
        24  -9.5032    243.6186     14.1761   1.5983118114e+01   2.2045146348e+01    0.4544999    0.1643587  49.12  0.001650621    3.569    0.720
        25 -11.0967     61.5274     22.1456   5.5588518508e+01   6.3669765016e+01     0.491454    0.3998465 -57.06  0.003018549    1.816    0.449
        26  -8.9904    184.2586     13.0818   2.2382062297e+01   3.7347264136e+01    0.3037628    0.2311237  53.48 0.0009493954    1.252    0.201
        27 -10.8418    174.2777     13.2772   2.3879233396e+01   3.9960632673e+01    0.6563402    0.4665804  31.73  0.003006733    1.576    0.365
        28  -8.3898     16.4956      8.4952   6.8964070573e+01   7.0875101117e+01    0.3593732    0.2770555  -3.47  0.002742798    1.263    0.208
        29 -10.3967      7.7877      9.1887   7.3525414699e+01   7.1404325659e+01    0.3221582    0.1647012   4.14  0.001966654    2.342    0.573
        30  -9.8316      4.2647      7.3312   7.4528801013e+01   7.1932844498e+01    0.4106454    0.1926425 -24.39  0.001602807    2.090    0.522
        31 -11.4287      5.4875     16.1903   7.7319124106e+01   7.0370478997e+01    0.3698531    0.3148577 -49.99  0.001607191    1.327    0.247
        32 -10.7068      9.3108     15.3080   7.5184078466e+01   7.0284075011e+01    0.3303855    0.1952045 -17.63  0.001253956    1.680    0.405
        33  -9.7861    225.2230     16.9484   1.8494482965e+01   2.6265349904e+01    0.2894764     0.231948   9.05 0.0007404217    1.626    0.385
        34 -10.2704     16.5672     16.3801   7.2191849948e+01   6.9589529323e+01    0.3882805    0.1976456 -19.87  0.002192801    2.180    0.541
        35 -10.5002     31.0789     12.2030   6.3776805683e+01   6.8962076603e+01    0.2736739    0.2612512  -9.07  0.001603553    1.475    0.322
        36  -9.5328    219.2871     11.1465   1.7606312926e+01   2.8414819666e+01    0.4678558     0.215377 -60.41  0.001838937    2.636    0.621
        37  -9.1679    199.8054     11.7635   1.9977681498e+01   3.3391081309e+01    0.4771862    0.1349541 -41.30  0.001599502    3.408    0.707
        38  -8.7155     98.6103      5.4304   3.6207244351e+01   5.9091246947e+01    0.4233015    0.2212904   0.34  0.001872119    2.446    0.591
        39 -10.3478     91.5314      2.4117   3.6823087524e+01   6.0839829878e+01    0.5566092    0.2451422  60.46  0.002395171    2.718    0.632
        40 -10.9218    106.6027      5.9415   3.4352999889e+01   5.7334595055e+01    0.5680701    0.3983893  -6.40   0.00314357    1.450    0.311
        41  -9.6269     96.9081     12.8496   3.9862240842e+01   5.8650287700e+01    0.2375294    0.1777067  25.07 0.0003751117    1.235    0.190
        42 -10.6430    101.4536     11.1610   3.7888127874e+01   5.7897256953e+01    0.3301146    0.2645719  53.20 0.0004828342    1.313    0.238
        43  -9.5772     91.3246      8.8530   3.9738288952e+01   6.0217544963e+01    0.4395922     0.193102  42.95  0.002004336    2.080    0.519
        44  -9.0132     87.7269      6.6574   3.9824329889e+01   6.1160386409e+01    0.2074077     0.160717   0.96 0.0006267639    1.181    0.153
        45  -9.8379     54.7206      9.0102   5.2290429597e+01   6.6494500552e+01    0.2799041    0.2307348  67.33  0.001432062    2.233    0.552
        46  -8.8735     44.3443      9.5151   5.6751129957e+01   6.7831741310e+01    0.2213014    0.1168771 -18.72  0.001172175    1.956    0.489
        47  -8.4148    166.4874      9.4930   2.3850628562e+01   4.2389751182e+01    0.1449926     0.127195  50.69 0.0008093619    1.076    0.071
        48 -12.0429    156.0694      3.5486   2.3510484678e+01   4.5653574273e+01    0.5951106    0.2511055  45.11 0.0004125753    2.290    0.563
        49 -12.0949    159.9916      1.7737   2.2307242341e+01   4.4800285953e+01    0.4362093    0.3244463 -49.91  0.001390415    1.508    0.337
        50 -10.3258     79.2754      4.4174   4.1400825609e+01   6.2998340749e+01    0.2592942     0.183307 -12.74 0.0004736072    1.315    0.240
        51 -10.8463     74.3166      3.0137   4.2346787249e+01   6.4045004325e+01    0.6605027    0.5571674  32.28  0.004395125    1.216    0.178
        52  -8.4513    117.5483      7.7830   3.2478509723e+01   5.4704962797e+01    0.1641494    0.1264728 -30.20  0.000279887    1.409    0.290
        53  -9.1015     48.4920      7.9799   5.4299033157e+01   6.7498306992e+01    0.1726605    0.1385822  -4.37 0.0007138374    1.045    0.043
        54  -9.8388    170.8484      6.2889   2.2169316421e+01   4.1559499554e+01    0.3112237    0.2114298  46.36 0.0006651711    1.426    0.299
        55 -10.0687    136.0125      2.4210   2.6573315031e+01   5.0806971360e+01    0.4434538    0.3154316 -70.72   0.00224468    1.877    0.467
        56  -9.6027    123.8265      6.2951   3.0493816230e+01   5.3389428326e+01    0.2820291    0.2532096  36.55  0.000800662    1.024    0.023
        57  -9.9371     38.0082      4.7545   5.7198242379e+01   6.9264825734e+01    0.2778584    0.2106746  -8.45  0.001259768    1.051    0.049
        58  -9.6061     46.3395      4.2829   5.3394282672e+01   6.8269980307e+01    0.2210957    0.1452951  -5.80 0.0005935363    1.403    0.287
        59 -10.1270     43.1021      1.3983   5.3318766474e+01   6.9063580922e+01    0.3298775    0.1427114  40.95 0.0009636017    2.586    0.613
        60 -10.3808     13.3385      2.8700   6.8002415751e+01   7.1995070663e+01    0.2561026    0.1775702 -38.45  0.001869386    1.265    0.209
        61 -11.1777     21.9935      5.9111   6.5145929058e+01   7.0795959993e+01    0.3497552    0.2156284  39.38  0.002216298    2.354    0.575
        62  -9.7236     17.7234      2.6142   6.5686682764e+01   7.1667591608e+01    0.2720968     0.136312 -23.65 0.0008962957    1.854    0.461
        63 -11.4841    218.5647      3.0910   1.5572287110e+01   2.9439138287e+01    0.3229648    0.2768505 -64.27 0.0003791526    1.103    0.093
        64 -10.0451    239.3086      3.5039   1.3791894925e+01   2.4249340082e+01    0.3837115    0.2263663  62.40  0.001982164    1.672    0.402
        65  -8.7422    223.9698      4.2571   1.5353249192e+01   2.7955704745e+01    0.1899603    0.1636159 -88.82 0.0004771877    1.041    0.040
        66  -9.9166     30.6859      2.5967   5.9448036913e+01   7.0397054454e+01    0.2434224    0.1573919 -44.42 0.0009266469    1.839    0.456
        67  -9.6088    232.6096      2.7086   1.4176324607e+01   2.5966445540e+01    0.2393761    0.1419433 -76.10 0.0007937286    1.731    0.422
        68  -9.2473    142.9366      2.7318   2.5427420495e+01   4.9061632857e+01    0.1951411     0.170176  55.72 0.0003821423    1.044    0.042
        69 -10.1232    115.7245      2.0203   3.0575587518e+01   5.5663218150e+01    0.2288798    0.1726713  38.43 0.0003154715    1.168    0.144
        70 -10.8045    249.8856      1.5869   1.2485056833e+01   2.1932132316e+01    0.2089272    0.1535674  87.99 0.0003612899    1.255    0.203
        71  -9.7326    179.9777      2.0393   1.9600516854e+01   3.9561416333e+01    0.4086616    0.2007163  73.07  0.001761807    1.910    0.477
        72  -8.5870    138.9601      6.7745   2.7617900841e+01   4.9683558712e+01    0.2535764    0.1481417  58.94  0.001061717    1.531    0.347
        73  -9.1906      5.1437      1.9266   7.1781991179e+01   7.2738349730e+01    0.2165388    0.1296472  -3.31  0.001180904    1.724    0.420
        74  -9.3920    126.7733      1.4035   2.7983660141e+01   5.3134480997e+01    0.2299805    0.1246973  65.06 0.0004282904    1.804    0.446
        75  -8.5526     22.9084      1.3184   6.2511676890e+01   7.1377067370e+01    0.1750513   0.09170098  34.92   0.00105496    2.340    0.573
        76 -11.1911     21.2449    118.9060   9.3572111223e+01   4.8280458266e+01    0.4696833    0.3224321  82.05  0.003061341    1.389    0.280
        77 -10.1485    201.4037    249.5513   7.4216297679e+01  -3.2374713387e+00    0.2306116     0.168436  29.84 0.0007673981    1.149    0.130
        78  -9.8949    221.4146    119.3921   4.5808805991e+01   1.1978067341e+01     0.348262    0.2593195  39.53 0.0007250382    1.353    0.261
        79  -9.4108     93.7299    119.2676   7.4732300192e+01   3.9463640814e+01    0.2461369    0.2266974 -35.51 0.0008109649    1.220    0.180
        80  -8.5703     61.6825    120.2972   8.3362218055e+01   4.3849892145e+01    0.1677082    0.1105803  35.61 0.0005323032    1.735    0.424
        81  -8.9516     64.6581    118.7030   8.2296623147e+01   4.3834487166e+01    0.2130311    0.1168139 -58.77 0.0007578101    1.592    0.372
        82 -10.5387     45.3991    119.5326   8.7489373254e+01   4.5897819623e+01    0.2669061    0.2155875  54.33  0.001037301    1.348    0.258
        83  -8.9792     57.7824    118.9677   8.4157949802e+01   4.4627691906e+01    0.1790089    0.1458027 -71.50 0.0004164065    1.050    0.047
        84 -10.5134     10.4893    114.4994   9.5742190697e+01   5.0046931952e+01    0.4470703    0.2189727  89.73  0.002418438    2.038    0.509
        85  -9.6501     13.5380    113.4562   9.4852777108e+01   5.0059028801e+01    0.2106366     0.130715  55.52 0.0008153663    1.784    0.439
        86  -8.6244     53.6732    117.6723   8.5022234251e+01   4.5403234417e+01    0.1279304   0.08908097 -39.65 0.0007050356    1.701    0.412
        87  -8.6868     36.7025    115.7206   8.9179453105e+01   4.7627691340e+01    0.1810451    0.1288628 -73.99  0.000193611    1.159    0.137
        88  -8.8014     33.5637    114.4985   8.9821913964e+01   4.8194778268e+01    0.1688821    0.1191992  34.92 0.0005458983    1.692    0.409
        89  -8.7320    104.4402    115.4343   7.1087356657e+01   3.8492604296e+01    0.1416425    0.1336516 -71.34 2.544285e-05    1.011    0.011
        90  -8.8869     81.7233    115.5373   7.7139305355e+01   4.2184395816e+01    0.3267865     0.142478  27.40  0.001183578    3.655    0.726
        91  -8.6966    235.3251    122.3269   4.4075661866e+01   8.4049552066e+00    0.1517738    0.1084488  12.30 0.0007049519    1.695    0.410
        92  -8.8378     46.1494    113.1876   8.6278954615e+01   4.7244591750e+01    0.1792146    0.1353117  81.52  0.001093724    1.373    0.271
        93  -8.8728    140.6581    111.9123   6.1037602649e+01   3.2074585712e+01    0.2143483    0.1887234 -48.30 0.0004296579    1.137    0.120
        94 -11.0640     37.0353    109.6372   8.8160477957e+01   4.8954938240e+01     0.382245    0.2020007 -73.31 0.0006373014    1.692    0.409
        95 -11.0707     31.8984    106.0160   8.8989384247e+01   5.0233110710e+01    0.5166639    0.2451678 -52.24  0.001881087    1.870    0.465
        96 -10.8070     21.1355    108.7354   9.2282783323e+01   5.0525674283e+01    0.4211263    0.3313989 -41.17  0.002936779    1.476    0.322
        97  -9.5090     91.8777    106.9984   7.2529940856e+01   4.2514397404e+01    0.3921775     0.258159 -17.35  0.001658169    2.685    0.628
        98  -9.0673    116.5190    107.5464   6.6046406702e+01   3.7982057430e+01    0.1461769    0.1407182 -71.66 0.0001667278    1.009    0.009
        99 -10.4399     52.5331    105.3497   8.3151736411e+01   4.8310613949e+01    0.3079345     0.213294 -68.07  0.001787907    1.261    0.207
       100 -10.9890     57.5647     99.6382   8.0605105846e+01   4.9009719717e+01    0.6173213    0.2290888 -42.79  0.002317359    3.305    0.697
       101  -9.0134      1.5871    104.2097   9.6842563417e+01   5.2833079508e+01    0.2658503    0.1110436 -87.29  0.001320197    2.432    0.589
       102  -9.3691    142.0846    103.7836   5.8584109509e+01   3.3449008600e+01    0.2555745    0.2211267 -46.16 0.0005879536    1.154    0.134
       103 -10.4260     64.5559    102.9514   7.9284336253e+01   4.7404136056e+01    0.3621804    0.2576148  -8.40  0.001714815    2.191    0.544
       104  -9.9406     41.0133    103.3820   8.6029092338e+01   4.9968012918e+01    0.2796506    0.1509223 -73.55  0.001401202    1.758    0.431
       105  -9.3783    104.9940    100.1316   6.7269761925e+01   4.1762315045e+01    0.4639294    0.2346573  24.88   0.00156747    3.679    0.728
       106  -9.0415    100.5208    103.0077   6.9212164033e+01   4.1933124291e+01    0.2712333    0.1782142 -45.84 0.0008545007    1.465    0.317
       107  -9.1835    100.7465     98.5993   6.8051239827e+01   4.2858407302e+01    0.3562253    0.2138687 -45.06   0.00109601    1.599    0.375
       108 -10.4829     70.8374    102.3616   7.7374009843e+01   4.6706827947e+01     0.318791    0.2134898 -49.73  0.001340152    1.369    0.270
       109 -11.3677    117.6226     98.0508   6.3316137052e+01   3.9806562136e+01    0.2728063    0.2562593 -31.03 0.0002778347    1.089    0.082
       110 -10.3876     50.3495    100.1637   8.2787273603e+01   4.9716385370e+01    0.4256093    0.2256445 -37.45  0.001379194    2.382    0.580
       111 -10.2982     45.2721     99.5659   8.4132469573e+01   5.0390562538e+01    0.2904479    0.2021453  30.19  0.001389401    1.732    0.422
       112  -9.8290      4.7200    111.0719   9.6806156681e+01   5.1168763968e+01    0.2240853    0.1335908 -59.67 0.0007273748    1.427    0.299
       113  -9.0161     16.5099     99.3209   9.2222578135e+01   5.2933884044e+01    0.2462184   0.09149391 -69.54  0.001192362    2.104    0.525
       114  -8.5837     30.0107     99.5879   8.8488460870e+01   5.1822936989e+01    0.1433818    0.1201771  26.56 0.0009863081    1.503    0.335
       115 -10.0801    125.4472     97.2872   6.1048995071e+01   3.8378287262e+01    0.3906915    0.2700326  70.81  0.001702022    1.960    0.490
       116  -8.9505      5.1739     98.3642   9.5195971770e+01   5.3878946751e+01    0.1887555    0.1590966  89.65  0.001449994    1.182    0.154
       117  -9.5266    141.3562     96.0594   5.6672140148e+01   3.5189348289e+01    0.2589324    0.2161072  31.56 0.0007681156    1.282    0.220
       118 -10.0665     81.8261     95.7644   7.2710548412e+01   4.6593227234e+01    0.3060325     0.241071  60.00  0.001652496    1.458    0.314
       119  -9.0114     85.9912     96.0000   7.1568035171e+01   4.5896911507e+01    0.2604426    0.1716626  50.93 0.0008014733    1.716    0.417
       120  -9.9576     42.0968     95.3726   8.4264494063e+01   5.1645303007e+01    0.2343563    0.1531262 -70.09 0.0005257933    1.362    0.266
       121 -10.6765     32.3060     92.7419   8.6655056900e+01   5.3137271624e+01    0.4101303    0.2229156 -50.01  0.002287999    1.619    0.382
       122  -8.5703     91.1525     94.5890   6.9736952552e+01   4.5373855823e+01    0.1779175     0.137372  23.72  0.000446534    1.545    0.353
       123 -10.0746     47.6952     92.8237   8.2109852278e+01   5.1637105790e+01    0.2942446    0.2386754  86.68  0.001390033    1.351    0.260
       124  -9.7367     23.4305     93.2029   8.9327938343e+01   5.3762356191e+01    0.3065135    0.1697543 -86.39  0.001122138    2.025    0.506
       125 -10.5598     26.3632     86.6872   8.7339094633e+01   5.4957877808e+01    0.4588788    0.2784469 -42.44  0.001701708    1.643    0.391
       126  -9.6672     19.2876     81.0623   8.8492269932e+01   5.6705280083e+01    0.4027441    0.2246256  50.21   0.00229549    2.339    0.572
       127  -9.1984      3.1749     79.7526   9.3207016845e+01   5.7973372163e+01    0.4114214    0.1239714 -49.66  0.001973258    2.671    0.626
       128  -9.4813      1.7734     91.7906   9.5293127673e+01   5.5483452797e+01    0.3814581    0.1869407  76.16  0.001981572    2.691    0.628
       129  -9.9251      2.3556     85.9895   9.4350985455e+01   5.6690613655e+01    0.2990946    0.1379938 -61.31  0.001003063    1.569    0.363
       130  -9.1945    134.3508     92.2620   5.7369392746e+01   3.7513947346e+01    0.2421644    0.2150863  14.85  0.000672591    1.248    0.199
       131 -10.5343     17.4375     91.2046   9.0746453658e+01   5.4638411073e+01    0.3740801    0.2191107 -11.43 0.0005755733    2.762    0.638
       132  -8.7982     14.0933     88.3736   9.1279474036e+01   5.5479554531e+01    0.2163274    0.1285748 -66.76 0.0006122541    1.282    0.220
       133 -10.1043    108.2678     90.9974   6.3960052112e+01   4.3116680482e+01     0.373697    0.2306015 -14.30  0.001355064    3.217    0.689
       134  -8.7319     71.0233     91.2563   7.4797074036e+01   4.9149813219e+01     0.177721    0.1680507 -65.31 0.0004655444    1.075    0.069
       135 -11.4739     65.1878     87.0819   7.5554448417e+01   5.0845211773e+01    0.7524406    0.4040755 -49.78  0.003268861    1.620    0.383
       136  -9.5875     69.9904     85.4876   7.3698347834e+01   5.0552664899e+01    0.2403421    0.2198682  61.98  0.001498403    1.242    0.195
       137 -10.8722     73.0456     80.0651   7.1357047052e+01   5.1294014279e+01    0.5179635    0.3368299 -46.45   0.00138819    1.369    0.270
       138 -10.5410     81.0713     83.0130   6.9685258783e+01   4.9479748404e+01    0.3547675    0.2630597 -30.64 0.0005210824    1.442    0.306
       139 -10.0285     77.1986     83.3864   7.0960372958e+01   4.9982035180e+01    0.3028895    0.2541997 -58.48 0.0007102694    1.137    0.120
       140  -9.4480     52.5242     90.3143   8.0136362439e+01   5.1665565153e+01     0.234361    0.1131669 -63.70  0.000501841    1.919    0.479
       141  -8.5027    104.1773     90.1836   6.4880498142e+01   4.4051746874e+01    0.1864924     0.162148 -72.35 0.0002987229    1.248    0.199
       142 -10.5459     86.8314     87.3457   6.9117892138e+01   4.7647297753e+01    0.6785351    0.2703264 -45.48   0.00265245    2.343    0.573
       143  -8.9417     97.8756     88.7820   6.6288967902e+01   4.5482852469e+01    0.2688735    0.1851966 -75.61 0.0008201578    2.035    0.508
       144  -9.7557     44.0416     88.2229   8.2265920678e+01   5.3031055404e+01    0.1931988    0.1468079 -44.36 0.0005852641    1.254    0.203
       145  -8.9315    131.4596     93.4393   5.8437267506e+01   3.7902551911e+01    0.2389567     0.193987 -51.60 0.0005994808    1.243    0.195
       146 -11.4670    124.0042     85.9832   5.8268239855e+01   4.1012237407e+01     1.182545    0.3938626  40.55  0.003678669    3.454    0.710
       147 -11.1455    120.6482     85.5257   5.9033152405e+01   4.1804620455e+01    0.5567366    0.4180814  83.97  0.002553463    1.894    0.472
       148 -10.4035    155.1685     85.0264   5.0214493112e+01   3.4142073850e+01    0.3485162    0.2813641  30.68 0.0002897619    1.340    0.254
       149 -10.5317    154.8880     79.8022   4.8742267389e+01   3.5189184460e+01    0.4611214    0.3428572  34.91  0.001248413    1.445    0.308
       150  -9.7163    150.6998     80.0016   4.9783057350e+01   3.6159363269e+01     0.360103    0.2901271  63.52  0.001478247    1.330    0.248
       151 -10.1393    143.1100     83.2238   5.2570917015e+01   3.7331633619e+01    0.4238318    0.2494335 -39.44 0.0009397292    1.694    0.410
       152  -9.3218    110.2401     85.4676   6.1868012928e+01   4.3898216162e+01       0.2671    0.1441869  38.50  0.001116647    2.012    0.503
       153 -10.9387     39.7708     81.2653   8.2120296586e+01   5.4970776421e+01    0.4720933    0.3152293  -2.67  0.001082734    2.151    0.535
       154  -9.0062     60.1399     82.8823   7.6094090168e+01   5.2398010010e+01    0.1969796    0.1689942 -79.60 0.0005851876    1.262    0.208
       155 -10.5375     51.8328     82.1112   7.8510530993e+01   5.3539851535e+01    0.3573345    0.2344632 -48.09  0.001029822    1.320    0.242
       156  -9.3974     47.8931     63.5325   7.5107679373e+01   5.7905134694e+01    0.2261962    0.1574404 -58.32 0.0005790955    1.333    0.250
       157 -11.7014     52.9933     75.2611   7.6482519781e+01   5.4883384764e+01    0.2807977    0.1963159 -54.19            0    1.217    0.179
       158 -10.8498     53.4290     70.5431   7.5124076401e+01   5.5831542777e+01    0.5645269    0.2282149 -40.55  0.002072131    2.535    0.606
       159 -10.5371     50.6468     67.7890   7.5322370684e+01   5.6722339553e+01    0.3325219    0.2150386 -45.76 0.0009144943    1.307    0.235
       160 -10.5596    166.9086     77.8568   4.5464121412e+01   3.2585039035e+01    0.3512726    0.2965147   2.58 0.0002471423    1.365    0.268
       161 -10.1733    169.4436     74.2493   4.3848642859e+01   3.2587513444e+01    0.3344962    0.2877975 -45.87 0.0008317064    1.189    0.159
       162 -11.4340    165.4257     71.0794   4.3759105508e+01   3.4152616868e+01    0.5000719    0.4214116  -5.92 0.0003140867    1.337    0.252
       163  -9.9124     29.2836     75.3600   8.4216643365e+01   5.7172334040e+01    0.4352201    0.1533129 -53.88  0.002047623    2.111    0.526
       164 -10.9189     15.2039     64.9791   8.6726331230e+01   6.0391017580e+01    0.6639261     0.334491   5.72  0.001322718    2.912    0.657
       165 -11.4566      8.3301     51.2440   8.6185345231e+01   6.3614389044e+01    0.6635616    0.5783172 -62.56  0.005207731    1.192    0.161
       166 -10.7112     33.3862     58.7670   7.8918391913e+01   6.0302236768e+01    0.4102831    0.2715109 -13.85  0.001283856    1.870    0.465
       167 -10.0791     35.3503     53.6500   7.6816341093e+01   6.1159419948e+01    0.3721397    0.2846831  27.44  0.002472587    1.569    0.363
       168  -8.9680     28.4215     52.1652   7.8961058655e+01   6.2057010216e+01    0.1596768    0.1446927 -44.11  0.000386957    1.158    0.136
       169 -10.2839     30.2340     68.3435   8.2362376369e+01   5.8584249551e+01     0.477438    0.2555938 -65.21  0.002606575    1.684    0.406
       170 -11.0563     24.9319     67.8452   8.4040828863e+01   5.9110455273e+01    0.3827084    0.3027045 -32.94 0.0004294367    1.294    0.227
       171 -11.2777      2.4513     66.0844   9.1212198171e+01   6.0881742663e+01    0.3772494    0.1592795 -62.78  0.001389563    1.672    0.402
       172 -11.0434     24.6962     54.5148   8.0955471834e+01   6.1879686527e+01    0.3474246    0.2230651 -60.70  0.001028079    1.351    0.260
       173 -10.6295     19.5837     54.8701   8.2911650999e+01   6.2180635724e+01    0.3876576    0.2682665  88.59  0.002359038    2.035    0.509
       174 -10.7361      7.5670     61.5824   8.8650162876e+01   6.1548467790e+01    0.3108043    0.2225242 -28.38  0.001107669    1.519    0.342
       175 -10.7712      3.8156     60.1878   8.9668469945e+01   6.2032583872e+01    0.2800145    0.2051341 -36.68 0.0009630183    1.359    0.264
       176  -8.9390     12.7568     78.1628   9.0010763942e+01   5.7760384131e+01    0.1622336   0.09913313 -50.91 0.0004000464    1.369    0.270
       177  -9.9267    145.6397     70.3268   4.8038958114e+01   3.9147455054e+01    0.6042293    0.3321642 -40.67  0.002468484    1.821    0.451
       178 -10.1212    140.9855     68.9215   4.8728864090e+01   4.0503003586e+01    0.4897431    0.2845302 -35.76  0.001442475    1.729    0.421
       179  -9.4690    145.0108     75.6383   4.9829626876e+01   3.8324605711e+01    0.3363555    0.2708043  -2.95  0.001066359    1.481    0.325
       180  -8.8228    141.5203     75.5436   5.0654167718e+01   3.9160698508e+01    0.2430272    0.1504126 -38.10 0.0005169129    1.611    0.379
       181 -10.1928    109.9132     73.6708   5.8464116954e+01   4.6349604666e+01    0.5825927    0.3007002 -49.30  0.002206261    2.009    0.502
       182  -9.3848    100.5977     76.1486   6.1902525022e+01   4.7625827443e+01    0.2959602    0.2273973   4.05  0.001249259    1.655    0.396
       183  -9.7624     87.3795     68.1730   6.3465136481e+01   5.1543040868e+01    0.2737015    0.2432003  -2.75  0.001089672    1.177    0.150
       184  -9.6618     83.9246     65.6669   6.3769659911e+01   5.2608816201e+01    0.2723184    0.2441767  70.47 0.0008159155    1.385    0.278
       185  -9.7916     82.6273     61.5668   6.2882966652e+01   5.3622309641e+01    0.4074421    0.2632759 -10.73  0.001455565    2.257    0.557
       186 -11.0558     88.6488     74.1154   6.4869490292e+01   5.0131065547e+01    0.8541728    0.4295175 -31.19 0.0007305646    2.578    0.612
       187 -10.6045     94.6788     71.9675   6.2397064284e+01   4.9532986639e+01    0.5619085    0.3245436 -56.35  0.002007804    1.985    0.496
       188  -8.1407    190.4846     76.5557   4.0277593444e+01   2.6834785869e+01       0.1533    0.1515039  71.49 0.0001772115    1.009    0.009
       189  -7.9814    215.6769     75.6894   3.5562274851e+01   2.0590177953e+01    0.1553599    0.1166962  21.90 0.0002568011    1.652    0.395
       190  -8.9036     77.9628     74.7081   6.8346917627e+01   5.1703544895e+01    0.1751018    0.1692435 -36.96  0.000189273    1.084    0.077
       191 -10.0231     64.1883     74.9495   7.2785662803e+01   5.3585262304e+01    0.2613986    0.2405555 -85.25  0.000825245    1.245    0.197
       192  -9.6298     68.2366     74.5981   7.1393866938e+01   5.3120601711e+01    0.2822619    0.1956462 -35.27 0.0006759064    1.424    0.298
       193  -9.4559     18.8287     72.6808   8.7069113387e+01   5.8529800682e+01    0.2766365    0.1785273 -53.76  0.001783533    1.218    0.179
       194  -8.3522    152.2785     73.3363   4.7398183946e+01   3.7006081357e+01    0.1571415    0.1216932   9.48 0.0002298068    1.613    0.380
       195  -9.2141    136.7952     72.7769   5.0978472992e+01   4.0769182485e+01    0.2114356    0.1813808 -70.95  0.001055772    1.364    0.267
       196  -9.3574    117.5147     73.1063   5.6164290128e+01   4.4923422462e+01    0.4094649    0.1418377 -37.25  0.001327776    3.063    0.673
       197  -9.3543    120.0839     67.4178   5.3663501802e+01   4.5466792489e+01    0.3264242    0.2618141 -21.44 0.0009294556    1.302    0.232
       198  -9.3569      2.8093     72.7196   9.2218700866e+01   5.9477171292e+01    0.1979431    0.1246766 -45.91 0.0005111482    1.441    0.306
       199 -10.3662    218.7293     69.9006   3.3510610760e+01   2.0737106419e+01    0.2496852    0.2274031  61.43 0.0002954268    1.115    0.103
       200  -9.7130    157.2553     68.8393   4.4875658547e+01   3.6583782167e+01    0.3897598    0.2080214 -36.08  0.001548282    1.882    0.469
       201  -9.2686    102.1621     69.8981   5.9531719655e+01   4.8582321011e+01    0.2186495    0.1930532 -55.85 0.0007149596    1.203    0.169
       202  -9.7891     45.4348     69.2617   7.7459956405e+01   5.6974679715e+01    0.2251819    0.1910335  88.35 0.0005166918    1.446    0.309
       203  -9.9763    173.5624     68.8824   4.1383408460e+01   3.2464396083e+01    0.2800975    0.2238894  68.28 0.0003532728    1.322    0.244
       204 -10.4627     75.6679     66.0489   6.6528974171e+01   5.3819410479e+01    0.3383102    0.2311351  36.96 0.0005010069    1.617    0.382
       205  -9.8987     77.1309     62.0987   6.4828958221e+01   5.4383070359e+01    0.2817664    0.2178251 -25.81 0.0003889873    1.276    0.216
       206  -9.0951     36.2101     67.5246   8.0144439737e+01   5.8236944695e+01    0.1889649    0.1183208  31.23 0.0006536559    1.915    0.478
       207  -9.0602    105.4984     65.6454   5.7203342369e+01   4.8767473632e+01    0.2646739    0.1723902  41.88   0.00126169    1.597    0.374
       208 -11.0928    134.6557     63.5322   4.8581086662e+01   4.2940209441e+01    0.6850801    0.3921112 -52.94  0.001282595    2.171    0.539
       209 -10.1556     97.8360     63.9310   5.8918525795e+01   5.0540718770e+01    0.2801217    0.2274155 -62.21 0.0003154966    1.457    0.314
       210  -9.5901     94.3145     59.4263   5.8509743778e+01   5.2033191887e+01    0.3115562    0.2129131   2.13  0.001441577    2.050    0.512
       211  -9.0914     93.2143     79.4420   6.5046251295e+01   4.8260168928e+01    0.2843153    0.1792184 -17.81   0.00116312    2.470    0.595
       212  -8.5278    109.9825     63.0456   5.5061955684e+01   4.8370506471e+01    0.1757882    0.1661991 -14.51 0.0009939129    1.003    0.003
       213 -10.3237     65.1696     61.8673   6.8723823209e+01   5.6148706463e+01     0.572311    0.2477979  33.36  0.002531417    2.644    0.622
       214  -9.3593     70.9645     60.2273   6.6271918082e+01   5.5666536167e+01    0.2557234    0.1799573 -51.95 0.0008146461    1.388    0.280
       215  -9.9310     53.9831     61.2218   7.2351332695e+01   5.7689086174e+01    0.3589383    0.2083234 -63.45  0.001453603    1.996    0.499
       216 -11.8856     56.1593     56.6933   7.0238395173e+01   5.8333269707e+01    0.3450264    0.2952493  74.03 0.0003298508    1.629    0.386
       217  -9.3016     45.4135     60.6735   7.5178381217e+01   5.8754068821e+01    0.4103577    0.2420723  -9.98  0.002004158    2.627    0.619
       218  -9.0007    175.9479     61.1945   3.8582368754e+01   3.3117983981e+01    0.2329445    0.2080155 -69.23  0.000930313    1.207    0.171
       219  -9.7502    155.3380     61.0055   4.2851420577e+01   3.8397718302e+01    0.2996947    0.2225464  45.49 0.0008096247    1.326    0.246
       220  -9.8639    123.8260     58.4182   4.9698760890e+01   4.6283492003e+01    0.5016202    0.3195772   4.72  0.001165626    2.577    0.612
       221  -8.7503    213.1307     60.0820   3.1718534955e+01   2.3653396123e+01    0.2084313    0.1952806  15.03 0.0002696531    1.166    0.143
       222  -9.3054    142.2877     58.8106   4.5162483816e+01   4.1959722833e+01    0.2856858     0.181657  29.24 0.0008492852    1.922    0.480
       223 -10.2049    193.4733     62.0092   3.5541432656e+01   2.8435001663e+01     0.407131    0.2622456 -24.40  0.001354884    1.695    0.410
       224  -9.6143    136.3404     56.7005   4.5913188759e+01   4.3726136241e+01     0.295583    0.2556012   5.62 0.0008698066    1.230    0.187
       225  -8.6355    190.2039     57.0076   3.4659520982e+01   3.0061910171e+01    0.2007854    0.1966369 -22.55 -0.0006383859    1.054    0.052
       226 -10.5075    225.8344     55.4412   2.8577804240e+01   2.1122229826e+01    0.2584125    0.2310926 -43.46 0.0002717998    1.082    0.076
       227 -10.5081    162.0334     54.3692   3.9288953425e+01   3.7783316147e+01    0.3884677    0.2862905 -80.49  0.001730761    1.814    0.449
       228  -9.5691    145.4901     53.0043   4.2492826530e+01   4.2139040015e+01    0.4175357    0.2529063 -14.40  0.001607781    2.167    0.539
       229  -8.7491    116.3932     55.4772   5.0716474515e+01   4.8404706521e+01    0.3023108    0.1426193  48.54 0.0008813993    2.155    0.536
       230  -8.9892     92.3479     54.3195   5.7388541148e+01   5.3328151402e+01     0.245576    0.2003614  -3.91 0.0008338105    1.290    0.225
       231  -9.5906     95.4896     52.4880   5.5780214953e+01   5.3086010565e+01    0.2438818    0.2217165  11.67 0.0006146945    1.089    0.082
       232  -9.3045     83.7366     53.8349   5.9958903966e+01   5.4904081303e+01    0.2852669    0.2071255 -18.54  0.001513936    1.466    0.318
       233 -10.0373     87.3177     49.1216   5.7159392031e+01   5.5146889583e+01    0.4724012    0.2643825  40.84  0.002003304    1.887    0.470
       234  -8.6037    150.6920    249.6718   8.2801549982e+01   5.0182063489e+00    0.1080855   0.08061484  24.83 0.0007038757    1.658    0.397
       235 -10.5066    115.7198    248.2441   8.8528048083e+01   1.0739204714e+01    0.2151551    0.1796482  64.67  0.001311321    1.159    0.137
       236  -8.9143     57.0158    248.9973   9.8021044895e+01   1.8806884699e+01    0.1208408   0.08354823  68.24 -0.007547014    1.025    0.024
       237 -11.0164     71.0200     50.6739   6.3112993143e+01   5.7484418826e+01    0.3838282    0.3344591 -62.93  0.001509641    1.408    0.290
       238 -10.5828     65.6789     48.0316   6.4057339274e+01   5.8741517225e+01    0.3172874    0.2522601  -9.98  0.001244445    1.275    0.216
       239 -12.9428     61.6014     44.4129   6.4244528341e+01   5.9964850958e+01    0.4460615     0.351973  24.99 0.0002947155    1.376    0.273
       240 -10.3936     47.1520     47.1649   7.0479591487e+01   6.1231424343e+01    0.3098176    0.2292555  39.25   0.00141266    1.668    0.400
       241  -9.9797     45.3336     42.9811   6.9780311376e+01   6.2220321616e+01    0.2806443    0.1881414 -26.69 0.0003536087    1.417    0.295
       242  -8.5809    129.8337     54.1021   4.6673893123e+01   4.5670088184e+01    0.2023741    0.1694066  13.28 0.0004560745    1.277    0.217
       243  -9.5877    192.2363     51.8754   3.2793119210e+01   3.0301011190e+01    0.3763423    0.2413309 -34.23  0.001683434    1.566    0.362
       244  -8.7113    151.3592     53.2790   4.1247911696e+01   4.0647512758e+01    0.1606315    0.1130921  26.76 0.0007012087    1.664    0.399
       245  -9.7723     61.3257     52.2114   6.6997434132e+01   5.8548377417e+01    0.2261759    0.2190375  16.25  0.000573809    1.223    0.182
       246  -8.9455     57.4910     51.0657   6.7981873125e+01   5.9261355702e+01    0.2490631    0.1135812 -51.11  0.001144646    2.057    0.514
       247  -9.2970    182.2376     52.1100   3.4628763632e+01   3.2890040763e+01    0.3783425    0.1804761  65.04 0.0009180572    2.241    0.554
       248  -9.0825    123.0020     51.2046   4.7454969888e+01   4.7692528009e+01    0.2798519    0.2055422 -32.80  0.001388462    1.348    0.258
       249  -9.9280    176.1471     48.4740   3.4637656305e+01   3.5026093509e+01    0.3498453    0.2759876   6.57 0.0003884189    1.523    0.344
       250  -9.4063    140.7592     48.4382   4.2064136918e+01   4.4010356667e+01    0.3597167    0.2121528 -36.48  0.001568068    1.712    0.416
       251  -8.1579    111.2813     51.7123   5.0842266308e+01   5.0125012361e+01    0.1346271    0.1145386 -71.45 0.0001960229    1.523    0.344
       252 -10.0564    154.4054     48.0361   3.8857148909e+01   4.0697394094e+01    0.3539922    0.2652029 -61.64  0.001051293    1.625    0.385
       253 -10.3032    128.2821     48.1465   4.5019809358e+01   4.6996852398e+01    0.3050866    0.2914186  28.67 0.0004887392    1.042    0.040
       254  -9.3905    122.4942     45.5106   4.5587647321e+01   4.8725128204e+01     0.292269    0.2516225  72.71  0.001057229    1.388    0.279
       255  -9.1251    125.4380     44.4596   4.4449537925e+01   4.8225544082e+01    0.2498715    0.2219721 -19.56 0.0005269761    1.114    0.102
       256  -9.3816     32.0957     47.4922   7.6253424990e+01   6.2667544642e+01    0.1958447    0.1345233 -47.47 0.0007723894    1.161    0.139
       257 -10.6569     22.8242     46.2672   7.9449244953e+01   6.3663397593e+01    0.2939015    0.2562458 -56.10 0.0008553521    1.202    0.168
       258  -9.0554     17.9384     22.1461   7.3753203351e+01   6.8501729966e+01    0.1494571    0.1246237 -36.64  0.001129993    1.172    0.147
       259  -9.8249     17.2985     46.7545   8.1704832608e+01   6.3960728282e+01    0.3371512    0.1396519 -56.53 0.0007204511    1.830    0.453
       260 -11.6558     13.6963     37.1102   8.0461784556e+01   6.6066329914e+01     0.570683    0.2960936 -54.26 0.0005555102    1.481    0.325
       261 -10.2370     23.6233     31.3931   7.4545556204e+01   6.6415252931e+01    0.2707123    0.1762257  27.69  0.001772802    1.858    0.462
       262  -9.0849     30.5145    248.0101   1.0194717499e+02   2.2086487977e+01    0.1437861   0.05547601  75.75 0.0008101185    2.521    0.603
       263 -11.4923      7.3601     35.9668   8.2732797545e+01   6.6662901116e+01    0.4368739    0.4081657  74.73  0.002419105    1.478    0.324
       264 -11.1050      9.6265     31.5703   8.0520708316e+01   6.7361273752e+01    0.3706103    0.1915629  19.91  0.002302101    2.346    0.574
       265  -9.0349    235.2316     47.1134   2.5144338613e+01   1.9962990453e+01    0.1988548     0.169227 -56.44 0.0004756237    1.118    0.106
       266 -10.2294    115.3333     45.4196   4.7476827160e+01   5.0309919029e+01      0.33598    0.2863733  40.32 0.0008123938    1.167    0.143
       267  -8.9799    165.6993     45.7907   3.5797315716e+01   3.8141576989e+01    0.3850064    0.1381462  45.92  0.001247902    2.892    0.654
       268  -9.3333    145.8578     46.0584   4.0081078036e+01   4.3130104881e+01    0.2450463    0.2361173  -2.22 0.0004845206    1.043    0.041
       269 -10.2728    144.4275     41.3417   3.8795259888e+01   4.4181000552e+01    0.3668064    0.2727946  63.63 0.0009736747    1.405    0.288
       270 -10.1980     43.0023     52.1522   7.3573276351e+01   6.0710962173e+01    0.4909794    0.2509412 -60.39  0.002430001    2.107    0.525
       271  -8.9972     38.2402     46.3844   7.3581461760e+01   6.2311282504e+01    0.1758362    0.1472624  30.59  0.000607482    1.458    0.314
       272  -8.9369    245.3684     44.7054   2.3305790703e+01   1.7836619424e+01    0.2479556    0.1663665  85.27 0.0007747594    1.658    0.397
       273  -9.6541    103.9585     42.5025   4.9636615918e+01   5.3142618380e+01    0.4858843    0.1861659 -35.72  0.001852984    2.525    0.604
       274  -9.8409    185.2505     44.1491   3.1681139549e+01   3.3254962442e+01    0.2760189    0.1893794  49.55 0.0008327554    1.431    0.301
       275 -10.4630    136.5742     49.3782   4.3384538331e+01   4.4865524016e+01    0.4191383    0.2826628  60.98  0.001369238    1.602    0.376
       276 -10.0104    108.5187     41.7760   4.8052359352e+01   5.2326863980e+01    0.4711998    0.2456873 -29.35  0.001401029    1.945    0.486
       277  -9.1844    201.2429     43.1081   2.8778945903e+01   2.9187205195e+01    0.3076404    0.1872359  48.83  0.001357327    1.670    0.401
       278  -9.2871    203.8268     39.3801   2.7322458303e+01   2.9016488750e+01    0.2476969    0.1904705 -47.22  0.001179914    1.305    0.234
       279  -8.2396     87.2639     43.2851   5.5058401171e+01   5.6164299801e+01    0.1326642   0.09816455  -3.53 0.0001746256    1.490    0.329
       280  -9.6208     28.0587     42.7982   7.6404300086e+01   6.3921730365e+01    0.1781801    0.1430494 -27.87 0.0006462678    1.148    0.129
       281  -9.4515      2.8688     42.5539   8.6226894054e+01   6.5623429924e+01    0.2227447    0.1410908 -27.60  0.000921524    1.602    0.376
       282  -9.8604    222.7520     40.8484   2.5102248191e+01   2.3930117438e+01    0.3077877    0.2255365 -61.18 0.0004414547    1.410    0.291
       283  -8.9801    138.2363     41.7620   4.0358185841e+01   4.5630766418e+01    0.2080104    0.1619705  29.47 0.0005036386    1.325    0.245
       284  -8.9985     35.0383     41.8401   7.3373486983e+01   6.3484349180e+01    0.2056917    0.1162255 -27.34  0.001126625    1.851    0.460
       285 -10.1578    229.3547     39.5020   2.3903548273e+01   2.2444945914e+01    0.4183021    0.3267773  51.67  0.001764435    1.357    0.263
       286  -9.6074     50.9877     40.5141   6.6783834075e+01   6.2024692647e+01    0.2200029    0.1597463 -55.81 0.0007780502    1.561    0.359
       287  -9.2185    158.6122     39.2403   3.5074653043e+01   4.0903622421e+01    0.2871765    0.2097795 -66.42 0.0008364345    1.727    0.421
       288 -10.6261    129.5512     38.4876   4.1280512111e+01   4.8172293594e+01     0.635128    0.3755617 -16.17  0.001740032    2.011    0.503
       289  -9.0860      1.4726    244.0133   1.0593072783e+02   2.5719448587e+01    0.1315719   0.06741311  89.70 0.0004123403    1.525    0.344
       290  -9.3425    245.0923    242.3372   6.5926737342e+01  -9.3451022537e+00    0.2031152    0.1162086  41.81  0.001267571    1.528    0.346
       291  -9.1558    145.9589    242.2399   8.2757159800e+01   6.8249319112e+00    0.1724541    0.1229001  48.63 0.0005903611    1.073    0.068
       292 -11.1012    145.5739     29.1195   3.4303188141e+01   4.5559173684e+01    0.6665424    0.2868041  45.05 0.0007224897    2.273    0.560
       293 -10.5499    134.4428     31.4540   3.7579910471e+01   4.7988622379e+01    0.7259979    0.2722978  62.63   0.00242768    3.192    0.687
       294  -9.0434    102.2713     31.9441   4.6116750795e+01   5.5091592628e+01    0.1890368    0.1781558 -18.16            0    1.141    0.123
       295 -10.9689    113.4262     34.9971   4.4156454533e+01   5.2310635471e+01    0.5830067    0.4532213 -34.05  0.003125555    1.313    0.238
       296 -12.0674    107.5640     29.5318   4.3670349365e+01   5.4336639142e+01    0.4826298    0.3074832 -10.60  0.001306243    1.786    0.440
       297  -9.2617    112.4945     28.4702   4.1912982187e+01   5.3424834302e+01    0.4388222     0.239796 -21.87  0.001581624    1.945    0.486
       298  -8.8584     24.0455     39.4042   7.6957710952e+01   6.4893685264e+01    0.2690342    0.1423276 -30.19  0.001227799    1.890    0.471
       299  -9.4190    246.5471     39.3451   2.1842286759e+01   1.8265703628e+01    0.2699986    0.1493668 -73.60  0.001131636    2.391    0.582
       300  -8.9160    198.4043     37.6708   2.7637617005e+01   3.0669167546e+01    0.3628412    0.1551308 -14.69  0.001104851    4.033    0.752
       301  -8.5499     40.2715     39.3429   7.0499303455e+01   6.3433447508e+01    0.1264075   0.07587019 -28.18 0.0006993304    1.613    0.380
       302  -9.5819    238.2109     36.7307   2.2130853124e+01   2.0617244956e+01    0.4322907    0.2248324 -57.61  0.001830133    2.163    0.538
       303  -9.6132    177.9808     37.4569   3.0879975168e+01   3.6094057296e+01    0.3315299    0.2363106 -79.57  0.001105956    1.737    0.424
       304  -9.2282    164.8985     36.6530   3.2997710575e+01   3.9632618963e+01    0.4007863    0.1717098  58.74   0.00124107    2.171    0.539
       305  -9.5430    153.5950     37.0925   3.5377712303e+01   4.2482078568e+01    0.2716839    0.2017483  49.09 0.0003497093    1.275    0.216
       306 -10.1670    225.0898     34.5199   2.3119962383e+01   2.4167806414e+01    0.4034593     0.345875  32.09  0.002227425    1.367    0.269
       307 -10.4138     97.6735     35.0881   4.8699565472e+01   5.5542399796e+01    0.2568161    0.2297059  18.60 0.0004208406    1.073    0.068
       308  -9.4667     46.6394     34.4011   6.6245134113e+01   6.3625792598e+01    0.2467241    0.2069272  64.18  0.000597586    1.910    0.476
       309 -10.2341     56.7834     35.9288   6.2923130923e+01   6.2108462321e+01    0.2079139    0.1789329  -6.94 0.0003415452    1.105    0.095
       310  -9.5186     52.3900     32.5048   6.3292271485e+01   6.3259229363e+01     0.450557    0.2196288  30.14  0.001984472    2.295    0.564
       311  -9.2439    102.3488    241.6860   9.0145526762e+01   1.3762015775e+01     0.121134   0.06664448  65.66  0.000704681    1.722    0.419
       312 -10.1827     65.7307     28.1613   5.6548921957e+01   6.2129318264e+01    0.3575974    0.2224385  40.90  0.001134553    1.790    0.441
       313 -10.8702     79.2637     32.9911   5.3749854116e+01   5.9218258130e+01    0.5249879    0.3716528 -30.76  0.002968177    1.299    0.230
       314  -8.9184    189.2349    240.4227   7.5036651924e+01  -1.4612690116e-01    0.1735823   0.09085359  49.52 0.0009508345    1.671    0.402
       315  -9.2192    247.2114    239.3978   6.5124578832e+01  -9.3746827846e+00    0.1610111   0.08965573  44.75 0.0009596546    1.731    0.422
       316  -9.2213     71.8480     34.9820   5.7083277980e+01   6.0103474246e+01     0.310135    0.1716562  26.87   0.00150852    2.083    0.520
       317  -9.5491     60.9253     34.6123   6.0877478682e+01   6.1774109624e+01    0.2252184    0.1596613 -40.42 0.0002293909    1.319    0.242
       318  -8.7628    145.6606     34.3126   3.6096213862e+01   4.4857788861e+01    0.3159663    0.1731742  55.12  0.001355335    1.713    0.416
       319  -9.7143    158.0489     32.0183   3.2781343640e+01   4.2018129765e+01    0.3803025    0.2940204 -76.10   0.00131685    1.586    0.370
       320  -9.6783    154.1477     31.1640   3.3259338461e+01   4.3129183615e+01    0.3034757    0.2374803  53.75 0.0007859987    1.199    0.166
       321 -10.0856    248.1593     30.4687   1.9493092177e+01   1.9016946918e+01     0.330272    0.2197808 -36.58  0.001314332    1.410    0.291
       322  -8.8292    163.7968     31.7380   3.1597317176e+01   4.0565874473e+01    0.1942285    0.1659999 -73.80 0.0002839688    1.309    0.236
       323  -9.7969    119.3130     31.3525   4.1226190767e+01   5.1525443661e+01    0.3038546    0.2146087   1.88  0.001082122    1.628    0.386
       324  -9.2720     72.4018     15.2458   4.8630194151e+01   6.2924166178e+01    0.2181613    0.1103385 -37.17 0.0004804907    2.005    0.501
       325 -10.2045    233.5029     30.8375   2.1166570130e+01   2.2528143605e+01     0.462536    0.2131002  53.05  0.001226905    2.261    0.558
       326  -8.7652    237.5523     27.4103   1.9849876201e+01   2.1955412473e+01    0.1998625    0.1737712 -28.31 4.250901e-05    1.232    0.188
       327  -9.0304    203.1796     31.1694   2.5070963097e+01   3.0253944668e+01    0.2058654    0.1882337  49.55 0.0003391841    1.137    0.121
       328  -8.8299    125.2154     30.8270   3.9545536653e+01   5.0250344948e+01    0.1982491    0.1543828  13.00 0.0003715454    1.360    0.265
       329  -9.1411    179.1528     29.6483   2.8249557228e+01   3.6795278093e+01    0.3377736    0.1955221  42.15  0.001447424    1.846    0.458
       330  -8.3636    242.4570     34.4915   2.1090388062e+01   1.9873831663e+01    0.1383144    0.1256156 -64.35 3.655487e-05    1.005    0.005
       331 -10.2324     40.7580     21.4522   6.3550233349e+01   6.6471827096e+01    0.3247284    0.2908591  43.49    0.0019242    1.619    0.382
       332  -8.7312    221.3168    237.3366   6.9102940219e+01  -5.0876164914e+00    0.1216419   0.07499236  18.42 0.0007048292    1.699    0.411
       333 -10.5422     48.5293     26.7766   6.2553145054e+01   6.4694254370e+01     0.405135    0.2416903  43.93  0.001101536    2.238    0.553
       334  -8.4634    167.7086    237.3427   7.8367939983e+01   3.8862263389e+00    0.1157218   0.08289987  67.46 0.0007026603    1.654    0.395
       335 -10.4856     31.3937     26.5457   6.9524030442e+01   6.6594566502e+01    0.4176073    0.2739134 -43.09  0.001838208    1.276    0.216
       336 -10.8745     36.9942     26.3300   6.7084428729e+01   6.6074996072e+01    0.3453686    0.3173442  37.11  0.001617757    1.512    0.339
       337  -9.0266    211.8541     26.8644   2.2707376802e+01   2.8522320767e+01    0.2780385    0.1791742 -25.83  0.001287374    1.657    0.397
       338  -8.9641    189.7566     28.5252   2.6242085764e+01   3.4126187407e+01    0.2791931    0.1290252  59.82 0.0006531765    1.968    0.492
       339  -8.7160    229.5068     27.4678   2.0751277850e+01   2.3942258661e+01      0.13968    0.1284686 -76.14 7.485694e-05    1.010    0.010
       340  -8.3991    161.2892     26.3526   3.0280236299e+01   4.1890495776e+01    0.1546731    0.1062674  27.84  0.000702596    1.672    0.402
       341  -9.7526    188.0276    235.5185   7.4563777852e+01   6.8015138601e-01    0.1895643   0.09491496  43.37 0.0005977254    1.558    0.358
       342  -9.1978    109.4780     23.4539   4.0755114153e+01   5.4735317590e+01    0.2165856    0.2097372 -18.08 0.0005352894    1.173    0.148
       343  -9.0345     82.7670     26.0478   4.9770786259e+01   5.9654470840e+01    0.1801862    0.1601705 -18.79 0.0002977783    1.141    0.123
       344 -10.1835      1.9645     25.0673   8.1875307744e+01   6.8983657562e+01    0.2831194     0.121803 -56.45  0.001435486    1.761    0.432
       345  -9.1492    169.7250     23.3445   2.7816176886e+01   4.0044541500e+01    0.2757894    0.2244157  71.96 0.0003935882    1.197    0.165
       346 -10.1456    173.5223     21.9953   2.6758649894e+01   3.9201764319e+01    0.4221275    0.2968629   3.40  0.002004951    1.789    0.441
       347  -8.0519    234.3399     24.3125   1.9411349020e+01   2.3123305510e+01     0.139228    0.1026261  36.39 0.0003611722    1.696    0.410
       348  -9.8495    153.6906     22.6813   3.0454335749e+01   4.4287957542e+01    0.2747399    0.2417748  34.95 0.0006264723    1.110    0.099
       349  -9.1664    221.9946    233.8008   6.8447817922e+01  -4.7991649745e+00    0.1791587    0.1246885  58.11 0.0008568169    1.954    0.488
       350  -9.1186    121.9435     22.1973   3.7085550524e+01   5.2109409951e+01    0.3357874    0.1757078 -53.86  0.001261204    3.215    0.689
       351  -9.0730     32.0321    232.2275   1.0087807448e+02   2.4529208474e+01    0.1434729   0.09676542  67.95 0.0004072843    1.048    0.046
       352  -8.8368    116.8212     22.5011   3.8469102650e+01   5.3237660988e+01    0.2143772    0.1643294  15.07 0.0006540001    1.330    0.248
       353  -9.2420     26.5071     22.0228   6.9903555866e+01   6.7817187556e+01    0.2617229    0.1065168 -37.66 0.0008784046    2.017    0.504
       354  -8.6986    230.5018     22.5399   1.9371302182e+01   2.4289118905e+01    0.2451044    0.1084082  57.20  0.001019097    2.209    0.547
       355  -9.8601    220.0155     21.2452   2.0199046173e+01   2.7091534791e+01    0.3344352    0.2233379  56.16  0.001096769    1.500    0.333
       356  -9.8614    217.2540     17.9507   1.9634573852e+01   2.8179431556e+01    0.3216263    0.2363918 -70.48  0.000891842    1.374    0.272
       357  -8.7360    228.7510    234.1844   6.7364592794e+01  -5.9397876326e+00    0.1672134    0.1091576  23.38  0.000696714    1.338    0.252
       358  -8.5624    163.3664    226.7848   7.7734476518e+01   6.1281988507e+00    0.1420737    0.1176266 -30.89  0.000801503    1.580    0.367
       359  -8.4452    207.4627    226.4905   6.9825267331e+01  -1.4913093640e+00    0.1242292   0.09685156  30.90 0.0002915965    1.039    0.038
       360  -8.3334    143.6778    226.3283   8.1235335185e+01   9.5802592034e+00    0.1250277    0.0822546  68.04 0.0007048758    1.691    0.409
       361  -8.7728    224.1088    225.0911   6.6713565178e+01  -4.1398151710e+00    0.1549424     0.126594  41.85 0.0005308561    1.270    0.213
       362  -8.5397    125.5079    225.4944   8.4419730655e+01   1.2743994530e+01    0.1231206   0.09568726  58.37 0.0008104368    1.030    0.029
       363  -9.5102     89.2247    220.9059   9.0445689889e+01   1.9164561879e+01    0.2224718    0.1748656  38.75  0.000982118    1.528    0.345
       364  -8.6786    188.4688     21.9104   2.4448971380e+01   3.5257875810e+01    0.2155564    0.1436838 -27.73  0.001030119    1.589    0.371
       365  -9.3895    144.6130     20.9512   3.1619937717e+01   4.6789508701e+01    0.2514004    0.2098651 -78.43            0    1.432    0.302
       366  -9.7145    143.7618     16.4393   3.0182883288e+01   4.7507357489e+01    0.3078165    0.2497521  79.64  0.001235872    1.356    0.263
       367  -8.6930    175.0883    217.8236   7.4321781917e+01   5.3803701671e+00    0.1652078    0.1365479  20.39 0.0005528839    1.318    0.241
       368  -9.1434    140.0224     20.3650   3.2346914717e+01   4.7999817417e+01    0.2648068    0.1882893  19.47  0.000937641    1.570    0.363
       369  -9.4494    245.6330     20.1446   1.7237402478e+01   2.0872292909e+01    0.1866479    0.1275668 -14.32 0.0009496878    1.823    0.451
       370  -9.3353    236.5006     20.4822   1.8221252186e+01   2.3046696925e+01     0.274129     0.178022  81.23  0.001171276    1.530    0.346
       371 -10.4076    238.2641     17.1338   1.7212345537e+01   2.3004378113e+01    0.5873097    0.2034676  55.04  0.002240523    2.938    0.660
       372  -8.4404    117.9925    212.2201   8.4222867671e+01   1.6222907201e+01    0.1636137    0.0856387  45.84 0.0004429348    1.609    0.378
       373  -8.8124    242.8055    210.0730   6.0978447311e+01  -5.4908416636e+00     0.169512    0.1533645  25.37 0.0006131973    1.284    0.221
       374 -11.0993    182.4693     18.2067   2.4198679985e+01   3.7266194198e+01    0.3330141    0.2559656  49.44 0.0003729417    1.270    0.212
       375  -7.9844    145.2946    210.3198   7.8808661161e+01   1.1880362547e+01    0.1182544    0.0968605  16.54  0.000318519    1.611    0.379
       376  -8.4802    230.6776    209.6810   6.2993331096e+01  -3.3889431084e+00      0.13033   0.08255503  16.10 0.0007044253    1.670    0.401
       377  -9.1574    179.5062     13.4985   2.3180486532e+01   3.8558576441e+01    0.2330049    0.1733495  79.89 0.0007800226    1.324    0.245
       378  -8.3615    221.4922    198.5854   6.2646299603e+01  -3.2499840240e-01    0.1313237    0.1067377  25.37 0.0001297921    1.035    0.034
       379  -8.3367     95.9974    195.7416   8.6454499253e+01   2.2781233800e+01     0.153695   0.09438271  47.23 0.0003453253    1.456    0.313
       380  -9.0912      6.4198    194.8418   1.0295368860e+02   3.3850223026e+01    0.1406305   0.07266899 -71.27 0.0009396781    1.747    0.428
       381  -9.2848    248.5759    191.7074   5.6636448788e+01  -4.2328215249e+00    0.2479699    0.1489337 -51.87  0.001045539    3.060    0.673
       382  -9.3241      6.0580    175.0605   1.0185271790e+02   3.7706668059e+01    0.2118463    0.1047457  57.75  0.001363566    1.759    0.432
       383 -10.0819     17.5191    173.8453   9.9625060473e+01   3.6937408922e+01    0.2605466    0.1213559  77.33  0.001464817    2.016    0.504
       384 -10.5837    229.5174     14.7129   1.7474238835e+01   2.5440320567e+01    0.5522954    0.2486479  84.58  0.001904695    2.614    0.617
       385 -10.1106    166.5521     17.8048   2.6547804788e+01   4.1505402836e+01    0.2971977    0.1938521  52.29  0.001144829    1.411    0.291
       386  -9.7207     11.5018    166.9768   1.0027922237e+02   3.8864409956e+01    0.1677744   0.08311979 -79.04 0.0009055021    1.578    0.366
       387  -9.6414     44.2966     15.6707   5.9585484631e+01   6.6951027031e+01    0.3207314    0.1421276  34.51  0.001653419    2.452    0.592
       388  -8.4703    200.2928     18.3327   2.1789251196e+01   3.2545502112e+01    0.1454524    0.1045127  34.64  0.000702368    1.635    0.388
       389  -8.8013    195.1379     15.1472   2.1536930710e+01   3.4254736838e+01    0.1906397    0.1541373 -75.52 0.0003581405    1.257    0.204
       390  -9.0253     91.4027     13.7439   4.1845087699e+01   5.9647764527e+01    0.2093081    0.1618084  61.11 0.0009079197    1.610    0.379
       391  -8.9817     85.5098     14.3275   4.3897935868e+01   6.0708767417e+01    0.2207788    0.1283234  28.49 0.0005760053    1.763    0.433
       392  -9.8056     14.9827    165.5097   9.9492499879e+01   3.8860208954e+01    0.1395988    0.1009748  45.04  0.000511342    1.541    0.351
       393 -10.7656     20.6786    158.1183   9.7748593565e+01   3.9880740232e+01    0.3209952    0.2054567 -71.40 0.0006874885    1.339    0.253
       394 -11.8571     21.6017    150.3046   9.6854742536e+01   4.1445648166e+01     1.013705    0.4613192  19.20  0.004873937    4.020    0.751
       395 -11.8667     30.7406    154.2329   9.5276618886e+01   3.9751477478e+01    0.5489249    0.2930857  71.34  0.003010161    1.890    0.471
       396  -9.1783     23.9987    163.3611   9.7521906469e+01   3.8478801239e+01    0.1496621    0.1192005  73.59  0.000477667    1.144    0.126
       397 -10.1255      9.9578    157.5145   9.9880334801e+01   4.0932809509e+01    0.2280041    0.1171491  84.16  0.001377669    1.669    0.401
       398 -10.5766      2.4259    155.9981   1.0127388033e+02   4.1840510180e+01    0.4313607    0.1561866 -70.95  0.002379277    2.096    0.523
       399  -9.3267    249.1442    154.0628   4.8910162199e+01   7.4443752482e-01    0.2163544    0.1672711   6.94 0.0007069881    1.268    0.211
       400  -8.5218     58.2162    150.8249   8.8811128062e+01   3.7452474342e+01    0.1483075    0.1339776 -68.18 0.0003385689    1.249    0.199
       401 -12.1344     38.9027    160.0243   9.4121997641e+01   3.7681372796e+01    0.8498682     0.322697  51.74  0.004119077    2.597    0.615
       402 -10.2740     11.1556    146.7664   9.8765307557e+01   4.3078196429e+01     0.246966    0.1408102 -42.21  0.001434495    2.631    0.620
       403 -10.6016      4.6218    144.4754   9.9958827338e+01   4.4061625200e+01    0.3621981    0.1976552 -48.70  0.002196162    2.309    0.567
       404 -10.3240     29.0000    144.0896   9.4617055141e+01   4.2099399628e+01    0.1821158       0.1576  88.02  0.001340082    1.151    0.131
       405  -9.7129    240.7347    144.3513   4.8215302449e+01   3.8329955808e+00    0.2029835    0.1759005  22.36  0.000533842    1.093    0.085
       406  -9.3935    239.4724    141.4206   4.7777155436e+01   4.5364576622e+00    0.2177017    0.1791601 -33.17 9.196933e-05    1.232    0.188
       407  -9.5790     14.0128    141.4451   9.7677213692e+01   4.3976683335e+01    0.1395119    0.1067237  42.23 0.0003515308    1.545    0.353
       408  -7.9074     88.2925    140.7272   8.0201074226e+01   3.5516243020e+01    0.1342705   0.09631423  77.04            0    1.517    0.341
       409  -8.7039    236.5009    145.5488   4.9215821788e+01   4.5100799551e+00    0.1398588    0.1277174   6.45 0.0001789383    1.020    0.019
       410  -8.3355    121.7373    139.6404   7.1941091787e+01   2.9985530290e+01    0.1395518    0.1140327 -21.13 0.0003144263    1.632    0.387
       411  -9.3519     34.0085    136.6215   9.2628711383e+01   4.3248949931e+01    0.2847833    0.1214314  74.29  0.001088141    4.006    0.750
       412  -8.9720    236.0058    136.5195   4.7266107673e+01   6.0132278589e+00    0.2088626    0.1365626  46.36 0.0004717964    1.537    0.349
       413  -9.5951     62.0000    133.7565   8.5488850003e+01   4.0773408414e+01    0.4448232    0.2939882  11.52  0.002237014    2.613    0.617
       414  -9.3348     60.0417    131.6474   8.5646669599e+01   4.1491768265e+01    0.2777149    0.1978393 -20.59  0.001459693    2.359    0.576
       415  -8.4726     75.7185    133.9723   8.2127355800e+01   3.8892454285e+01    0.1639575    0.1065774 -63.11 0.0004639135    1.396    0.284
       416  -8.4974     47.3086    134.2993   8.9160544658e+01   4.2385019007e+01    0.1175896   0.08689983 -45.46 0.0002269428    1.597    0.374
       417 -10.7596      7.9848    133.3325   9.8267882085e+01   4.6169462873e+01    0.3084549    0.2318803 -21.43  0.002152205    2.110    0.526
       418  -9.7386      3.0191    130.9640   9.9170810468e+01   4.7023719017e+01    0.2343488    0.1542379 -74.34  0.001647629    1.175    0.149
       419 -10.5541     41.4285    130.0812   9.0017701107e+01   4.3952444379e+01    0.3442165    0.1839931 -70.61  0.001674263    1.571    0.363
       420 -10.2457     18.6521    127.4543   9.5203140175e+01   4.6619297110e+01    0.3156033    0.1541273 -63.74  0.001613694    1.645    0.392
       421  -8.2726     55.6889    127.3148   8.6062622715e+01   4.2993387463e+01    0.1303841   0.08740111  77.75 0.0004362428    1.635    0.388
       422  -9.9869     33.6740    127.0783   9.1522827915e+01   4.5387658447e+01    0.1925514    0.1873025  43.04  0.001002389    1.338    0.252
       423  -8.5406     12.6431    127.1770   9.6594871485e+01   4.7146300867e+01    0.1660383   0.07720892 -65.92 0.0009393509    1.670    0.401
       424  -8.7522     50.5270    126.1381   8.7186312562e+01   4.3853707828e+01    0.1886126     0.106364 -67.12 0.0004365983    1.510    0.338
       425  -9.2904    241.8411    124.3325   4.3451150129e+01   6.6881811793e+00    0.2547699    0.1840267 -41.07 0.0007140128    1.410    0.291
       426  -9.9736     38.9484    123.9605   8.9790618803e+01   4.5568582479e+01    0.2662043     0.217354 -65.57  0.001603031    1.143    0.125
       427  -9.6640      7.7395    122.2833   9.7252668671e+01   4.8554988059e+01     0.288057    0.1055742 -62.66  0.001510599    2.073    0.518
       428 -10.1466      3.4739    120.7856   9.8117595419e+01   4.9162783491e+01    0.4228019    0.1263081 -72.98  0.002002086    2.459    0.593
       429 -10.6545     72.2098    121.1311   8.0750489204e+01   4.2282043676e+01    0.3134066    0.2060862 -55.60 0.0003207485    1.390    0.281
       430  -8.9775     84.0808    120.9801   7.7609987513e+01   4.0600247254e+01    0.2100314    0.1627744 -27.99 0.0006272512    1.688    0.407
       431 -10.3635     28.6414    117.3669   9.1500081775e+01   4.7999067388e+01    0.3395593    0.1805767  74.74  0.001719221    2.372    0.578
