#   1 NUMBER                 Running object number                                     
#   2 MAG_AUTO               Kron-like elliptical aperture magnitude                    [mag]
#   3 X_IMAGE                Object position along x                                    [pixel]
#   4 Y_IMAGE                Object position along y                                    [pixel]
#   5 X_WORLD                Barycenter position along world x axis                     [deg]
#   6 Y_WORLD                Barycenter position along world y axis                     [deg]
#   7 A_WORLD                Profile RMS along major axis (world units)                 [deg]
#   8 B_WORLD                Profile RMS along minor axis (world units)                 [deg]
#   9 THETA_WORLD            Position angle (CCW/world-x)                               [deg]
#  10 FWHM_WORLD             FWHM assuming a gaussian core                              [deg]
#  11 ELONGATION             A_IMAGE/B_IMAGE                                           
#  12 ELLIPTICITY            1 - B_IMAGE/A_IMAGE                                       
         1 -13.8233    217.4766      8.5984   3.7537440309e+01   2.9799072496e+01     1.987429      1.17713  44.11    0.0100175    2.244    0.554
         2 -13.1174    176.7073     53.4844   5.4869393795e+01   3.4201415988e+01     1.705941     1.101768  30.56  0.004165708    2.083    0.520
         3 -13.5770    191.6948     40.1597   4.8667237505e+01   3.2316289316e+01      1.13625     1.036073  41.25  0.004165697    1.231    0.187
         4 -12.8917    196.7866     34.2720   4.6350895058e+01   3.1818982232e+01    0.7097401    0.6731144  63.37  0.001199495    1.142    0.124
         5 -10.2444     62.3926      9.1955   6.7222199626e+01   6.5909595029e+01    0.1687357    0.1065537 -32.84  0.000522244    1.712    0.416
         6  -9.1343     58.5417    228.8866   1.1897482048e+02   1.9794985924e+01    0.1470275    0.1022809 -85.91 0.0003903395    1.363    0.266
         7 -12.8769    248.2022    244.1373   8.4771400495e+01  -1.1177385313e+01     1.335614    0.4335418 -34.08  0.006383962    3.207    0.688
         8 -19.5245     18.9380    145.5249   1.2002315246e+02   4.2530646919e+01     19.41833     4.764123 -75.77   0.06666385    3.840    0.740
         9 -11.0996     65.9998    204.4704   1.1524761180e+02   2.3786412000e+01    0.2766621    0.1657034 -62.18 0.0009766661    1.725    0.420
        10  -8.7995     70.4156    199.7510   1.1380182485e+02   2.4198991247e+01    0.1492669    0.1444011 -59.86 0.0004795442    1.335    0.251
        11  -8.4765     93.5118    205.4842   1.0946681389e+02   1.9613623870e+01    0.1290115    0.1167365  62.51 0.0008086869    1.093    0.085
        12  -9.4238     96.4304    202.2292   1.0842043312e+02   1.9844830794e+01    0.3338583    0.1641753 -49.83  0.001514033    2.389    0.581
        13 -10.5325    203.2346    200.4094   8.5391066516e+01   1.6133026040e+00    0.2571498    0.1259203  43.59 0.0009511614    2.010    0.502
        14 -10.9142    192.9729    194.9890   8.6422224804e+01   4.3255101553e+00    0.9445363     0.459538 -59.18  0.003013012    5.121    0.805
        15  -8.6801    163.5313    202.5088   9.3870556725e+01   8.3001248453e+00    0.1378033    0.1236385  31.80 0.0003056367    1.002    0.002
        16 -12.0970     57.1296    196.8564   1.1636875048e+02   2.6589832901e+01    0.8181255    0.2712215 -52.29  0.003106108    3.884    0.743
        17  -8.8677     60.8073    188.0813   1.1463437291e+02   2.8061608636e+01      0.16047   0.09175687 -73.59 0.0002869678    1.654    0.395
        18 -10.2187     35.2360    197.4851   1.2104977243e+02   2.9051161413e+01    0.1673214    0.1047882  50.63 0.0004916296    1.435    0.303
        19  -9.3211     81.8389    194.7338   1.1070290326e+02   2.3665960543e+01     0.187438    0.1736349  59.25  0.001192864    1.161    0.139
        20 -11.5248    149.5757    188.4285   9.4442799172e+01   1.3547311770e+01    0.5341802    0.3737407 -78.29  0.001824105    2.108    0.526
        21  -9.3532     96.7910    190.6158   1.0678082837e+02   2.2284060406e+01    0.2362727    0.1793836 -84.36 0.0006064901    1.362    0.266
        22 -10.1630     94.5079    187.1706   1.0682094106e+02   2.3405673300e+01    0.3876854    0.2335659  37.17  0.001649736    1.658    0.397
        23 -11.1383     98.9771    181.3985   1.0493299259e+02   2.3981226681e+01    0.4959382    0.3444524 -34.63  0.002019897    1.996    0.499
        24  -8.2779     58.5677    250.1093   1.2057616200e+02   1.5855839358e+01    0.1363932   0.09758873 -82.13 0.0003865674    1.428    0.300
        25 -11.6533    143.5073    178.4689   9.4008250697e+01   1.6726621689e+01    0.5692603    0.2762365 -49.48  0.001970705    2.175    0.540
        26 -10.1795    188.4377    176.5170   8.3752843896e+01   8.4609449650e+00     0.410419    0.3482011 -55.88  0.001999453    1.398    0.285
        27 -11.9286     63.3254    249.8574   1.1971445870e+02   1.5292369931e+01    0.2613847    0.1377272  54.61   0.00158952    1.482    0.325
        28  -9.9540     58.8048    176.5069   1.1376567774e+02   3.0963709680e+01    0.2092547    0.1694429  85.57 0.0003382181    1.074    0.069
        29 -10.5890     50.4020    224.6965   1.2019545220e+02   2.1636768482e+01    0.2001672    0.1207777  78.31 0.0006421198    1.515    0.340
        30 -11.5647    236.4690    173.2617   7.3812594631e+01   2.2728726231e-01    0.4034716    0.2385621  15.56  0.001866994    2.173    0.540
        31 -11.8823    240.3328    169.5960   7.2377857893e+01   1.4683063297e-01    0.5735912     0.347048 -57.97  0.002434175    3.115    0.679
        32  -9.4110     84.0549    173.5570   1.0733636628e+02   2.8122551892e+01    0.2093111    0.1705643 -75.49 0.0002831783    1.170    0.145
        33  -9.2830     41.1508    225.5531   1.2200759004e+02   2.2577717197e+01    0.1139996   0.06278565  82.15 0.0006481803    1.686    0.407
        34  -8.9311    194.4970    171.9470   8.1563850562e+01   8.1377914123e+00    0.2100492    0.1391182 -38.96 0.0005625249    1.526    0.345
        35 -10.8563    139.2566    171.2896   9.3647130865e+01   1.9063463139e+01    0.4174267     0.265958  46.47    0.0013608    1.516    0.340
        36 -10.7463     54.8345    222.2727   1.1914832589e+02   2.1566303952e+01    0.1900207    0.1277651  54.05 0.0006194405    1.234    0.190
        37 -10.0059    149.5545    177.2544   9.2397743735e+01   1.5829564070e+01    0.2462869    0.2184406  51.46 0.0003776842    1.106    0.095
        38  -9.4211    230.3117    166.6558   7.3540482255e+01   2.3710744240e+00    0.1297516    0.1099065 -66.46 0.0007046128    1.705    0.413
        39  -8.0400     56.7774    218.5923   1.1845894925e+02   2.2059349829e+01    0.4298571    0.1882551  62.02  0.002048523    2.332    0.571
        40  -9.2944    187.4658    162.6922   8.1071019415e+01   1.1260924739e+01    0.2745991    0.1413637 -46.91 0.0009524191    2.074    0.518
        41  -9.9585     48.4202    217.6428   1.2002309573e+02   2.3291004050e+01     0.199062    0.1224773  42.33 0.0005764099    1.525    0.344
        42 -10.9902     89.5987    157.8734   1.0347165109e+02   3.0968319656e+01    0.2764035    0.2693751 -20.58 0.0004572168    1.210    0.173
        43 -10.9607    133.8763    145.8361   8.9748900258e+01   2.5786801745e+01     1.308568    0.3206007 -54.28   0.00302846    5.866    0.830
        44 -11.6605     95.5042    151.0665   1.0072732882e+02   3.1641705041e+01    0.6574653    0.5318412 -40.26  0.003438842    1.384    0.278
        45 -10.0273    187.3398    151.7097   7.8682936230e+01   1.3418720010e+01     0.285713    0.2509036  26.52 0.0009904362    1.132    0.117
        46  -9.4765    112.9430    150.7670   9.6122322827e+01   2.8665060679e+01    0.2567132    0.1675379  67.61  0.001015649    1.996    0.499
        47  -9.6456    174.5457    149.0289   8.0844282564e+01   1.6633677035e+01    0.2890957    0.2156813  60.63 0.0008875147    1.572    0.364
        48  -9.7478    109.0946    147.1988   9.6407872571e+01   3.0208824976e+01    0.2508743    0.2116255 -81.26 0.0002561467    1.240    0.193
        49 -11.0384    107.4188    137.6881   9.4877644590e+01   3.2781843001e+01    0.5301363    0.3653144 -38.05  0.002421239    1.627    0.385
        50 -11.6883     95.3534    137.1680   9.8062799022e+01   3.5028162558e+01    0.2953937     0.274201 -44.41 0.0005113558    1.132    0.116
        51 -10.7723    105.9068    130.7421   9.3770539101e+01   3.4720758639e+01    0.3907855    0.3306088 -63.61  0.001223776    1.162    0.139
        52 -10.0419    135.9295    129.1837   8.5387074209e+01   2.9158046797e+01    0.4333559    0.1886754 -45.91  0.001533802    2.276    0.561
        53 -10.5572    114.5565    128.9523   9.0988271463e+01   3.3524091533e+01    0.3583904    0.2929571 -28.90 0.0006810452    1.382    0.276
        54  -9.3468    160.6457    128.0801   7.9044336097e+01   2.4039809747e+01    0.2797995    0.2246335  58.74  0.001325066    1.345    0.257
        55 -10.4753    102.2392    124.5622   9.3392029177e+01   3.6867674413e+01    0.2921253    0.2476769 -17.29 0.0005159214    1.405    0.288
        56 -10.4287    119.9482    123.1374   8.8133802147e+01   3.3830691957e+01    0.3927021    0.2899195 -16.79  0.001611561    1.845    0.458
        57  -9.3618    109.9766    118.0908   8.9655922770e+01   3.6964166077e+01    0.2224728    0.2154106 -61.41 0.0002904726    1.008    0.008
        58  -9.9845    231.2254    113.7286   6.1495099321e+01   1.1240668160e+01    0.2659268    0.2655571 -25.23 0.0007932086    1.114    0.102
        59  -9.1454    167.6643    112.6325   7.3472156255e+01   2.5685853386e+01    0.3221202    0.2309056 -79.98  0.001314818    2.083    0.520
        60 -10.2088    134.5907    106.2570   7.9820698632e+01   3.4570276407e+01    0.5187544    0.1455219 -44.10  0.001459869    3.506    0.715
        61 -11.2830    118.1344    110.3537   8.5386017700e+01   3.7145658582e+01    0.6547727    0.4396635  61.97  0.002778163    1.871    0.466
        62  -9.4887    205.5426    110.0609   6.5047887234e+01   1.7459228727e+01    0.2795975      0.23034  51.10 0.0006789853    1.284    0.221
        63  -9.9884    184.6007    212.5569   9.1248972885e+01   2.8512809878e+00    0.2290968    0.2123514 -24.45  0.001328612    1.207    0.172
        64  -9.4464     56.8058    209.6001   1.1765765083e+02   2.3905188332e+01    0.2546233    0.1432418 -68.00  0.001420565    1.746    0.427
        65  -8.7659    154.9836     82.2734   6.7871106130e+01   3.4732807395e+01    0.2194458    0.2029225  50.97  0.000404738    1.085    0.078
        66  -7.2481     43.7985    210.1425   1.2033409749e+02   2.5386396758e+01      0.16224    0.1124362  70.47 0.0002724584    1.188    0.158
        67  -8.6258    184.4169     76.7986   6.0160303804e+01   2.8477554804e+01     0.208224    0.1479738 -23.28 0.0006013623    1.585    0.369
        68 -10.0472     71.8870    245.1041   1.1779821070e+02   1.5013343192e+01    0.2127684    0.1470719 -75.58  0.001421948    1.543    0.352
        69  99.0000     42.3044    205.8818   1.2028825192e+02   2.6455112940e+01    0.2645983    0.2066669 -27.99  0.001618695    2.209    0.547
        70  -8.9338    167.7591    230.9642   9.7535547501e+01   2.7173109746e+00    0.1652561     0.151485  17.98 0.0004299884    1.118    0.106
        71  -8.4876     44.5460    230.4818   1.2172362660e+02   2.1216684577e+01    0.1207154   0.08369178  67.39 0.0003944229    1.122    0.108
        72 -11.3933     33.4890    207.2621   1.2216043830e+02   2.7163399338e+01    0.3121511    0.1490312  65.39 0.0009473388    1.950    0.487
        73 -10.4569    189.4666     15.1077   4.2047875254e+01   3.5908423115e+01    0.2684332    0.2126148  88.59 0.0007944046    1.158    0.136
