#   1 NUMBER                 Running object number                                     
#   2 MAG_AUTO               Kron-like elliptical aperture magnitude                    [mag]
#   3 X_IMAGE                Object position along x                                    [pixel]
#   4 Y_IMAGE                Object position along y                                    [pixel]
#   5 X_WORLD                Barycenter position along world x axis                     [deg]
#   6 Y_WORLD                Barycenter position along world y axis                     [deg]
#   7 A_WORLD                Profile RMS along major axis (world units)                 [deg]
#   8 B_WORLD                Profile RMS along minor axis (world units)                 [deg]
#   9 THETA_WORLD            Position angle (CCW/world-x)                               [deg]
#  10 FWHM_WORLD             FWHM assuming a gaussian core                              [deg]
#  11 ELONGATION             A_IMAGE/B_IMAGE                                           
#  12 ELLIPTICITY            1 - B_IMAGE/A_IMAGE                                       
         1 -16.2493    187.4264    152.9713   8.9598372925e+01   1.4177408507e+01     4.043842     2.868657 -49.88   0.02050273    1.585    0.369
         2 -14.7243     31.9070     99.1171   1.1572576301e+02   5.1185521977e+01     1.257267     1.156662 -46.65  0.007925728    1.298    0.230
         3 -15.0241     56.2704     98.5504   1.0905279677e+02   4.8857351916e+01     2.007961    0.8844777 -65.49  0.009233106    2.090    0.521
         4 -14.2883    198.4534     28.6963   5.4239353668e+01   3.2090989409e+01    0.8899288    0.7780908 -12.32  0.004703254    1.225    0.184
         5 -12.4984    207.2798     20.0424   5.0447292002e+01   3.0802321463e+01      0.43522    0.2898304  20.47  0.001041076    1.993    0.498
         6 -13.6079    213.6215     11.6735   4.7262338296e+01   3.0076904624e+01    0.7700014    0.6826741 -73.38  0.002902226    1.093    0.085
         7 -12.5214      6.8178      4.8172   1.0066841782e+02   7.1720329361e+01    0.3695464    0.1743649 -28.46  0.002227682    1.943    0.485
         8 -10.7746    179.5487    240.0096   1.0534775934e+02   2.6582211124e+00    0.2345263    0.1300718  36.09  0.001391408    1.617    0.382
         9 -15.3502    244.0630    234.0062   9.4093213423e+01  -7.1428381284e+00     2.165501     1.063552 -23.52   0.01263048    2.434    0.589
        10 -11.7958    159.1102    248.3245   1.0963704446e+02   4.9267112144e+00    0.4253913    0.2445268  48.18  0.002765735    1.295    0.228
        11 -10.7800     99.7645    250.5782   1.1913390715e+02   1.3576452018e+01    0.2860976   0.08144571  43.62  0.001373545    2.877    0.652
        12 -13.7980    124.4224    242.7460   1.1458917233e+02   1.1091263423e+01    0.5799599    0.4985214  51.62  0.003000802    1.273    0.214
        13 -13.0044    110.9320    249.8358   1.1736165905e+02   1.2087784578e+01    0.7377585    0.2020326  43.37  0.003408576    3.017    0.668
        14 -13.1374    114.0975    242.5380   1.1621075829e+02   1.2672194048e+01     0.606896     0.374604  54.28  0.003258539    1.209    0.173
        15 -10.7427     89.7796    244.4871   1.2017124338e+02   1.5859404779e+01    0.6142198    0.3065808  69.97  0.003756694    2.010    0.503
        16 -10.4745     83.8376    250.6483   1.2153764789e+02   1.5748909352e+01     0.274455   0.07507454  44.54  0.001158304    2.851    0.649
        17 -11.8941     78.8029    249.3928   1.2219690940e+02   1.6601476765e+01    0.2691586    0.1652714  44.83  0.001238703    1.571    0.363
        18 -12.5891     80.7627    245.4250   1.2161594431e+02   1.6936845494e+01    0.7189857    0.1315863  48.71  0.003110157    3.621    0.724
        19 -12.2922     58.2915    248.2540   1.2513253839e+02   1.9369235459e+01    0.7495816    0.5654795  71.93  0.005226777    1.176    0.150
        20 -13.0463     66.3615    245.0871   1.2374834893e+02   1.8852783581e+01    0.4153244    0.1876962  63.11  0.001796758    1.794    0.443
        21 -15.3362     15.1293    207.1139   1.2924277512e+02   3.0899591850e+01     1.955947    0.7213678  67.32   0.01135166    2.357    0.576
        22  99.0000     33.3666    212.0446   1.2666996775e+02   2.8172218562e+01      2.46003    0.8186499  77.59   0.01003434    4.749    0.789
        23 -17.0232     17.7720    244.8451   1.3065001313e+02   2.4414931698e+01     1.814563    0.6800656  53.47    0.0126522    1.843    0.457
        24 -15.6030     34.9653    242.9838   1.2817684954e+02   2.2885094476e+01      1.12418    0.6229956  80.71  0.007432925    1.407    0.289
        25 -11.7501     97.7170    235.5741   1.1818632245e+02   1.6105800023e+01    0.3519453    0.1901207  52.09   0.00227586    1.415    0.293
        26  -8.6329     96.3403    231.6365   1.1805856991e+02   1.6917592620e+01     0.344924    0.1841917  70.95  0.002061982    1.921    0.479
        27  99.0000    107.3443    233.8887   1.1648430512e+02   1.4966920351e+01    0.4230288    0.3386595  29.46  0.002839304    1.819    0.450
        28 -14.3201    139.5416    182.9527   1.0452459623e+02   1.8241726406e+01     2.097799     1.542056  30.87   0.01184869    1.618    0.382
        29 -12.0095    152.4238    202.1417   1.0493919974e+02   1.2670698052e+01     1.411799     0.786798 -49.92  0.007615998    2.115    0.527
        30 -14.8690    135.7160    206.1419   1.0852239390e+02   1.4908543389e+01     1.368676     1.107566 -33.25  0.008827934    1.776    0.437
        31  99.0000     81.2743    198.3400   1.1745994086e+02   2.4738072869e+01      1.26625    0.9235271  65.67  0.008560172    1.106    0.096
        32 -11.6018     91.5471    211.4622   1.1696339087e+02   2.0941679247e+01     1.801078     1.089948 -48.69  0.009912222    2.430    0.589
        33 -15.6260    111.2835    211.4018   1.1351579220e+02   1.7994876131e+01     1.828598     1.720672 -25.28   0.01343898    1.634    0.388
        34 -10.3800    158.9876    221.6424   1.0643620921e+02   8.5542746619e+00    0.8671807    0.5480956  30.18  0.004986334    1.866    0.464
        35 -12.3991    143.6109    221.0983   1.0901890199e+02   1.1221333767e+01     0.543146    0.3376088  44.58  0.002770867    1.352    0.260
        36  99.0000     44.7900    214.7384   1.2502952919e+02   2.6429424048e+01    0.3282531    0.1357754  66.82  0.001149215    2.242    0.554
        37 -10.6209      1.8816    211.4840   1.3146232232e+02   3.1373629865e+01    0.1271714   0.07522573  51.29  0.001013909    1.535    0.349
        38 -12.0169     48.3235    201.7833   1.2351579414e+02   2.8323194106e+01    0.5483346    0.2401349  61.76  0.003156396    2.012    0.503
        39 -12.8527    177.2681    193.4727   9.9045128816e+01   9.5183206295e+00    0.7242294    0.5522487   6.80  0.004124452    1.776    0.437
        40 -11.1267     56.5601    196.1291   1.2164068313e+02   2.8379051033e+01    0.2846551    0.1661998 -88.61  0.001630739    1.525    0.344
        41  99.0000     22.1010    185.9166   1.2684365274e+02   3.4081097350e+01     1.231233     0.613987 -80.41  0.008085688    1.613    0.380
        42 -14.7911     24.1293    149.0948   1.2358488497e+02   4.1173810951e+01     1.838146    0.9256451 -49.09   0.01019994    2.673    0.626
        43 -15.9205      9.9347    136.4684   1.2537802882e+02   4.4977926602e+01     1.897678    0.9278734 -77.00  0.008508338    1.535    0.348
        44 -14.0551     25.2836    134.0338   1.2185881275e+02   4.4221708090e+01      0.74387    0.4189973 -73.50  0.003469854    1.383    0.277
        45 -14.4949     36.2460    130.0867   1.1896197140e+02   4.4046510933e+01    0.9484833     0.729067  66.34  0.004776476    1.294    0.227
        46 -13.9851      7.8172    182.1253   1.2903681722e+02   3.6113132573e+01    0.4717605    0.4383356  53.12  0.003547446    1.627    0.385
        47 -14.6626      9.5340    174.4318   1.2827466879e+02   3.7422360001e+01    0.7948055     0.503076  48.40  0.005515955    1.607    0.378
        48 -11.6889     46.3889    189.5447   1.2287962077e+02   3.0820253264e+01    0.3970062    0.1808803 -67.63  0.002335842    2.008    0.502
        49 -11.3418     56.1613    187.2042   1.2092523820e+02   3.0111411827e+01    0.3062943    0.2699464 -39.19  0.001881663    1.872    0.466
        50 -11.4415    142.1597    244.9495   1.1197810021e+02   8.0443062407e+00    0.2807803    0.2382773  73.72  0.001814892    1.234    0.190
        51 -14.5083     95.0608    170.3840   1.1154695824e+02   2.8096535393e+01     1.322034     1.065295  34.04  0.006332404    1.559    0.358
        52 -15.1073     68.6474    163.9538   1.1609193413e+02   3.3154752713e+01     1.570711    0.8231705 -87.37  0.007686473    2.152    0.535
        53 -14.5613     84.0644    163.4774   1.1286906938e+02   3.1131613851e+01     1.406072     1.161848 -17.15   0.00845122    2.083    0.520
        54 -14.7286     67.4499    141.3725   1.1339962371e+02   3.8072757513e+01     1.820607    0.8364499 -76.00  0.004946589    2.406    0.584
        55 -15.2911     80.1691    130.6638   1.0880147193e+02   3.8679092914e+01     2.374166     1.432193 -73.95  0.009879871    1.664    0.399
        56 -11.0631     23.2668    162.4012   1.2490187217e+02   3.8545457117e+01    0.3194492    0.2263364 -81.90   0.00177996    1.147    0.128
        57 -13.2510     50.4830    154.6819   1.1874667670e+02   3.7306280948e+01    0.7338493    0.4572433 -52.36  0.004020848    1.876    0.467
        58 -15.4732    125.9512    134.7748   9.8893363183e+01   3.0203284285e+01     2.053317     1.524977 -58.29   0.01083777    1.337    0.252
        59 -12.4244     89.9997    144.2117   1.0877065510e+02   3.4298507462e+01    0.2687736    0.2327579  63.83 0.0003968576    1.144    0.126
        60 -12.5031    157.0431    175.7852   9.9938847755e+01   1.6279765066e+01    0.5254956     0.462067  45.93  0.002759498    1.079    0.073
        61 -14.2464    142.4056    162.6837   1.0060660943e+02   2.1477743233e+01     1.246755    0.8255019  23.18  0.005794651    2.290    0.563
        62 -12.3190    101.0373    145.4636   1.0650835230e+02   3.2302324254e+01    0.3225757    0.2556356  -9.36  0.001098699    2.136    0.532
        63 -10.7464     44.5006    154.9548   1.2000865361e+02   3.7918255093e+01    0.2697266    0.1450002 -73.70  0.001149078    1.557    0.358
        64 -14.0893    210.6464    130.2319   8.0065364706e+01   1.3013990866e+01     1.520307    0.5808253 -34.50  0.005460605    2.701    0.630
        65 -14.0220    139.2929    156.0237   1.0005717102e+02   2.3358494189e+01     1.041217     0.696129  16.87   0.00453902    2.688    0.628
        66  -9.7490     68.5059    184.4390   1.1838451848e+02   2.9085731630e+01    0.1132927   0.09461536  81.64 0.0005351239    1.123    0.110
        67 -11.6835    135.3738    239.7234   1.1251949363e+02   9.8291768881e+00    0.3214569    0.2650623  82.21  0.001868693    1.289    0.224
        68 -13.4044    169.5950    177.5222   9.7795239970e+01   1.3566340029e+01    0.8601831    0.5925397  70.13  0.004387187    1.827    0.453
        69 -11.3458    130.1197    230.6823   1.1241468133e+02   1.1968184683e+01    0.4223244     0.180236  42.94  0.002223424    1.995    0.499
        70 -13.7435    230.8010    106.5945   7.0705737334e+01   1.2306726086e+01    0.5381571     0.407069 -28.49  0.002721646    1.276    0.216
        71 -10.9552    105.9817    130.7111   1.0271239782e+02   3.4642213916e+01     0.256696    0.1849451 -84.02  0.001325231    1.559    0.359
        72 -11.8195     99.1070    129.1674   1.0404105730e+02   3.6118974470e+01    0.2760481     0.254008  13.54 0.0009561314    1.397    0.284
        73 -12.0218     12.2705     98.9602   1.2084740809e+02   5.2737870077e+01    0.2333164    0.1718606 -83.97  0.001511018    1.135    0.119
        74 -12.8153     75.2396     96.5551   1.0344937718e+02   4.6899704821e+01    0.8451307    0.5336303  58.45  0.004308524    1.969    0.492
        75 -11.5783     69.7764     90.6863   1.0365204697e+02   4.8923754957e+01    0.3306049    0.2829224 -74.87  0.001488993    1.143    0.125
        76 -13.4997    118.1775    111.8821   9.5770780599e+01   3.6525839863e+01    0.7219455    0.4942458 -46.25  0.003570516    1.432    0.302
        77 -13.6736     44.6347    100.6490   1.1258191820e+02   4.9650682744e+01     1.497844    0.4206441 -52.74  0.006061609    2.939    0.660
        78 -11.9791     28.7717     64.4077   1.1009763777e+02   5.8901543615e+01    0.2556489    0.1549243 -49.09  0.001571311    1.336    0.251
        79 -12.1526     64.3971     59.1662   9.7065168864e+01   5.6272321173e+01     0.274871     0.193127 -14.01   0.00150146    1.804    0.446
        80 -13.1476     11.0309     48.6424   1.1251684545e+02   6.3367769917e+01    0.3748383    0.1683978 -49.63  0.002186242    1.641    0.391
        81 -13.8573    191.2269     34.6820   5.7178685394e+01   3.3233653164e+01     0.653302    0.4670728  31.72  0.002023311    1.593    0.372
        82 -13.3807    141.2390    234.7383   1.1101774486e+02   9.6064750874e+00    0.9269456    0.4891615  62.50  0.005066451    2.024    0.506
        83  99.0000     53.5478    172.8737   1.2005221946e+02   3.3229737368e+01     1.178295    0.4119375  40.26  0.005759812    2.816    0.645
        84 -11.3273    137.1654    228.0788   1.1094455732e+02   1.1230562480e+01    0.3477803    0.2011845  47.14  0.001513334    1.378    0.275
        85 -11.2378    170.5010    243.2422   1.0721744578e+02   3.7354457969e+00    0.2389515    0.1840987  25.36   0.00169971    1.480    0.324
        86 -12.7417      8.1626     15.4909   1.0414157961e+02   6.9820279542e+01    0.2168865    0.1727504  -8.81  0.001719653    1.368    0.269
