#   1 NUMBER                 Running object number                                     
#   2 MAG_AUTO               Kron-like elliptical aperture magnitude                    [mag]
#   3 X_IMAGE                Object position along x                                    [pixel]
#   4 Y_IMAGE                Object position along y                                    [pixel]
#   5 X_WORLD                Barycenter position along world x axis                     [deg]
#   6 Y_WORLD                Barycenter position along world y axis                     [deg]
#   7 A_WORLD                Profile RMS along major axis (world units)                 [deg]
#   8 B_WORLD                Profile RMS along minor axis (world units)                 [deg]
#   9 THETA_WORLD            Position angle (CCW/world-x)                               [deg]
#  10 FWHM_WORLD             FWHM assuming a gaussian core                              [deg]
#  11 ELONGATION             A_IMAGE/B_IMAGE                                           
#  12 ELLIPTICITY            1 - B_IMAGE/A_IMAGE                                       
         1 -15.1287     41.6073    200.2512   1.2785101670e+02   2.9471969131e+01     11.13383     3.978171  79.88   0.02296719    4.112    0.757
         2 -11.3058     11.8420     60.4477   1.1968317428e+02   6.1996570741e+01    0.3176154    0.2104199  80.86  0.001945951    1.718    0.418
         3 -12.8152    199.1349     33.4402   5.8972882355e+01   3.1053107023e+01     1.302248     1.171255   0.86  0.006989028    1.156    0.135
         4 -13.6053    214.9067     17.0731   5.1990952976e+01   2.8841333936e+01     1.672657     1.057481  22.01  0.007423251    2.071    0.517
         5 -10.4576      2.0431     14.3187   1.1151579879e+02   7.2416123003e+01    0.2452155    0.1307757 -65.34 0.0009142618    1.724    0.420
         6 -10.5227      1.7174      7.4247   1.0891530350e+02   7.3772105808e+01    0.4051232   0.05831752 -55.69  0.001461896    4.053    0.753
         7 -11.0326     17.9283     25.9159   1.0783248390e+02   6.9028520295e+01    0.3944899    0.1940712  45.70  0.001976628    3.254    0.693
         8 -11.7044    173.6826    250.1538   1.1056603865e+02   4.1136295749e+00    0.6453166   0.09939291  41.58  0.002250827    5.133    0.805
         9  -8.3843     62.7253    250.3683   1.2752943196e+02   1.9026839479e+01    0.1016532    0.0503875  66.35 0.0007004818    1.676    0.403
        10 -10.7218     15.9269    249.7796   1.3421144999e+02   2.4121753602e+01    0.3445534    0.1546475  57.63  0.001710758    1.440    0.306
        11 -10.2085      8.7635    250.2065   1.3521126837e+02   2.4743195515e+01    0.2270935    0.1079564  41.69  0.001757963    1.909    0.476
        12 -11.1756      2.2167    246.7592   1.3600630053e+02   2.5852664251e+01    0.6181682    0.1509016 -84.06  0.003503815    3.767    0.735
        13 -11.1246     39.1071    246.6867   1.3079908188e+02   2.2208557422e+01    0.5409827    0.2348171  67.18  0.003748142    1.844    0.458
        14 -11.5042     30.1825    249.4660   1.3220026906e+02   2.2741044916e+01    0.5480879    0.2941203  50.85   0.00443241    1.363    0.266
        15 -10.2349     21.4297    245.4133   1.3328430142e+02   2.4223143883e+01    0.2646506    0.1183267  44.55  0.001257688    1.784    0.439
        16 -10.6273     17.0709    242.2351   1.3378766646e+02   2.5126576097e+01    0.2751517    0.1183118  59.82  0.001069178    1.553    0.356
        17 -12.3581     12.3101    238.7924   1.3434643503e+02   2.6105988889e+01    0.6539377    0.2244342 -88.32   0.00393089    2.665    0.625
        18 -11.2526    139.5059    248.9395   1.1572022921e+02   9.1700682843e+00    0.2572038    0.1931123  78.70  0.002011461    1.600    0.375
        19 -11.9787      5.5928    224.7747   1.3484589130e+02   2.8925698654e+01    0.4668267    0.2332622  77.11  0.003578941    1.464    0.317
        20 -13.1207     10.3783    207.2618   1.3344427529e+02   3.1396411640e+01    0.6673248    0.4562131  47.40  0.002971757    1.481    0.325
        21 -10.4150    226.3994    201.6476   9.5515222237e+01   1.3126423157e+00    0.2955078    0.2140049 -51.47  0.001822266    2.259    0.557
        22  -8.2111    181.5228    192.4523   1.0157916800e+02   1.0013877210e+01      0.12322    0.1035214  35.29 0.0001032516    1.017    0.017
        23 -11.5762     64.0308    185.0061   1.2258916349e+02   2.9635428529e+01    0.2310012    0.2009559 -72.08 0.0004526927    1.392    0.282
        24 -11.4685     57.8763    192.3503   1.2437124223e+02   2.9026213528e+01    0.2780412    0.2260823 -49.56  0.001647747    1.845    0.458
        25 -10.7228     74.6132    173.2620   1.1934548310e+02   3.0521394164e+01    0.2141632    0.1805768  85.89 0.0003810926    1.101    0.092
        26 -13.0655     61.2807    170.5046   1.2173226170e+02   3.2787137303e+01    0.4302182    0.2481477 -50.26  0.001891728    2.322    0.569
        27 -11.7389     82.6779    164.6493   1.1668650437e+02   3.1119090454e+01      0.54911    0.4385926  62.86  0.003625083    1.116    0.104
        28 -12.4973     29.4394    224.4343   1.3120677088e+02   2.6660752121e+01    0.2479319    0.2088527  65.58  0.000782094    1.398    0.285
        29 -12.3220     67.6340    144.0906   1.1730105888e+02   3.7456513625e+01    0.7080426    0.4377445  76.11  0.003030567    1.699    0.411
        30  -9.7427     95.9849    149.4719   1.1171042435e+02   3.2248190597e+01     0.265446    0.2211842  61.30 0.0007757933    1.127    0.113
        31 -11.8336     84.3645    148.3195   1.1412116342e+02   3.4239189834e+01    0.2646022    0.2175329 -60.83 0.0007654237    1.287    0.223
        32  -8.7204     99.0402    145.5193   1.1040359637e+02   3.2591453926e+01    0.1839028    0.1245031  43.04 0.0003594336    1.506    0.336
        33  -9.5454    249.4962    230.0042   9.6413736490e+01  -4.9383382871e+00    0.1183585   0.08978588 -48.21 0.0008103893    2.541    0.606
        34 -10.7202     53.2203    118.0986   1.1707596479e+02   4.5017302529e+01    0.3447965    0.1582447 -77.42  0.001336837    2.284    0.562
        35 -11.3725     58.3926    134.7655   1.1819115067e+02   4.0661728773e+01    0.7107831    0.2697101 -81.46  0.002403687    4.403    0.773
        36  -9.2762    108.5734    135.3907   1.0647244593e+02   3.3151070316e+01    0.2827769    0.2081715 -13.99  0.001349623    2.409    0.585
        37 -10.4013     95.4513    132.4077   1.0900211525e+02   3.5956271498e+01    0.2354525    0.2134806 -41.40 0.0008854212    1.325    0.245
        38 -13.7742     35.8914    216.5352   1.2978233376e+02   2.7281097740e+01    0.7657965    0.5267121  68.07  0.002710663    1.014    0.013
        39  -8.9000    105.9890    122.6634   1.0461246810e+02   3.6321402972e+01     0.180174    0.1641049  66.78 0.0003800967    1.098    0.089
        40  -9.8117    167.7189    112.6872   8.8184925925e+01   2.5992421229e+01    0.3392791    0.2662171 -78.32   0.00104165    1.684    0.406
        41  -8.9398    203.7621    111.0906   8.0752826420e+01   1.8208791576e+01    0.2481113    0.1653921   2.06  0.001073688    1.999    0.500
        42 -10.9171    245.6001     94.6552   6.9790240934e+01   1.1460598830e+01    0.4170192    0.2007988  24.36  0.001409701    3.737    0.732
        43  -9.0796    159.4977     78.4895   8.0453072427e+01   3.4234244300e+01    0.1555686    0.1488165 -15.42 -9.741816e-06    1.034    0.033
        44 -11.6515    127.9107    247.1554   1.1735550958e+02   1.1028542392e+01    0.3505221    0.1100261  46.11   0.00183257    2.315    0.568
        45 -10.8285    106.1952    241.8422   1.2029212820e+02   1.4731989999e+01    0.1650865    0.1085699  62.00 0.0008015161    1.258    0.205
        46 -13.9725     94.7912    230.5472   1.2117534697e+02   1.7895480615e+01     1.897681    0.5325246  43.66  0.002993589    2.697    0.629
        47 -10.2014      2.4071    222.2180   1.3523492624e+02   2.9625883570e+01    0.1805751    0.1039809  73.40 0.0009191062    1.176    0.150
        48 -11.1597     19.2968    233.0799   1.3311920554e+02   2.6310185915e+01    0.2594929    0.2014906 -72.47  0.001573969    1.750    0.429
