#   1 NUMBER                 Running object number                                     
#   2 MAG_AUTO               Kron-like elliptical aperture magnitude                    [mag]
#   3 X_IMAGE                Object position along x                                    [pixel]
#   4 Y_IMAGE                Object position along y                                    [pixel]
#   5 X_WORLD                Barycenter position along world x axis                     [deg]
#   6 Y_WORLD                Barycenter position along world y axis                     [deg]
#   7 A_WORLD                Profile RMS along major axis (world units)                 [deg]
#   8 B_WORLD                Profile RMS along minor axis (world units)                 [deg]
#   9 THETA_WORLD            Position angle (CCW/world-x)                               [deg]
#  10 FWHM_WORLD             FWHM assuming a gaussian core                              [deg]
#  11 ELONGATION             A_IMAGE/B_IMAGE                                           
#  12 ELLIPTICITY            1 - B_IMAGE/A_IMAGE                                       
         1 -14.6571      2.5663     89.4095   1.3658250384e+02   5.6906679238e+01     4.471344    0.7783482 -68.97   0.01251771    6.791    0.853
         2 -14.1516      2.3442    132.4457   1.4262280469e+02   4.7464331455e+01     4.666275    0.3400912 -71.71  0.008816149   13.890    0.928
         3 -12.4536      3.6956     50.1905   1.2790216592e+02   6.4671180790e+01    0.3902734    0.3679931  38.63  0.001509448    1.485    0.327
         4 -13.5463    199.8708     27.7058   6.6668486692e+01   3.2275005334e+01     1.414062     1.268006  33.91  0.007203396    1.413    0.292
         5 -13.5010    215.2844      9.3060   6.0598779918e+01   3.0722884448e+01    0.9640574    0.7921437  75.40  0.003415831    1.169    0.145
         6 -11.8335      4.1799      3.6232   1.1168304982e+02   7.2056062514e+01    0.3542956    0.2455269  -9.79  0.002819563    1.104    0.094
         7 -11.5243    150.8581    249.0160   1.2514029372e+02   1.6196995982e+00    0.3772679    0.1504733  43.09  0.001691183    2.067    0.516
         8 -12.4508    240.0938    249.0029   1.0850405884e+02  -1.2964239837e+01    0.6396078    0.2922536  42.21  0.003318254    2.134    0.531
         9 -13.2507     33.8046    246.3704   1.4617151167e+02   1.9869556499e+01     1.281633    0.9310127  44.76  0.009165165    1.573    0.364
        10 -13.0675     45.1856    215.0582   1.4170185415e+02   2.4763464246e+01    0.9512618     0.667724 -82.30  0.004920063    1.226    0.184
        11 -13.0053     29.8039    232.5406   1.4589482668e+02   2.3033448500e+01    0.2962899    0.2475073 -84.34 0.0007721639    1.356    0.263
        12 -14.0907     34.7840    226.2913   1.4455953902e+02   2.3702492578e+01    0.7911814    0.5496104  68.94  0.002372543    1.128    0.113
        13 -11.7726    139.4667    250.4853   1.2750213102e+02   3.3180939883e+00     0.670742    0.1767929  37.69  0.002173499    4.268    0.766
        14 -11.0502    119.9144    238.2990   1.2972008847e+02   8.8073283369e+00    0.3152948    0.1668455 -80.44  0.001351717    3.061    0.673
        15 -13.8142      9.9671    244.4958   1.4990797967e+02   2.2925934394e+01     1.722197     1.264871  83.17   0.01355453    1.159    0.137
        16 -12.7861    117.3253    232.0362   1.2943570032e+02   1.0433532660e+01     1.351573    0.1769856  41.87  0.003467288    6.256    0.840
        17 -11.9175     93.2424    228.0068   1.3370273823e+02   1.5195130212e+01    0.5833114    0.1882049  46.90  0.002367933    2.623    0.619
        18  -9.5385     78.9830    219.0244   1.3550240382e+02   1.9252996689e+01      0.21387    0.1287318  71.16  0.001121343    1.644    0.392
        19 -11.3885     58.1549    212.7545   1.3896487843e+02   2.3565263898e+01    0.7167089    0.2095049  55.98  0.002490411    4.131    0.758
        20  -8.5417    152.5130    213.0749   1.1947038001e+02   7.8056974275e+00    0.1808604    0.1393653 -54.19 0.0003060729    1.431    0.301
        21 -12.4898      9.5863    207.1924   1.4769191457e+02   3.0390668411e+01     0.640497    0.4332529  36.94  0.002928738    1.826    0.452
        22 -10.8284     55.1201    205.2452   1.3879913284e+02   2.5599406176e+01    0.4238127    0.1725671  60.31  0.001805275    2.721    0.632
        23 -11.7824     57.5755    198.8696   1.3761122106e+02   2.6682502288e+01    0.2988814    0.2315736 -80.67 0.0006013056    1.146    0.127
        24 -13.1633     35.0104    193.5772   1.4170245456e+02   3.0653096878e+01     5.986573     1.987639  69.10   0.01108876   16.166    0.938
        25 -13.2714     12.0314    121.7226   1.3879772536e+02   4.9215603124e+01    0.7515102    0.6621713 -83.31  0.002932243    1.155    0.134
        26 -11.7075    126.9427    249.2002   1.2971573303e+02   5.6526927012e+00    0.4783142    0.2590151  28.11  0.002161884    2.734    0.634
        27 -13.9988      8.1610    152.5891   1.4340889278e+02   4.2500480321e+01     2.243834    0.8356342 -82.64  0.009920033    2.637    0.621
        28  -9.4409     66.2052    250.1949   1.4093889323e+02   1.4912522172e+01    0.1704649    0.1055448  67.61 0.0006271361    1.321    0.243
        29 -12.0273     64.2558    190.3683   1.3519869481e+02   2.7691747164e+01    0.2747349    0.2428282 -80.26 0.0004805346    1.178    0.151
        30  -9.6074    195.0116    198.5245   1.0807550239e+02   2.4324153687e+00    0.3053151    0.1627553 -68.01 0.0008103331    6.659    0.850
        31 -13.1846     61.4768    175.5238   1.3391151642e+02   3.1508735640e+01    0.5228174    0.2829722 -47.89  0.002048703    2.209    0.547
        32 -10.8045     75.0656    177.3947   1.3104326869e+02   2.9148468435e+01    0.2442391    0.2143292  86.00 0.0003566027    1.041    0.040
        33  -9.2319     95.0252    172.0779   1.2552529635e+02   2.7254399117e+01    0.2260416     0.156251  75.49 0.0004072129    1.612    0.380
        34 -11.7688     82.5423    168.5093   1.2792868686e+02   3.0115377356e+01    0.5868434    0.4755191 -49.30  0.003263083    1.372    0.271
        35 -10.3662     95.9928    152.5659   1.2180983009e+02   3.1744233830e+01    0.3072435    0.2858154  28.19  0.000756246    1.260    0.207
        36  -9.3321     99.0918    148.1999   1.2017021428e+02   3.2258079267e+01    0.2419928     0.189422 -50.76 0.0003510623    1.274    0.215
        37 -11.9788     84.4366    151.5185   1.2455748401e+02   3.3891161056e+01    0.3126238    0.2477487 -50.45 0.0005567793    1.291    0.225
        38 -12.0107     68.1460    143.1685   1.2727248292e+02   3.8317289680e+01    0.5840759    0.4159624 -86.15  0.001819075    1.488    0.328
        39 -10.8130     64.6812    141.6907   1.2792185132e+02   3.9145267220e+01    0.3646407    0.1964482 -48.34  0.001048349    1.857    0.462
        40  -9.8718    108.4580    137.4338   1.1549130674e+02   3.3141602689e+01    0.4465835    0.2939949 -18.35  0.001524504    2.775    0.640
        41 -10.5381     95.4155    134.7009   1.1835734905e+02   3.6122026171e+01    0.2579767    0.2330153 -31.75 0.0003454366    1.243    0.195
        42 -11.0524     26.0223    128.7572   1.3607648826e+02   4.6491801364e+01    0.2670561     0.200494  66.74 0.0006040701    1.475    0.322
        43  -9.2416     74.8347    128.3629   1.2264463834e+02   4.0905831139e+01    0.2115196    0.1647868  62.60 0.0007853893    1.434    0.303
        44  -8.8897    105.9241    123.9322   1.1309756418e+02   3.6784839061e+01    0.2018557    0.1910633 -25.77   0.00109865    1.146    0.128
        45  -9.5925     79.6054    123.1164   1.2020523786e+02   4.1432701638e+01    0.2531715    0.1869997  61.13 0.0008471263    1.573    0.364
        46  -9.6993     66.0695    121.6143   1.2372046713e+02   4.3733542160e+01    0.2204052    0.1750368 -73.58 0.0004495022    1.235    0.190
        47  -8.5869    167.9732    113.0196   9.4815121900e+01   2.5830197725e+01    0.1866635    0.1806167  84.09 0.0003807276    1.016    0.016
        48  -8.6194     47.4954     99.9972   1.2462867364e+02   5.0959620917e+01    0.1678571    0.1082667 -85.25 0.0004548989    2.214    0.548
        49 -11.3257    243.1186     93.7134   7.6388240151e+01   1.2007559525e+01    0.3521248    0.1735004 -49.97  0.001506422    1.923    0.480
        50  -9.0463     64.7310     80.9509   1.1434580358e+02   5.2927464108e+01    0.1799539     0.163899 -39.06 0.0009727425    1.067    0.063
        51 -10.2243    158.8545     77.1195   8.7106773112e+01   3.5026978599e+01    0.2381259    0.2057316 -79.31 0.0005473107    1.253    0.202
        52  -8.7211     55.7994     74.6710   1.1555661917e+02   5.5356856130e+01     0.161043    0.1162905  38.71 0.0003283497    1.601    0.376
        53  -8.8386     35.8145     63.8117   1.1949315017e+02   5.9685370362e+01    0.1444227    0.1368576 -56.85 0.0002970247    1.294    0.227
        54 -11.2710    172.2532    247.8166   1.2088244132e+02  -1.8630653645e+00    0.3073731    0.2191963  67.75  0.001724564    1.820    0.451
        55 -11.2435    198.3062    245.8108   1.1563213633e+02  -5.9715784159e+00    0.2235009    0.1957786  73.17  0.001448771    1.546    0.353
        56 -11.3396     99.8051    248.2064   1.3468984850e+02   1.0260593975e+01    0.2940066     0.240434  74.38  0.001973894    1.097    0.089
        57 -10.6363      9.0056    193.7519   1.4683322275e+02   3.3298883437e+01    0.2278271    0.1546015  62.51 0.0005417145    1.331    0.248
