#   1 NUMBER                 Running object number                                     
#   2 MAG_AUTO               Kron-like elliptical aperture magnitude                    [mag]
#   3 X_IMAGE                Object position along x                                    [pixel]
#   4 Y_IMAGE                Object position along y                                    [pixel]
#   5 X_WORLD                Barycenter position along world x axis                     [deg]
#   6 Y_WORLD                Barycenter position along world y axis                     [deg]
#   7 A_WORLD                Profile RMS along major axis (world units)                 [deg]
#   8 B_WORLD                Profile RMS along minor axis (world units)                 [deg]
#   9 THETA_WORLD            Position angle (CCW/world-x)                               [deg]
#  10 FWHM_WORLD             FWHM assuming a gaussian core                              [deg]
#  11 ELONGATION             A_IMAGE/B_IMAGE                                           
#  12 ELLIPTICITY            1 - B_IMAGE/A_IMAGE                                       
         1  -8.9411    134.8670     13.4224   5.3018371742e+01   4.9990523915e+01    0.2723485    0.1756262 -28.89 0.0007877572    1.654    0.395
         2  -8.3237     96.9122     15.1369   6.2580790597e+01   5.8617476804e+01    0.1893741    0.1808189 -29.39 0.0005382952    1.240    0.194
         3  -7.9403     83.4327     11.1790   6.4825490403e+01   6.1826539975e+01     0.176279    0.1132205 -35.22 0.0007320577    1.726    0.421
         4  -8.6644     55.6179     10.0374   7.4229495512e+01   6.6924811409e+01    0.1961956    0.1728593  44.81 0.0006487578    1.524    0.344
         5  -7.8600     47.5104     10.0030   7.7625116165e+01   6.8151567899e+01    0.1536253   0.09871768 -49.34 0.0005881781    2.455    0.593
         6  -8.4242     90.8841      9.1340   6.1673226068e+01   6.0527737285e+01     0.186306    0.1765202 -55.24 0.0007696027    1.367    0.268
         7  -8.6018     33.2090      4.9417   8.1637262912e+01   7.0728983497e+01    0.2601394    0.1354481 -47.54  0.001293331    2.922    0.658
         8  -8.4749     79.1139      4.0952   6.2884657573e+01   6.3410787872e+01    0.2610681    0.1577992 -35.41 0.0009930226    1.893    0.472
         9  -7.7442     44.5346      3.4308   7.5539681907e+01   6.9405686163e+01    0.1192188   0.09497073   0.03 0.0002273928    1.041    0.039
        10  -7.6273    115.3499      2.6644   5.2879821656e+01   5.5688646637e+01    0.1335151   0.09999023 -65.72 0.0007046812    1.783    0.439
        11  -8.3977     62.3571      1.6235   6.7360456102e+01   6.6762064347e+01     0.184486    0.1427687  51.02 0.0005326762    1.553    0.356
        12  -7.5957     39.2822      1.6152   7.6951701216e+01   7.0363333099e+01    0.1048601   0.08855974 -41.09 0.0007006941    1.733    0.423
        13  -9.2766    146.9811    240.5860   1.0593263724e+02   5.3898222363e+00    0.3839185    0.2260142  81.20  0.001488916    4.256    0.765
        14  -8.3613    249.0146    249.5161   8.8997324479e+01  -1.1249987316e+01    0.2318837    0.1258728 -19.37  0.001447006    1.909    0.476
        15  -9.0771    211.4602    247.5883   9.5121988531e+01  -5.7032718471e+00    0.3277355    0.2482374 -68.50  0.001937037    2.876    0.652
        16  -8.4714     93.9811    249.4905   1.1659887452e+02   1.2030677282e+01    0.2124797    0.1337111  76.11  0.001334197    1.688    0.407
        17  -9.5700    119.6689    245.4841   1.1156935500e+02   8.8963541622e+00    0.3592795     0.224457  63.62  0.001707948    1.650    0.394
        18  -7.7670     40.4731    247.5214   1.2563601227e+02   1.9293264357e+01    0.1076143   0.07665363  66.36 5.959986e-05    1.017    0.016
        19  -8.6748     67.6516    245.2796   1.2088382099e+02   1.6332970756e+01    0.2448313    0.1185375 -88.67   0.00127521    2.451    0.592
        20  -8.7929    139.4569    244.4352   1.0780191357e+02   5.9930036986e+00    0.1822369    0.1145029 -73.43 0.0006965612    2.377    0.579
        21  -9.4639     78.2025    243.5321   1.1889151551e+02   1.5228821558e+01    0.3739223    0.1583124  68.45  0.001675813    3.246    0.692
        22  -9.0719      9.5625    243.8436   1.3041342054e+02   2.3251083894e+01    0.2284266   0.07143722  87.94  0.001132687    3.267    0.694
        23  -9.3778    248.5459    242.4577   8.7962466250e+01  -1.0447092582e+01    0.2405537    0.1833747 -30.75 0.0009853514    1.678    0.404
        24  -9.1635    201.9738    242.9317   9.6121047460e+01  -3.6892031101e+00    0.2890427    0.1697314 -39.76  0.001357238    2.093    0.522
        25  -8.5886    194.2601    243.8446   9.7644178044e+01  -2.6084785536e+00    0.2606931    0.1568602  24.03  0.001093462    1.591    0.371
        26  -8.6217    194.0530    239.6443   9.7069948312e+01  -2.0259086810e+00    0.1701645    0.1645363  13.19 0.0004478749    1.305    0.234
        27  -8.4172    213.4295    242.3894   9.3996700380e+01  -5.3734309904e+00    0.2211141     0.097704 -21.56 0.0009589224    3.700    0.730
        28  -8.3747    178.1963    242.5890   1.0039617833e+02   9.3861769540e-02    0.2317577    0.1514806  19.44 0.0009005815    1.675    0.403
        29  -8.4933    169.0834    242.8448   1.0211109334e+02   1.5129322875e+00    0.1937754    0.1746905 -17.80 0.0007510752    1.334    0.250
        30  -9.1131    183.0733    240.2195   9.9165819500e+01  -3.5825509333e-01    0.3944033    0.2482741  64.77  0.001909649    2.820    0.645
        31  -7.8614    183.6708    235.6830   9.8401026020e+01   1.7508635259e-01    0.1978579    0.1209969   8.34 0.0009807525    2.465    0.594
        32  -9.3465    160.0643    240.3231   1.0345123882e+02   3.3267437015e+00     0.292029     0.213871 -83.45  0.001547602    2.179    0.541
        33  -8.2621    153.4291    242.2300   1.0493575609e+02   4.1087746975e+00    0.1450973    0.1158726 -78.37 0.0006943597    1.701    0.412
        34  -8.1009     88.1920    242.1690   1.1698451401e+02   1.4079364800e+01    0.1600077    0.1079688  71.99 0.0005418412    1.386    0.279
        35  -8.7732    242.6701    236.0065   8.7910314867e+01  -8.9204578207e+00     0.355288    0.1906773 -12.18  0.001971772    2.155    0.536
        36  -8.1739    209.0522    238.9807   9.4257590370e+01  -4.2832537374e+00    0.1637855     0.140099  57.75 0.0005911601    1.653    0.395
        37  -9.1248    135.8419    238.9957   1.0782902321e+02   7.4157643506e+00    0.2491912     0.163487  54.61  0.001351847    1.387    0.279
        38  -8.0924    129.4786    238.9769   1.0902338433e+02   8.4250323441e+00    0.1586569    0.0987742  85.56 0.0008101766    2.560    0.609
        39  -8.9630    230.9908    237.1762   9.0103906924e+01  -7.3692780223e+00    0.2324686    0.1838805 -47.93   0.00107546    2.011    0.503
        40  -8.2960     25.4113    236.7133   1.2753085273e+02   2.2877629384e+01    0.2414717   0.08786418  68.17  0.001236022    2.624    0.619
        41  -8.1131     13.9381    238.0000   1.2946823564e+02   2.3839885103e+01    0.1513538   0.04851293  37.05 0.0007975845    2.909    0.656
        42  -9.9552    214.7775    233.1927   9.2329766704e+01  -4.4365689523e+00    0.4534448    0.3442024 -85.28   0.00230749    3.581    0.721
        43  -8.9172    203.2146    235.0752   9.4713185786e+01  -2.8705508282e+00    0.2411013    0.2042016 -62.39  0.001142613    1.853    0.460
        44  -8.9745    194.3423    232.9504   9.6014940098e+01  -1.1703326174e+00    0.2214194    0.1492604  47.21 0.0006840013    1.496    0.331
        45  -9.6983    175.7545    233.4176   9.9552872713e+01   1.7887744654e+00    0.4086305    0.2250083 -57.15  0.002054698    2.818    0.645
        46  -7.9746    170.3572    236.1579   1.0095707477e+02   2.2708687543e+00    0.1443882    0.1171217 -64.27 0.0004256466    1.688    0.407
        47  -7.9652     58.0219    237.0000   1.2196047756e+02   1.9025340858e+01    0.1811963   0.05298264  38.65 0.0008088331    2.987    0.665
        48  -9.1383    247.7823    234.6367   8.6821975174e+01  -9.4870726918e+00     0.239735    0.1747832 -11.07   0.00079737    1.281    0.219
        49  -9.4943    246.6161    229.6090   8.6183772184e+01  -8.7524174267e+00    0.3783008    0.1856097 -27.67  0.002038712    2.086    0.521
        50  -9.3676    108.9200    234.3777   1.1238614219e+02   1.2381619703e+01    0.4018771    0.2156468  57.93  0.001030555    1.780    0.438
        51  -8.3577     99.8520    234.6866   1.1412589256e+02   1.3689507052e+01     0.227043    0.1307133  74.76  0.001214381    2.120    0.528
        52  -9.2270     78.6676    234.2464   1.1801974501e+02   1.6798283449e+01    0.2611214    0.1618541  84.81  0.001010634    1.680    0.405
        53  -9.4854      8.0035    234.7515   1.3027903746e+02   2.5006164757e+01     0.146365    0.1008496  67.61 0.0008020356    1.057    0.054
        54  -8.2299    122.8620    234.1575   1.0971561228e+02   1.0261406299e+01     0.190961    0.1370509  62.11 0.0005881648    1.327    0.247
        55  -9.2758     68.4960    232.6095   1.1974271959e+02   1.8467613928e+01    0.4004236    0.1672922  67.08   0.00182562    2.946    0.661
        56  -9.0609    236.4843    231.1916   8.8180628730e+01  -7.4706916133e+00    0.2655571     0.228561 -47.39  0.001448653    1.858    0.462
        57  -8.4354    144.9789    233.3069   1.0538659120e+02   6.8544807355e+00    0.2861952    0.1334993  61.16  0.001086057    3.859    0.741
        58  -8.6793    140.0501    230.1977   1.0593258532e+02   8.1634757120e+00    0.2672746    0.1542798  58.16 0.0008786581    1.879    0.468
        59  -8.2466    132.6700    233.0950   1.0771590484e+02   8.8802283123e+00     0.192033    0.1403378  74.53  0.001160419    1.607    0.378
        60  -8.3614     92.4160    231.9573   1.1525084756e+02   1.5263206919e+01    0.3016696    0.1494113  68.43  0.001440039    2.537    0.606
        61  -9.2527    186.2936    230.6665   9.7166616083e+01   4.5725754147e-01    0.2813512    0.2094811 -77.52  0.001193062    2.511    0.602
        62  -9.0669      1.7555    230.9517   1.3112357416e+02   2.6282947601e+01    0.1937319   0.09500649  74.80 0.0009391896    1.539    0.350
        63  -7.8121    204.4963    230.4691   9.3762461188e+01  -2.4638459983e+00    0.1253999   0.09829558  21.68 0.0001553425    1.059    0.055
        64  -9.1002    151.4701    228.9851   1.0356525174e+02   6.4809553919e+00    0.2638608     0.202498 -87.22  0.001064479    1.806    0.446
        65  -9.4608    148.8021    224.6805   1.0349417734e+02   7.6266841336e+00    0.3045362    0.2259059  81.44  0.001157723    1.843    0.458
        66  -7.9080    229.5821    228.8252   8.8992566161e+01  -6.1572312369e+00    0.1460549    0.1102581 -37.09 0.0007487253    1.675    0.403
        67  -8.8544    161.9566    227.9936   1.0140331934e+02   4.8930925494e+00    0.3267201    0.1711718  52.89  0.001562935    2.033    0.508
        68  -8.8194    128.0202    227.2054   1.0788813522e+02   1.0621963050e+01    0.2817691    0.1956996  84.67  0.001066607    1.879    0.468
        69  -8.4422    119.9909    227.7747   1.0951930841e+02   1.1808000533e+01    0.2056831    0.1497966  88.50 0.0008333197    1.628    0.386
        70  -8.5097    206.1184    226.1937   9.2783329541e+01  -2.1479317699e+00    0.2265499     0.158951 -48.40  0.000945969    1.953    0.488
        71  -8.2612     49.5533    226.9836   1.2274721502e+02   2.1911564374e+01    0.2374107    0.1161358  79.46  0.001296881    2.110    0.526
        72  -8.0395    200.1681    226.2251   9.3887938040e+01  -1.1873633107e+00    0.1513784    0.1429029  52.71 0.0005421384    1.381    0.276
        73  -8.8246     94.2750    224.2732   1.1411904391e+02   1.6387233902e+01    0.4289801    0.1799703  60.64  0.001820061    2.941    0.660
        74  -8.7172    180.4754    224.3891   9.7312465016e+01   2.3409283826e+00    0.2347206     0.186177  63.36 0.0007168832    1.606    0.377
        75  -8.9072    104.7438    223.6592   1.1201600192e+02   1.4922787386e+01    0.3185793    0.1914031  79.09  0.001662921    2.131    0.531
        76  -8.0939     38.4789    225.0929   1.2460258908e+02   2.3571306782e+01    0.2193822   0.08284841  56.92  0.001136713    2.215    0.548
        77  -8.7276    216.5024    223.5550   9.0454295968e+01  -3.4570161765e+00     0.205702    0.2015591   2.00 0.0009016622    1.410    0.291
        78  -8.5783    172.9844    223.2309   9.8575764586e+01   3.7802065269e+00     0.204451    0.1720892  79.86 0.0006452211    1.616    0.381
        79  -8.0451    113.8290    224.0471   1.1028142484e+02   1.3440968243e+01     0.197377       0.1258  76.99    0.0010057    1.948    0.487
        80  -8.2897     59.9552    223.9786   1.2061312171e+02   2.1183096399e+01    0.1980304    0.1042016  65.46 0.0007466843    1.734    0.423
        81  -9.0471    239.3175    221.8767   8.6122401468e+01  -6.7670754267e+00    0.2600381    0.2170215  53.85 0.0007624559    1.844    0.458
        82  -9.4081    225.2753    221.8595   8.8590609145e+01  -4.6174775450e+00    0.2250142    0.1856881  -8.72  0.000702821    1.200    0.166
        83  -9.3914    192.4116    221.5318   9.4591919044e+01   7.6214932796e-01    0.2906868     0.251909  89.81 0.0009979319    1.760    0.432
        84  -9.3156    160.3617    221.3788   1.0075766875e+02   6.2166035956e+00    0.5124034    0.2424325  58.13  0.001917745    3.346    0.701
        85  -8.6607    140.4403    222.7568   1.0487521186e+02   9.3461734363e+00    0.2005923     0.126545 -62.57 0.0009625992    1.991    0.498
        86  -9.1835    120.5214    219.5075   1.0840625169e+02   1.3192168519e+01    0.4403569    0.2023667  59.62  0.001843187    2.829    0.646
        87  -8.5531     82.8005    220.6767   1.1597690133e+02   1.8725808795e+01    0.2878239    0.1341568  62.12  0.001302705    2.307    0.567
        88  -8.1367     72.9624    220.4730   1.1785490017e+02   2.0134008019e+01    0.2470098     0.108398  72.20 0.0009458133    3.391    0.705
        89  -8.4388     27.4933    220.5740   1.2626975720e+02   2.5644460345e+01    0.2191036   0.09008817 -77.41  0.001218391    2.194    0.544
        90  -8.1105    202.8403    220.1522   9.2405810237e+01  -7.7471874538e-01    0.1762097    0.1605265  32.12 0.0006667014    1.223    0.182
        91  -8.3320    209.9854    219.1829   9.0917483183e+01  -1.8138662123e+00    0.1752577    0.1567116  34.71 0.0005084383    1.260    0.206
        92  -8.1773    183.9604    219.0223   9.5804550926e+01   2.5628742142e+00    0.1966897    0.1389363  14.06 0.0005240317    1.581    0.367
        93  -8.1971    249.1850    218.3215   8.3813867128e+01  -7.7932943969e+00    0.2540173    0.1391564  52.62  0.001197885    3.262    0.693
        94  -8.4202    179.1077    217.6175   9.6519920401e+01   3.6083948225e+00      0.19524    0.1780171 -62.51 0.0006625088    1.405    0.288
        95  -9.3905    132.6563    215.8379   1.0549115683e+02   1.1856860878e+01    0.4187756    0.2601643  82.37  0.001829989    2.665    0.625
        96  -8.3564     62.0240    217.2101   1.1965932588e+02   2.2216951468e+01     0.229217    0.1168418  73.80  0.001189478    2.103    0.525
        97  -8.7198     51.8646    217.5506   1.2161282493e+02   2.3431414946e+01    0.3210372    0.1265624  53.45  0.001267252    2.140    0.533
        98  -8.7012    142.7889    216.3577   1.0352297480e+02   1.0055233060e+01    0.2633247    0.1735293 -76.76 0.0009607606    2.238    0.553
        99  -8.1636    111.7494    217.1804   1.0987332486e+02   1.5023789483e+01    0.2140718    0.1138536  69.24 0.0009392382    2.700    0.630
       100  -8.0346     18.4923    216.0274   1.2759837901e+02   2.7451213922e+01    0.1612478    0.0862764 -84.00 0.0007593046    1.584    0.368
       101  -8.4794    232.4529    214.9983   8.6131157796e+01  -4.8481208620e+00    0.2102636    0.1618922  44.08 0.0007198517    1.535    0.349
       102  -8.2737    185.6484    214.5635   9.4758789744e+01   2.9576156692e+00    0.1846392    0.1578877 -74.36 0.0005995608    1.677    0.404
       103  -8.0906    154.2509    215.1762   1.0105185151e+02   8.2951544073e+00    0.1738303    0.1431939  69.56 0.0004963099    1.390    0.281
       104  -8.8937     92.9806    214.0967   1.1328020675e+02   1.8502481643e+01    0.3190542    0.1693128  67.61  0.001122432    2.225    0.551
       105  -8.8349    169.3796    216.4460   9.8239411363e+01   5.4696906531e+00    0.2561946    0.2160397 -85.25 0.0009604948    1.619    0.382
       106  -9.6480    213.9707    212.1681   8.8982233228e+01  -1.4883512974e+00    0.3197944    0.2880328  64.46  0.001332938    1.595    0.373
       107  -8.4237     77.0071    214.3254   1.1648196982e+02   2.0765885875e+01    0.2604577   0.09930597  52.96  0.001169351    2.406    0.584
       108  -9.1321     72.1897    211.2567   1.1713359284e+02   2.2035682424e+01    0.4708205    0.1994793  67.75   0.00168943    3.384    0.705
       109  -8.0727    225.0904    212.5016   8.7008543159e+01  -3.3500035129e+00    0.1777223      0.17137   1.63  0.001092642    1.372    0.271
       110  -8.8572    161.6423    212.5661   9.9174719577e+01   7.4542765631e+00    0.2323344    0.1951996 -88.06  0.000732199    1.551    0.355
       111  -8.1399    106.5187    212.7496   1.1039083518e+02   1.6684766103e+01    0.1628299      0.11444 -88.08 0.0009239926    1.603    0.376
       112  -9.0459    204.3432    211.0670   9.0591083082e+01   2.8455532391e-01    0.2550137    0.2259616 -64.87 0.0007803064    1.638    0.390
       113  -9.4960    175.5434    210.1310   9.6014998789e+01   5.4210441812e+00    0.4339263    0.2850606  71.01  0.001517247    2.743    0.635
       114  -8.4247    192.2822    210.6104   9.2817206542e+01   2.4212242175e+00    0.2097317    0.1587316 -52.15  0.000768069    1.714    0.417
       115  -8.8089    147.9402    210.5266   1.0163227897e+02   1.0194834958e+01    0.2736346     0.197263  71.38 0.0009043153    1.756    0.431
       116  -8.9553    116.1845    210.3264   1.0811159085e+02   1.5598896364e+01     0.301457    0.2007273  80.09 0.0009792224    1.866    0.464
       117  -8.4471      5.4975    207.5092   1.2944540576e+02   3.0350382570e+01    0.1959529   0.07529361  85.66  0.001029837    2.325    0.570
       118  -8.3841     85.7815    209.4633   1.1422242909e+02   2.0472341722e+01    0.3400234    0.1754988  75.51   0.00153181    2.659    0.624
       119  -8.3215     46.8424    210.1116   1.2198042614e+02   2.5505853047e+01    0.3114005   0.08515416  55.34  0.001199042    3.741    0.733
       120  -9.6071    246.4069    207.3456   8.2328356732e+01  -6.0139397980e+00     0.272396    0.1903839 -26.37 0.0006433049    1.421    0.296
       121  -9.4139    250.1105    202.2637   8.0762049906e+01  -5.9247274037e+00    0.3437294    0.1659495 -34.27  0.001139329    2.074    0.518
       122 -10.5837    247.0796    195.9720   8.0101207536e+01  -4.6254450282e+00    0.3238212    0.2760617 -58.54 0.0003604127    1.941    0.485
       123  -9.0071    236.3278    208.3120   8.4256695490e+01  -4.5779014282e+00    0.2580093    0.2074583 -46.62  0.001078933    1.777    0.437
       124  -8.8260    139.2467    208.1100   1.0305489744e+02   1.2135675235e+01    0.2599344    0.1869469  86.57 0.0007647818    1.891    0.471
       125  -8.1686    126.6295    208.5468   1.0572077626e+02   1.4205958052e+01    0.2138324    0.1525523  87.39 0.0008492647    1.767    0.434
       126  -8.0333    156.5031    208.0321   9.9506953326e+01   9.1340155302e+00    0.1779187    0.1338064 -54.43 0.0006610714    1.559    0.359
       127  -9.2372     99.3028    206.0938   1.1106214396e+02   1.9107072435e+01    0.3558456    0.2138716  80.49  0.001305822    2.116    0.528
       128  -8.6097     11.9763    206.9916   1.2826244458e+02   2.9851552951e+01    0.1332572   0.09665418  72.13 0.0004892242    1.050    0.047
       129  -8.6019     56.4992    205.5885   1.1971793409e+02   2.5236034906e+01     0.312544    0.1390752  60.86   0.00124602    2.218    0.549
       130  -9.2652    195.0982    203.7465   9.1087196367e+01   2.9959164573e+00    0.3152663    0.2757015 -70.91  0.001354348    1.620    0.383
       131  -9.3110    192.4066    197.3158   9.0468174069e+01   4.5042207732e+00    0.3440846    0.2672521 -57.80  0.001221105    1.721    0.419
       132  -8.9172    183.7381    204.0316   9.3367157542e+01   4.9649446904e+00    0.3077407    0.2092617  60.95 0.0009036192    1.971    0.493
       133  -8.6701    131.3411    204.0376   1.0410092803e+02   1.4255243424e+01    0.3100368    0.2065583  84.00 0.0009870646    2.158    0.537
       134  -8.1783    109.0883    205.1223   1.0890501357e+02   1.7753269021e+01    0.2113901    0.1377837  70.13 0.0009482926    1.702    0.412
       135  -9.5683    163.7216    203.1435   9.7250129470e+01   8.7029362669e+00    0.3743235    0.2559662  61.53 0.0009416783    1.780    0.438
       136  -7.7622     66.6830    203.3391   1.1746279770e+02   2.4376472752e+01    0.1332607   0.07651374  68.65 0.0007048701    1.705    0.414
       137  -9.2819    242.9705    200.7358   8.1705109563e+01  -4.6164300506e+00    0.3060517     0.170502 -36.05  0.001123249    1.885    0.470
       138  -8.5124    210.9107    201.9259   8.7734042962e+01   5.1700583291e-01    0.2110171    0.1769971 -37.98 0.0007309979    1.398    0.284
       139  -8.7372    140.4074    201.0941   1.0175932160e+02   1.3232571777e+01    0.2940207    0.2077182  83.51  0.001199914    1.976    0.494
       140  -8.4799     80.0415    201.3246   1.1450652366e+02   2.2944424292e+01    0.3230076    0.1712068  71.39  0.001526481    2.267    0.559
       141  -7.9929    221.9951    201.3251   8.5562100466e+01  -1.2810874672e+00    0.1800676    0.1493127  20.07 0.0005279436    1.056    0.053
       142  -9.1801    236.8837    198.4928   8.2352574659e+01  -3.3397327567e+00    0.2947786    0.1930327 -40.86  0.001252378    1.804    0.446
       143  -9.3290    149.5967    198.6377   9.9442256778e+01   1.2054394584e+01    0.4153959    0.2828189  87.28  0.001472335    2.410    0.585
       144  -9.0832    123.9342    199.2540   1.0496819543e+02   1.6444714146e+01    0.3104878    0.2169695  88.56  0.001341685    1.827    0.453
       145  -9.3203    112.7848    198.3797   1.0722187458e+02   1.8489163138e+01    0.3862726    0.2348171  69.87  0.001517398    2.041    0.510
       146  -9.1995     88.7387    198.1723   1.1231718756e+02   2.2320961458e+01    0.4575521    0.2496675 -79.26  0.001957533    2.155    0.536
       147  -8.7541    176.8701    198.7940   9.3837415961e+01   7.0757890247e+00    0.2376791    0.1874397 -59.64 0.0005857376    1.609    0.379
       148  -8.0445    100.3226    199.3400   1.1000486241e+02   2.0303608747e+01    0.1214961    0.1043835 -14.89 0.0007050725    1.722    0.419
       149  -9.2266    215.9913    196.7287   8.5824237680e+01   4.1788411920e-01    0.3583914    0.2076458 -40.87  0.001431964    1.921    0.479
       150  -8.3125    202.4796    198.1389   8.8652398559e+01   2.5702463626e+00    0.2011772    0.1771381  53.25 0.0007627643    1.364    0.267
       151  -9.3016     61.6047    197.1486   1.1789159364e+02   2.6327172767e+01    0.3893146     0.185053  70.33  0.001414683    2.518    0.603
       152  -8.3114     12.4886    197.9972   1.2765971487e+02   3.1604602559e+01    0.1653318   0.06530191  75.81 0.0006855158    2.482    0.597
       153  -7.9365     29.3722    197.7089   1.2441831266e+02   2.9990413729e+01    0.1261475   0.06431168  64.51 0.0004749214    1.724    0.420
       154  -8.3042    133.0440    196.0479   1.0254351382e+02   1.5493750836e+01    0.2147059    0.1539896  73.59 0.0006498595    1.684    0.406
       155  -8.7500    224.5126    194.1473   8.3760729449e+01  -6.6356632318e-01    0.2703341    0.1954379 -52.11  0.001190172    1.983    0.496
       156  -8.8275    185.2742    194.8716   9.1446645074e+01   6.2063445608e+00    0.2241918    0.2008261 -89.63 0.0006442969    1.485    0.327
       157  -9.1301    161.1758    194.5995   9.6343539547e+01   1.0689625864e+01      0.29927    0.2121965  64.46 0.0008311943    1.747    0.428
       158  -9.0933     44.0875    193.8080   1.2117771634e+02   2.9180245400e+01    0.4250056    0.1841931  67.95  0.001871784    2.599    0.615
       159  -8.2528    230.8666    194.1518   8.2607149803e+01  -1.7381256052e+00    0.1833698    0.1687871  -7.44 0.0005301026    1.225    0.184
       160  -8.9404     77.0300    193.8440   1.1429865514e+02   2.4931623939e+01    0.2512166    0.1737286  79.54 0.0005168178    1.404    0.288
       161  -8.6965    172.4370    191.9594   9.3539538902e+01   9.0817213339e+00    0.2918666    0.2249218  89.07  0.001486233    1.979    0.495
       162  -7.8897    205.3526    191.7452   8.6911661137e+01   3.0661308544e+00    0.1750397    0.1206264 -24.49 0.0003136235    1.541    0.351
       163  -8.1081    198.9826    191.9659   8.8191710033e+01   4.1832088762e+00    0.1931132    0.1685221  82.12 0.0005769384    1.644    0.392
       164  -8.1702    179.0248    191.9625   9.2186413642e+01   7.8572584252e+00    0.2048698    0.1668678  75.24 0.0005520172    1.664    0.399
       165  -9.1880    139.5781    190.9326   1.0032563418e+02   1.5328182208e+01    0.3679914    0.2421693  75.58   0.00114772    2.232    0.552
       166 -10.4979     92.2739    188.7627   1.1037063990e+02   2.3757884403e+01    0.9510207     0.285215  50.46  0.003271976    3.588    0.721
       167  -8.6115     21.4039    191.3865   1.2553020679e+02   3.2114246526e+01    0.2667004   0.08364805  57.84  0.001163596    3.125    0.680
       168  -8.4786    148.4693    189.2977   9.8134878205e+01   1.4023574820e+01     0.231133    0.1923641 -89.94  0.000714156    1.442    0.306
       169  -8.3701    237.2330    188.4478   8.0374409581e+01  -1.9841634010e+00    0.2334338    0.1595953 -26.36 0.0006044991    1.403    0.287
       170  -9.0992    216.5977    187.7565   8.4006480696e+01   1.6799481214e+00    0.3351757    0.2069014 -32.03 0.0009296195    1.651    0.394
       171  -9.3421    155.9774    187.6002   9.6229968654e+01   1.2955133366e+01    0.3462843    0.2231729 -61.35   0.00100109    1.955    0.488
       172  -8.8722    129.2775    188.6526   1.0220139505e+02   1.7624928607e+01    0.2914093    0.2017397  70.89  0.001196459    1.740    0.425
       173  -9.8152    120.9223    186.8209   1.0375516630e+02   1.9464505824e+01    0.5312324    0.2907769 -75.63  0.002170639    2.815    0.645
       174  -8.6320     34.3771    188.5284   1.2271530030e+02   3.1384713346e+01    0.2775616    0.1351602  70.38  0.001148599    2.032    0.508
       175  -7.7423    242.6990    188.3203   7.9390629449e+01  -2.8700163306e+00    0.1117369    0.1044296 -61.68 0.0007025179    1.625    0.385
       176  -8.8356    191.5651    187.4298   8.8808337265e+01   6.3027054806e+00    0.2717589    0.2182313 -87.22  0.001240275    1.972    0.493
       177  -9.3509    109.6799    186.2868   1.0617114506e+02   2.1489854819e+01    0.3818226    0.2379632  73.92  0.001088073    2.066    0.516
       178  -9.1437     54.6373    186.7705   1.1831893753e+02   2.9421991435e+01    0.4059246    0.1970134  75.83  0.001850479    2.504    0.601
       179  -8.2892    230.4816    187.1729   8.1333415304e+01  -6.5675979076e-01    0.1902745    0.1807422  34.61 0.0007723097    1.333    0.250
       180  -8.6400    164.8125    186.9213   9.4229259903e+01   1.1424386938e+01    0.2377828    0.1953715 -79.54 0.0007325277    1.584    0.369
       181  -8.6742    249.4654    185.6585   7.7707391057e+01  -3.5974900422e+00    0.2305956    0.1942899 -32.00 0.0009183823    1.369    0.270
       182  -8.7133    210.1544    184.1998   8.4538321327e+01   3.4025578078e+00    0.2583196    0.1852092 -39.72 0.0005443955    1.508    0.337
       183  -8.5759    202.8096    184.7365   8.6065531929e+01   4.6647965370e+00    0.2422201    0.1879485 -48.81 0.0006180228    1.550    0.355
       184  -8.7163    182.9163    185.0693   9.0115039824e+01   8.3357757015e+00    0.2062593    0.1865728  74.38 0.0005832055    1.359    0.264
       185  -8.4970    137.6134    185.1789   9.9801435138e+01   1.6824691982e+01     0.226221    0.1733885  53.04 0.0004568542    1.232    0.188
       186  -9.0402     66.7934    184.6876   1.1546773985e+02   2.8309569306e+01    0.3628806    0.1871884  61.40  0.001033398    2.009    0.502
       187  -8.4798    224.0369    183.8060   8.1849466217e+01   9.7041294227e-01    0.2218312    0.1772664 -22.72 0.0005776651    1.219    0.180
       188  -8.2828    197.1079    183.6937   8.6987072483e+01   5.8996136178e+00    0.2239164    0.1876794 -48.07 0.0007118112    1.400    0.286
       189  -8.9782    174.2092    183.4153   9.1606959613e+01   1.0287267566e+01    0.2876329    0.2226351 -59.07 0.0009551338    1.576    0.365
       190  -8.9081    241.1774    181.8322   7.8381392490e+01  -1.6912195595e+00    0.3489919    0.2499401 -64.10  0.001687848    2.845    0.648
       191  -8.8393     44.5034    182.6059   1.2007667637e+02   3.1536887648e+01    0.3118501    0.1685524  70.78  0.001018393    1.844    0.458
       192  -8.1707     19.7095    182.9528   1.2527369805e+02   3.4059430589e+01     0.222778   0.07005944  60.66 0.0008987178    3.557    0.719
       193  -8.2364      2.0998    183.6803   1.2880864123e+02   3.5463605308e+01    0.1912803    0.0714891  41.74  0.001054858    2.396    0.583
       194  -9.5078    147.4634    180.6870   9.6854519532e+01   1.5896123988e+01    0.3510951    0.2724628 -84.15  0.001149292    1.653    0.395
       195  -8.7425     27.2183    181.2542   1.2360332897e+02   3.3690931774e+01    0.3071619    0.1392401  64.93  0.001558341    2.177    0.541
       196  -8.7048     24.2248    176.4735   1.2384744907e+02   3.5024449078e+01    0.3164991    0.1352857 -88.67  0.001439648    2.265    0.559
       197  -8.5664    137.6349    179.3260   9.8795332398e+01   1.8006306343e+01    0.2967637    0.2112801  72.90  0.001062681    1.769    0.435
       198  -9.3400    191.4717    178.4290   8.7088431133e+01   7.8731058603e+00     0.285797    0.2519571  83.71 0.0005087764    1.514    0.340
       199  -8.1200    169.2126    178.6734   9.1765982384e+01   1.2126140751e+01    0.2145768    0.1664204  57.43 0.0005883891    1.401    0.286
       200  -8.5898     36.6605    177.9824   1.2132869451e+02   3.3422351414e+01    0.3461393    0.1519962  79.31  0.001518763    2.776    0.640
       201  -8.2053     34.6775    174.3606   1.2142728986e+02   3.4432506992e+01    0.1759332    0.1027196  85.69 0.0008858262    1.555    0.357
       202  -9.5375    248.4143    176.7621   7.6120315868e+01  -2.1694330398e+00    0.3963156    0.2822864 -50.46  0.001809468    1.983    0.496
       203  -8.6204    250.5191    172.9066   7.4984486819e+01  -1.9645017060e+00    0.2041523    0.1690059   2.22 0.0004495026    1.046    0.044
       204  -8.5912    231.1370    177.2249   7.9240543486e+01   7.2354159172e-01    0.2678546      0.17441 -37.41 0.0007464174    1.578    0.366
       205  -8.5334    217.6225    177.4406   8.1775578874e+01   3.1214085216e+00    0.2414543    0.1969816 -58.70  0.000828414    1.700    0.412
       206  -8.8478    205.0111    177.5671   8.4221378785e+01   5.4454553154e+00    0.2508712    0.1910725 -51.37 0.0007102866    1.615    0.381
       207  -8.9502    129.1812    177.4711   1.0037846488e+02   1.9941788622e+01    0.3188223    0.2201901 -80.48 0.0009960529    1.885    0.470
       208  -9.1920    183.0838    175.9818   8.8325102713e+01   9.9305382852e+00    0.3262308    0.2263332 -51.34 0.0007241628    1.672    0.402
       209  -8.1850     97.5109    177.5139   1.0762840253e+02   2.5368354840e+01    0.2197177    0.1323892  27.69 0.0008121718    2.116    0.528
       210  -8.6982     89.0257    176.7507   1.0946736946e+02   2.6866784808e+01    0.2883357    0.1789951  79.43 0.0009746069    1.953    0.488
       211  -9.1797     58.9997    175.9997   1.1621015674e+02   3.1245505035e+01    0.4284835    0.1835856  59.68  0.001616653    2.708    0.631
       212  -9.5492     55.9950    171.4839   1.1637471118e+02   3.2637080154e+01    0.4661319    0.2268524  81.19  0.001972361    2.766    0.638
       213  -8.6383     12.8714    176.7300   1.2622703898e+02   3.6018813823e+01    0.2343978    0.1069878  73.90  0.001080826    2.083    0.520
       214  -8.0588    211.5040    176.4763   8.2744179112e+01   4.4091820334e+00    0.1381696    0.1243061  10.28 1.978407e-05    1.024    0.023
       215  -9.3231    158.6512    174.9825   9.3345615883e+01   1.4884208667e+01    0.3226408    0.2433349 -76.26  0.000834213    1.791    0.442
       216  -9.6003    104.1700    174.5894   1.0564898059e+02   2.4924515637e+01    0.5041465    0.3180119  80.00  0.001631022    2.108    0.526
       217 -10.7727     75.7933    170.9473   1.1173315097e+02   3.0124343856e+01     1.089564     0.485321 -84.52  0.003727188    4.000    0.750
       218  -9.5313     74.3528    160.3159   1.1059231992e+02   3.2766506691e+01    0.2972319    0.2027996   3.11  0.001356094    2.763    0.638
       219  -8.3384    224.1819    174.6282   7.9982286158e+01   2.3718435626e+00    0.2244081    0.1771335 -38.63 0.0005143342    1.376    0.273
       220  -9.5375    175.7951    171.9446   8.9053395368e+01   1.2106616046e+01    0.4022893    0.2409583 -41.82   0.00106535    1.763    0.433
       221  -8.5078    142.8853    172.4129   9.6373122175e+01   1.8439872734e+01    0.2576267    0.1892243 -83.59 0.0007401112    1.827    0.453
       222  -8.9253    134.8953    171.5420   9.8031972462e+01   2.0132246127e+01    0.3094185    0.2087712 -60.93  0.001046761    1.633    0.388
       223  -9.6955    121.4022    170.4356   1.0095408440e+02   2.2848900128e+01    0.4504319    0.2910648 -77.18  0.001088403    2.009    0.502
       224  -8.9720     45.1659    171.1254   1.1878976053e+02   3.4005679331e+01    0.3438583    0.1819376  85.98  0.001233589    1.989    0.497
       225  -8.5657    205.8484    170.4892   8.2617698549e+01   6.4837195716e+00    0.2640199    0.1789901 -53.10 0.0007583595    1.889    0.471
       226  -8.2995    237.1919    169.8300   7.6649072582e+01   7.8366318224e-01     0.189402     0.177268 -20.88 0.0006506131    1.230    0.187
       227  -8.8678    230.2141    169.2864   7.7781453306e+01   2.1180587299e+00        0.395    0.1955546 -45.16  0.001713334    2.372    0.578
       228  -8.2388    198.6987    170.2061   8.3974207078e+01   7.9172492484e+00    0.2102923    0.1805838 -62.07  0.000822936    1.480    0.325
       229  -9.1979    167.0666    168.6540   9.0272740879e+01   1.4468980410e+01     0.372706    0.2534879  66.93  0.001127201    2.024    0.506
       230  -8.7359    149.9449    169.4795   9.4227606299e+01   1.7681204858e+01    0.2966117    0.2050837 -62.14 0.0009836245    1.703    0.413
       231  -8.1811    244.3947    169.2542   7.5277418345e+01  -3.8863256971e-01    0.1796938    0.1147597 -39.80 0.0004479983    1.642    0.391
       232  -8.6369     88.7385    168.9314   1.0840318858e+02   2.8661808918e+01    0.2505705    0.1738161 -87.66 0.0007803722    1.546    0.353
       233  -8.3087    218.8072    168.2882   7.9674807249e+01   4.3859925700e+00    0.1912948      0.18543  16.03 0.0005256978    1.191    0.160
       234  -7.9871    211.4714    168.0373   8.1017051108e+01   5.8203295559e+00    0.2109583    0.1338167 -37.11 0.0006803044    1.588    0.370
       235  -9.0454    192.0444    166.9152   8.4638695641e+01   9.8129641772e+00    0.3103684    0.2253208 -52.16 0.0007303064    1.617    0.382
       236  -9.0026    111.6776    167.4973   1.0273429254e+02   2.5214548590e+01     0.366548    0.2267844  77.98  0.001357061    2.379    0.580
       237  -8.7600    185.1738    166.6180   8.5995765374e+01   1.1237146395e+01    0.2816081    0.2248036 -73.89 0.0009540334    1.747    0.428
       238 -10.1034     94.9889    162.6384   1.0592875127e+02   2.9108047888e+01    0.9304937    0.5077029  82.26  0.003368302    3.395    0.705
       239  -8.9628     20.5195    166.2122   1.2380481803e+02   3.7633649167e+01    0.3159627    0.1291004  60.86  0.001104025    2.556    0.609
       240  -8.4637    140.6506    166.3156   9.5737946705e+01   2.0139535315e+01    0.2358891    0.1712882  59.29 0.0007936735    1.465    0.318
       241  -9.8657    135.6258    163.9321   9.6448267069e+01   2.1610783429e+01    0.4494296    0.3520087  73.43 0.0009539367    1.468    0.319
       242  -8.2768    233.8658    164.9389   7.6218546305e+01   2.1377272710e+00    0.2386644    0.1710224 -37.08 0.0007634505    1.411    0.291
       243  -8.6391    159.5247    164.4815   9.1096318297e+01   1.6803167339e+01    0.2719217    0.2276951  79.05 0.0006798323    1.440    0.306
       244  -9.3620     33.2248    163.2054   1.2069013660e+02   3.7083897852e+01     0.469855    0.2000583  62.45  0.002092716    2.688    0.628
       245  -8.0414    239.9478    164.1999   7.4993796187e+01   1.1578524184e+00    0.1889437    0.1796658 -33.68 0.0005998507    1.291    0.226
       246  -8.6304    212.9180    163.6644   7.9818405549e+01   6.2815131817e+00      0.25853    0.1952419 -40.59 0.0005188905    1.390    0.280
       247  -8.2789     57.2788    163.9758   1.1518292360e+02   3.4189239920e+01    0.3101661    0.1796784  11.69  0.001317564    3.512    0.715
       248  -9.8364    246.1106    162.9070   7.3664397394e+01   2.6647093377e-01    0.4712386    0.1745484 -38.44  0.001903214    2.585    0.613
       249  -9.9538    250.1613    157.7778   7.1903711815e+01   3.3256363174e-01    0.3732744    0.1715658 -34.20 0.0008511618    1.984    0.496
       250  -9.0943    246.5582    155.5286   7.2026214495e+01   1.3119123169e+00    0.3339056    0.1947451 -18.82  0.001159429    1.827    0.453
       251  -8.4893    204.8593    163.0451   8.1251713612e+01   7.9632485454e+00    0.2080358    0.1942269 -64.61 0.0005309219    1.318    0.241
       252  -9.2768      3.4045    162.4334   1.2721891643e+02   3.9900597487e+01    0.3556029    0.1430794  56.90  0.001540995    2.375    0.579
       253  -9.0567    151.7523    161.2697   9.2200534900e+01   1.9015380451e+01     0.342943    0.2543448  88.20  0.001159814    1.915    0.478
       254  -7.7190    222.2764    161.6665   7.7629356871e+01   4.8196934603e+00    0.1300403    0.1114978 -65.34 0.0001897625    1.603    0.376
       255  -9.0469    177.4234    160.6021   8.6375621245e+01   1.3942332492e+01    0.2899097    0.2451126 -79.59 0.0009095403    1.522    0.343
       256  -8.5624     60.7145    160.3505   1.1390284110e+02   3.4593228731e+01    0.3190576     0.176948  66.90   0.00136279    2.061    0.515
       257  -8.5112    227.3815    159.1883   7.6162045010e+01   4.2587648810e+00     0.251352     0.200335 -59.11 0.0008106538    1.712    0.416
       258  -8.3861    128.1287    159.2150   9.7316459126e+01   2.4060249520e+01    0.2661127    0.1870151 -88.41 0.0007428614    1.943    0.485
       259  -9.7802    105.9058    158.1133   1.0249923849e+02   2.8324525869e+01     0.495314    0.3275292  78.29  0.001154286    1.980    0.495
       260  -8.2727    237.3539    159.1622   7.4379540199e+01   2.4100660489e+00    0.1893971    0.1165728 -41.19 0.0004608715    1.680    0.405
       261  -8.5597    196.3735    157.8329   8.1827257527e+01   1.0593556408e+01    0.2521497    0.2156057 -65.34 0.0007415906    1.469    0.319
       262  -8.0698    188.2626    157.7709   8.3479719242e+01   1.2260927295e+01    0.2537878    0.1750745 -43.69 0.0007908324    1.509    0.337
       263  -9.0944    167.5930    157.4113   8.7839571412e+01   1.6585882633e+01    0.3317865    0.2684216 -87.46  0.001151385    1.643    0.391
       264  -8.4940     79.7897    158.5633   1.0900105637e+02   3.2390060678e+01    0.1968678    0.1803571  69.40  0.001195995    1.092    0.085
       265  -9.3521     81.8278    155.1304   1.0796264882e+02   3.2888701683e+01    0.5015903    0.2699302  66.82  0.001473022    2.548    0.607
       266  -8.4998    217.9811    156.5251   7.7322335719e+01   6.5079814359e+00    0.2731634    0.1858069 -49.80 0.0009650404    1.746    0.427
       267  -9.1325    157.5569    155.9697   8.9784384226e+01   1.8938960513e+01    0.3126479    0.2463223 -67.06 0.0009272373    1.500    0.333
       268  -9.4988    119.6081    155.4782   9.8659323045e+01   2.6480888334e+01    0.4296313    0.2829354 -89.51  0.001570961    2.235    0.552
       269  -9.2486     49.7691    155.5220   1.1593658592e+02   3.7051736614e+01    0.4203197    0.2019884  63.74  0.001546849    2.538    0.606
       270  -8.7735    144.6594    154.9671   9.2553242694e+01   2.1762577345e+01    0.3396665    0.2468282  74.73   0.00105213    1.815    0.449
       271  -8.3679     23.3481    156.2200   1.2228431544e+02   3.9623024551e+01     0.228269    0.1246519 -27.27  0.000963971    4.343    0.770
       272  -9.5313    242.9333    155.0095   7.2527541289e+01   2.0445949754e+00    0.1929321      0.16407 -15.31 0.0004397402    1.043    0.041
       273  -8.0393    204.7675    155.2182   7.9579100395e+01   9.3633065873e+00     0.222021    0.1768902 -52.30 0.0006902428    1.461    0.316
       274  -9.7289    132.9113    153.0268   9.4948680992e+01   2.4505224944e+01    0.4796098    0.3411987  80.67  0.001384899    1.927    0.481
       275  -9.5656    133.5045    148.5163   9.3877365939e+01   2.5385095184e+01    0.4681456    0.2388072 -47.51  0.001808254    1.997    0.499
       276  -9.4713     68.0899    153.7149   1.1117620482e+02   3.5174261380e+01    0.4744047    0.2624239  74.80  0.001496774    2.429    0.588
       277  -8.3356    232.6353    153.8305   7.4060899796e+01   4.1377089163e+00    0.1949421    0.1199313 -42.24 0.0005670651    1.684    0.406
       278  -9.1177    152.0911    152.6019   9.0325603168e+01   2.0759979944e+01    0.2773903    0.2197214 -49.22 0.0009936414    1.304    0.233
       279 -10.4573     54.8397    144.2271   1.1316450413e+02   3.9111364789e+01    0.9549132    0.4594892  81.64   0.00313959    3.589    0.721
       280  -8.6033     20.1588    152.8157   1.2270602709e+02   4.0682204713e+01    0.1843749    0.1294294  76.78 0.0006380174    1.250    0.200
       281  -8.7905     98.2947    150.8632   1.0310138029e+02   3.1284621881e+01    0.3301556    0.2142266 -85.17   0.00141028    1.957    0.489
       282  -9.6940     29.3811    150.7672   1.2032037024e+02   4.0311192397e+01    0.4290475     0.207256  73.61  0.001767638    2.423    0.587
       283  -8.6321      2.7451    150.6619   1.2651795754e+02   4.2549266553e+01    0.3951831    0.1167455 -80.31  0.001698378    2.827    0.646
       284  -9.7304    248.8626    149.4210   7.0328818982e+01   1.8397363981e+00    0.3649273    0.1877157 -33.94 0.0007610782    1.761    0.432
       285  -9.2104    243.2360    150.2468   7.1446569267e+01   2.7349520636e+00    0.3008499    0.1622504 -34.67  0.001201296    1.705    0.414
       286  -8.7743    189.4372    150.5211   8.1642878043e+01   1.3382920614e+01    0.2884851    0.2405766 -66.27 0.0007582991    1.488    0.328
       287  -8.0400    182.2088    151.2388   8.3323759169e+01   1.4760814165e+01    0.2015509     0.178768 -82.95 0.0006777429    1.385    0.278
       288  -8.4371    162.6082    150.6675   8.7501469458e+01   1.8987103791e+01    0.2990717    0.1848856 -52.63 0.0008821421    1.774    0.436
       289  -8.6999    238.3358    150.1545   7.2262571805e+01   3.6581923869e+00    0.3216196    0.1439529  33.60  0.001267261    2.713    0.631
       290  -8.3334    213.0102    149.9902   7.6823637097e+01   8.6208049992e+00     0.217998    0.2025327  -5.15 0.0004621331    1.022    0.022
       291 -10.0995     89.1812    146.4322   1.0463672823e+02   3.3803308956e+01    0.6907911    0.3798018  89.82     0.002492    3.273    0.694
       292  -8.5126    198.8548    149.0991   7.9397938077e+01   1.1682779538e+01    0.2185452    0.2006889 -73.06 0.0006265991    1.319    0.242
       293  -8.4249    120.5278    148.9720   9.7161680512e+01   2.7779112325e+01    0.2063282     0.124193 -31.13 0.0008088274    2.448    0.591
       294  -8.5878     56.9823    135.4790   1.1129237677e+02   4.0940128459e+01    0.2206446     0.180442  24.43 0.0008261107    1.502    0.334
       295  -9.6934     39.7033    147.9359   1.1748069359e+02   3.9938092556e+01    0.4685563    0.2137044  63.82  0.001817092    2.791    0.642
       296  -9.2061    233.7059    147.5942   7.2503853168e+01   4.9487500270e+00    0.2823206    0.2131212 -23.84 0.0008207303    1.233    0.189
       297 -10.4193    106.7929    144.3457   9.9712202806e+01   3.1344047050e+01    0.8464005    0.5189581  83.87  0.002346295    2.749    0.636
       298  -8.9608     78.1424    147.1068   1.0759846334e+02   3.5322308168e+01     0.345375     0.215141  87.99 0.0009535457    2.003    0.501
       299  -8.2989    223.2982    146.9716   7.4227461806e+01   7.0816774279e+00    0.2001318    0.1717991 -24.49 0.0003539083    1.097    0.088
       300 -10.2849    148.9521    144.9611   8.9405268814e+01   2.3032375484e+01     0.566987    0.3914908 -84.21  0.001553112    2.306    0.566
       301 -10.1908    139.0456    144.8724   9.1757217956e+01   2.5082360100e+01    0.6493823    0.3537646 -66.72  0.002027186    2.853    0.650
       302  -9.0809     13.2314    146.1648   1.2372291546e+02   4.2773821104e+01    0.3603871    0.1640391  68.73  0.001224446    2.425    0.588
       303  -9.1594    240.2681    145.4130   7.0889761437e+01   4.0547778058e+00    0.2569315    0.1729845 -33.12  0.000696344    1.367    0.269
       304  -8.2992    175.4574    146.2956   8.3672674925e+01   1.7158720042e+01    0.2384267    0.1854028  70.35 0.0005999269    1.622    0.384
       305  -9.9908    125.0852    142.8112   9.4756601019e+01   2.8307896741e+01    0.5694456    0.3764333 -83.56  0.001542093    2.286    0.562
       306  -8.3538    250.4940    140.9988   6.8224282379e+01   2.8508372483e+00    0.1991751    0.1580816 -26.05  0.000451882    1.115    0.103
       307  -7.7975    194.3795    144.1778   7.9188902454e+01   1.3537343549e+01    0.2078559    0.1362683 -49.62  0.000462153    1.685    0.406
       308  -8.7971    165.5229    144.0637   8.5373075764e+01   1.9729100557e+01    0.2773887    0.2102792  63.84 0.0007704306    1.539    0.350
       309 -10.8300     69.4998    141.2437   1.0888570742e+02   3.7940051535e+01    0.6430222    0.3918073 -82.48  0.003054096    1.823    0.452
       310  -9.2885      2.5962    141.6731   1.2584895489e+02   4.4575203214e+01    0.3865504    0.1722231  81.21  0.001709264    2.230    0.552
       311  -7.5447    230.5009    142.4866   7.1927384980e+01   6.4132806657e+00     0.141331    0.1289066 -15.13 0.0008102514    1.038    0.036
       312  -8.4607    182.0193    141.9975   8.1271800331e+01   1.6601235315e+01    0.2331831    0.1890013 -83.65 0.0005876638    1.670    0.401
       313  -9.4743    242.6535    143.2829   7.0016419680e+01   3.9466016972e+00    0.2047338    0.1809305 -34.66 0.0006280704    1.177    0.150
       314  -9.8052     23.4399    138.3024   1.2043845542e+02   4.3744777615e+01    0.4941943    0.2277465  68.42  0.001989234    2.711    0.631
       315  -8.1517    206.7653    146.5557   7.7256828671e+01   1.0504923889e+01    0.1907458    0.1419467  56.97 0.0005624187    1.561    0.360
       316  -8.0902    218.6339    138.8390   7.3238627928e+01   9.4220546903e+00    0.2039051    0.1274999 -44.47 0.0004006436    1.651    0.394
       317  -8.4766    172.3953    138.4071   8.2531805761e+01   1.9401865839e+01     0.319563    0.2289167 -84.28 0.0007830164    2.263    0.558
       318  -8.2461    207.2097    137.9542   7.5194515974e+01   1.1964415590e+01     0.221911    0.1969684 -61.78  0.000693157    1.321    0.243
       319  -8.8832    197.4644    137.4065   7.6991645121e+01   1.4147824061e+01    0.3290588    0.2396901 -54.70 0.0009849427    1.596    0.373
       320  -8.9564    162.5238    136.3334   8.4271361809e+01   2.1974951097e+01    0.2685208    0.2151133 -67.19 0.0006688594    1.471    0.320
       321  -9.4201     39.3082    136.2679   1.1610411309e+02   4.2731270506e+01    0.2926712    0.1892951  76.75 0.0008420147    1.623    0.384
       322  -8.9449    250.7881    130.0204   6.5735576608e+01   4.5199605521e+00    0.4072096    0.1154787 -31.79   0.00130937    3.549    0.718
       323  -9.0874    248.5858    135.1371   6.7231360658e+01   4.1261272363e+00    0.3529886    0.1961422 -39.31 0.0008278891    1.674    0.403
       324  -8.5729    246.9750    130.3372   6.6410779524e+01   5.1952056632e+00    0.2355126    0.1696011 -38.19 0.0004706607    1.297    0.229
       325  -8.5948    151.5126    135.7693   8.6712148249e+01   2.4467304271e+01    0.3278176    0.1801358  33.83  0.001262729    2.119    0.528
       326  -8.9736    247.0989    143.8001   6.9392920863e+01   3.0370044348e+00    0.2534791    0.1754093 -25.17 0.0005104655    1.317    0.241
       327  -9.2007    113.1123    133.6212   9.5858126483e+01   3.2692143671e+01    0.4509628    0.2927883  72.35   0.00112884    2.219    0.549
       328 -10.3021     83.4297    132.9027   1.0366950260e+02   3.7917481514e+01    0.5537671    0.3300372 -74.64   0.00137761    1.926    0.481
       329  -8.0345    237.5864    133.8025   6.8738102732e+01   6.4569698386e+00    0.2020078    0.1205671 -43.74 0.0006666582    1.694    0.410
       330  -7.5503    231.4922    134.4836   6.9934934215e+01   7.5539893247e+00    0.1421061    0.1303034 -23.10 -1.816543e-05    1.057    0.054
       331  -8.5720    179.3372    133.8760   7.9939363852e+01   1.8789167401e+01    0.2816957    0.2269171 -68.68 0.0008622017    1.531    0.347
       332  -9.2576    142.9039    131.6641   8.7829241425e+01   2.7187542822e+01    0.3531553     0.275259 -76.66  0.000910448    1.583    0.368
       333 -10.5601    132.8263    131.5747   9.0317006202e+01   2.9302705596e+01    0.5650119    0.4018337  67.73  0.001286436    1.748    0.428
       334 -10.4723     98.0973    130.1924   9.9134108092e+01   3.6181786870e+01    0.7351896    0.3265427 -58.57  0.001607132    2.270    0.560
       335  -8.8238     98.8323    120.7875   9.6881342511e+01   3.8277016618e+01    0.4035476    0.2534067  -4.55  0.001362245    3.863    0.741
       336 -10.0026     73.0278    129.4143   1.0587091832e+02   4.0287880127e+01    0.4198714    0.2819673  88.63  0.001154839    1.792    0.442
       337  -9.9978     12.7318    128.2637   1.2209056158e+02   4.6930430601e+01    0.6774207    0.2674406 -86.49  0.002961606    2.646    0.622
       338  -7.6813    220.4926    130.4161   7.0938198413e+01   1.0504695050e+01    0.1448722    0.1348382  -9.72  0.000207529    1.016    0.016
       339  -8.1898    204.7256    130.5670   7.3932135404e+01   1.3844800666e+01    0.1959777    0.1466012  60.93 0.0009299107    1.568    0.362
       340  -7.9963    192.9599    130.3006   7.6213402316e+01   1.6474005215e+01    0.2029483    0.1925071  28.59 0.0003817238    1.056    0.053
       341  -9.1664    168.2993    129.5264   8.1327564909e+01   2.2114293401e+01    0.3122725    0.2534253 -74.91 0.0007938373    1.531    0.347
       342  -9.3341    152.9336    129.0624   8.4780467204e+01   2.5598512293e+01    0.4762668    0.2811297 -58.27 0.0009557019    2.058    0.514
       343  -8.2694    153.6243    123.6896   8.3296983544e+01   2.6594375419e+01    0.2542366     0.200695  20.31  0.001176859    1.502    0.334
       344  -8.0356      1.6768    130.2846   1.2510049148e+02   4.7216858621e+01    0.1172781   0.07137795  70.21 0.0004537041    1.598    0.374
       345  -8.0482    211.4480    129.1899   7.2317264657e+01   1.2642138341e+01    0.2116666    0.1333731 -47.73 0.0009355745    1.693    0.409
       346  -7.7459    186.5074    129.5513   7.7368357536e+01   1.8049941789e+01    0.1515073    0.1477997  -2.46 0.0003080287    1.011    0.011
       347 -10.7432     44.7891    123.4808   1.1275769704e+02   4.5212086168e+01     1.092002    0.5286348  78.40  0.003918448    3.918    0.745
       348 -10.5389     60.1249    125.2859   1.0873401300e+02   4.3002002039e+01    0.6655878    0.3776766  76.04  0.002396037    2.656    0.624
       349 -10.2124    117.9661    124.8586   9.2602192223e+01   3.3795317993e+01    0.6538122    0.4447007 -69.55  0.001410106    1.771    0.435
       350  -7.6841    228.4949    125.5026   6.8366281442e+01   9.6826315221e+00    0.1442982    0.1329909 -33.71 0.0008093208    1.083    0.076
       351  -8.9877    179.3310    124.9045   7.7754614201e+01   2.0573575383e+01    0.2826056    0.2541394  83.68 0.0007781363    1.280    0.219
       352 -10.1059    131.1440    118.9383   8.7708410584e+01   3.2481268661e+01    0.6372091    0.4182897  84.78  0.001990958    2.773    0.639
       353 -10.6361    133.4215    109.3074   8.4640409966e+01   3.4129514226e+01     1.100003    0.3645137 -48.95   0.00334796    3.163    0.684
       354 -10.4675    128.4143    102.2804   8.4066176173e+01   3.6737315916e+01    0.6100704     0.358234 -40.73  0.001882963    1.701    0.412
       355 -10.2536     28.4641    122.4794   1.1717198048e+02   4.7030680453e+01    0.6468048    0.3011315  77.44  0.002587636    3.346    0.701
       356  -7.6582    188.5315    124.4349   7.5691302086e+01   1.8588396166e+01    0.1507058    0.1487145 -36.13 0.0002140335    1.049    0.047
       357  -8.6518     84.7047    122.9047   1.0131599797e+02   4.0112230302e+01    0.4072842    0.2612396   9.30   0.00168843    2.692    0.629
       358  -9.0147    158.4946    121.4777   8.1589447823e+01   2.5977878724e+01    0.3766443    0.2777103 -71.23  0.001200033    1.779    0.438
       359  -9.6228     71.3613    120.1330   1.0456206957e+02   4.2754010113e+01      0.58488    0.3376914  75.29  0.002296658    2.930    0.659
       360  -7.9932    202.5590    122.0328   7.2281936467e+01   1.5894309867e+01    0.2296192     0.143611 -38.09 0.0003740919    1.543    0.352
       361  -8.0447    194.6384    121.8535   7.3803315207e+01   1.7704869919e+01    0.2222235    0.1353968 -48.19 0.0004493128    1.735    0.424
       362  -8.8118    171.9158    121.7096   7.8580160675e+01   2.2895772890e+01    0.2864295    0.2231902 -49.01 0.0005185832    1.315    0.240
       363 -10.2181    141.6671    118.0646   8.4806640940e+01   3.0430927810e+01    0.7120001    0.3797583 -50.99   0.00122609    1.955    0.488
       364  -9.4743      2.9997    117.3173   1.2350997602e+02   5.0101254751e+01     0.485748    0.2082155  74.23  0.002175089    3.020    0.669
       365  -8.0761    231.5689    117.7127   6.5999965113e+01   1.0361809099e+01     0.201524    0.1259073 -43.59 0.0005233934    1.558    0.358
       366 -10.2160    109.4843    113.5452   9.2191987266e+01   3.8029690827e+01    0.8090656    0.4124882 -57.35  0.002542412    2.106    0.525
       367  -7.8567    219.3931    116.2520   6.7740761011e+01   1.3216747460e+01    0.2142406    0.1294983 -44.11 0.0009452178    1.631    0.387
       368  -7.8819    185.6405    115.8829   7.4141892447e+01   2.0902782755e+01    0.2267424    0.1373312 -49.26 0.0006069323    1.759    0.432
       369  -8.8771     59.2600    115.1475   1.0712219579e+02   4.5548721933e+01    0.2948209    0.1979613 -24.16   0.00143019    2.117    0.528
       370  -9.3911    207.7655    114.6318   6.9454995103e+01   1.6082336917e+01    0.2585378    0.2411104 -25.36 0.0004220682    1.022    0.022
       371  -8.0816    193.1158    115.2379   7.2447545773e+01   1.9304650032e+01    0.2098805    0.1787076 -67.57 0.0004168661    1.357    0.263
       372  -7.9758    153.3200    115.6793   8.1335908506e+01   2.8363328022e+01    0.1605432    0.1262362 -85.19 0.0007043827    1.668    0.401
       373  -9.9924     78.9619    112.5683   1.0075367385e+02   4.3461032068e+01     0.546507    0.3542287 -89.50  0.001813601    2.257    0.557
       374  -8.5856     78.2917    105.3991   9.9322042842e+01   4.5259970923e+01    0.2757146    0.2167305 -26.88 0.0008588135    1.470    0.320
       375  -7.9253    167.4484    114.4985   7.7735954626e+01   2.5383686263e+01    0.1556153    0.1527495 -56.15 0.0002403954    1.036    0.035
       376  -9.9436    121.9935    112.4447   8.8485733680e+01   3.5824593945e+01    0.4625991    0.3767293 -61.95 0.0006326205    1.279    0.218
       377 -10.1029    119.7167    105.7787   8.7366596970e+01   3.7782501316e+01    0.4758702    0.3377201 -40.53  0.001894025    1.405    0.288
       378 -10.7213    109.0274     98.9551   8.8531785876e+01   4.1432280958e+01    0.9177735    0.5206855  66.88  0.001340691    3.365    0.703
       379  -8.9455    107.6128     92.6847   8.7196477996e+01   4.3094544827e+01    0.4757275    0.3189966  15.50  0.001992139    2.173    0.540
       380 -10.1310     92.6360    112.3113   9.6687456358e+01   4.1336740157e+01    0.5838897     0.349387 -68.49   0.00155524    2.008    0.502
       381  -8.8323     93.9493    104.5310   9.4406337976e+01   4.2928516215e+01    0.4046871    0.2256304  21.19  0.001525416    2.832    0.647
       382  -9.2317     28.4129    113.6996   1.1594241438e+02   4.9114107554e+01    0.3699437    0.1054931  27.43  0.001467457    3.918    0.745
       383  -9.8834     14.1134    111.2032   1.1971952778e+02   5.0802729012e+01    0.3622173    0.1987378  83.54  0.001404753    1.996    0.499
       384  -8.6502    174.7371    111.7441   7.5397040561e+01   2.4246149250e+01    0.3098881     0.205195 -49.63 0.0006420347    1.582    0.368
       385  -8.5977    159.1770    111.7119   7.8909471142e+01   2.7860878203e+01    0.2704907    0.2088104 -52.38 0.0005086974    1.347    0.257
       386 -10.1947     66.4411    110.0079   1.0394239170e+02   4.5853494692e+01    0.5998855    0.3074022 -61.08  0.002187825    1.784    0.440
       387 -11.1265    248.6788    105.3364   6.0392270231e+01   8.8614817790e+00    0.8379256    0.2987033 -33.77  0.003135556    2.523    0.604
       388  -8.2441    189.1226    107.8929   7.1360919680e+01   2.1624012244e+01    0.2395765    0.2080451 -65.34 0.0006321574    1.276    0.216
       389  -9.3158    139.8815    104.8393   8.1777261429e+01   3.3682196436e+01    0.3459764    0.2760283 -69.71 0.0007629384    1.478    0.323
       390 -10.5348     45.6925    102.4336   1.0879126620e+02   5.0143133739e+01    0.7829019    0.4307321  73.30  0.003175678    3.219    0.689
       391  -9.2033     45.2360     92.9443   1.0699748184e+02   5.2422971151e+01    0.3919075    0.2166429 -20.18  0.001655918    3.057    0.673
       392 -10.2802     23.4771    104.1333   1.1595951910e+02   5.1771889777e+01    0.5109337    0.2558201  50.61   0.00185157    2.471    0.595
       393  -9.8215     21.2470    100.2626   1.1603894406e+02   5.2847402660e+01    0.3547428    0.2218046  84.05  0.001378234    1.813    0.448
       394  -8.7197    166.8182    104.2161   7.5146932869e+01   2.7605634498e+01    0.3387105    0.2112854 -54.46 0.0007975761    1.836    0.455
       395  -9.5697    150.5322    103.1368   7.8662329821e+01   3.1628678563e+01    0.4757414    0.2996103 -61.07 0.0009736519    2.053    0.513
       396 -10.0024      6.7824    101.9898   1.2067089766e+02   5.3405082987e+01    0.5374988    0.1973528 -75.66  0.002461007    2.293    0.564
       397  -7.9436    175.7872    102.0414   7.2585255889e+01   2.5904993212e+01    0.2543377    0.1739375 -64.12 0.0007824282    1.907    0.476
       398  -9.3068     82.0983    100.0804   9.6870425723e+01   4.5917561430e+01    0.3984317     0.252021 -72.80 0.0008849896    2.036    0.509
       399  -8.3014    159.8403    101.1252   7.5896723270e+01   2.9871786960e+01    0.2429196    0.2102357 -64.42 0.0005338319    1.259    0.206
       400 -10.2353     63.8468     96.4393   1.0172907686e+02   4.9405296661e+01     0.654663    0.3854944 -75.51  0.002024215    2.222    0.550
       401  -9.4542     95.0377     97.2338   9.2188166050e+01   4.4412005156e+01     0.332107     0.255837 -65.09 0.0005429373    1.395    0.283
       402  -8.1791    151.3538     95.3040   7.6273045225e+01   3.3042516452e+01    0.1639426     0.125243  11.79 0.0007040365    1.710    0.415
       403  -8.1077    188.6020     93.7824   6.7702808136e+01   2.4383814415e+01     0.224171    0.1390233 -46.80 0.0006312162    1.637    0.389
       404  -8.2041    176.3007     93.3972   7.0103568817e+01   2.7438147698e+01    0.2674055    0.1831271 -57.47 0.0005742431    1.695    0.410
       405  -8.4023    164.8316     94.1495   7.2809555925e+01   3.0067217220e+01    0.2393648    0.2119594 -67.39 0.0004908266    1.227    0.185
       406  -9.1930    138.9622     92.2440   7.8469082071e+01   3.6531787419e+01    0.3628032    0.2798265 -82.33  0.000693775    1.754    0.430
       407 -10.2511    123.8750     91.2409   8.2172557274e+01   4.0077805322e+01    0.5352027    0.4683406  -1.63   0.00134352    1.279    0.218
       408  -8.5363    127.6177     83.7879   7.8937089243e+01   4.0807515033e+01    0.3098037     0.193663  21.16  0.001174808    2.422    0.587
       409  -9.5268      5.2422     92.2690   1.1983563132e+02   5.5720798963e+01    0.3383735    0.1891159  57.91  0.001326404    2.264    0.558
       410  -8.1652    157.9033     91.6194   7.3670976234e+01   3.2224785260e+01    0.2591837    0.1870836 -45.82 0.0003387188    1.392    0.282
       411  -9.6229     34.8209     89.8128   1.0979729445e+02   5.4168813490e+01    0.4700673    0.2542253 -84.62  0.001841519    2.573    0.611
       412  -9.2103     22.7370     90.3551   1.1390485460e+02   5.5038789784e+01    0.2904295    0.2006665 -36.60  0.001011215    1.520    0.342
       413  -8.4805    152.0317     90.0882   7.4611088006e+01   3.3925758939e+01    0.4857047    0.3040087 -79.10  0.001600693    3.356    0.702
       414 -10.0477     86.4479     86.1588   9.1796958963e+01   4.8373219130e+01    0.5709503    0.3972298 -68.68  0.001705705    1.792    0.442
       415  -8.7179     65.3235     87.3526   9.9007957455e+01   5.1305667692e+01    0.4549727    0.2552101   2.95  0.001666536    3.760    0.734
       416  -7.7531    179.5497     85.8006   6.7302315637e+01   2.8054501882e+01    0.2219637     0.140995 -48.84 0.0009309001    1.643    0.391
       417  -9.7758     48.3986     84.3740   1.0399156758e+02   5.4062471672e+01    0.4582923    0.2956414  81.01  0.001745375    2.552    0.608
       418  -9.8014    104.8762     83.2888   8.5257822717e+01   4.5653462011e+01    0.4574473    0.3300661 -75.02 0.0009807145    2.008    0.502
       419  -9.0725    104.8463     77.3800   8.3452435183e+01   4.6893105715e+01    0.4230182     0.252399  19.37  0.001614693    2.641    0.621
       420  -8.4059    158.0054     84.0404   7.1442387755e+01   3.3664826682e+01    0.2366885    0.2227446 -55.98 0.0004435565    1.084    0.078
       421  -9.0227    140.9267     83.0196   7.5237452599e+01   3.7934009798e+01    0.3431631    0.2217562 -49.31 0.0006705383    1.629    0.386
       422  -7.9929     35.4746     82.5018   1.0802920103e+02   5.5791195395e+01      0.13092    0.1066086 -52.61 0.0008099806    1.028    0.027
       423  -9.6880     24.6532     80.5597   1.1139006800e+02   5.7139200400e+01    0.4467867    0.2644725  84.59   0.00154765    2.482    0.597
       424  -9.5642      9.7712     81.0240   1.1661623813e+02   5.8023427676e+01    0.3052919    0.1797887  63.54  0.001207141    2.328    0.570
       425  -9.1318     43.2408    109.5033   1.1086475252e+02   4.8718180766e+01    0.2796826    0.1382537  22.86  0.001294067    2.591    0.614
       426  -8.6426    150.1020     80.5802   7.2254792542e+01   3.6232099006e+01    0.3047969    0.2123178 -54.02 0.0007936502    1.596    0.373
       427  -8.7391    119.6370     80.7690   8.0206943825e+01   4.3157364233e+01    0.2922752    0.2255683 -73.09 0.0008239081    1.711    0.415
       428  -8.8760     74.5254     80.3742   9.4035319328e+01   5.1550878547e+01    0.3222777      0.21047 -64.86 0.0008784632    1.802    0.445
       429  -8.4084    166.8197     79.4875   6.8142555099e+01   3.2351091517e+01    0.2799327    0.2104091 -37.78 0.0005856812    1.320    0.242
       430  -7.5243    184.2572     78.3610   6.4263515487e+01   2.8217207147e+01    0.1546553     0.121422   6.10 0.0004042617    1.624    0.384
       431  -9.6097    128.1014     75.6955   7.6300885558e+01   4.2306413058e+01    0.4962261    0.2787064 -52.51  0.001563261    2.088    0.521
       432  -9.8557     63.3917     73.8339   9.5969338070e+01   5.4577062684e+01    0.6610392     0.296452 -61.78  0.002504322    2.888    0.654
       433  -8.7911     63.7066     64.2746   9.2953420388e+01   5.6560642474e+01     0.495114    0.2507371 -24.08  0.001855069    3.216    0.689
       434  -7.7941    157.2973     76.6475   6.9395636907e+01   3.5218176082e+01    0.1624414    0.1219512 -70.03 0.0005553054    1.690    0.408
       435  -8.7963    140.3814     75.3638   7.3021655924e+01   3.9536398635e+01    0.2631605    0.2395761 -70.23 0.0006731817    1.210    0.174
       436  -8.2722    163.4737     73.4937   6.7078247953e+01   3.4260727442e+01    0.2680215     0.137387 -46.27 0.0008850177    2.058    0.514
       437  -9.7462     82.5672     71.2846   8.8603249257e+01   5.2216625791e+01     0.916571    0.3356029 -42.31  0.003051964    2.583    0.613
       438  -7.8960    151.4567     73.5081   6.9775834036e+01   3.7221138629e+01    0.1543673    0.1510415 -67.93 0.0001647814    1.051    0.049
       439  -8.9457    115.4923     73.0415   7.8944363148e+01   4.5584611515e+01    0.3308611    0.2446388 -39.06  0.001367367    1.319    0.242
       440  -8.3873    112.2797     73.3359   7.9966136866e+01   4.6202340398e+01    0.2263655    0.1533188  41.50 0.0002614445    1.513    0.339
       441  -8.7324     42.7609     72.5242   1.0302892250e+02   5.7325846593e+01    0.3134929    0.1575676 -60.20  0.001122919    1.828    0.453
       442  -7.9005    175.5028     72.5197   6.4292534787e+01   3.1421439084e+01    0.1521406    0.1513823 -71.28 -4.147887e-06    1.011    0.011
       443  -9.2192    105.8238     71.2583   8.1204026765e+01   4.7934715602e+01    0.4126686     0.200148 -45.26  0.001165016    2.039    0.510
       444  -9.3368     95.0628     71.0447   8.4458722433e+01   5.0059745296e+01    0.4266497    0.2218075 -54.46 0.0009394778    2.303    0.566
       445  -9.4224     97.7458     60.6512   8.0126217755e+01   5.1577467187e+01    0.3051303    0.3013922 -52.37  0.001027924    1.153    0.133
       446  -9.4612     51.4439     69.8236   9.9110215711e+01   5.6958701083e+01    0.4062502    0.2193122 -66.06  0.001466399    2.291    0.564
       447  -9.2911     29.8646     69.9729   1.0715625459e+02   5.9094478806e+01    0.4853604    0.2284683 -20.39  0.001954273    3.674    0.728
       448  -9.1466     16.7282     70.2328   1.1209803587e+02   6.0014184826e+01    0.2499273    0.1661418 -82.09  0.000999423    1.662    0.398
       449  -7.6478    157.2746     69.6908   6.7275011276e+01   3.6473533867e+01    0.1543469    0.1203762 -69.11 0.0002180936    1.551    0.355
       450  -8.8545    146.9985     68.1142   6.9132791515e+01   3.9278186080e+01    0.3412777    0.2131818 -44.43 0.0007221969    1.645    0.392
       451  -8.4951    208.2132     66.7834   5.6867901552e+01   2.4204362555e+01    0.2835611    0.1990171 -21.62 0.0007681823    1.593    0.372
       452  -9.1305    138.5404     66.1944   7.0561858727e+01   4.1656670583e+01    0.3569056    0.2277696 -57.58  0.001012938    2.007    0.502
       453  -8.8658    121.6283     66.1120   7.4952368995e+01   4.5571519626e+01    0.3237008    0.2394732 -62.71  0.000673682    1.727    0.421
       454  -7.4116    163.6823     65.6898   6.4659888370e+01   3.5563302968e+01    0.1584492    0.1197779  20.66 0.0005181979    1.639    0.390
       455  -9.0554    110.2189     63.8519   7.7434422963e+01   4.8457313021e+01    0.3108574    0.2453932 -60.15 0.0007141304    1.528    0.345
       456  -8.9320     37.4323     64.5559   1.0289505002e+02   5.9593571457e+01    0.2599222    0.1900164  87.44 0.0009363581    2.037    0.509
       457  -7.8004    158.1467     62.1008   6.4721482592e+01   3.7557017759e+01     0.208316    0.1780831 -67.31 0.0003607181    1.298    0.230
       458  -9.6897     73.3226     59.4407   8.7898478355e+01   5.6111553490e+01    0.4106121    0.2342223 -54.10  0.001181994    1.971    0.493
       459  -8.1586     89.4643     59.9644   8.2552289937e+01   5.3267390483e+01    0.1911542    0.1232114 -63.06 0.0008068017    2.364    0.577
       460  -8.1330    146.8395     59.0214   6.6248188945e+01   4.0882192304e+01    0.2482172    0.1643524 -57.78 0.0005113977    1.882    0.469
       461  -9.9126     23.3658     56.4416   1.0623644688e+02   6.2532938784e+01    0.4145946    0.2673505 -89.79  0.002134404    2.548    0.608
       462  -8.2915    130.6884     57.6292   6.9695710679e+01   4.5005200166e+01    0.2511881    0.1729645 -52.72 0.0005582874    1.690    0.408
       463  -9.5095      7.5422     57.1878   1.1279197040e+02   6.3388940785e+01     0.286587    0.1826028  82.04  0.001027722    2.298    0.565
       464  -9.3761    119.1746     55.6754   7.2069795154e+01   4.7978473116e+01    0.4466022    0.2357329 -46.97  0.001325756    2.132    0.531
       465  -9.3510     54.2156     55.3418   9.3602683737e+01   5.9640853989e+01     0.324906    0.2053821 -61.15  0.001014893    1.926    0.481
       466  -8.3467    139.9236     56.1847   6.6930804064e+01   4.3042408700e+01    0.2313182    0.2030782 -70.17  0.000607083    1.306    0.234
       467  -8.7527     44.0844     55.5581   9.7642268179e+01   6.0796589355e+01    0.2298752    0.1675329 -62.90 0.0007846316    1.544    0.352
       468  -8.4523    105.7862     53.3111   7.5062548714e+01   5.1281710720e+01    0.2468431    0.2181473  89.39  0.000575525    1.471    0.320
       469  -8.3909     74.5598     52.2743   8.4937442609e+01   5.7287241214e+01    0.3980252    0.2117485   9.33  0.001280136    4.595    0.782
       470  -9.4693     92.3853     50.6991   7.8277380847e+01   5.4416294338e+01    0.3810157    0.2338161 -48.79  0.001123327    1.847    0.459
       471  -8.3904    144.5494     48.9835   6.3448669495e+01   4.3053257567e+01    0.2254565    0.1468479 -32.71 0.0004529715    1.565    0.361
       472  -8.1524    129.9750     49.0260   6.6912183583e+01   4.6581825829e+01     0.227903    0.1810932 -70.52 0.0005159795    1.626    0.385
       473  -8.8315    120.8793     47.5873   6.8743375376e+01   4.8926188844e+01    0.2385063    0.1969304 -13.77 0.0005730401    1.249    0.199
       474  -8.3698    112.1988     46.9497   7.0886998725e+01   5.0971605908e+01    0.2160013    0.1924538 -58.26 0.0006562097    1.323    0.244
       475  -8.9977     82.0341     46.4031   8.0127443359e+01   5.7073262804e+01    0.2772176    0.1806473 -46.21  0.000666503    1.644    0.392
       476  -8.9922    133.2273     43.8741   6.4312254265e+01   4.6593404525e+01    0.4089356    0.2439387 -59.96  0.001612061    2.555    0.609
       477  -8.4390     45.0803     44.7628   9.3604558207e+01   6.2815491127e+01    0.2086509    0.1584381 -51.98 0.0004944502    1.379    0.275
       478  -8.8642     16.7324     44.6045   1.0570774314e+02   6.5452216024e+01    0.2170086    0.1651863 -63.22 0.0006810358    1.349    0.259
       479  -8.9718     58.0817     42.5130   8.7501839400e+01   6.1568529715e+01    0.3146137    0.1782334 -55.51  0.001278131    2.329    0.571
       480  -8.6791     92.8848     42.7080   7.5097998910e+01   5.5667800226e+01    0.2494224    0.1828093 -17.19 0.0006683968    1.385    0.278
       481  -9.4007     69.6777     41.4874   8.2654199247e+01   6.0009312815e+01    0.4698147    0.2568227 -50.66  0.001959437    2.242    0.554
       482  -9.6006      5.0407     41.9990   1.1013441859e+02   6.6674038680e+01    0.3014138     0.198925 -84.92  0.001617244    2.078    0.519
       483  -8.7796    105.9607     41.1139   7.0491762886e+01   5.3238992323e+01    0.3470514    0.1834289 -37.68  0.001000704    1.909    0.476
       484  -7.8237    140.4510     41.5152   6.1823330061e+01   4.5175014809e+01    0.1451669    0.1416011  48.60   0.00016359    1.036    0.035
       485  -8.5954     36.8661     40.8551   9.5680966026e+01   6.4460295855e+01     0.211212    0.1664965 -50.77 0.0005901757    1.316    0.240
       486  -8.9245     95.2473     37.9438   7.2490081608e+01   5.5949207038e+01    0.2040281    0.1851038 -43.45 0.0006576446    1.272    0.214
       487  -8.7263     80.7718     36.9008   7.6835904980e+01   5.8876989893e+01    0.2365378    0.1799109 -47.85 0.0008327843    1.563    0.360
       488  -9.6406     26.1630     35.3937   9.8480039134e+01   6.6514293279e+01    0.3443979    0.2040888 -58.59 0.0009196459    1.844    0.458
       489  -7.5218    133.6463     36.3113   6.1536557032e+01   4.7572115864e+01    0.1488068    0.1136084 -72.63 0.0007044499    1.728    0.421
       490  -8.2218    125.9539     35.6752   6.3122604484e+01   4.9507495194e+01    0.2015274    0.1739628  50.84 0.0003341135    1.127    0.113
       491  -8.5412    111.9403     34.5462   6.6297827357e+01   5.2894955567e+01    0.2600203    0.1870633 -44.69 0.0006672317    1.576    0.365
       492  -8.7336    119.0902     33.1208   6.3878561073e+01   5.1464556374e+01    0.3712357    0.1767382 -34.94  0.001549606    2.134    0.531
       493  -8.8146     48.4770     33.4401   8.7855134106e+01   6.4454792569e+01    0.2256918    0.2065466 -42.64 0.0006293146    1.357    0.263
       494  -7.6439    139.3109     31.6542   5.8634245822e+01   4.6798571646e+01    0.1487523    0.1103585 -65.71 0.0007045648    1.707    0.414
       495  -8.6999     72.0421     30.9612   7.7486515524e+01   6.1331984561e+01    0.2265906    0.1749053 -30.40 0.0006469358    1.249    0.199
       496  -9.2154     12.9169     30.2611   1.0289831223e+02   6.8504849682e+01     0.309153    0.1728661 -64.40  0.001707945    2.104    0.525
       497  -8.3772    101.4924     29.5010   6.7239124506e+01   5.5871087319e+01    0.2300769    0.1204918 -40.38  0.000831116    2.097    0.523
       498  -8.8035     60.7213     32.7148   8.2538994624e+01   6.2869383594e+01    0.2415603    0.1594954 -42.16 0.0006365614    1.542    0.352
       499  -8.8534     81.4528     27.5659   7.2720884701e+01   6.0151721996e+01    0.2585841    0.2112015 -50.30 0.0008508917    1.588    0.370
       500  -8.7472      3.4985     27.6567   1.0663112889e+02   6.9560257140e+01    0.2077082    0.1642974  89.27 0.0009405903    1.931    0.482
       501  -7.9353    109.6271     27.2556   6.4079366534e+01   5.4390670379e+01    0.1873341    0.1292912 -12.50 0.0005598692    1.556    0.357
       502  -8.8358     91.8453     26.3190   6.8821219627e+01   5.8302067902e+01    0.2734525    0.1763345 -41.83 0.0006821256    1.772    0.436
       503  -8.6482    104.0722     22.9403   6.3851390230e+01   5.6159917457e+01    0.2132147    0.1838389  24.66 0.0004874382    1.051    0.048
       504  -8.1382     34.6699     23.3175   8.9745580137e+01   6.7808360887e+01    0.1574847    0.1464775 -84.80  0.001037126    1.786    0.440
       505  -8.9739     63.6633     21.1814   7.6345189468e+01   6.4160518504e+01    0.2572758    0.1972287 -47.82  0.000977592    1.735    0.424
       506  -9.0540     48.4288     21.7825   8.2860323966e+01   6.6353217166e+01    0.2278557    0.1875726 -14.49 0.0006178076    1.059    0.056
       507  -7.9615     19.6155     21.7537   9.6386838690e+01   6.9536710635e+01    0.1528972   0.09680007 -51.98 0.0003638025    1.619    0.382
       508  -8.0575    120.6335     20.8203   5.8814530725e+01   5.2639887821e+01    0.1959218     0.122173 -36.63 0.0009439886    1.730    0.422
       509  -9.0054     74.1843     19.5430   7.1711880402e+01   6.2576171347e+01    0.2680802    0.2022642 -49.26 0.0008650217    1.814    0.449
       510  -7.5795     12.2925     20.6559   9.9666867792e+01   7.0297527018e+01   0.09798637   0.08760314 -72.79  0.000548863    1.660    0.397
       511  -8.3885     87.9505     17.9296   6.6434778436e+01   6.0151324034e+01    0.1901511    0.1612593 -58.64 0.0005477531    1.642    0.391
       512  -8.1733     38.6981     18.2064   8.5574880520e+01   6.8154883412e+01     0.177031    0.1363189 -40.13 0.0007234734    1.436    0.304
       513  -7.9287    112.8565     16.8598   5.9119499060e+01   5.4893220005e+01    0.1738738    0.1616509 -60.42 0.0003701409    1.293    0.227
       514  -7.7584     29.8738     16.3413   8.8919838196e+01   6.9452931357e+01    0.1623441    0.1248276 -31.50  0.000738736    1.200    0.167
       515  -7.9868    191.2448    249.4393   9.8979235179e+01  -2.8585377014e+00     0.167959   0.09116061  45.93 0.0009397838    1.701    0.412
       516  -8.9358    175.5540    247.7909   1.0158770367e+02  -1.9862150469e-01    0.2755713    0.2109114  76.36  0.001039443    2.054    0.513
       517  -7.7970     17.1703     14.2026   9.4409431463e+01   7.1014569195e+01    0.1405385    0.1221152 -33.03 0.0005086311    1.329    0.248
       518  -8.6685    156.3361    248.4854   1.0518524291e+02   2.7315540534e+00    0.2442494     0.155082  61.10  0.001000282    1.911    0.477
       519  -8.3462    113.0715    248.6254   1.1309578984e+02   9.3887377333e+00    0.1876575    0.1427413  86.96 0.0009149206    1.472    0.321
       520  -9.3028    103.7879    246.6432   1.1457971214e+02   1.1083386519e+01    0.4160199    0.2241508 -89.19  0.002131789    2.858    0.650
       521  -8.9368    242.8376    246.4585   8.9549689282e+01  -1.0091953817e+01    0.2990483    0.1252719 -23.21  0.001533058    2.826    0.646
       522  -8.0807      7.3949     15.2826   1.0008968694e+02   7.1570045648e+01    0.1480258   0.09208438 -54.50 0.0009348064    1.630    0.387
       523  -8.9744    232.8771    246.7345   9.1278685995e+01  -8.7296070742e+00     0.357365    0.1824432 -21.87  0.001620149    2.238    0.553
       524  -8.4096    218.4611    247.8441   9.3934157911e+01  -6.7715967170e+00    0.1781372    0.1102923 -37.82  0.001115092    2.019    0.505
       525  -8.7635    132.2177    247.8157   1.0952377581e+02   6.6029087245e+00    0.2115179    0.1491913  65.01 0.0006600767    1.493    0.330
       526  -9.9891    223.9661    244.1736   9.2420170299e+01  -7.1543564229e+00    0.4009266    0.2202407 -44.14  0.002268761    2.630    0.620
       527  -9.1256    147.1147    246.2139   1.0659992571e+02   4.5171718068e+00    0.2811423    0.1969045  75.74  0.001392579    1.990    0.497
