#   1 NUMBER                 Running object number                                     
#   2 MAG_AUTO               Kron-like elliptical aperture magnitude                    [mag]
#   3 X_IMAGE                Object position along x                                    [pixel]
#   4 Y_IMAGE                Object position along y                                    [pixel]
#   5 X_WORLD                Barycenter position along world x axis                     [deg]
#   6 Y_WORLD                Barycenter position along world y axis                     [deg]
#   7 A_WORLD                Profile RMS along major axis (world units)                 [deg]
#   8 B_WORLD                Profile RMS along minor axis (world units)                 [deg]
#   9 THETA_WORLD            Position angle (CCW/world-x)                               [deg]
#  10 FWHM_WORLD             FWHM assuming a gaussian core                              [deg]
#  11 ELONGATION             A_IMAGE/B_IMAGE                                           
#  12 ELLIPTICITY            1 - B_IMAGE/A_IMAGE                                       
         1 -17.3040     30.8182     63.6686   1.1802742723e+02   6.0013378100e+01     3.825064     1.732481   9.07   0.01693071    3.301    0.697
         2 -14.4779    224.7842     75.0538   7.1676810351e+01   1.9455109182e+01     1.709647     1.102397  84.04  0.008273747    1.787    0.440
         3 -17.0343     96.4648     60.5178   9.4561355483e+01   5.1239930408e+01     3.377919     1.930926  24.88   0.01484453    2.215    0.549
         4 -14.9493    131.4203     62.4668   8.5767037139e+01   4.3615788982e+01     1.007561    0.5996702 -45.58   0.00460018    1.828    0.453
         5 -15.6333    170.6816     48.9284   7.3719684805e+01   3.6369834123e+01     2.175706     1.519713  53.68   0.01123948    1.362    0.266
         6 -13.6350    209.4745     74.9249   7.3917728746e+01   2.2988572297e+01    0.6891279    0.4467618 -43.41  0.003374006    1.487    0.327
         7 -13.1169    141.9984    203.0172   1.1678714138e+02   1.1287006907e+01    0.2300569     0.183808  -5.48  0.001146685    1.735    0.424
         8 -13.3969    191.8783    195.1866   1.0453938302e+02   3.3487332304e+00    0.2178384    0.2020418  69.95  0.001138919    1.247    0.198
         9 -15.4159     64.1822    186.1817   1.3196729344e+02   2.8205895589e+01    0.7613803    0.5041674 -73.99  0.004065481    1.380    0.275
        10 -14.8216     68.8119    184.5342   1.3067458995e+02   2.7945680771e+01    0.5045072    0.3505076  73.17  0.002666222    1.465    0.317
        11 -15.5320    234.8179    183.5603   9.3800328693e+01  -2.3597683354e+00    0.7622841    0.6582438  52.46   0.00433399    1.395    0.283
        12 -14.2046     46.6886    186.9116   1.3601730397e+02   3.0314656602e+01    0.3325787    0.2005503  17.10  0.001588595    2.766    0.638
        13 -15.9333    117.4078    175.1754   1.1752316549e+02   2.2171565168e+01    0.9762248    0.7107139  58.17  0.004728809    1.410    0.291
        14 -15.8491    131.5652    175.1268   1.1410709509e+02   1.9492876928e+01    0.8686753    0.6276929  35.63  0.004124607    1.457    0.314
        15 -13.4625     76.2760    182.4484   1.2862929197e+02   2.7351806422e+01    0.2521308    0.1398674  31.95  0.001138078    2.114    0.527
        16 -15.3914    247.5239    173.3810   8.9480764246e+01  -2.7631184726e+00     1.043799    0.5308005 -33.81  0.004827561    1.843    0.457
        17 -13.2772    191.9620    178.5004   1.0116884892e+02   6.6219035389e+00    0.2333155    0.1434746  42.83  0.001044275    1.624    0.384
        18 -14.2805    117.9412    184.3683   1.1905500253e+02   1.9923698731e+01    0.4209105    0.3699209  74.11  0.002290403    1.104    0.094
        19 -15.2962     34.3229    174.4772   1.3736453812e+02   3.4662785821e+01    0.4228225    0.2736817  86.69  0.002367671    1.453    0.312
        20 -14.2576    203.0178    167.1789   9.6506891419e+01   6.6807396000e+00    0.3651902    0.2478724 -32.53  0.001715247    1.518    0.341
        21 -14.8249     53.6573    172.6454   1.3261400721e+02   3.2829621035e+01    0.5277682    0.2104871  46.91  0.002212013    2.589    0.614
        22 -12.8578    222.5345    167.3931   9.2743102209e+01   2.8204573521e+00    0.2875976    0.2294171  11.81  0.001517041    1.426    0.299
        23 -14.3173     49.4840    165.2011   1.3259861947e+02   3.5137739212e+01    0.3737132    0.3330073  -0.23  0.001826277    1.521    0.342
        24 -15.1178    100.4113    164.4280   1.1973034349e+02   2.7799746406e+01    0.6168242    0.4639979  28.32  0.002831473    1.564    0.361
        25 -15.2049     34.9173    165.4326   1.3614296941e+02   3.6740315048e+01    0.5038329    0.3034885  55.66  0.002718835    1.753    0.430
        26 -13.2464    148.9894    158.4865   1.0652369619e+02   1.9810439416e+01    0.2458069    0.1525664  44.53  0.001037983    1.607    0.378
        27 -14.2066    141.0340    153.3853   1.0732725911e+02   2.2639810509e+01    0.5114842    0.2103747 -47.33  0.001773647    2.421    0.587
        28 -14.3373    104.3916    153.1100   1.1652289867e+02   2.9839782583e+01    0.4450377    0.3157057 -24.00  0.001955757    2.036    0.509
        29 -14.8101    142.9529    141.2099   1.0410668656e+02   2.5047351469e+01     1.026485    0.5276886  51.84  0.003872132    2.100    0.524
        30 -13.8231    178.0041    136.1324   9.4766288577e+01   1.8467826618e+01    0.7241182    0.4323253  68.05  0.002701985    2.466    0.594
        31 -12.5575    167.6027    137.2130   9.7333409675e+01   2.0554920442e+01    0.2259702    0.1484843 -35.54 0.0009504217    1.642    0.391
        32 -14.7847    172.1647    120.6828   9.2300422149e+01   2.3072567766e+01    0.5935895    0.4251371   8.13  0.002406895    2.265    0.558
        33 -13.4527    185.8942    118.6627   8.8885327613e+01   2.0332423353e+01    0.5030791    0.2986823 -56.34  0.002045566    1.885    0.470
        34 -15.7438    189.7736    128.2123   9.0394152490e+01   1.7490091501e+01     1.340554    0.9464493  75.93  0.005838922    1.870    0.465
        35 -15.0657    175.7441    126.3484   9.2909649690e+01   2.1058571314e+01    0.7835299    0.5337085  51.28  0.003498806    1.498    0.333
        36 -13.1594    157.2331    118.1157   9.5041076706e+01   2.7039096328e+01    0.5586919    0.2781594  54.88  0.002052206    2.210    0.547
        37 -15.2141    162.6612    124.0239   9.5263318994e+01   2.4533569643e+01    0.8192316     0.461686 -34.32  0.003172934    2.036    0.509
        38 -15.1079    165.7261    117.1108   9.2838925202e+01   2.5306400784e+01    0.5372111    0.4941739  -2.52  0.002465884    1.242    0.195
        39 -14.3300    248.0819    125.9792   7.9465709221e+01   5.6052428478e+00      0.55619    0.4132013 -34.83  0.002781074    1.269    0.212
        40 -15.4299    242.2336    117.3377   7.8504130402e+01   8.3133374185e+00     1.035236    0.7668579  77.62  0.005264591    1.659    0.397
        41 -14.9515    221.8125    118.6805   8.2126585950e+01   1.2302939688e+01    0.7748832    0.3712967 -46.08  0.003160154    1.947    0.486
        42 -16.1442    226.8679    112.2185   7.9810092698e+01   1.2433258049e+01     1.446388     1.064836 -66.54  0.007293517    1.480    0.324
        43 -13.9343    203.9129    127.1953   8.7348942579e+01   1.4543393980e+01    0.3566804    0.2923793  55.36  0.001664193    1.279    0.218
        44 -12.4665    211.9656    121.4927   8.4515247304e+01   1.3897221452e+01     0.222986    0.1486728  52.83  0.001015325    1.587    0.370
        45 -13.0236     50.0456    116.5277   1.2424772712e+02   4.6750032603e+01    0.2696213    0.2371781 -21.40  0.001186782    1.255    0.203
        46 -13.1738     48.3373    120.3266   1.2550815039e+02   4.6056682119e+01    0.2341472    0.1459998 -49.04  0.001145285    1.428    0.300
        47 -12.9679     45.6855    118.3310   1.2590239326e+02   4.6820132661e+01    0.2406943    0.1746584  61.04  0.001201782    1.703    0.413
        48 -14.5794     31.5000    117.4975   1.2992875227e+02   4.8445480115e+01    0.2854585    0.2107871 -26.47  0.001685397    1.573    0.364
        49 -15.2129     29.7409    114.3773   1.2989118043e+02   4.9325325902e+01    0.3650003    0.3061225 -18.93  0.001800017    1.377    0.274
        50 -14.6098    195.4578    115.6422   8.6237483995e+01   1.8748036722e+01    0.6294122    0.4863935  47.11  0.003084354    1.359    0.264
        51 -13.4121    208.6613    112.8614   8.3094501935e+01   1.6301126399e+01    0.4021115    0.2684524 -66.93  0.001774418    1.832    0.454
        52 -12.6972    250.0808    110.6239   7.5889573015e+01   7.9551306073e+00    0.2786526    0.1863816 -34.75  0.001437202    1.464    0.317
        53 -13.3642    188.8379    110.2099   8.6213736186e+01   2.1353149953e+01    0.3306927    0.2330017 -77.80  0.001424765    1.883    0.469
        54 -13.9919    179.3109    108.0429   8.7609074072e+01   2.4009128657e+01    0.7748177    0.5317785   5.81  0.002954165    2.724    0.633
        55 -12.7990    212.7838    128.7058   8.6030525620e+01   1.2310194867e+01    0.3470293    0.1932058 -42.55  0.001482444    1.685    0.407
        56 -13.5687    131.5951    108.1930   9.8777097434e+01   3.4885730457e+01    0.7161263    0.3145318  39.64  0.002522793    2.494    0.599
        57 -14.3824    139.5946    102.3461   9.5180711473e+01   3.4362538146e+01    0.5692647    0.4611095  14.18  0.002715197    1.531    0.347
        58 -15.2001    144.7203     92.2908   9.1180162869e+01   3.5230093863e+01    0.9155691    0.7225717 -37.44  0.004504965    1.300    0.231
        59 -15.0082     25.6069    106.8678   1.2976643092e+02   5.1393897803e+01    0.5314049    0.2746522 -54.30  0.002765019    1.535    0.349
        60 -12.0397     95.3247    128.6588   1.1373064600e+02   3.7325058879e+01    0.1550164    0.1161856  83.38 0.0007051075    1.730    0.422
        61 -14.2399    213.0486     99.2080   7.9104351682e+01   1.7884998817e+01    0.7551574    0.3858573  54.22  0.003179597    2.032    0.508
        62 -13.9841    209.1540     91.2427   7.7868387625e+01   2.0225559962e+01    0.5908523      0.46017 -49.99    0.0030719    1.211    0.174
        63 -14.5422    102.8026    102.2007   1.0504624457e+02   4.2011544164e+01    0.7545484    0.5291398   4.98  0.003303159    2.099    0.523
        64 -15.1901     97.1416     99.2941   1.0591019767e+02   4.3680595046e+01    0.9305602    0.6515076 -33.06  0.004485894    1.494    0.331
        65 -13.3636    148.3739    104.0809   9.3497563394e+01   3.2019218430e+01    0.4540054    0.3485925 -13.84  0.002057604    1.703    0.413
        66 -14.3149    233.9741     98.8790   7.5698034910e+01   1.3338918345e+01    0.6124675    0.5002965  27.25  0.003304799    1.656    0.396
        67 -15.8155     86.1623     94.7878   1.0797847201e+02   4.6554453334e+01     0.878112    0.6201212  40.80  0.003863011    1.501    0.334
        68 -16.2424     81.9442     87.3866   1.0723162822e+02   4.8796117662e+01     1.454329    0.7490376  45.39  0.006330876    2.192    0.544
        69 -15.2801     67.6818     94.0957   1.1357529476e+02   4.9551592164e+01    0.7069519    0.5648699 -32.92  0.004012626    1.184    0.156
        70 -13.1452     48.0122     94.9838   1.2015130158e+02   5.1853110900e+01    0.3367247    0.1615618 -48.02  0.001582606    1.769    0.435
        71 -14.1024     58.1760     90.3410   1.1567618295e+02   5.1632700696e+01    0.4287463    0.2424783 -31.72  0.002012054    1.954    0.488
        72 -14.9373    130.0239     82.9244   9.2176427695e+01   4.0343732193e+01    0.5760344    0.4502141  62.70  0.002861021    1.397    0.284
        73 -14.3145    124.2269     86.3416   9.4668870284e+01   4.0952976234e+01    0.8999128    0.6212412  88.54  0.003660033    2.515    0.602
        74 -14.3001    121.8294     76.0849   9.2297429742e+01   4.3394209599e+01     1.012405    0.7128692  42.14  0.004956482    1.397    0.284
        75 -14.7942    151.9118     80.3562   8.6185690947e+01   3.5807753307e+01     1.092255    0.8210288  40.63  0.005326492    1.383    0.277
        76 -15.1687    140.8294     80.4745   8.8795241896e+01   3.8365057742e+01    0.9163151    0.5924066  72.92  0.003823928    2.138    0.532
        77 -13.6465    171.9174     82.7886   8.2583280378e+01   3.0592954207e+01    0.4590684    0.4007154  50.97   0.00196022    1.159    0.137
        78 -14.8644     38.3045     80.6668   1.1989138724e+02   5.5924863023e+01    0.7268053    0.4615463  25.09  0.004145864    1.770    0.435
        79 -15.4495     47.8446     78.5044   1.1602144516e+02   5.5342323397e+01     0.711675    0.5188926  83.55  0.003640265    2.480    0.597
        80 -14.9782    208.9843    224.6928   1.0658691785e+02  -4.9683329803e+00     0.565347    0.2986884  26.93  0.002620552    2.044    0.511
        81 -13.3308    224.1215    222.4322   1.0326849516e+02  -7.0864593028e+00    0.2451912    0.1739752 -53.47  0.001337322    1.920    0.479
        82 -12.7938    139.6851    218.6570   1.1986627043e+02   8.4720052890e+00    0.1367288    0.1105932  -3.23 0.0007047824    1.710    0.415
        83 -13.7363    245.4671     67.4158   6.7308120567e+01   1.6169294129e+01    0.7532991      0.37962 -66.25   0.00323434    2.467    0.595
        84 -12.6087    208.3376    214.2984   1.0483197580e+02  -3.1166801325e+00    0.1394164   0.09868644   4.81 0.0005352799    1.658    0.397
        85 -13.9162    233.3160     60.1991   6.7239505942e+01   1.9920245564e+01    0.7423392    0.3566293 -63.55   0.00306156    2.566    0.610
        86 -14.4841    205.7737    204.2146   1.0345024121e+02  -8.9597574233e-01    0.4326588    0.3266887  54.71  0.002300204    1.575    0.365
