#   1 NUMBER                 Running object number                                     
#   2 MAG_AUTO               Kron-like elliptical aperture magnitude                    [mag]
#   3 X_IMAGE                Object position along x                                    [pixel]
#   4 Y_IMAGE                Object position along y                                    [pixel]
#   5 X_WORLD                Barycenter position along world x axis                     [deg]
#   6 Y_WORLD                Barycenter position along world y axis                     [deg]
#   7 A_WORLD                Profile RMS along major axis (world units)                 [deg]
#   8 B_WORLD                Profile RMS along minor axis (world units)                 [deg]
#   9 THETA_WORLD            Position angle (CCW/world-x)                               [deg]
#  10 FWHM_WORLD             FWHM assuming a gaussian core                              [deg]
#  11 ELONGATION             A_IMAGE/B_IMAGE                                           
#  12 ELLIPTICITY            1 - B_IMAGE/A_IMAGE                                       
         1 -14.9507     68.5550    144.3236   7.7087329902e+01   3.7386329010e+01     5.486521     3.074762  84.26   0.01635914    4.240    0.764
         2 -13.8413    238.5882     34.3682   2.0015415425e+01   2.5573025837e+01    0.7625448    0.6733589 -87.89   0.00258039    1.423    0.297
         3 -13.8461    219.8438     47.7934   2.3691363754e+01   2.7028499148e+01     1.108252    0.8653194 -40.69  0.006983636    1.494    0.331
         4 -13.3363     13.5679     10.6900   6.2326281262e+01   7.2849370217e+01     1.139732    0.6031829 -14.15  0.003250139    2.562    0.610
         5 -12.5367      2.2845     21.1727   7.4945537139e+01   7.2605411252e+01    0.7112147    0.2609876 -50.37  0.003328467    3.000    0.667
         6 -12.8303      3.0494      6.5757   6.7583670075e+01   7.4700015711e+01    0.8958081    0.5303664 -28.49  0.005576455    1.731    0.422
         7  -9.7116    189.8919     15.2212   2.0164827404e+01   3.6274846104e+01    0.2101449    0.1122887 -62.54  0.001295859    1.616    0.381
         8 -10.6425     72.0914    248.7038   9.0789617754e+01   1.0933683286e+01    0.3290277    0.2181808 -76.29 0.0008610192    1.910    0.476
         9 -10.5914     72.4794    244.5576   9.0263204623e+01   1.1785882239e+01    0.2800118    0.1910116  43.78 0.0007440093    1.438    0.304
        10 -13.4623     55.2833    164.4357   8.5117543353e+01   3.3828811138e+01     2.030456    0.9353995 -19.98  0.005412717    4.931    0.797
        11 -13.0801     29.5935    247.9039   1.0148062530e+02   1.5566107792e+01     1.197166    0.5846838  34.10  0.002643789    1.679    0.404
        12 -13.5772     20.3505    190.0218   9.9490492734e+01   3.0580368709e+01    0.7804008    0.5457189 -12.47  0.001036193    1.667    0.400
        13 -16.4579     28.7586    179.5335   9.5831776461e+01   3.2627852165e+01     10.95185     5.471979  67.30   0.04059264    2.752    0.637
        14 -10.9949    142.2177    235.9296   7.1763444067e+01   5.2359035436e+00    0.2567261      0.17409 -50.54 0.0008236573    1.639    0.390
        15 -10.7384    148.8501    229.4792   6.9263946388e+01   5.6945130674e+00    0.2318023    0.1510304 -38.63  0.001232419    1.474    0.322
        16 -15.9397      9.3365    229.0245   1.0540580620e+02   2.1704831663e+01     3.833199     1.770312   5.08   0.01592087    2.832    0.647
        17 -10.2773     72.7432    226.6294   8.8216733953e+01   1.5802505368e+01    0.2843336    0.1928242 -54.98 0.0008154786    1.582    0.368
        18 -10.8877     62.1911    226.2826   9.1051082045e+01   1.7117776664e+01    0.2771188    0.2084647 -78.57  0.001073119    1.542    0.351
        19 -15.3923      8.1827    208.2361   1.0442941220e+02   2.6869837084e+01     2.326266     1.607848 -72.53   0.01187584    1.442    0.306
        20 -11.6236     88.3574    203.9101   8.0904093499e+01   1.9261093682e+01    0.4592765    0.3216481 -14.54  0.002129327    1.647    0.393
        21 -11.4398     97.6683    200.8026   7.7821287570e+01   1.8743187701e+01    0.4922644    0.2844212 -14.92  0.001442657    2.505    0.601
        22 -11.6935    103.0051    200.7026   7.6326990858e+01   1.8022617164e+01    0.4614263    0.3760259 -88.47  0.002322726    1.614    0.381
        23 -10.9135    104.1892    197.1054   7.5428127706e+01   1.8713045477e+01     0.335889    0.2764804  -0.32 0.0003535312    1.206    0.171
        24 -10.0325    134.6608    200.7280   6.8037974680e+01   1.3526821033e+01     0.395353    0.1778595  11.07   0.00120474    4.148    0.759
        25 -10.1920     75.0015    199.0455   8.4054584064e+01   2.2229651383e+01    0.3095177    0.2249126 -79.64 0.0007112271    1.664    0.399
        26 -10.3572    192.3547    193.4658   5.4157845498e+01   7.1823211051e+00    0.6463351    0.3308645 -65.45  0.001918114    6.835    0.854
        27  -9.9098     82.2216    195.0249   8.1358617428e+01   2.2284765223e+01    0.2639108    0.2104499  21.29 0.0005163549    1.185    0.156
        28  -9.4998    100.8343    192.3105   7.5585291247e+01   2.0349413210e+01    0.2249303    0.2050367 -74.96 0.0003322444    1.272    0.214
        29  -9.4715     72.4507    193.2502   8.3989458028e+01   2.4031716677e+01    0.1975461    0.1507896 -83.78 0.0009354033    1.572    0.364
        30  -9.9937     48.9082    234.8091   9.5474924248e+01   1.6587460858e+01    0.2264994    0.1963886  88.48 0.0003877206    1.278    0.217
        31 -10.4643     99.2364    180.8083   7.4105641554e+01   2.3406662046e+01     0.305087     0.262465 -10.61 0.0006948303    1.174    0.148
        32 -10.2671     79.3050    180.2302   7.9937425579e+01   2.6453704108e+01    0.3637705     0.259205  88.42 0.0009476657    1.903    0.474
        33  -9.2393    120.5491    179.9952   6.8036030472e+01   2.0334951735e+01    0.2176322    0.1464014 -51.87 0.0004073045    1.513    0.339
        34  -9.0838    180.3560    177.0286   5.3590295082e+01   1.1913484022e+01     0.214657     0.110237 -65.25 0.0007045275    4.526    0.779
        35 -13.7708     55.2227    149.6169   8.2702898801e+01   3.7822717843e+01    0.9170453    0.8109946  14.43  0.001428765    1.110    0.099
        36 -12.4516     69.1783    154.5190   7.8785009128e+01   3.4618362723e+01    0.6012156     0.547773 -16.30 0.0004266941    1.097    0.089
        37 -11.1287     48.6222    247.0416   9.6621483634e+01   1.3851021835e+01     0.369592    0.2593382  45.80 0.0008048076    1.331    0.249
        38 -11.1709    246.7048    166.9856   4.1008909549e+01   5.2906320727e+00    0.2181728    0.1189124 -47.93  0.001336366    1.533    0.347
        39 -11.2417     42.6999    155.4590   8.8050393432e+01   3.7749989209e+01    0.3171058    0.2464486  63.87 0.0007892997    1.471    0.320
        40 -10.4515    134.0466    145.2805   5.7698942821e+01   2.6062356250e+01    0.7176996     0.225216 -55.85  0.002001437    4.390    0.772
        41  -9.2439    174.6132    148.8211   4.9416866055e+01   1.8339759441e+01    0.1940334    0.1192118 -55.49 0.0005703039    1.702    0.413
        42 -12.9312     77.5549    148.9525   7.4950727583e+01   3.4831166895e+01     1.622851    0.6957517 -37.32  0.004859723    3.129    0.680
        43  -9.4261    100.9627    143.7491   6.6483297768e+01   3.2295046116e+01    0.2034355    0.1925328  24.72 0.0002597771    1.037    0.036
        44  -8.8088    231.2699    143.3126   3.9159934410e+01   1.0978731499e+01    0.1117909   0.07839262 -25.99 0.0001631925    1.550    0.355
        45 -12.4610     81.0326    135.1160   7.0966148548e+01   3.7805112848e+01     0.368292    0.3058395 -41.63 0.0005110064    1.218    0.179
        46 -10.0764     93.5327    137.5017   6.7429626696e+01   3.5105596167e+01    0.3142976    0.2842906 -47.35 0.0009564143    1.129    0.114
        47  -9.9249     96.7806    134.9686   6.5864589397e+01   3.5154114999e+01    0.3771591    0.2621339  -3.14  0.001575977    1.976    0.494
        48 -14.5808     12.2979    238.9598   1.0522791218e+02   1.9148324830e+01     1.198674    0.6983545 -78.59  0.004173478    1.807    0.447
        49 -11.5122     73.1016    134.6744   7.3570300787e+01   3.9187917165e+01    0.4002329    0.3405532 -88.98  0.001194843    1.413    0.292
        50 -10.7335     74.2199    130.0596   7.2197161809e+01   4.0177965450e+01    0.3733314    0.2084479 -52.49 0.0009934802    1.800    0.445
        51  -9.2787    110.4665    166.8388   6.8351745497e+01   2.5077027404e+01    0.2206794    0.1505756 -52.38 0.0006397803    1.488    0.328
        52 -11.3581     44.0312    130.6720   8.3404724553e+01   4.4269091370e+01    0.3450508    0.2271273 -86.16  0.001459743    2.014    0.503
        53 -10.7751    106.1679    129.0685   6.1710590735e+01   3.4852995556e+01    0.4517421    0.3059282 -34.90  0.001457401    1.634    0.388
        54 -11.6899     38.6745    124.4114   8.4320445120e+01   4.6540500695e+01     0.485419     0.245435  38.94 0.0006905062    2.054    0.513
        55  -9.1489     94.3185    122.9187   6.3900236204e+01   3.8463806666e+01     0.208898    0.1984424 -16.17 0.0005450053    1.063    0.060
        56  -9.6983     77.2081    234.1701   8.7890388812e+01   1.3541523061e+01    0.2330918    0.1797099   8.02 0.0005763924    1.251    0.201
        57 -10.3222     77.5585    229.3290   8.7233500916e+01   1.4601584759e+01    0.4142176    0.1858711 -56.03   0.00173164    2.321    0.569
        58 -10.0055    104.3387    117.0624   5.9444647274e+01   3.7932189532e+01    0.2389365    0.2048962  37.20 0.0004652623    1.133    0.117
        59 -10.2964    205.4288    110.2523   3.6788335171e+01   2.0290655072e+01    0.2189984    0.2111536  81.19  0.000825703    1.202    0.168
        60  -9.7009    227.0164    107.5070   3.3502326625e+01   1.7346198196e+01    0.1689178    0.1239509 -50.36   0.00115087    1.093    0.085
        61  -9.3346    134.7396    104.9987   4.8505927386e+01   3.4419238764e+01      0.19361    0.1221644 -46.29 0.0009030672    1.594    0.373
        62  -8.6866    119.7122     95.3471   4.9808212790e+01   3.9387628160e+01    0.1464137    0.1127193 -87.08 0.0006567887    1.656    0.396
        63 -12.7633    233.7770    159.9740   4.1624094001e+01   7.9176180759e+00    0.5904904    0.3105092 -30.34  0.003225957    1.990    0.498
        64  -9.3502     20.6004     90.2089   8.5191115309e+01   5.7000780824e+01    0.2024462    0.1167025 -47.67 0.0004599209    1.604    0.377
        65  -9.0698    110.0364     83.0961   4.9145487823e+01   4.3731675221e+01    0.2155477    0.1681628  88.85 0.0005461477    1.608    0.378
        66 -11.8181     54.2588    230.8510   9.3671803756e+01   1.6931651111e+01    0.7860118    0.3435836 -81.57  0.002916602    3.354    0.702
        67 -13.5430    210.4912     53.6328   2.5588242182e+01   2.7898704571e+01     1.006459    0.7871761  46.00  0.007021122    1.900    0.474
        68 -10.9065     56.5190    243.0145   9.4237207762e+01   1.3903312984e+01    0.5909852     0.199239 -57.76     0.002268    3.015    0.668
        69 -12.5713    228.4108     41.7996   2.1966037103e+01   2.6334753962e+01    0.3838108    0.3183199  65.36  0.001157055    1.594    0.372
        70 -10.7716     65.6537     64.3258   5.7858845891e+01   5.6126796967e+01    0.3329157    0.2546537  63.09 0.0009779942    1.651    0.394
        71 -10.3439     61.3448     60.8480   5.8411555315e+01   5.7541159553e+01    0.2645068     0.208868  53.67 0.0006022967    1.403    0.287
        72  -9.3232     66.2752     46.9893   5.1804992308e+01   5.8880497167e+01    0.1789249    0.1630762  30.73 0.0003313889    1.075    0.070
        73  -9.9223      7.6660     45.3023   8.0252376494e+01   6.7857663795e+01    0.1212346   0.09284876  40.63 0.0007036038    1.658    0.397
        74 -10.4785     49.5487     35.3588   5.4179794419e+01   6.3760926556e+01    0.4610191    0.2719172  62.57  0.002012294    2.908    0.656
        75 -11.2227     40.5099    240.9892   9.8201308408e+01   1.6042011542e+01    0.5718101    0.3768169  45.35  0.001909667    1.396    0.284
        76 -11.1180     38.4955    236.9965   9.8401491273e+01   1.7159272123e+01    0.3562775    0.3088015  53.71  0.001493115    1.118    0.106
        77 -10.0669    142.5908    239.4615   7.2191656909e+01   4.5085131930e+00    0.2106745     0.173367  -7.18 5.984354e-05    1.043    0.041
        78 -10.9518     26.0263     21.0373   5.9716061918e+01   6.9686205090e+01    0.2442243    0.1763279  35.71 0.0004302731    1.276    0.217
        79 -11.4006     22.1616     19.1728   6.1077574757e+01   7.0513885530e+01    0.2764947    0.1631231  39.90 0.0008392707    1.620    0.383
        80  -9.3553     60.3423     20.9802   4.4269391315e+01   6.3502946189e+01    0.1677514      0.14463  36.80 0.0004024307    1.090    0.083
