#   1 NUMBER                 Running object number                                     
#   2 MAG_AUTO               Kron-like elliptical aperture magnitude                    [mag]
#   3 X_IMAGE                Object position along x                                    [pixel]
#   4 Y_IMAGE                Object position along y                                    [pixel]
#   5 X_WORLD                Barycenter position along world x axis                     [deg]
#   6 Y_WORLD                Barycenter position along world y axis                     [deg]
#   7 A_WORLD                Profile RMS along major axis (world units)                 [deg]
#   8 B_WORLD                Profile RMS along minor axis (world units)                 [deg]
#   9 THETA_WORLD            Position angle (CCW/world-x)                               [deg]
#  10 FWHM_WORLD             FWHM assuming a gaussian core                              [deg]
#  11 ELONGATION             A_IMAGE/B_IMAGE                                           
#  12 ELLIPTICITY            1 - B_IMAGE/A_IMAGE                                       
         1 -14.2375     68.8268    144.4482   9.6552820142e+01   3.7369121328e+01     4.693518      2.49141  76.04  0.003174957    4.358    0.771
         2 -13.6447    205.4032     42.5073   3.8492166991e+01   2.9316495496e+01     1.584536     1.306906  32.67  0.007434264    1.723    0.419
         3 -13.4981    217.8984     31.1341   3.4650333076e+01   2.8089506722e+01    0.9574105    0.7980868  46.59  0.006248025    1.620    0.383
         4  -9.9349      2.1963     24.5897   9.2027558149e+01   7.1192859262e+01    0.2096171   0.08164744 -53.82  0.001021994    2.593    0.614
         5 -12.7611    244.3057      6.2175   2.7641040297e+01   2.5655369561e+01    0.7617049    0.5459018 -75.95  0.005248134    1.091    0.084
         6  -9.2631     52.1598      4.2797   5.7362581167e+01   6.7553913617e+01    0.2002809    0.1535534  57.01  0.001053879    1.600    0.375
         7  -9.6215     47.3663      2.1402   5.8157828087e+01   6.8583455349e+01    0.2505544    0.1569132  52.79 0.0009959714    1.753    0.430
         8 -10.4034    120.2807    213.2673   9.4491235953e+01   1.2441101572e+01    0.3496767    0.2265307 -65.19  0.001688742    1.797    0.444
         9  -9.6152    102.3487    250.1900   1.0335105839e+02   7.6549593216e+00    0.2267946    0.1557232  37.88  0.001006198    1.248    0.199
        10 -10.7698    101.4753    244.0354   1.0283748952e+02   8.9649974651e+00    0.4997872    0.1648965 -59.07  0.001998385    3.368    0.703
        11  -8.3037     91.2752    250.3358   1.0570395128e+02   9.1887824265e+00    0.1149828   0.09676144 -15.50 0.0003896957    1.606    0.377
        12 -14.9048      5.7927    141.1710   1.1499369244e+02   4.4750133381e+01      7.10594     1.508057 -76.35   0.02102375    4.634    0.784
        13 -14.3996     10.2043    206.6399   1.1937287569e+02   2.8376526673e+01     1.025143    0.8429028  27.28  0.003765666    1.500    0.333
        14  -7.9642    224.2655    206.6912   7.1119109278e+01  -2.7523941693e+00    0.1112688    0.1008488 -52.37 0.0002327728    1.535    0.348
        15  -9.4845    149.7397    192.0489   8.3953659340e+01   1.2073776914e+01    0.4462643    0.2787687 -79.81   0.00160942    3.404    0.706
        16  -8.7097     81.1985    183.5809   9.9663986131e+01   2.5521847277e+01    0.1873777    0.1425003  18.38 0.0004922251    1.560    0.359
        17  -9.1642     99.3708    181.0292   9.4494381645e+01   2.3313714355e+01    0.2358402    0.2107574  16.03 0.0006344997    1.235    0.191
        18  -9.7623    186.3294    174.4567   7.2305729033e+01   9.2431111889e+00    0.3649495    0.3084796 -78.33  0.001909284    1.614    0.380
        19  -9.5206     85.5161    174.5240   9.7083121430e+01   2.7136773501e+01    0.3751466    0.2617323 -79.83  0.001750975    1.596    0.373
        20  -9.3269     88.7009    173.3159   9.6021813339e+01   2.6944984907e+01    0.2258773    0.1918334  38.83 0.0007063898    1.197    0.164
        21 -12.1134     77.8706    158.9200   9.6534033120e+01   3.2290032158e+01     1.053607    0.5455821  54.77 0.0003639886    2.420    0.587
        22 -12.7600     65.3131    154.5497   9.9398428424e+01   3.5229340479e+01    0.5415233    0.4499395 -31.89 0.0008926103    1.365    0.268
        23 -16.6117     15.4567    242.3634   1.2045883419e+02   2.0085923025e+01     6.802034      2.67309  22.48   0.02928883    3.951    0.747
        24 -10.0833    240.5643    169.7441   6.1181725551e+01   1.1426995817e+00    0.1896969    0.1085056 -45.72 0.0009565591    1.669    0.401
        25  -9.8849     46.6036    167.5728   1.0666765073e+02   3.4218408382e+01    0.4694994    0.2397962  69.96 0.0007894023    2.743    0.635
        26  -8.4503    110.4754    167.2562   8.9061385705e+01   2.4826828535e+01    0.2112926    0.1484197 -71.81 0.0009313181    1.646    0.392
        27 -10.1856    119.7333    245.1166   9.9032877162e+01   6.0872197304e+00     0.288396    0.1420571 -49.18  0.001015123    2.314    0.568
        28 -10.8782     23.0547    156.2976   1.1178028794e+02   3.9548703322e+01    0.2959601    0.2791071  55.97  0.001404743    1.190    0.160
        29  -9.8640     32.4749    156.0533   1.0910401743e+02   3.8721478951e+01     0.213122    0.1812132 -51.96 0.0004671374    1.215    0.177
        30 -10.0202     28.8853    155.6600   1.1006958740e+02   3.9173339004e+01    0.3511589    0.1572553 -53.17 0.0008619793    2.084    0.520
        31 -11.4809     85.3628    152.4034   9.3175308336e+01   3.2810846588e+01    0.6682504    0.4733329 -21.38  0.001966026    1.917    0.478
        32 -10.4348    133.6370    144.5899   7.8117175544e+01   2.5989296682e+01     1.162489    0.2883213 -53.60  0.002709024    5.326    0.812
        33  -9.1871    174.7504    148.9059   6.9281852455e+01   1.6757555433e+01    0.2874992    0.2083241 -59.92  0.001204127    1.577    0.366
        34 -10.4422     22.4165    146.2428   1.1075544525e+02   4.2187688985e+01    0.3087884     0.165501  66.60  0.000841758    2.301    0.565
        35 -10.1625     54.7839    147.4708   1.0131983842e+02   3.8457075346e+01    0.2894427    0.1949642 -65.04  0.001407907    1.354    0.261
        36  -9.7691     32.9537    143.9592   1.0733220663e+02   4.1807682936e+01    0.4294737    0.2602317  51.73  0.002083623    1.841    0.457
        37 -11.6592     87.2675    138.0874   8.9698893381e+01   3.6173105627e+01    0.3610238    0.3087035 -69.64 0.0004511618    1.180    0.153
        38 -10.2132    100.1045    138.6019   8.6007553913e+01   3.3834800967e+01    0.6016455    0.3874818 -20.26  0.002313333    2.397    0.583
        39  -9.7580    105.8641    130.8527   8.2542729908e+01   3.4707273452e+01    0.3627452     0.332383 -39.41  0.001612842    1.076    0.071
        40  -9.4603    109.9755    129.5134   8.1033022538e+01   3.4257273099e+01    0.3391534    0.2536861  -9.25  0.001013579    1.808    0.447
        41 -14.5390     37.3324    195.9081   1.1229161878e+02   2.8172316514e+01     3.233341     1.611026  71.31  0.007257199    2.350    0.574
        42 -10.1065    135.7074    129.6937   7.4038285888e+01   2.9059158141e+01    0.3857983    0.1873418 -47.15  0.001407925    2.004    0.501
        43  -9.1794     67.6985    124.9516   9.2973599297e+01   4.2559142667e+01    0.2705223    0.2274748 -63.48  0.001412501    1.143    0.125
        44  -9.8270     97.2003    125.1195   8.3738854765e+01   3.7710536050e+01    0.3284715    0.2647769  -8.02 0.0009438116    1.509    0.337
        45 -11.3831     63.5885    172.4379   1.0270466444e+02   3.0836822859e+01    0.4807846    0.3220057 -28.32  0.001248485    2.094    0.523
        46  -8.0878     61.3123    120.2909   9.4057985731e+01   4.4636181800e+01    0.1507795    0.1076908 -28.41 0.0002914108    1.588    0.370
        47  -9.0696    106.9279    118.4621   7.9176184451e+01   3.7504101598e+01    0.2179357    0.2028499 -40.10 0.0003500836    1.044    0.043
        48 -13.5797     47.0692    187.2942   1.0897697743e+02   2.9168267381e+01     1.564376     1.065809  61.63  0.008262397    1.451    0.311
        49  -9.9243    231.3091    113.7717   5.1046944605e+01   1.2598400862e+01    0.2764377    0.2213014 -45.84 0.0007825178    1.061    0.057
        50 -13.7887     14.1373    213.8540   1.1900446309e+02   2.6362885350e+01     1.086871    0.5008722  28.34  0.003507543    2.381    0.580
        51  -9.2240    205.3738    110.2880   5.4362988443e+01   1.8296062832e+01    0.2866902    0.1982917  47.84 0.0009677289    1.615    0.381
        52 -11.3977     68.4909    167.6653   1.0063442223e+02   3.1391580659e+01    0.5326729    0.3341743 -48.55 0.0009999945    1.637    0.389
        53 -12.0023    243.9363    102.5346   4.6926125901e+01   1.2218953058e+01     0.501969    0.2405351 -36.43  0.002353813    1.892    0.472
        54  -9.7570    111.0816    203.8750   9.5244291670e+01   1.6002548985e+01    0.2169822    0.2042402  52.98 0.0005950254    1.018    0.018
        55  -9.3746     31.4275     95.7558   9.9269761150e+01   5.4148708021e+01    0.3641599    0.1401675  39.07  0.001426936    3.091    0.676
        56  -9.4350     52.6325     91.1676   9.0124930004e+01   5.2877639601e+01    0.2131669    0.1142885 -45.05 0.0006161678    1.686    0.407
        57 -10.4158     19.0467     90.5763   1.0290624902e+02   5.6425794762e+01    0.3682397    0.2057742  39.27  0.001829318    2.177    0.541
        58  -8.6096    160.4664     83.5163   5.6028385519e+01   3.3199630441e+01    0.1463689    0.1432921 -72.05 0.0002010507    1.038    0.037
        59  -8.6875     72.0295     83.0437   8.0660319013e+01   5.1859700373e+01    0.2125281    0.1779473  76.14 0.0005165075    1.645    0.392
        60  -8.2708    129.6116     65.1673   5.7579500547e+01   4.3604654699e+01    0.1828922    0.1405906 -21.94 0.0001985558    1.479    0.324
        61  -8.6523     89.2841     64.8350   6.8834276887e+01   5.2365812533e+01    0.2191703    0.1584096 -87.13 0.0007788595    2.631    0.620
        62  -9.0271     48.7536     62.8011   8.3185915651e+01   5.9494338674e+01    0.1937485    0.1613803 -18.32 0.0004225659    1.067    0.063
        63 -12.6375    195.8427     48.9760   4.1184616382e+01   3.0559343529e+01    0.7469506    0.6514199  31.16  0.001006619    1.528    0.345
        64 -10.6286     89.8082    244.9600   1.0544607853e+02   1.0443541979e+01     0.329105    0.1980875  89.72  0.001645967    2.255    0.557
        65  -9.5588    122.5751    199.4268   9.1742988924e+01   1.5117370937e+01    0.3412688    0.2438774 -77.61  0.001617407    1.793    0.442
        66 -11.0052     94.8294    239.1625   1.0371908384e+02   1.0890113783e+01     0.339851    0.2324398  78.11 0.0008625236    1.774    0.436
        67  -8.1532     82.6825     60.2798   6.9460949659e+01   5.4447824815e+01    0.1309774    0.1141925  82.52 0.0002860875    1.577    0.366
        68 -10.6543    191.5377    192.3773   7.4797073562e+01   4.8176227519e+00    0.6010498    0.3215019 -62.17  0.002095746    3.940    0.746
        69  -9.1232    197.9725     23.7992   3.4976486670e+01   3.3313627303e+01    0.1795657    0.1602568  58.47 0.0006084542    1.342    0.255
        70  -8.9212    189.5035     14.9553   3.3768775412e+01   3.6201069128e+01    0.1722558    0.1165151 -37.83 0.0005648873    1.553    0.356
        71 -10.3604     13.4563     59.8757   9.7892848838e+01   6.3706842744e+01    0.2489851    0.1985012 -51.65  0.000432951    1.196    0.164
        72  -7.9258    169.2731    235.3564   8.7038471431e+01   4.2268470299e-01    0.1332799   0.09290379  -8.34 0.0002946699    1.646    0.392
        73 -11.3889    139.2140    217.3185   9.0746149405e+01   8.5310489626e+00    0.3583737    0.3217458  70.29  0.002092146    1.294    0.227
