#   1 NUMBER                 Running object number                                     
#   2 MAG_AUTO               Kron-like elliptical aperture magnitude                    [mag]
#   3 X_IMAGE                Object position along x                                    [pixel]
#   4 Y_IMAGE                Object position along y                                    [pixel]
#   5 X_WORLD                Barycenter position along world x axis                     [deg]
#   6 Y_WORLD                Barycenter position along world y axis                     [deg]
#   7 A_WORLD                Profile RMS along major axis (world units)                 [deg]
#   8 B_WORLD                Profile RMS along minor axis (world units)                 [deg]
#   9 THETA_WORLD            Position angle (CCW/world-x)                               [deg]
#  10 FWHM_WORLD             FWHM assuming a gaussian core                              [deg]
#  11 ELONGATION             A_IMAGE/B_IMAGE                                           
#  12 ELLIPTICITY            1 - B_IMAGE/A_IMAGE                                       
         1 -10.9227    183.6539     31.8768   6.9731578321e+01   3.5600424927e+01    0.8745048    0.7393233  64.68  0.005151299    1.113    0.102
         2 -11.2468    190.1768     21.2796   6.6093583725e+01   3.5266635915e+01    0.6080065    0.5907806  75.86  0.001604278    1.191    0.160
         3  -8.7342    203.8293     11.8824   6.2183666815e+01   3.3021992093e+01    0.2229079    0.1614901  77.12 0.0004457064    1.184    0.156
         4  -9.2072    231.2778     17.4916   6.0666283520e+01   2.5986844213e+01    0.3154038    0.2105201 -39.80 0.0009076252    1.552    0.356
         5  -8.3830    204.5170      4.9741   6.0504275104e+01   3.3584294173e+01    0.1733723    0.1211461 -38.01 0.0005595243    1.567    0.362
         6  -7.7502    175.0557      4.3225   6.3663746756e+01   4.0680449359e+01    0.1805283    0.1363771  71.53 0.0001935362    1.114    0.102
         7  -9.1373    105.5111    230.4946   1.3143924322e+02   1.2676233326e+01    0.2481168    0.1362532  59.63  0.001223672    1.779    0.438
         8  -9.7307    129.6922    249.7495   1.2914078091e+02   5.0786625018e+00    0.4903938    0.2320076  39.05  0.002375201    1.933    0.483
         9  -9.1787    120.3490    249.4111   1.3086466612e+02   6.6907757667e+00    0.2522156    0.2318688  -2.49 0.0006041068    1.552    0.356
        10  -7.9289    107.2004    250.4021   1.3343721861e+02   8.6507997606e+00    0.1856128   0.09239896  51.82 0.0005741233    1.676    0.403
        11  -9.4580     96.7007    249.5837   1.3528824018e+02   1.0457085140e+01    0.3852023    0.2214414  55.14  0.002187626    1.441    0.306
        12  -7.9898     92.4786    245.9702   1.3568892605e+02   1.1780612602e+01     0.164951    0.1086768 -86.20 0.0006743097    1.590    0.371
        13  -9.0461     82.2490    248.0624   1.3777151190e+02   1.2940117642e+01     0.336399     0.266948 -36.54  0.002091543    2.162    0.538
        14 -11.2912     73.0453    199.0097   1.3419421857e+02   2.4418944600e+01    0.8497763    0.6218833 -63.03  0.003757745    1.381    0.276
        15 -13.5920     62.4202    211.6600   1.3784369411e+02   2.3150573712e+01     5.149194     2.794278 -78.43   0.02420941    1.774    0.436
        16 -13.4448     16.8924    244.1794   1.4866768211e+02   2.2155530403e+01     1.223385    0.6926278  30.97  0.002434054    2.636    0.621
        17  -7.9811    121.3083    230.6669   1.2832332001e+02   9.9904243286e+00    0.1374954   0.09113762  71.37 0.0007041427    1.670    0.401
        18  -9.2408      5.7938    218.6271   1.4894914646e+02   2.8319673248e+01    0.4080635    0.2840012  10.37  0.002523431    3.090    0.676
        19 -11.7199      5.9375    228.9613   1.4954953419e+02   2.6244778897e+01     1.307622    0.6077453 -64.94  0.004905266    2.157    0.536
        20 -10.1462    167.6699    209.9281   1.1560735517e+02   5.5486825873e+00    0.3688265    0.2673679 -64.24  0.001891494    1.697    0.411
        21  -9.1223     22.0180    202.0105   1.4482835233e+02   3.0145461355e+01    0.5023624     0.251735  71.75  0.002189524    1.905    0.475
        22  -8.7354     17.4434    210.5031   1.4634145785e+02   2.8820479671e+01    0.1881865    0.1389972  75.62 0.0006955116    1.081    0.075
        23 -11.4534     11.5014    207.1060   1.4717374539e+02   3.0132999718e+01    0.4997476    0.3255855  38.75  0.001571985    1.800    0.445
        24  -8.0403     33.0409    205.4905   1.4301312872e+02   2.8188348624e+01    0.1623487    0.1110424  43.28  0.001025009    1.583    0.368
        25  -9.2591    198.4125    200.3179   1.0754583994e+02   1.4849972521e+00    0.3800581    0.2859512  15.94  0.001985922    1.478    0.323
        26  -7.3637     92.6908    199.3008   1.3000903858e+02   2.1327131927e+01    0.1424235   0.09406119  73.08   0.00021002    1.601    0.376
        27 -11.8176     17.6225    239.7544   1.4828278106e+02   2.2919878090e+01    0.7102162    0.2485203  39.95  0.002591529    2.741    0.635
        28  -7.1835    168.6036    194.8234   1.1268208723e+02   8.3066756962e+00    0.1810574    0.1379931 -64.01 5.044103e-05    1.536    0.349
        29 -11.8024     46.7596    218.0137   1.4151588766e+02   2.3868057691e+01     1.231995    0.5088579  60.56   0.00577048    2.442    0.590
        30  -7.9926    189.8392    188.2972   1.0695223101e+02   5.3813160233e+00    0.4059669    0.1976085 -36.73  0.001630108    2.288    0.563
        31  -9.3090    110.2694    225.0976   1.2980621660e+02   1.2956848946e+01    0.3555391    0.2452783 -67.92  0.001475923    1.538    0.350
        32  -9.6204     83.7854    182.4357   1.2956828288e+02   2.6579053911e+01     0.411741    0.2643008 -48.29  0.001913675    1.773    0.436
        33  -9.3951     87.0128    177.1701   1.2802109296e+02   2.7299547995e+01    0.3052107    0.2557404 -49.36 0.0007807841    1.353    0.261
        34 -12.7020     19.1596    231.4916   1.4750358897e+02   2.4362764433e+01     1.097889    0.6973352  89.27  0.004425239    1.221    0.181
        35  -9.1888     83.8314    231.3026   1.3576041225e+02   1.5946851289e+01    0.4800274    0.1136223  38.00  0.001561337    4.636    0.784
        36  -7.5200    199.0851    180.2587   1.0342930864e+02   5.0831371685e+00    0.2299861    0.1699744  75.21  0.001058577    1.990    0.497
        37 -14.3396     30.9200    242.8475   1.4629026190e+02   2.0811630956e+01     2.505891     1.349739 -68.91   0.01579649    1.825    0.452
        38 -10.3526    101.0027    175.9910   1.2454824940e+02   2.5262104347e+01    0.2043706    0.1850794  86.09            0    1.009    0.009
        39  -7.7666     43.7892    169.2067   1.3692553244e+02   3.5125139815e+01    0.1650743    0.1380962 -55.31 0.0004675463    1.340    0.254
        40  -9.0213     93.4685    167.4624   1.2489328628e+02   2.8541182512e+01    0.2691088    0.2439007 -80.89 0.0001765608    1.040    0.038
        41  -7.0806    237.3565    224.7121   1.0464470997e+02  -9.2255230965e+00     0.112503    0.1003678  65.02 0.0007024432    1.678    0.404
        42 -10.7133     82.0697    162.7970   1.2687589126e+02   3.1478438548e+01    0.4421698    0.3390638 -56.80  0.001182117    1.271    0.213
        43  -8.8560     97.6640    161.1642   1.2275060681e+02   2.9332888762e+01    0.3131096    0.2600942 -59.57 0.0007744625    1.169    0.144
        44  -7.4530      5.9806    161.9868   1.4456948172e+02   4.0466615896e+01    0.1343475    0.1098932  88.53  0.000409809    1.116    0.104
        45  -7.4484      1.3416    162.2248   1.4558747503e+02   4.0775130242e+01    0.1536971   0.08347092 -84.09 0.0002302548    1.463    0.317
        46  -7.5758    101.1376    157.4507   1.2119683066e+02   2.9618474988e+01    0.2847143    0.1802725  81.31  0.001168018    2.278    0.561
        47  -7.3239     23.6211    156.6799   1.4005842519e+02   4.0149067889e+01    0.1245126   0.08091224 -45.02 0.0007024996    1.822    0.451
        48  -9.8822     54.2170    153.6795   1.3229532202e+02   3.7541030637e+01     0.468853    0.2438308 -49.74  0.002158694    1.957    0.489
        49  -7.8231    114.8679    153.1730   1.1692279055e+02   2.8142309228e+01    0.2270241    0.1933977  80.48 0.0003543033    1.217    0.179
        50 -10.9372     68.2920    144.8459   1.2726248778e+02   3.7807630568e+01    0.6917976    0.4492664  76.23   0.00306872    1.952    0.488
        51  -7.4072    133.5100    145.4928   1.1064310053e+02   2.6258945278e+01    0.1540486    0.1494726 -81.56 -4.769774e-05    1.020    0.020
        52  -9.2700     97.6412    144.0216   1.1944309556e+02   3.3432555113e+01    0.2645963    0.2429836 -64.88 0.0004018387    1.044    0.042
        53 -10.0656     68.5155    136.4154   1.2566329267e+02   3.9794931637e+01    0.5545993    0.2461218 -72.08  0.001987746    3.060    0.673
        54 -10.2297    226.6135    140.4816   8.9455512008e+01   7.0454146161e+00    0.2672501    0.2571587  77.68  0.001535762    1.133    0.117
        55  -8.0893    115.9314    133.0537   1.1227698627e+02   3.2672965895e+01    0.2354437    0.1875383 -18.55 0.0007648183    1.621    0.383
        56  -7.6737    112.4784    138.7311   1.1445789241e+02   3.2003665712e+01    0.2268499    0.1909521 -59.62  0.001158204    1.142    0.124
        57  -7.8072     43.3143    131.8110   1.3163359425e+02   4.3993067312e+01    0.2087202    0.1458424 -83.22 0.0008207125    1.438    0.304
        58  -8.6298    108.8131    144.1947   1.1658803488e+02   3.1396839054e+01    0.6502838    0.2391925 -39.24  0.001781579    4.619    0.784
        59  -7.4365    243.4835    127.4397   8.3662648143e+01   5.9875488722e+00    0.1414291    0.1281739 -44.08 4.794376e-05    1.013    0.013
        60  -7.5643      1.6812    126.7075   1.4182110155e+02   4.8702153257e+01    0.1168599   0.06968187 -49.21 0.0005873091    1.604    0.377
        61  -7.6935    173.2466    124.1737   9.6202527691e+01   2.2209988840e+01     0.227265    0.2125211  14.71 0.0007136046    1.184    0.156
        62  -8.9848    244.9875    121.9547   8.2205046380e+01   6.6658311066e+00    0.2152734    0.1995067  57.36 0.0003065042    1.196    0.164
        63  -7.5286    230.4895    121.4449   8.4449929355e+01   9.7798538779e+00    0.1456123    0.1344584 -50.53 3.080556e-05    1.014    0.014
        64  -7.1109     37.7101    119.7289   1.3110084141e+02   4.7391790287e+01    0.1247728   0.08579388 -40.33 0.0002294284    1.510    0.338
        65  -7.1177    169.3168    114.6835   9.4675291186e+01   2.5109177421e+01    0.1623369    0.1241298 -81.92 0.0007038391    1.651    0.394
        66  -7.2715     16.5110    114.3733   1.3617142306e+02   5.0453147447e+01    0.1196311   0.09587903 -61.09 -0.0001891947    1.052    0.049
        67  -7.7589    196.9005    107.4932   8.7148463478e+01   2.0023927427e+01    0.2278955    0.1519684  55.41 0.0009065092    1.537    0.349
        68  -7.8502     68.1673    104.6091   1.1900145666e+02   4.7250904467e+01    0.1858078    0.1328945  14.52 0.0009517986    1.755    0.430
        69  -7.9656     97.9834     97.0025   1.0816758683e+02   4.4161201837e+01    0.2276975    0.1805776  84.37 0.0009947914    1.720    0.419
        70  -7.1780     97.0248     90.0016   1.0649676776e+02   4.5802607184e+01    0.1696734    0.1608059 -25.83 0.0003919424    1.005    0.005
        71  -8.7241    183.9668     77.1055   8.1755707560e+01   2.8764290072e+01    0.2350825    0.2128319 -52.22 0.0003715822    1.101    0.092
        72  -9.7995    239.3685     66.0527   7.0445449936e+01   1.7406741172e+01     0.241419    0.2212267 -64.33 0.0001966915    1.110    0.099
        73  -8.5542    243.7480     62.0926   6.9025070103e+01   1.7049805465e+01    0.2279573    0.1872679 -23.87 0.0006227464    1.530    0.346
        74  -8.0701     93.9838     62.9869   9.9170762700e+01   5.1494016031e+01    0.1954691    0.1798181 -10.19   0.00116796    1.026    0.025
        75  -7.9567    125.0717     62.9438   9.0521228980e+01   4.5193709357e+01    0.2125876    0.2003261  24.49 0.0003215422    1.024    0.024
        76  -8.9014    160.9858     51.9938   7.9163257699e+01   3.8470163947e+01    0.2412949    0.1735924 -75.55  0.001147252    1.735    0.424
        77  -8.0414    181.0246     50.5606   7.5140992042e+01   3.3731947293e+01     0.216961    0.1322958  62.29 0.0003188653    1.535    0.349
        78  -9.0375    171.6662     49.7868   7.6548845150e+01   3.6161751479e+01     0.207333    0.1780177  56.49  0.001141359    1.123    0.109
        79  -9.9900    172.4094     41.5129   7.4115786386e+01   3.7129891884e+01    0.4062631    0.2776042  64.66  0.001089747    1.348    0.258
        80  -8.1148    136.5498     39.4710   8.0383337683e+01   4.6057966747e+01    0.2285493    0.2171761  41.06 0.0005039873    1.039    0.037
        81  -7.1167    111.4735    246.4721   1.3219351747e+02   8.6728831589e+00    0.1272205    0.1027847  60.49 0.0008094293    1.003    0.003
        82  -9.9262     95.7906    228.3778   1.3310152522e+02   1.4670795748e+01    0.5650535    0.2574297  61.87  0.002404493    2.580    0.612
        83  -8.5499     88.4211    243.9247   1.3622777376e+02   1.2788607208e+01    0.2041289      0.15436  51.34 0.0004048634    1.204    0.170
        84  -7.6086    117.0054    240.9897   1.3048536327e+02   8.7690585487e+00    0.1502493    0.1288534 -85.35 0.0004668105    1.224    0.183
        85  -8.0979    103.0062    237.3421   1.3274811659e+02   1.1753250666e+01    0.2173428    0.1514592  84.56 0.0003387249    1.500    0.333
