#   1 NUMBER                 Running object number                                     
#   2 MAG_AUTO               Kron-like elliptical aperture magnitude                    [mag]
#   3 X_IMAGE                Object position along x                                    [pixel]
#   4 Y_IMAGE                Object position along y                                    [pixel]
#   5 X_WORLD                Barycenter position along world x axis                     [deg]
#   6 Y_WORLD                Barycenter position along world y axis                     [deg]
#   7 A_WORLD                Profile RMS along major axis (world units)                 [deg]
#   8 B_WORLD                Profile RMS along minor axis (world units)                 [deg]
#   9 THETA_WORLD            Position angle (CCW/world-x)                               [deg]
#  10 FWHM_WORLD             FWHM assuming a gaussian core                              [deg]
#  11 ELONGATION             A_IMAGE/B_IMAGE                                           
#  12 ELLIPTICITY            1 - B_IMAGE/A_IMAGE                                       
         1  -8.5214     55.7970      9.8816   3.7270319370e+01   6.8786585382e+01    0.2254682    0.1654031 -44.99 0.0007063088    1.605    0.377
         2  -7.8685     47.6201      9.8253   4.0930532392e+01   7.0254391416e+01    0.1769576    0.1094802 -39.80 0.0005208858    1.668    0.401
         3  -8.4869     91.2562      9.0155   2.4752015110e+01   6.1368983651e+01    0.1897056    0.1747672  -7.27 0.0004976069    1.087    0.080
         4  -8.6595      5.8186      8.2150   6.5615437926e+01   7.5817302221e+01    0.1714576    0.1217108  67.92 0.0007800446    2.795    0.642
         5  -7.7643    101.4781      7.5447   2.1517611258e+01   5.9073727903e+01    0.1358517    0.1298062  42.18 5.530786e-05    1.027    0.027
         6  -8.1598     70.4733      6.0465   2.9425839206e+01   6.6330571908e+01    0.1969836    0.1234512 -24.93 0.0007525676    1.565    0.361
         7  -8.6492     33.4795      4.9774   4.5241319615e+01   7.3208542340e+01     0.308591    0.1842848 -53.39  0.001510064    2.653    0.623
         8  -8.6072     79.1108      3.6099   2.5335427120e+01   6.4706643764e+01    0.2631962    0.1629085 -37.94   0.00102525    1.752    0.429
         9  -7.9586     44.6978      3.2944   3.8241057807e+01   7.1631712067e+01    0.1125974   0.09913345 -55.83 0.0003082744    1.574    0.365
        10  -8.1668    217.6529      1.5144   4.8998303238e+00   3.0090462628e+01    0.1716525    0.1102341 -77.23 0.0006972752    1.482    0.325
        11  -8.0385     62.6914      1.4868   2.9505011144e+01   6.8438865578e+01    0.1590659    0.1263698  67.88 0.0009233049    1.544    0.352
        12  -9.6984    223.6681    242.3451   5.7250918873e+01  -3.8816436113e+00    0.2131864    0.1835953  46.51  0.001295627    1.828    0.453
        13 -10.2864    248.6892    241.8534   5.3281254636e+01  -6.8791837485e+00      0.44547     0.180166 -32.22  0.002180222    2.632    0.620
        14  -8.8742    247.8173    234.2031   5.2282344188e+01  -6.0373897773e+00    0.1700868    0.1181098   7.17 0.0007414569    1.079    0.073
        15  -9.5837    233.3109    246.6918   5.6336998430e+01  -5.5130922641e+00    0.4025942    0.2290337 -21.65   0.00198539    1.797    0.443
        16  -8.3761    191.5505    249.5280   6.3514375462e+01  -4.9369617837e-01    0.1707065    0.1307668  49.94  0.000762156    1.690    0.408
        17  -7.9318     26.3260    250.3141   9.2897828740e+01   2.0566870839e+01     0.080841   0.07992133  18.90 0.0004630969    1.667    0.400
        18  -9.1987    211.1069    246.4227   5.9852009327e+01  -2.7093457279e+00    0.1762802    0.1678252  -0.51 0.0009247808    1.550    0.355
        19  -7.8574    169.3349    247.3013   6.7057999660e+01   2.7761219552e+00    0.1114536   0.07298345  14.01 0.0007035493    1.658    0.397
        20  -9.7057    147.2421    245.3376   7.0757172404e+01   6.0988363446e+00     0.261384    0.2529039  28.53    0.0014801    1.260    0.206
        21  -8.9449    120.1789    245.3726   7.5690296271e+01   9.8520274344e+00    0.2658322     0.162787  68.20  0.001575108    2.197    0.545
        22  -8.1090     67.3416    244.5085   8.5330515073e+01   1.6897484844e+01    0.1590513   0.09644892 -76.84  0.001065632    1.877    0.467
        23  -8.9507      9.6617    243.8270   9.5510778591e+01   2.3305228870e+01    0.2445606   0.06519778  84.00  0.001075003    4.370    0.771
        24  -7.7646     58.3216    244.6433   8.6978294644e+01   1.7959020030e+01    0.1194792   0.05808291  59.99 0.0007045402    1.763    0.433
        25  -9.3329    194.2855    239.9241   6.1786670103e+01   2.5086156205e-01    0.3198678    0.1833469 -37.18  0.001717228    2.082    0.520
        26  -8.5892    168.9568    243.1701   6.6618442215e+01   3.3499700638e+00     0.163821    0.1275753  42.89 0.0004961929    1.267    0.211
        27  -8.5268     77.7549    243.1696   8.3325738929e+01   1.5822436125e+01    0.1971576    0.0804602  60.83 0.0009512517    2.795    0.642
        28  -9.2713    183.2623    240.1977   6.3726249324e+01   1.7330082452e+00     0.337346    0.2175048  58.35  0.001950499    2.550    0.608
        29  -9.3337    160.0383    240.0833   6.7831422211e+01   5.0073048653e+00    0.2492004    0.1978714  88.47  0.001271355    2.058    0.514
        30  -8.2285    153.4070    241.6648   6.9219376220e+01   5.7321295336e+00     0.174443    0.1070523 -70.06 0.0009542585    3.119    0.679
        31  -7.8967     88.3348    242.1256   8.1285780915e+01   1.4632269394e+01    0.1406271    0.0941606  86.77 0.0006041157    1.743    0.426
        32  -8.3351    214.4784    241.0758   5.8562723445e+01  -2.5694367190e+00    0.1428255   0.09803943 -23.57 0.0006087719    1.568    0.362
        33  -9.4360    241.3757    238.3762   5.3890290503e+01  -5.6718451944e+00    0.3734837    0.1638206 -10.64   0.00180352    3.547    0.718
        34  -8.9526     39.4938    239.6575   9.0104167370e+01   2.0951943974e+01    0.2179753    0.1448467  26.73  0.001431874    1.860    0.462
        35  -8.3068    146.0430    239.0969   7.0260559775e+01   7.1322491670e+00    0.1730213    0.1216457  59.55 0.0007041663    1.689    0.408
        36  -8.7120    135.6142    238.5440   7.2122753463e+01   8.6959500405e+00    0.1703866    0.1303559  75.21 0.0007800755    1.719    0.418
        37  -9.1594    231.0756    236.8160   5.5274331647e+01  -4.2413032432e+00    0.2365804     0.207136  67.85  0.001700334    2.466    0.595
        38  -8.3993    208.7462    238.1527   5.9100230083e+01  -1.4928202278e+00    0.1433797    0.1341423  -6.25 0.0005960924    1.456    0.313
        39  -7.9753    128.9603    238.4688   7.3352403620e+01   9.6505427466e+00    0.1631505   0.07468542  52.61 0.0005585644    2.349    0.574
        40  -7.8779    104.3310    238.3356   7.7959705227e+01   1.3101340850e+01    0.1058993   0.08515554   7.29 0.0003415588    1.732    0.423
        41  -8.6988    217.3145    235.6901   5.7332125075e+01  -2.3511164770e+00    0.1786144    0.1296392  33.49 0.0006014685    1.335    0.251
        42  -9.4255    213.6680    231.6493   5.7348101356e+01  -1.4138787144e+00    0.2719014     0.213471  57.43  0.001640416    2.169    0.539
        43  -9.1435    203.2283    234.6283   5.9530734458e+01  -3.4522841272e-01    0.2533646    0.1898123 -58.32  0.001184905    2.470    0.595
        44  -9.7292    175.7655    233.2133   6.4124972635e+01   3.6759987252e+00    0.3679119    0.2072914 -54.23  0.002072757    2.743    0.635
        45  -8.7619     99.7072    234.9292   7.8517577719e+01   1.4279970257e+01    0.2149766    0.1603453 -88.44  0.001478333    1.568    0.362
        46  -9.1334    108.7867    234.2771   7.6724205914e+01   1.3134271450e+01    0.3014712    0.1703108  63.76  0.001233517    2.119    0.528
        47  -9.1975    201.9143    242.9394   6.0903018731e+01  -1.1239551540e+00    0.2252506    0.1481254 -42.52    0.0010642    2.062    0.515
        48  -8.6402    194.7626    232.6895   6.0707517802e+01   1.0541640120e+00    0.2058985    0.1788676 -75.99  0.001020998    2.052    0.513
        49  -8.1042    122.9596    233.9523   7.3994175838e+01   1.1188699294e+01    0.1868742    0.1193396  61.94  0.001118644    1.785    0.440
        50  -9.2353     78.5019    233.1215   8.2409540298e+01   1.7400994218e+01    0.3532348    0.1819496 -48.38  0.001919177    2.931    0.659
        51  -8.1115    144.9620    233.1302   6.9755364431e+01   8.1434889086e+00    0.1963465    0.1100529  55.09  0.001065045    2.099    0.524
        52  -9.4777     68.1342    231.7324   8.4283119879e+01   1.8957930544e+01     0.456359    0.1621133  59.03  0.002010803    3.171    0.685
        53  -9.3293    235.8609    230.5110   5.3580304020e+01  -4.1869006057e+00    0.2970238     0.183491 -12.58  0.001465344    1.544    0.352
        54  -9.4446    186.4713    230.3413   6.1828431348e+01   2.5171522604e+00     0.283834     0.227645 -69.02   0.00150845    2.189    0.543
        55  -8.2998     92.1323    231.2392   7.9631553762e+01   1.5919335094e+01    0.2190509    0.1252598  71.91  0.000818252    2.145    0.534
        56  -8.3822      1.4776    230.4495   9.6528439378e+01   2.6388341153e+01    0.1733182   0.06870004  77.58  0.001013394    2.135    0.532
        57  -9.4827    246.7149    228.2371   5.1544653197e+01  -5.3059858187e+00    0.3663318    0.1546363 -28.52  0.001674122    2.345    0.574
        58  -9.1546    151.2997    228.9465   6.8054187384e+01   7.8274145177e+00    0.2569336    0.1894147  88.30  0.001372994    2.274    0.560
        59  -9.2911    148.6299    224.4243   6.7982387400e+01   8.8938726156e+00    0.3114096     0.207061  64.23  0.001314414    2.097    0.523
        60  -8.5891    140.0523    230.1398   7.0319666828e+01   9.3018457189e+00    0.2188566    0.1322283  50.58 0.0008397124    1.594    0.372
        61  -8.6755    229.9616    228.7247   5.4248952988e+01  -3.2405749965e+00     0.167479    0.1340814 -31.27 0.0009854062    1.625    0.384
        62  -8.9138    162.5516    227.7817   6.5807673734e+01   6.3363038724e+00    0.3263837     0.171459  51.46  0.001703883    2.217    0.549
        63  -8.9463    127.9758    227.1309   7.2273771827e+01   1.1533062051e+01     0.284216    0.1678029  62.79  0.001306061    2.203    0.546
        64  -8.3715    223.2407    226.9175   5.5064250241e+01  -2.1583612740e+00    0.1999125    0.1262697  -7.73 0.0007402204    1.598    0.374
        65  -8.9156    206.0753    225.5678   5.7731562563e+01   3.4089640871e-01    0.2335152    0.1555241 -45.12  0.001078734    2.073    0.518
        66  -8.0419    119.8801    227.3460   7.3864298653e+01   1.2675792625e+01    0.1601309    0.1282765  58.71 0.0005398641    1.211    0.174
        67  -8.0418     49.5780    226.7326   8.7492124639e+01   2.2088371148e+01    0.2430018   0.09979882  72.29  0.001154085    2.926    0.658
        68  -8.3989    200.1337    226.1386   5.8837254480e+01   1.1054899786e+00     0.140441    0.1252861  29.23  0.000442936    1.310    0.237
        69  -8.9595    180.6110    224.1550   6.2004210471e+01   4.1764230489e+00    0.2651166    0.1834562  51.30 0.0006533196    1.715    0.417
        70  -8.8026     94.1089    223.8544   7.8556046165e+01   1.6913464591e+01    0.3167294    0.1598618  65.85  0.001551604    2.562    0.610
        71  -8.6274    216.6039    223.5656   5.5651718277e+01  -8.7756279869e-01    0.1882033    0.1625168 -32.73 0.0008526948    1.552    0.356
        72  -8.6142    105.0047    223.7007   7.6385977356e+01   1.5413904733e+01    0.2520492      0.15386  72.45  0.001394882    2.099    0.524
        73  -7.7361     38.3044    224.6113   8.9521894328e+01   2.3754416002e+01    0.1248168    0.0584196  62.38 0.0007014915    1.804    0.446
        74  -8.3878    173.1320    222.7806   6.3173333106e+01   5.4705261490e+00    0.1693255    0.1625106 -62.87 0.0006952467    1.406    0.289
        75  -8.5060    163.0043    222.5121   6.5015040602e+01   7.0224773362e+00    0.2372385    0.1496847  47.14  0.001407728    1.541    0.351
        76  -8.4582    159.1431    220.4158   6.5455484259e+01   7.9113860555e+00    0.2269626    0.1558181  55.02 0.0008671823    1.681    0.405
        77  -7.8342    113.8010    223.5937   7.4639436142e+01   1.4171217868e+01    0.1689193    0.0890758  46.87 0.0003458285    1.583    0.368
        78  -9.3092    238.9049    220.7891   5.1599882903e+01  -3.5375063734e+00    0.2728469    0.1423021 -30.23  0.001113546    1.941    0.485
        79  -9.5784    225.8970    221.7423   5.3836473195e+01  -1.9280205192e+00    0.2722484    0.1851566  45.10  0.001774529    1.858    0.462
        80  -8.1205    140.4742    222.5269   6.9304671043e+01   1.0405537457e+01    0.1212278   0.09858868  42.45 0.0008087495    1.062    0.058
        81  -9.1728    120.6248    219.2720   7.2800125819e+01   1.3895602339e+01    0.4233307    0.2053206  60.39  0.001864849    3.017    0.669
        82  -8.3761     82.9060    220.2717   8.0450516681e+01   1.9074825653e+01    0.2185635    0.1325862  67.45  0.001276635    1.686    0.407
        83  -8.1473     72.8565    220.1893   8.2453203394e+01   2.0416340944e+01    0.2380245    0.1166879  80.29  0.001142384    2.815    0.645
        84  -8.4072    202.8289    220.1245   5.7472227071e+01   1.4721755555e+00    0.1631165    0.1416793  27.73 0.0005489652    1.251    0.201
        85  -8.1487     27.6152    220.2259   9.1332410864e+01   2.5716297421e+01    0.1425368   0.08952031 -73.83 0.0009538748    1.696    0.411
        86  -9.4370    192.3736    220.9546   5.9431566563e+01   2.8782466779e+00     0.265497    0.2205086 -49.81  0.001200027    1.686    0.407
        87  -8.3591    210.0476    219.0235   5.6061470588e+01   5.8079119813e-01    0.1499335    0.1384396  50.88 0.0004827007    1.603    0.376
        88  -8.6639    249.1945    218.0262   4.9561444968e+01  -4.5550232451e+00    0.2888621    0.1736756  50.91  0.001622782    3.090    0.676
        89  -8.9106    246.6202    213.5646   4.9236490179e+01  -3.7480324654e+00    0.2691698    0.1284391 -15.40  0.001454597    2.339    0.572
        90  -9.3087    132.9511    215.8259   6.9930704065e+01   1.2616842983e+01    0.4678352    0.2700226  69.77  0.002013717    3.171    0.685
        91  -8.6933     51.6377    217.1650   8.6456689406e+01   2.3614454931e+01    0.2362612    0.1222593  84.12  0.001104778    2.056    0.514
        92  -8.8320    169.3637    216.0269   6.2911332430e+01   7.0021487382e+00    0.2588162    0.2012649 -85.54  0.001252642    2.233    0.552
        93  -8.4522    143.0948    216.5632   6.8026983535e+01   1.0948684823e+01    0.2390654    0.1771551  72.26   0.00130547    1.828    0.453
        94  -8.1093     61.5894    216.7808   8.4436892641e+01   2.2478429657e+01    0.1565671   0.09550317  82.82 0.0007039473    1.672    0.402
        95  -8.0392     18.4926    215.9948   9.2880459431e+01   2.7441776183e+01    0.1588488   0.09039214 -88.99  0.001032009    1.588    0.370
        96  -8.4581    243.3777    213.8781   4.9791333253e+01  -3.3619537330e+00    0.3224716   0.09263658 -34.88  0.001459612    3.530    0.717
        97  -8.9748    232.1750    214.5203   5.1673938082e+01  -1.9474538753e+00    0.2158409    0.1691128 -39.32 0.0009683926    1.772    0.436
        98  -7.8930     41.4495    214.9516   8.8338407926e+01   2.5213308727e+01    0.1660567    0.0710021  72.28 0.0008080243    2.504    0.601
        99  -8.5189    185.5926    213.9088   5.9592970546e+01   4.8341446431e+00    0.1915617    0.1485734 -53.47  0.001012541    1.796    0.443
       100  -8.8168     93.2208    213.9218   7.7746411791e+01   1.8807593869e+01    0.3142657    0.1403818  56.47  0.001463843    2.388    0.581
       101  -9.0966     72.1069    210.8052   8.1795892154e+01   2.2266711526e+01    0.3958997    0.1772154  67.06  0.001508905    2.893    0.654
       102  -8.1959    224.7539    212.3240   5.2530816007e+01  -6.7252707762e-01      0.18409    0.1308735 -36.62 0.0009105486    1.696    0.410
       103  -9.4479    214.1188    212.0635   5.4272111269e+01   8.6301959457e-01    0.3083951    0.2453608  54.69  0.001601026    1.888    0.470
       104  -9.2023    204.2555    210.7028   5.5756979994e+01   2.4734542895e+00      0.25259    0.1936851 -44.36 0.0007088083    1.714    0.416
       105  -9.4986    175.6189    209.9698   6.0839493824e+01   6.9249397208e+00    0.4070505    0.2652918  67.45  0.001806161    3.100    0.677
       106  -8.5660    161.7908    212.1598   6.3790527625e+01   8.7475832908e+00    0.1817741    0.1532663  54.49  0.001026112    1.331    0.248
       107  -8.3335    192.2832    210.3754   5.7833634005e+01   4.3090486724e+00    0.1687794    0.1463681 -60.48 0.0005719158    1.710    0.415
       108  -9.0156    147.9202    210.3223   6.6231076719e+01   1.1202788560e+01    0.2988299    0.2040655  65.96  0.001405619    2.025    0.506
       109  -8.7927    116.3982    210.3350   7.2588064394e+01   1.6066780716e+01    0.3209409    0.1784311  60.59  0.001009101    2.154    0.536
       110  -9.1659      6.6269    208.8920   9.4873286693e+01   2.9932734353e+01    0.4489057    0.1186208  71.70  0.001780015    4.137    0.758
       111  -9.3222    236.5623    207.5182   4.9822223474e+01  -1.7328206590e+00    0.3464341    0.1940693 -36.70  0.001644201    2.001    0.500
       112  -7.7702     46.2255    209.2488   8.7000552338e+01   2.5770238062e+01    0.1739835   0.07984613  87.67 0.0007599248    2.406    0.584
       113  -9.3333    246.4277    207.0095   4.8184183377e+01  -2.9979664173e+00    0.2652045    0.1698603 -22.07 0.0006497244    1.433    0.302
       114  -9.3757    250.1413    201.8677   4.6743448175e+01  -2.9095030096e+00    0.3663237     0.143191 -29.76  0.001365111    2.402    0.584
       115  -9.2487    245.6754    193.4040   4.5965629629e+01  -1.3224361771e+00    0.3243517    0.2426285 -58.26  0.001690937    2.856    0.650
       116  -7.9376    156.5690    207.8076   6.4170914371e+01   1.0244381505e+01    0.1489906    0.1216077 -67.54 0.0006637529    1.629    0.386
       117  -8.3622    139.1139    207.7329   6.7628947478e+01   1.3011123385e+01    0.1939148    0.1664968 -88.43 0.0006966039    1.438    0.304
       118  -8.0006    126.4280    208.2268   7.0269791341e+01   1.4904547726e+01    0.1530798    0.1190761 -81.64 0.0005142102    1.605    0.377
       119  -9.0757     99.4092    205.9453   7.5600716731e+01   1.9394071142e+01    0.3207214    0.1865349  73.30  0.001104384    2.298    0.565
       120  -9.0663    183.8582    204.0015   5.8369429565e+01   6.5117846095e+00    0.2816356    0.2201207  68.09  0.001560333    1.993    0.498
       121  -7.8898    109.1906    205.1906   7.3458598503e+01   1.8081822700e+01    0.1727253    0.1272533  63.65 0.0004312831    1.357    0.263
       122  -8.2918     56.4235    205.2954   8.4595526204e+01   2.5331656336e+01    0.2178785    0.1076467  55.11 0.0007396365    1.723    0.420
       123  -9.4018    194.7325    203.4180   5.6277951323e+01   4.9000150984e+00    0.2747295    0.2580901  39.44  0.001236128    1.332    0.249
       124  -9.3964    192.4871    197.1904   5.5657357142e+01   6.1414219025e+00    0.3517309      0.28123 -64.87  0.001338085    1.975    0.494
       125  -9.6994    163.8603    202.7751   6.1991228931e+01   9.8799576735e+00    0.3827393    0.2504757  56.00  0.001010691    1.864    0.464
       126  -8.4801    131.1712    203.7273   6.8698503764e+01   1.4949560117e+01    0.2706236     0.179647  73.05  0.001134304    2.169    0.539
       127  -9.1082    243.0564    200.5654   4.7619077449e+01  -1.8074254469e+00    0.2780435    0.1474065 -33.62 0.0009870684    1.910    0.477
       128  -8.6114    210.9917    201.5844   5.3090166813e+01   2.6703498482e+00    0.2050072    0.1611346 -44.54 0.0008076878    1.681    0.405
       129  -8.5687    140.4910    200.8931   6.6386791543e+01   1.3957371417e+01    0.3112892    0.2058172  68.94  0.001243282    2.188    0.543
       130  -8.4972     80.2809    201.1873   7.9153679154e+01   2.3032822205e+01    0.2913013    0.1324843  60.41  0.001303623    2.504    0.601
       131  -8.4234     48.3627    201.6042   8.6005104920e+01   2.7039082264e+01    0.2206023   0.09048475  86.82 0.0009461717    3.143    0.682
       132  -8.4295     85.3215    209.2909   7.8908421609e+01   2.0771721650e+01    0.2423809    0.1353911  65.41  0.001271122    1.945    0.486
       133  -7.9802    222.1672    201.2060   5.1119393354e+01   1.0651278266e+00    0.1442127    0.1344092  -9.20 0.0005231652    1.366    0.268
       134  -8.9690    237.1628    198.4687   4.8192319820e+01  -7.4271905225e-01     0.261909     0.145914 -36.65  0.001078408    1.947    0.486
       135  -9.4735    149.8221    198.7034   6.4162762242e+01   1.2820143261e+01    0.3973532    0.2722108  75.48  0.001635297    2.426    0.588
       136  -8.6836    123.9638    199.0276   6.9559195425e+01   1.6929514366e+01    0.2776591    0.1926325  87.27  0.001097061    2.024    0.506
       137  -9.2072    112.9625    198.2481   7.1790637873e+01   1.8797965182e+01    0.4231034    0.2230812  64.16  0.001846183    2.722    0.633
       138  -8.4746    176.9775    198.7914   5.8828514393e+01   8.3874874003e+00    0.1892298    0.1671761 -70.84 0.0006648946    1.573    0.364
       139  -9.0122     88.6395    198.2623   7.7036566051e+01   2.2433081297e+01    0.3446665    0.1864603  71.09  0.001599272    2.426    0.588
       140  -8.4574    202.3242    197.7643   5.3971606503e+01   4.5139032265e+00    0.1996205    0.1871299 -69.66  0.001026816    1.589    0.371
       141  -9.2084     61.3814    196.8477   8.2822477130e+01   2.6412405562e+01    0.4083474    0.1764893  64.62  0.001792575    2.716    0.632
       142  -8.0955     29.3058    197.6713   8.9754918782e+01   2.9960735905e+01    0.1274026   0.06466248  62.87 0.0003648434    1.654    0.395
       143  -8.0715     12.5238    197.0395   9.3206123882e+01   3.1748172101e+01    0.1750488    0.0625596  71.36 0.0008099522    2.653    0.623
       144  -8.9501    215.9482    195.3872   5.1177052107e+01   2.7460738278e+00     0.242786    0.1844554 -52.16  0.001185826    1.988    0.497
       145  -8.3180    133.0114    195.7267   6.7191230950e+01   1.6078421680e+01    0.2073836    0.1629955 -80.77 0.0006537189    1.600    0.375
       146  -8.1750     53.5171    196.5049   8.4499530855e+01   2.7460444324e+01    0.1261041   0.09535164  64.76 0.0008094031    1.072    0.067
       147  -7.9149     36.3395    196.6497   8.8201851482e+01   2.9417080018e+01    0.1339509   0.06541063  62.41  0.000704477    1.795    0.443
       148  -8.6984    224.5791    193.9429   4.9462978130e+01   1.6406087968e+00    0.2212513    0.1634783 -42.35  0.001025343    1.732    0.423
       149  -8.9750    185.2864    194.7549   5.6587055594e+01   7.6579675026e+00    0.2207262    0.1963724  69.03 0.0007375782    1.543    0.352
       150  -9.1647    160.8258    194.1711   6.1240852616e+01   1.1770376981e+01    0.2717643    0.2130936  70.25  0.001057712    1.728    0.421
       151  -7.9801    231.1577    194.1607   4.8413840002e+01   6.4606295070e-01     0.145808    0.1344227  -3.42 0.0004427911    1.339    0.253
       152  -8.5555     76.9837    193.7879   7.9102692681e+01   2.4971869785e+01    0.2028971     0.162271  79.64 0.0004583171    1.173    0.147
       153  -8.8987     43.8342    193.2105   8.6340770726e+01   2.9288813268e+01    0.3712284    0.1552441  66.83  0.001681192    2.601    0.615
       154  -8.2814    198.9503    191.5201   5.3506934143e+01   5.9341729266e+00    0.2041924     0.171399 -48.78 0.0006476825    1.550    0.355
       155  -8.3821    172.4628    191.6854   5.8531701748e+01   1.0243430341e+01     0.203956    0.1833512 -77.42 0.0008341924    1.492    0.330
       156  -9.1426    139.5375    190.5156   6.5039991026e+01   1.5948111151e+01    0.3316689    0.2332099  72.69  0.001285803    1.981    0.495
       157  -9.2816    128.0606    191.6965   6.7655421803e+01   1.7622985357e+01    0.2091452    0.1997455  52.95 0.0003502894    1.083    0.077
       158  -8.8408    129.2983    188.6067   6.6933057228e+01   1.7997978550e+01     0.323865    0.2161541  69.70  0.001161625    1.996    0.499
       159  -8.0225    179.1807    191.2728   5.7159996744e+01   9.1944328363e+00    0.1607805    0.1499325  70.28 0.0007843402    1.382    0.276
       160 -10.2001     92.5686    188.4801   7.5022113261e+01   2.3821913852e+01    0.9865095    0.3958434  51.30  0.003488959    2.486    0.598
       161  -8.6161     22.0421    191.5341   9.0931541046e+01   3.1970694343e+01     0.182133   0.05274928  50.77 0.0008096164    2.643    0.622
       162  -8.7401      6.3858    190.1716   9.4168786808e+01   3.3714515442e+01    0.1679384   0.08078828  80.56  0.000952811    1.737    0.424
       163  -8.3017    237.2279    188.3197   4.6393981738e+01   4.9836028534e-01    0.1907843    0.1457653 -19.42  0.000611147    1.215    0.177
       164  -9.2564    155.8766    187.4116   6.1144964823e+01   1.3749130136e+01    0.2969306    0.1880855 -54.78   0.00082741    1.905    0.475
       165  -8.3488    148.6487    189.1460   6.2918843580e+01   1.4667657157e+01    0.1910372    0.1626852 -88.09  0.001142223    1.488    0.328
       166  -8.6510     34.2495    187.9159   8.8052822108e+01   3.1472298311e+01    0.3073719    0.1377798  72.35  0.001486138    2.276    0.561
       167  -8.8948    216.4722    187.6633   4.9724126878e+01   3.7097049165e+00    0.2143906    0.1965965 -28.86 0.0008271235    1.355    0.262
       168  -8.7941    191.3975    187.0385   5.4111816200e+01   7.8284283275e+00    0.2744069    0.2089849 -65.76  0.001119474    2.123    0.529
       169  -9.4835    120.5910    185.9417   6.8435018560e+01   1.9938814409e+01    0.4199906    0.2472273 -76.91  0.001904712    2.576    0.612
       170  -8.9105    249.3628    185.5213   4.3988295408e+01  -8.9018051567e-01     0.293187    0.1668653 -40.04  0.001428714    2.074    0.518
       171  -8.2335    230.4931    187.0588   4.7258366180e+01   1.6517397459e+00    0.1734491    0.1071231 -30.04  0.001006438    1.559    0.358
       172  -8.8388    164.9025    186.0296   5.9078813427e+01   1.2449715552e+01    0.3124053    0.1848054 -52.30   0.00111157    2.048    0.512
       173  -8.9833    109.6620    186.0387   7.0872309993e+01   2.1682526650e+01    0.3623825    0.2172849  68.61  0.001282212    2.198    0.545
       174  -9.0683     54.4915    186.1435   8.3383251231e+01   2.9513703313e+01    0.3702996    0.1887569  76.98  0.001616869    2.199    0.545
       175  -8.9808    210.2942    184.2113   5.0176122350e+01   5.1675059041e+00    0.2358937     0.185577 -27.16 0.0006072579    1.281    0.219
       176  -8.7469    202.8248    184.5229   5.1564258545e+01   6.3292007690e+00    0.2210379    0.1654589 -53.03 0.0009195891    1.851    0.460
       177  -8.6765    182.9382    184.6353   5.5288675194e+01   9.6146488178e+00     0.225251    0.1856807 -45.34 0.0006609079    1.410    0.291
       178  -9.0802     66.5564    184.3840   8.0463100686e+01   2.8347948059e+01    0.3488975    0.1923209  65.44 0.0009768239    1.869    0.465
       179  -7.9413     12.3634    185.6602   9.2690146962e+01   3.4126540456e+01    0.1328721   0.05937549  61.05  0.000703229    1.836    0.455
       180  -8.6856    224.0473    183.4654   4.7674454619e+01   3.1065087878e+00     0.206851    0.1569626 -37.58 0.0005183832    1.505    0.336
       181  -8.2158    197.0054    183.5548   5.2450014367e+01   7.4288721343e+00    0.1921802    0.1687897 -66.00 0.0007480637    1.641    0.391
       182  -8.9431    174.3104    183.4912   5.6765731205e+01   1.1266349983e+01    0.2407256    0.2161382  88.49 0.0005223205    1.496    0.331
       183  -8.8664    241.7800    181.5287   4.4435337036e+01   6.9073829948e-01    0.3832362    0.2532423 -58.58  0.001828974    3.681    0.728
       184  -8.9087     44.6298    182.3168   8.5290270559e+01   3.1516833306e+01    0.3694067    0.1580444  62.93  0.001046874    2.425    0.588
       185  -7.9775      1.7615    183.5530   9.4863649905e+01   3.5493816595e+01    0.1578262   0.07840526  47.79 0.0009404338    1.638    0.389
       186  -7.9713    235.3094    181.6458   4.5486986409e+01   1.6339318775e+00    0.1072089   0.09630175 -54.36 0.0007043508    1.724    0.420
       187  -9.1442    147.4697    180.4155   6.1735367608e+01   1.6442327115e+01    0.3052554    0.2361063  78.70  0.001048489    1.749    0.428
       188  -9.3272     25.6620    178.7010   8.9339494173e+01   3.4354349398e+01    0.5888415    0.1992486  73.89   0.00217439    3.949    0.747
       189  -8.6636    137.6426    179.2687   6.3658275798e+01   1.8356564329e+01    0.2788734    0.2034819  72.72  0.001237341    1.789    0.441
       190  -9.4242    191.6170    178.3275   5.2498463843e+01   9.1385425022e+00    0.2767501    0.2380044  67.18 0.0008560257    1.596    0.373
       191  -9.0833     35.7710    176.2216   8.6833635463e+01   3.3846596304e+01    0.5240418    0.1896981  78.00  0.001841077    4.226    0.763
       192  -8.4666    250.5263    172.5468   4.1407445233e+01   5.4603602259e-01    0.2466536    0.1225597 -28.86 0.0005187984    1.785    0.440
       193  -9.1839    249.0096    177.1886   4.2510300850e+01   1.8425790003e-01    0.2563549    0.2045183 -37.55  0.001249436    1.553    0.356
       194  -8.6802    247.4663    173.5409   4.2061054551e+01   8.6895372495e-01    0.1944035    0.1411374  14.94 0.0001607829    1.267    0.210
       195  -8.7286    205.0426    177.5030   4.9874063264e+01   7.0027180645e+00    0.2247109    0.1723372 -45.88 0.0006754673    1.578    0.366
       196  -8.1632    169.2056    178.2283   5.6850306994e+01   1.3034892826e+01    0.1726538    0.1564167  77.10 0.0005472623    1.382    0.276
       197  -8.6898    129.2730    177.0763   6.5143217361e+01   2.0218915121e+01    0.3240525    0.2143152  88.32 0.0009973001    2.434    0.589
       198  -8.8471    231.1801    176.7295   4.5241194117e+01   2.9115344118e+00    0.2247709    0.1782596 -47.42 0.0008329839    1.724    0.420
       199  -8.5809    217.2990    176.8570   4.7594914261e+01   5.0877571212e+00    0.2089826    0.1797716 -42.31 0.0007444519    1.452    0.311
       200  -8.4572     88.9893    176.6010   7.4328727486e+01   2.6845088655e+01    0.2463211    0.1695954  83.95 0.0007386338    1.614    0.381
       201  -9.2411     58.7462    175.4939   8.1359795047e+01   3.1300094891e+01    0.5266707    0.1985265  61.49  0.001906026    3.619    0.724
       202  -9.1731     55.8073    170.4242   8.1533863875e+01   3.2805838296e+01    0.4680873    0.2037636  69.74  0.001809741    3.202    0.688
       203  -8.7225     12.9517    176.5131   9.2077181117e+01   3.6039854739e+01    0.2317735    0.1226269  73.73 0.0007077159    1.589    0.371
       204  -9.3061    183.1717    175.7260   5.3630624165e+01   1.1012376188e+01    0.2942546    0.2140503 -49.01 0.0008033513    1.611    0.379
       205  -9.3200    158.8117    174.8988   5.8386811589e+01   1.5454066570e+01    0.3591585    0.2529339  73.43  0.001303182    2.236    0.553
       206 -10.6431    101.7396    175.6123   7.1204910500e+01   2.5081708993e+01    0.4151306    0.2861848  29.58  0.002185376    1.590    0.371
       207 -10.5540     75.8748    169.2751   7.6516791502e+01   3.0374762517e+01     1.308934    0.4945307 -73.92  0.004758513    3.481    0.713
       208  -8.6387    224.3524    174.0535   4.5865178007e+01   4.3502197481e+00    0.1771749    0.1398878 -22.37 0.0008145738    1.193    0.162
       209  -9.7866    176.0607    171.4078   5.4222572326e+01   1.2990497720e+01    0.5669567    0.2888617 -34.59  0.002166398    2.167    0.539
       210  -8.3550    142.9854    172.5114   6.1346772189e+01   1.8712115269e+01    0.1936735    0.1843822 -61.33  0.000490713    1.141    0.123
       211  -8.6049    134.8227    171.5285   6.2980407272e+01   2.0346951900e+01     0.249724    0.1825717 -78.02 0.0007379546    1.797    0.443
       212  -9.6498    121.3327    170.0485   6.5793691983e+01   2.2995280165e+01     0.411943    0.2720667 -81.77  0.001115012    2.123    0.529
       213  -9.1432     45.2732    170.9274   8.4128037865e+01   3.3964529215e+01    0.3503207    0.1813407  74.70  0.001247775    2.036    0.509
       214  -8.3660    237.1717    169.4297   4.2882698816e+01   2.9635756313e+00    0.1907853    0.1543987 -33.88 0.0008073915    1.372    0.271
       215  -8.8672    230.2141    168.9921   4.3920956883e+01   4.1180893145e+00    0.3803644    0.1419449 -38.65  0.001650908    2.667    0.625
       216  -8.2639    205.8619    170.1131   4.8320872593e+01   7.9789397763e+00    0.1850291    0.1755089 -62.07 0.0006416872    1.414    0.293
       217  -8.4502    198.3831    169.9920   4.9661548032e+01   9.2844787276e+00    0.2144114    0.1861757  68.65 0.0007818157    1.597    0.374
       218  -8.6159    149.9007    169.2927   5.9269344846e+01   1.8086628092e+01    0.2332485    0.1920526  85.32 0.0008090131    1.559    0.359
       219  -8.3587    244.6579    169.1471   4.1654848075e+01   1.8537450956e+00    0.1806288    0.1381498 -36.68 0.0005646843    1.473    0.321
       220  -8.7966    218.6429    168.2987   4.5723749997e+01   6.0984582419e+00    0.2083279    0.1864001  15.34 0.0005417893    1.136    0.120
       221  -9.1674    166.9389    168.3307   5.5491609939e+01   1.5172430034e+01    0.3103576    0.2344743  68.18  0.001257986    1.796    0.443
       222  -8.1322    211.2094    167.8063   4.6919570195e+01   7.4181691386e+00    0.2382966    0.1413405 -47.56 0.0009093505    2.100    0.524
       223  -8.8537    212.9112    163.5874   4.5787784397e+01   7.7631049459e+00    0.2378235    0.1779463 -37.52 0.0007409033    1.390    0.280
       224  -8.5974    111.7457    167.3765   6.7596620296e+01   2.5186438701e+01    0.3475251    0.1989445  66.17  0.001212978    2.440    0.590
       225  -8.0702     88.6874    168.3769   7.3279762637e+01   2.8681601641e+01    0.2182036    0.1403961  68.24 0.0008235135    1.711    0.416
       226  -9.0679    192.0665    166.4348   5.0152456779e+01   1.0964244077e+01    0.2655466    0.2068157 -36.95 0.0005927255    1.326    0.246
       227  -8.6907    184.9589    166.4019   5.1510742981e+01   1.2242314479e+01    0.2356475    0.1860363 -54.13 0.0006306709    1.548    0.354
       228  -8.4993    140.6705    166.2943   6.0752948696e+01   2.0334708314e+01     0.252989    0.1835302  51.65 0.0007341261    1.372    0.271
       229  -9.2792    136.3172    164.0620   6.1327544411e+01   2.1566461968e+01    0.3907254     0.226034  57.50  0.001164539    2.072    0.517
       230  -9.9693     94.9620    162.5026   7.0881563523e+01   2.9004652143e+01    0.8613768     0.417351  70.96  0.002623088    4.861    0.794
       231  -8.8690     20.6527    166.1868   8.9651044346e+01   3.7628580114e+01    0.3028599    0.1023541  46.52  0.001393181    2.442    0.591
       232  -8.2684    233.9920    164.9598   4.2520795492e+01   4.0724374320e+00    0.1745128    0.1475749 -50.06 0.0005318131    1.622    0.383
       233  -8.7101    159.6107    164.2449   5.6247514621e+01   1.7259975428e+01    0.2771193    0.2188485  80.79 0.0009826564    1.763    0.433
       234  -9.4457     33.6372    163.0447   8.6251282373e+01   3.7052837691e+01    0.5621069    0.1880872  54.56  0.002274694    2.955    0.662
       235  -8.1656    240.2074    164.0106   4.1348320577e+01   3.2195010387e+00    0.1843685    0.1296494 -48.21 0.0004889657    1.925    0.481
       236  -8.8207    246.1051    162.7414   4.0188029583e+01   2.4742112781e+00    0.2310635     0.152013 -21.90 0.0005742792    1.322    0.244
       237  -8.8594    204.8675    162.6268   4.7027235032e+01   9.3072887396e+00    0.2408573    0.1814395 -40.67 0.0006388098    1.420    0.296
       238  -9.3651      3.3622    162.2369   9.3519305878e+01   4.0012885039e+01    0.4218817    0.1496708  54.13  0.002041959    2.358    0.576
       239  -8.9752     60.4784    160.6434   7.9273185141e+01   3.4448124045e+01    0.3584698    0.2711368 -79.89  0.001850832    1.232    0.188
       240  -9.1221    177.4284    160.4113   5.1816276550e+01   1.4648933171e+01     0.287743    0.2302751 -61.48  0.001007566    1.583    0.368
       241  -8.6980    151.7787    160.7238   5.7258820422e+01   1.9380551834e+01    0.2591431     0.193513 -62.14 0.0008213288    1.592    0.372
       242  -8.1655    242.3772    159.7932   4.0177451116e+01   3.4484217386e+00    0.1974598    0.1291698   6.03  0.000373464    1.660    0.398
       243  -8.2584    245.2985    158.6561   3.9503261372e+01   3.1431501595e+00    0.1145173   0.09375799 -49.49 0.0007035392    1.673    0.402
       244  -8.8766    227.3666    158.8013   4.2371925140e+01   6.0222197207e+00    0.2943811    0.1882404 -47.19  0.001041131    1.949    0.487
       245  -9.6562    250.2169    157.4755   3.8528148753e+01   2.5372119349e+00    0.3070857    0.1496206 -31.68 0.0008036335    1.797    0.443
       246  -8.7028    246.5795    155.4805   3.8674135215e+01   3.3688865207e+00    0.1900728    0.1475118  20.41  0.000552089    1.266    0.210
       247  -8.4980    237.0329    158.9597   4.0845518076e+01   4.4140918408e+00    0.1562291    0.1250885 -15.19 0.0005361732    1.073    0.068
       248  -8.7038    196.5163    157.9109   4.7609134159e+01   1.1557255459e+01    0.2613302    0.2115525 -56.75  0.001186332    1.577    0.366
       249  -8.3337    128.2117    159.0515   6.2282322782e+01   2.4060980718e+01    0.2713977    0.1720421  64.69 0.0009595535    2.040    0.510
       250  -9.6193    105.8075    157.7693   6.7444918504e+01   2.8272287119e+01    0.4945784    0.2808034  66.65  0.001085402    2.482    0.597
       251  -8.1553    188.2684    157.4222   4.9076625619e+01   1.3153955074e+01    0.2181191    0.1614456 -56.86 0.0005680136    1.734    0.423
       252  -9.0687    167.5020    157.0093   5.3165127744e+01   1.7123837319e+01    0.3057668     0.232177 -75.48 0.0009577245    1.929    0.482
       253  -8.6787    218.0239    156.4761   4.3466534972e+01   7.9543978876e+00    0.2457466    0.1698413 -46.03 0.0007323449    1.686    0.407
       254  -9.2669     49.8440    155.0585   8.1346762075e+01   3.7091227676e+01    0.4727862     0.202221  62.73  0.001735194    2.868    0.651
       255  -9.1333    157.5468    155.7322   5.5023789972e+01   1.9254424342e+01    0.2712005    0.2379248 -80.52  0.001158106    1.374    0.272
       256  -9.1771    119.6147    155.1314   6.3610159507e+01   2.6442092288e+01     0.382702    0.2628776  82.78  0.001315971    2.033    0.508
       257  -9.3497     81.6235    154.5894   7.3038841314e+01   3.2879435812e+01    0.4445092    0.2597592  79.22  0.001490476    2.296    0.564
       258  -8.6369    242.8297    154.5933   3.9065025408e+01   4.0841973679e+00    0.1693691    0.1483644   9.49 0.0003261909    1.147    0.128
       259  -8.6939    239.7205    152.6890   3.9156949761e+01   4.8494334444e+00    0.1948309    0.1422727 -16.62 0.0002828832    1.204    0.169
       260  -8.2050    204.8333    155.1595   4.5514622266e+01   1.0493884336e+01    0.1925583     0.176957 -37.42 0.0005486189    1.227    0.185
       261  -8.5344    144.5291    154.6725   5.7692177792e+01   2.1934373642e+01    0.2756971    0.2056552  70.81 0.0007393453    1.706    0.414
       262  -8.0106    232.9990    153.9373   4.0469683393e+01   5.7809855358e+00    0.1841414     0.156685 -61.15 0.0006848866    1.721    0.419
       263  -9.6534    132.8720    152.7823   6.0008547212e+01   2.4514593788e+01    0.4296883    0.2997978  72.43   0.00121111    1.924    0.480
       264  -9.1357    133.5984    148.1677   5.8927872215e+01   2.5347565926e+01     0.381519    0.2131611 -41.05  0.001645282    1.977    0.494
       265  -9.2749     68.0753    153.6296   7.6416531877e+01   3.5067339217e+01    0.3891582    0.2143544  62.17  0.001384792    1.990    0.498
       266  -8.8258    151.7630    152.4039   5.5619660117e+01   2.1007244117e+01    0.2517854    0.1794663 -60.67 0.0008568506    1.655    0.396
       267  -9.6436     29.4399    150.4890   8.6194361143e+01   4.0422147906e+01    0.5136878    0.1868642  65.29  0.001886363    3.569    0.720
       268  -8.6635     20.3977    152.2932   8.8686689722e+01   4.0858545508e+01    0.1784784     0.097643  86.82 0.0009412969    1.612    0.380
       269  -9.5507    248.9721    149.2682   3.7058940769e+01   3.8287891213e+00    0.3198026    0.1564988 -31.91 0.0008310751    1.774    0.436
       270  -8.9111    189.4301    149.8880   4.7284533866e+01   1.4224038205e+01    0.2893653    0.2261158 -70.26 0.0009739968    1.865    0.464
       271  -8.3293    182.4828    150.9969   4.8875957875e+01   1.5355183001e+01     0.205252    0.1340318 -42.44 0.0009527567    1.563    0.360
       272  -8.5824     98.3046    150.6157   6.8109316295e+01   3.1142431089e+01    0.3049445    0.2106632  74.41 0.0008899054    1.708    0.414
       273  -8.9355    243.0514    149.5504   3.8003371052e+01   4.7426311698e+00    0.2421652    0.1511433 -40.10  0.001115532    1.649    0.394
       274  -8.1290    212.9884    149.6584   4.2918798805e+01   9.8915029214e+00    0.1809412    0.1596153  18.21 0.0003993253    1.107    0.097
       275  -8.7000    162.2310    150.1701   5.2878285186e+01   1.9418141632e+01    0.2565907    0.1860513  71.62  0.000660266    1.952    0.488
       276  -8.9485      2.9062    149.6232   9.2940845106e+01   4.2927793855e+01    0.2547823    0.1165063  77.55  0.000901198    1.918    0.479
       277  -8.4208    198.8470    149.0163   4.5321262114e+01   1.2594710216e+01    0.1961944    0.1822523 -52.34 0.0005234753    1.273    0.214
       278  -9.8910     89.3470    146.1204   6.9667166809e+01   3.3650584767e+01    0.6934764    0.3697114  88.49  0.002388792    3.599    0.722
       279 -10.2085     39.9028    146.1248   8.2974216908e+01   4.0370645433e+01    0.7866672    0.3984626 -80.00  0.002948385    1.843    0.457
       280  -9.2871    233.3907    147.5251   3.9081531402e+01   6.6360372267e+00    0.2363035    0.1796153 -27.42 0.0007128114    1.186    0.157
       281 -10.4584     55.1706    144.8783   7.8680163248e+01   3.8868804876e+01     0.797108    0.3585356  69.75  0.002863073    3.446    0.710
       282 -10.0740     55.7558    135.4648   7.7210525745e+01   4.1091543577e+01    0.4732543    0.2903892  -2.94   0.00188856    3.530    0.717
       283  -8.3665    223.1271    146.6325   4.0556564849e+01   8.5467264609e+00    0.2144926    0.1632264 -34.25 0.0005606265    1.270    0.213
       284 -10.2129    139.1692    144.9107   5.6951827294e+01   2.4961804376e+01    0.4821547    0.3161061 -78.83  0.001277499    2.480    0.597
       285 -10.2492    106.6717    143.9536   6.4759405127e+01   3.1228012602e+01    0.7822703    0.4831089  89.15  0.002461442    2.587    0.613
       286  -8.6540     78.1551    147.0805   7.2793572245e+01   3.5162856859e+01    0.2712264    0.1553058  61.47  0.001208354    1.968    0.492
       287  -9.3384     13.4844    145.8904   8.9983791448e+01   4.2970739728e+01    0.3850176    0.1568935  64.09  0.001331471    2.447    0.591
       288 -10.0981    241.4935    143.7427   3.7034760063e+01   5.8109552991e+00    0.5963342    0.2984886  -8.04  0.002238467    3.686    0.729
       289  -8.3284    175.8047    146.0907   4.9173881851e+01   1.7529823686e+01    0.2132826    0.1914252 -77.97 0.0007166167    1.369    0.270
       290  -9.7806    125.0529    142.4614   5.9836525255e+01   2.8194516300e+01    0.5301343    0.3464415 -85.56   0.00136717    2.447    0.591
       291  -7.9592    194.5236    143.7855   4.5002377438e+01   1.4295570846e+01    0.1864302    0.1282474 -47.67 0.0006540601    1.593    0.372
       292  -9.0144    165.5046    143.7977   5.0824865987e+01   1.9992312692e+01    0.2605964    0.2218142  84.35 0.0008464565    1.487    0.327
       293 -10.7144     69.6836    140.9678   7.4134203590e+01   3.7866031214e+01    0.6743506    0.3751803  79.95  0.002779657    2.483    0.597
       294  -9.9172     69.7152    134.1237   7.3024088774e+01   3.9526991497e+01    0.3950438    0.2844161  -1.34  0.001824652    2.282    0.562
       295 -10.4546    148.9481    144.9633   5.4711389739e+01   2.3040214532e+01    0.6066669    0.4182622  87.36  0.001536284    2.483    0.597
       296  -8.4315    182.0192    141.4925   4.6919624039e+01   1.7140056357e+01    0.2593202    0.1955889 -56.22 0.0006718578    1.572    0.364
       297  -9.9475      2.6472    140.4739   9.2455669726e+01   4.5086013668e+01    0.5989661    0.2079147 -84.29  0.002372575    2.422    0.587
       298  -7.7373    238.6579    140.3211   3.6743956874e+01   6.7765467437e+00    0.1230792    0.0993839 -58.44 0.0007050193    1.723    0.420
       299  -9.7884     23.2786    137.6658   8.6649300133e+01   4.4091773723e+01     0.455031    0.1964345  66.75  0.001826926    2.577    0.612
       300  -7.9088    218.5501    138.4718   3.9562553036e+01   1.0626191696e+01    0.1344475    0.1203457 -17.63 0.0004888242    1.052    0.050
       301  -8.1909    207.5032    137.5695   4.1264881962e+01   1.2843988953e+01    0.2319909    0.1198399 -45.21 0.0007686764    2.075    0.518
       302  -8.7318    197.5949    137.2820   4.2992241677e+01   1.4808072225e+01    0.2646442    0.2164164 -67.53 0.0009909752    1.631    0.387
       303  -8.6322    172.2509    138.1002   4.8150036744e+01   1.9719518045e+01    0.2557571    0.1920313  79.42 0.0007006583    1.970    0.492
       304  -8.0045    206.4853    146.4542   4.3384529512e+01   1.1590516566e+01    0.1351401    0.1234427  -7.50 6.989712e-05    1.034    0.033
       305  -8.9704    140.0577    136.9245   5.5039617254e+01   2.6462887189e+01     0.237604    0.1852975  -4.28  0.001031398    1.734    0.423
       306 -10.3537     83.3087    133.1552   6.9016422031e+01   3.7702964390e+01    0.6033222    0.3637234 -66.16  0.001524348    1.642    0.391
       307  -8.8175    248.3544    134.8878   3.4150952913e+01   5.9065293059e+00    0.2705773    0.1459127 -35.17  0.000884069    1.626    0.385
       308  -8.6006    250.7868    129.8656   3.2732130928e+01   6.1983430087e+00    0.4186849    0.1063909 -31.45  0.001452782    3.508    0.715
       309  -7.8527    187.6563    135.7496   4.4528845076e+01   1.7043797198e+01    0.1957897    0.1267781 -44.95 0.0004968889    1.582    0.368
       310  -8.2628    162.6602    136.1954   4.9754917250e+01   2.2033945508e+01    0.2232648    0.1819829 -63.00 0.0006203071    1.414    0.293
       311  -8.9889    247.0632    143.6937   3.6191942897e+01   4.8981239587e+00    0.2433222    0.1574294 -21.56 0.0007057528    1.362    0.266
       312  -9.0417     39.1963    135.8226   8.1976780009e+01   4.2956628276e+01    0.2851769    0.1874062  68.56 0.0009579864    1.479    0.324
       313  -9.0860    151.5345    135.3460   5.2029353104e+01   2.4473682047e+01    0.3610305     0.134423  40.12  0.001223403    2.855    0.650
       314 -10.4406     60.1429    125.0303   7.4294384493e+01   4.3102797245e+01    0.7426793    0.3888218  78.28   0.00280241    2.967    0.663
       315  -8.2485    237.6246    133.8116   3.5503304137e+01   7.8966946690e+00    0.1908984    0.1047127 -40.73 0.0006049093    1.775    0.437
       316  -7.8638    231.5555    133.7753   3.6428387281e+01   8.9774865381e+00    0.1798726     0.112828 -39.79 0.0004402132    1.540    0.350
       317  -8.8051    179.3748    133.6376   4.5681984029e+01   1.9101228531e+01     0.293525    0.2297552 -71.46 0.0009204936    1.726    0.421
       318  -9.0336    112.9018    133.0274   6.0961048289e+01   3.2592803034e+01    0.3723608    0.2591485  78.91  0.001001271    1.926    0.481
       319 -10.3586    132.1271    130.3786   5.5498280642e+01   2.9452771014e+01    0.6718886    0.3427374 -59.50  0.001623291    2.429    0.588
       320  -9.0564    143.1159    131.6212   5.3132648977e+01   2.6961341915e+01    0.2975445    0.2448652 -81.12 0.0007525199    1.456    0.313
       321  -9.9039     12.9526    128.8116   8.8747774375e+01   4.7119672081e+01    0.5223991    0.2076928  74.30  0.001913634    2.894    0.654
       322  -8.4738    246.9568    129.8132   3.3263415251e+01   6.8549904465e+00    0.2285852     0.156041 -29.81 0.0006045253    1.251    0.201
       323  -8.0857    204.7192    130.1774   4.0090832694e+01   1.4605661285e+01    0.2169299    0.1649131 -49.65 0.0006109523    1.454    0.312
       324  -8.2178    192.8056    130.0965   4.2250412811e+01   1.7002545781e+01    0.2117859    0.1884971 -55.91 0.0004784419    1.265    0.209
       325  -9.0136    168.3573    129.3302   4.6955630310e+01   2.2188512995e+01    0.2924156    0.2351449 -79.20 0.0005309735    1.640    0.390
       326  -8.7849    161.3743    129.5241   4.8501951169e+01   2.3609699958e+01    0.2665907    0.1397339 -42.73 0.0009775065    1.894    0.472
       327  -9.6463    152.9158    128.9582   5.0251946073e+01   2.5488860431e+01    0.4156818    0.2600167 -56.23  0.001047482    1.824    0.452
       328  -8.0605    250.4865    140.5342   3.5034099936e+01   4.7744592632e+00      0.12686    0.1048112 -15.87 7.125371e-05    1.023    0.022
       329  -7.8817    220.5005    129.5679   3.7261156386e+01   1.1655556843e+01     0.135692    0.1214823 -17.00 0.0001002099    1.025    0.024
       330  -8.0617    211.7466    128.9813   3.8592909554e+01   1.3426440580e+01    0.2219257      0.14775 -56.38  0.001047599    1.996    0.499
       331  -7.6171    186.3127    129.6422   4.3386623871e+01   1.8407016055e+01    0.1459733    0.1146807 -72.31 0.0007043469    1.742    0.426
       332 -10.7019     45.2047    123.6303   7.8576570120e+01   4.5312467890e+01     1.175002    0.5201842  73.60   0.00385474    4.138    0.758
       333  -9.9700    118.0401    124.7723   5.7805985593e+01   3.3492312902e+01    0.6147095    0.4425689 -71.65  0.001863279    1.615    0.381
       334  -7.8046    228.4494    124.9633   3.4953115975e+01   1.0875464521e+01    0.1899835    0.1013958 -50.80 0.0008071511    2.446    0.591
       335  -8.8414    179.2917    124.4912   4.3555392770e+01   2.0806694363e+01    0.2911088    0.2361912 -65.54 0.0007807205    1.492    0.330
       336 -10.1967     28.6270    122.2153   8.3424291295e+01   4.7401906854e+01    0.7073462    0.3018777  69.73  0.002687945    3.225    0.690
       337  -7.7758    244.0066    123.9981   3.2416319262e+01   8.1957006230e+00     0.163119    0.1279342 -24.55 0.0004786101    1.081    0.075
       338  -7.9977    188.5588    123.7486   4.1563868183e+01   1.8998294692e+01    0.1968793    0.1321621 -47.33 0.0004758055    1.545    0.353
       339  -8.1027    211.7838    123.0132   3.7209973150e+01   1.4390659200e+01    0.1922697    0.1052414 -34.55 0.0005207959    1.678    0.404
       340  -9.8001    158.6153    121.2996   4.7141524710e+01   2.5829211894e+01    0.4122053    0.2732621 -75.62  0.001268625    2.541    0.606
       341  -9.3444     97.9911    127.7538   6.3865642598e+01   3.6533153841e+01    0.5881446    0.2072823 -56.84  0.002000196    2.851    0.649
       342  -8.5641     84.8345    122.5617   6.6528194761e+01   4.0025589088e+01    0.4074236    0.2423342  14.00  0.001514451    3.185    0.686
       343  -7.8989    203.2009    121.9687   3.8448592761e+01   1.6288033074e+01    0.1917557    0.1055148 -35.87 0.0004381493    1.693    0.409
       344  -8.5678    171.9861    121.4689   4.4314934674e+01   2.2926684996e+01      0.26614    0.2001556 -54.44 0.0004074982    1.449    0.310
       345  -7.5545    195.2491    121.6546   3.9808233515e+01   1.7975978583e+01    0.1417629    0.1088167 -59.66 0.0003391234    1.578    0.366
       346 -10.2625    131.2062    118.2089   5.2866350442e+01   3.2299139059e+01    0.6452233    0.4518575 -73.90  0.002081276    1.886    0.470
       347 -10.0000    141.7169    118.4220   5.0333422719e+01   3.0040050399e+01     0.497927     0.330743 -68.22  0.001159009    2.022    0.505
       348  -9.6196     73.1871    129.1743   7.1175644274e+01   4.0232234053e+01    0.3567033    0.2445405  79.57  0.000949131    1.660    0.398
       349  -9.4295     71.1134    119.4775   6.9987397250e+01   4.2933875913e+01    0.3569328    0.2211327 -85.05  0.001207486    1.944    0.485
       350  -9.5197      2.8194    116.6981   9.0698424767e+01   5.0791613839e+01    0.5252178     0.210198  71.33  0.002265926    2.697    0.629
       351  -8.0986    219.2963    116.6756   3.4488870275e+01   1.3923733876e+01    0.1369839    0.1042392 -58.79 0.0003235519    1.624    0.384
       352  -7.8633    185.8282    115.8508   4.0168005182e+01   2.0996092768e+01    0.2015208    0.1684292 -57.84 0.0003944899    1.323    0.244
       353  -8.1899    193.0445    115.0249   3.8606275105e+01   1.9599333995e+01    0.2209258    0.1723154 -65.24 0.0004767769    1.600    0.375
       354 -10.1531     92.7592    112.3729   6.1982172144e+01   4.1136310471e+01    0.5999467    0.3546512 -72.70  0.001310769    2.151    0.535
       355  -8.8271     93.2248    104.3988   5.9923153367e+01   4.2961964948e+01    0.3920316    0.2535533 -22.70  0.001540558    2.565    0.610
       356  -8.8039     59.9277    114.6360   7.2518417070e+01   4.5729379471e+01    0.2966117    0.1862936  15.55  0.001334535    2.309    0.567
       357  -9.8277    249.2788    113.8514   2.9432527938e+01   8.7122218611e+00    0.4051808    0.2346993 -61.75  0.001713187    3.293    0.696
       358 -10.6657    249.2120    103.1912   2.7036277923e+01   1.0238610164e+01    0.4647211    0.2680356 -27.32  0.002391858    1.511    0.338
       359  -8.8182     78.3234    104.8450   6.4640317142e+01   4.5424955376e+01    0.3284192    0.2177183   9.87  0.001371181    2.490    0.598
       360  -8.2137    167.4764    114.0116   4.3406103817e+01   2.5337352414e+01    0.2285767    0.1451523 -40.31  0.000556778    1.529    0.346
       361  -9.7299    133.7861    109.5606   5.0034940202e+01   3.3634977643e+01    0.6556189    0.3103341 -55.01  0.002334255    2.466    0.595
       362  -9.4661    122.0722    112.5871   5.3826583627e+01   3.5435996008e+01    0.3196346    0.2579583  83.50 0.0006590006    1.466    0.318
       363  -8.7312    174.7475    111.3661   4.1227638668e+01   2.4238859082e+01    0.3817691    0.1871322 -45.26  0.000934314    2.037    0.509
       364  -8.9215    159.2691    111.7693   4.4605227362e+01   2.7588767728e+01    0.2787775    0.2172229 -63.41 0.0006833574    1.468    0.319
       365 -10.2453     66.5533    109.5342   6.9415063938e+01   4.6076840711e+01    0.6225247    0.3196582 -63.78  0.002227604    1.832    0.454
       366  -9.5232     14.0872    110.1548   8.6556990243e+01   5.1634846521e+01    0.5434734     0.227046 -85.46  0.002338114    2.266    0.559
       367  -7.9777    149.5990    109.8303   4.6288850031e+01   3.0121965747e+01    0.2167568    0.1414209 -53.03 0.0005635981    1.616    0.381
       368  -9.7843    109.4315    114.0614   5.7611741744e+01   3.7630582333e+01    0.5137209    0.3339489 -78.59  0.001369142    2.195    0.544
       369  -9.1614     43.9203    108.9968   7.6656469548e+01   4.9140394531e+01     0.348826    0.1818886  20.98  0.001539937    2.520    0.603
       370  -8.0953    189.4065    107.6719   3.7439961479e+01   2.1684035875e+01    0.2774414     0.131427 -41.19 0.0007966347    1.994    0.499
       371  -7.9426    231.5167    117.4833   3.2781325300e+01   1.1436878448e+01     0.135998    0.1181574 -32.25 0.0008083896    1.097    0.088
       372  -9.2948    109.7507    107.0243   5.5771494250e+01   3.9195112791e+01    0.3622369    0.2205621  23.82  0.001394187    2.481    0.597
       373  -9.3956    139.9668    104.4681   4.7158171467e+01   3.3370916448e+01    0.4293679    0.3052138 -84.58  0.001140765    2.083    0.520
       374 -10.7054    108.9087     98.6441   5.3796105610e+01   4.1285283647e+01     1.000238    0.5761595  75.28  0.001328613    3.977    0.749
       375 -10.4727     45.9094    102.2080   7.4771807128e+01   5.0623834988e+01    0.7961879    0.3924924  67.58  0.002923454    3.319    0.699
       376 -10.7195     22.8539    102.5517   8.2701276917e+01   5.2845667514e+01    0.7419208    0.3520849  68.36  0.002073542    2.729    0.634
       377  -9.6192    150.7446    102.9307   4.4191134335e+01   3.1273059269e+01    0.5171622    0.3080278 -63.77  0.001238327    2.426    0.588
       378  -8.6108    166.7327    103.9354   4.0946374155e+01   2.7446117937e+01    0.2806352    0.1980741 -56.26 0.0006711611    1.570    0.363
       379  -8.8178      6.8017    102.9323   8.8153662032e+01   5.3928298104e+01    0.2421667     0.144304  80.25 0.0007678341    1.569    0.363
       380  -8.0862    175.5298    101.9254   3.8613056593e+01   2.5826914503e+01    0.2296388    0.1431341 -39.80 0.0005955472    1.528    0.345
       381 -10.0924    128.2932    101.3846   4.9257529696e+01   3.6594235093e+01     0.419761    0.2680942 -50.35  0.001224598    1.553    0.356
       382  -8.1727    159.8126    101.0084   4.1640110352e+01   2.9591108291e+01    0.2392734     0.197414 -61.21 0.0005413154    1.304    0.233
       383  -9.2712     81.9750     99.7479   6.2252074718e+01   4.6059813815e+01    0.3954356     0.265176 -87.49  0.001069065    2.041    0.510
       384  -9.4065     95.0483     96.8903   5.7425742027e+01   4.4401956978e+01     0.365012    0.2303372 -61.11 0.0006263806    1.649    0.394
       385 -10.1530     63.8788     95.4421   6.7184895771e+01   4.9966354132e+01    0.6260698     0.372182  84.90  0.001685241    2.740    0.635
       386  -8.1448      7.3519     97.3133   8.7349157795e+01   5.5286452008e+01    0.1318495   0.07859766 -48.25 0.0002852177    1.728    0.421
       387  -8.4963    151.5133     94.9672   4.1814236416e+01   3.2695282179e+01    0.3153349     0.190301  17.81  0.001029772    3.441    0.709
       388  -8.1318    164.8728     94.0547   3.8645592606e+01   2.9759809649e+01    0.2325452    0.1980173 -60.37 0.0004166627    1.233    0.189
       389  -9.9768     79.0537    112.2249   6.6075582209e+01   4.3495642901e+01    0.6042478    0.3709863 -86.94  0.001795159    2.294    0.564
       390  -9.1469    139.0302     92.1958   4.3962933128e+01   3.6136576227e+01    0.3668006    0.2753938 -81.54 0.0008475102    1.763    0.433
       391  -8.5420    120.4791     92.9776   4.8973239035e+01   4.0119962219e+01    0.2558729    0.2276291   7.59  0.001120862    1.321    0.243
       392  -9.9293    124.5416     90.4173   4.7136985950e+01   3.9781462810e+01    0.5219695    0.3489256 -67.60  0.001213548    1.946    0.486
       393  -9.1743    108.4501     91.7825   5.2006768848e+01   4.2931243381e+01    0.5116043    0.2860707  28.34  0.001880753    2.631    0.620
       394  -9.2325     45.9764     92.3999   7.2788324442e+01   5.3079509917e+01    0.4358327    0.2625224   9.81  0.001962515    2.494    0.599
       395  -9.2426     22.6613     90.4296   8.0925518573e+01   5.5903470006e+01    0.3648199    0.2559629 -37.91  0.001621477    1.609    0.379
       396  -9.4386      5.2355     91.6577   8.7434494691e+01   5.6814570089e+01    0.2701716    0.1629077  67.01  0.001333134    1.731    0.422
       397  -8.2823    195.2056     91.2424   3.2125424635e+01   2.3241899578e+01     0.202143    0.1626422 -57.94 0.0003772191    1.326    0.246
       398  -8.0169    157.8741     91.3995   3.9388936792e+01   3.1907794459e+01    0.2198597    0.1853855 -51.18 0.0005561078    1.174    0.148
       399  -9.5154     34.7993     89.4801   7.6271889677e+01   5.5032484696e+01    0.4594852    0.2475187  89.66  0.001870521    2.386    0.581
       400  -8.4474    151.0283     89.0318   4.0224341310e+01   3.3978935511e+01    0.2500612    0.1863147 -70.35  0.000618838    1.659    0.397
       401 -10.1563     86.7533     85.3582   5.6830052893e+01   4.8636826607e+01    0.8071754    0.5006026 -49.20  0.001437657    1.516    0.340
       402  -8.6045     64.5742     87.7790   6.5054959688e+01   5.1744912531e+01    0.3657153    0.2210897  -7.42  0.001285412    3.777    0.735
       403  -7.9917    163.8383     86.8295   3.6814148283e+01   3.1361134331e+01    0.2135234    0.1765682 -62.97 0.0004250117    1.299    0.230
       404  -9.7657     48.8445     84.3136   6.9914287503e+01   5.4741081153e+01    0.5851077    0.3182526  68.55   0.00217211    3.214    0.689
       405  -7.7540    179.2823     85.6066   3.3430983076e+01   2.7910785713e+01    0.1627302    0.1115406 -61.96 0.0006999476    1.756    0.430
       406  -8.4324    157.9916     83.9273   3.7199077638e+01   3.3301760472e+01    0.2347183    0.2222086 -47.26 0.0005063992    1.017    0.017
       407  -9.7361    104.6872     82.8370   5.0458596061e+01   4.5698992124e+01     0.460174    0.3058021 -65.16  0.001035527    1.823    0.451
       408  -9.0144    140.9411     82.3032   4.0563793876e+01   3.7683836303e+01     0.372229     0.203962 -49.09 0.0009521321    1.881    0.468
       409  -8.3301    176.2184     92.9289   3.6047152649e+01   2.7320200984e+01    0.2389394    0.1971588 -62.06 0.0006174917    1.314    0.239
       410  -8.0235     64.3934     82.3209   6.3672746519e+01   5.3092634792e+01    0.2019992    0.1306108 -66.37 0.0006870353    1.577    0.366
       411  -9.5705     24.8041     80.5414   7.8348370809e+01   5.8188981383e+01    0.4660954    0.2619505  77.46  0.001448118    2.356    0.576
       412  -9.1282      9.9215     80.6970   8.4214987975e+01   5.9243813414e+01    0.3377219    0.1648588  59.65  0.001433741    2.560    0.609
       413  -8.3371    150.2269     80.2878   3.7807146093e+01   3.5856015826e+01    0.2953394    0.1857316 -59.96 0.0009228882    1.962    0.490
       414  -8.7780     74.7514     80.2102   5.9386047824e+01   5.1945499816e+01    0.3357916    0.2180446 -73.38 0.0009880982    1.961    0.490
       415  -8.5577    119.1576     79.7765   4.5356693163e+01   4.3229384822e+01    0.2806551    0.2018537 -55.84  0.000748334    1.454    0.312
       416  -8.1715    166.9169     79.2981   3.3995751758e+01   3.1997142355e+01     0.206724    0.2002204 -42.17 0.0004508133    1.022    0.022
       417  -8.0310    184.0000     77.9841   3.0426560269e+01   2.8103040744e+01    0.2534975   0.08210225 -34.25  0.000797617    2.909    0.656
       418  -7.7559    157.1616     76.1485   3.5045081877e+01   3.4943154233e+01    0.2164868    0.1784264 -68.22 0.0005159234    1.332    0.249
       419  -8.8216    140.6536     75.2559   3.8445928299e+01   3.9121132110e+01    0.2720818     0.227598 -65.40 0.0005898458    1.286    0.222
       420  -9.2479    128.1347     75.1646   4.1501287077e+01   4.2112337898e+01    0.3706048     0.258216 -62.55 0.0008263084    1.706    0.414
       421  -9.9702     63.2808     73.4089   6.1534125623e+01   5.5375779792e+01    0.5262626    0.2888635 -65.51  0.001119071    2.086    0.521
       422  -7.5896    151.3026     73.2899   3.5416381502e+01   3.6899910255e+01    0.1531694    0.1228873  15.26 0.0002338343    1.567    0.362
       423  -8.9666    115.7712     72.7098   4.4015213903e+01   4.5446262494e+01     0.305767    0.2009664 -52.36 0.0005820965    1.576    0.365
       424  -9.3260     94.9163     71.4827   4.9853659373e+01   5.0172701285e+01    0.4662271    0.2900276 -44.70  0.001334283    1.532    0.347
       425  -8.3625     42.5436     72.3244   6.9356174087e+01   5.8422816666e+01    0.2579806    0.1263417 -66.57 0.0007951846    2.023    0.506
       426  -7.6231    175.5648     72.4758   3.0339488092e+01   3.1077594510e+01    0.1515837    0.1438059 -40.62 0.0002349418    1.025    0.025
       427  -9.3146    105.8728     71.6145   4.6509249667e+01   4.7854717670e+01    0.2989407    0.2137538 -52.89 0.0006112999    1.416    0.294
       428  -9.3955     51.4437     69.3648   6.4937335193e+01   5.8017193195e+01    0.4366614    0.2445763 -72.21  0.001394751    2.258    0.557
       429  -8.9384     29.6588     70.1156   7.4130851398e+01   6.0314186646e+01    0.4854825    0.2177824 -22.77  0.001500531    5.552    0.820
       430  -8.8799     16.5040     69.8044   7.9635899868e+01   6.1479477801e+01    0.2671189    0.1798756  74.10  0.001096914    1.735    0.424
       431  -8.1471    129.9459     69.3700   3.9148490511e+01   4.2814345476e+01    0.2662233    0.1136947  34.47 0.0007035563    4.562    0.781
       432  -8.9987    147.0911     67.5449   3.4514462109e+01   3.8979546282e+01    0.4219011    0.2321674 -43.10  0.001175615    1.764    0.433
       433  -8.6098    138.7336     65.8971   3.5868686011e+01   4.1336797689e+01    0.2948215    0.1968983 -53.23 0.0006141452    1.603    0.376
       434  -8.6910    121.7328     65.8189   4.0072503819e+01   4.5438026151e+01    0.2831363    0.1973664 -56.46 0.0005345569    1.583    0.368
       435  -9.1047    163.0320     71.7573   3.2505296302e+01   3.4285714950e+01    0.5292667    0.1585508 -43.97  0.001562693    3.349    0.701
       436  -8.8524    110.1903     63.3426   4.2400477101e+01   4.8574135071e+01     0.365033    0.2395463 -59.35  0.001006771    1.828    0.453
       437  -8.6838     37.2804     63.8280   6.9243231542e+01   6.1045435331e+01    0.2533668    0.1921922  89.99  0.001100873    1.574    0.365
       438  -9.6011     82.4783     72.4405   5.4301422635e+01   5.2365509137e+01    0.4244867    0.2817831 -69.72 0.0008649536    1.951    0.487
       439  -8.2797    158.1947     61.5979   3.0286212503e+01   3.7237359802e+01    0.2000498     0.142864  47.85 0.0002894971    1.470    0.320
       440  -9.0958     97.5267     60.3261   4.5135069387e+01   5.1943854851e+01    0.2818049    0.2303793  60.86 0.0006630521    1.353    0.261
       441  -9.7020     73.2733     59.0900   5.3031490294e+01   5.6939830354e+01    0.6007074    0.2404143 -50.60  0.001343181    2.465    0.594
       442  -8.1567     88.8596     59.3326   4.7592950170e+01   5.3936887096e+01    0.2131465    0.1774598 -50.80 0.0006246285    1.188    0.158
       443  -8.3023    130.7510     57.4037   3.4866730408e+01   4.4819600976e+01    0.2802919     0.174989 -47.44 0.0006066543    1.635    0.388
       444  -7.9526     39.3123     58.3401   6.6730829556e+01   6.2097964094e+01    0.1437384   0.09175289 -32.89 0.0007046234    1.696    0.410
       445  -9.7898     23.4004     56.1103   7.3353638966e+01   6.4218651098e+01    0.4641496    0.2701729  85.49  0.001988496    2.682    0.627
       446  -9.4793      7.6613     56.9203   8.0955838860e+01   6.5148139752e+01    0.3443725    0.2007959  83.51  0.001349601    2.080    0.519
       447  -9.1080    119.3399     55.5093   3.7065718351e+01   4.7919880618e+01    0.4643716    0.2392343 -50.33   0.00136819    2.194    0.544
       448  -8.1152    139.8650     55.8106   3.2200915754e+01   4.2831390981e+01    0.2120367    0.1761848 -67.10 0.0003851942    1.306    0.234
       449  -8.6993     44.3773     55.6321   6.3615093221e+01   6.2102466121e+01    0.2643029    0.2078483  89.28 0.0007022494    1.653    0.395
       450  -8.9075     62.9212     54.6285   5.5412956046e+01   5.9645359885e+01    0.2716974    0.1925891 -55.78 0.0005949548    1.416    0.294
       451  -8.9556     54.2247     53.6320   5.8646107955e+01   6.1201077672e+01    0.4065541    0.2283526 -67.84  0.001376788    2.586    0.613
       452  -8.6622    105.7389     52.9340   3.9884413611e+01   5.1553918896e+01    0.2761177    0.1961426 -52.75 0.0006537716    1.514    0.340
       453  -9.4908     92.4438     50.2242   4.2939015454e+01   5.4975537946e+01    0.4613717     0.244458 -51.17  0.001148999    2.138    0.532
       454  -8.3251    144.6364     48.7531   2.8734161709e+01   4.2777701106e+01    0.2142483    0.1342411 -41.90 0.0004497489    1.558    0.358
       455  -8.5969    129.8784     49.0754   3.2095275490e+01   4.6454537325e+01    0.2362705    0.2040897 -67.47 0.0005362449    1.245    0.197
       456  -8.2142    120.8358     47.1612   3.3583611914e+01   4.9001377690e+01    0.2277706    0.1991566 -56.17  0.001006582    1.189    0.159
       457  -8.4145    112.4457     46.7728   3.5628160174e+01   5.1085330159e+01     0.271374    0.1378847 -40.61 0.0006130007    1.925    0.481
       458  -9.0897     82.2205     46.2452   4.4802245089e+01   5.7827112595e+01    0.3404355     0.232406 -56.13 0.0007056285    1.707    0.414
       459  -8.4922     45.0294     44.4775   5.9290552716e+01   6.4452039611e+01    0.2492586    0.1768455 -63.61 0.0006020881    1.585    0.369
       460  -9.1867     16.8850     44.6149   7.3281923798e+01   6.7396616551e+01    0.2427261    0.1639298 -68.50 0.0007657629    1.396    0.284
       461  -8.2461    132.7026     43.1069   2.9260493375e+01   4.6696896657e+01    0.2481863    0.1758341 -49.67 0.0004935977    1.469    0.319
       462  -9.4833     69.6211     41.3072   4.7411383499e+01   6.1166592636e+01    0.3931637    0.2627044 -60.86  0.001174634    1.981    0.495
       463  -8.7870     58.1827     42.4929   5.2606119284e+01   6.2909904945e+01    0.2839755    0.2065715 -67.60  0.001096358    1.843    0.457
       464  -9.8087      5.2728     41.7727   7.8616597705e+01   6.8804787400e+01    0.3799814    0.2080757 -84.97  0.001831955    2.174    0.540
       465  -8.5815    105.9489     41.2443   3.5230758613e+01   5.3536282335e+01     0.254786    0.1946599 -47.45 0.0005455234    1.359    0.264
       466  -7.8172    140.4857     41.4258   2.6990600628e+01   4.4965484791e+01    0.1509058    0.1424086 -72.33 0.0001302766    1.062    0.058
       467  -8.9158     36.8915     40.6260   6.1685748309e+01   6.6301233792e+01    0.2471349    0.1758634 -56.46 0.0005508519    1.357    0.263
       468  -7.4622    160.6574     39.3428   2.2527870229e+01   4.0038587737e+01     0.164817    0.1068389 -63.21 0.0007047663    1.783    0.439
       469  -8.7055     95.4687     37.6362   3.6809445267e+01   5.6524062702e+01    0.3012325    0.2098746 -60.94 0.0007785498    1.871    0.466
       470  -8.0477     80.7166     36.3568   4.1108169796e+01   5.9900693470e+01    0.2652067    0.1612138 -46.55   0.00083977    1.736    0.424
       471  -8.7317     92.6722     42.6484   3.9798341915e+01   5.6295372805e+01    0.2333161    0.1731299  10.12  0.000853922    1.710    0.415
       472  -9.4397     26.2398     35.1506   6.5038575036e+01   6.8638039546e+01    0.2990558     0.203221 -66.46 0.0008957201    1.636    0.389
       473  -8.0991    126.0337     35.3197   2.7799969106e+01   4.9547194875e+01    0.2028612    0.1893304  64.65 0.0003200007    1.071    0.066
       474  -8.5968    111.9705     34.5191   3.0858435266e+01   5.3151721893e+01    0.2882529      0.19057 -48.37 0.0007875201    1.639    0.390
       475  -8.8795     48.6720     33.1923   5.2800457845e+01   6.6197111522e+01    0.2649334    0.2108346 -68.36 0.0008316709    1.678    0.404
       476  -8.3376    119.0386     33.0113   2.8500929497e+01   5.1633240076e+01    0.2362039    0.1727806 -64.67 0.0005524241    1.657    0.396
       477  -8.8857     60.8145     32.3349   4.6968847044e+01   6.4380034886e+01     0.233815    0.1727115 -45.87 0.0006149248    1.374    0.272
       478  -8.9403     72.0897     30.6267   4.1634786204e+01   6.2586803302e+01     0.263685    0.1853535 -50.74  0.000880948    1.627    0.385
       479  -8.8934     12.9766     30.2123   7.0641458780e+01   7.0860080514e+01    0.2785804    0.1618365 -70.67 0.0008908091    1.923    0.480
       480  -8.4792    101.6121     29.2909   3.1403105946e+01   5.6393387245e+01    0.2248741    0.1660455 -62.90  0.001081558    1.709    0.415
       481  -8.8270     81.6185     27.2232   3.6595984801e+01   6.1182980993e+01    0.3008318    0.2196712 -58.15 0.0009017654    1.763    0.433
       482  -9.2001      3.8608     27.6142   7.5229045782e+01   7.2019608803e+01    0.2273434    0.1548807 -68.50 0.0009501984    1.396    0.283
       483  -8.7289     91.9472     26.4162   3.2908351419e+01   5.9036710956e+01    0.2674436    0.1862016 -44.78 0.0006187737    1.542    0.351
       484  -8.2239    104.5884     22.7791   2.7738298276e+01   5.6573330807e+01    0.2015012    0.1271017 -39.40 0.0006471435    1.625    0.385
       485  -8.9954     63.6854     20.6799   3.9979729242e+01   6.5776171538e+01    0.3365271    0.2014543 -46.36 0.0009025385    1.903    0.475
       486  -8.9068     48.2567     21.2298   4.7089744736e+01   6.8395004010e+01    0.2608474    0.1935355 -45.63  0.000823703    1.430    0.301
       487  -8.0102     34.3472     22.6874   5.4999497101e+01   7.0165445025e+01    0.1175371    0.1028083  89.99 0.0007046438    1.715    0.417
       488  -8.1426     19.5540     21.4583   6.2992728608e+01   7.2084396004e+01    0.1241192    0.1020896 -34.70 0.0001371125    1.014    0.014
       489  -8.9554     74.2338     19.3475   3.5280346019e+01   6.3876326074e+01    0.2973036    0.2120594 -51.12 0.0006520072    1.714    0.417
       490  -8.0884     87.8305     17.7345   3.0027177793e+01   6.1141353815e+01    0.1834805    0.1595504 -55.65 0.0005714517    1.333    0.250
       491  -8.1067     38.9941     18.2934   5.0178893079e+01   7.0302707706e+01    0.1741531    0.1540703  -7.17 0.0003889093    1.070    0.065
       492  -7.5583    112.5580     16.5547   2.3098154903e+01   5.5372438134e+01    0.1397522    0.1345863  41.10 8.210539e-05    1.001    0.001
       493  -8.2643     30.4368     15.9395   5.3625522847e+01   7.1876333506e+01    0.1608879    0.1069477 -63.71   0.00080556    2.411    0.585
       494  -8.2661     97.2773     14.9635   2.6050884109e+01   5.9285966141e+01    0.1978678    0.1764667 -13.99 0.0007109964    1.125    0.111
       495  -8.2076      7.4137     15.2221   6.7969878992e+01   7.4349724711e+01    0.1598735    0.1029583 -62.85  0.000792795    1.613    0.380
       496  -8.1634     17.0102     13.9549   6.0852673055e+01   7.3762580812e+01    0.1465068    0.1204744 -26.40 0.0004304514    1.030    0.029
       497  -8.9538    218.8336    247.6954   5.8771157482e+01  -3.8262181945e+00     0.252161    0.1397772 -39.51  0.001644755    2.388    0.581
       498  -9.0491    175.4873    247.4906   6.6008257032e+01   1.9096347290e+00    0.2385304    0.1954828  67.71  0.001273186    1.877    0.467
       499  -8.9650    132.1666    247.7519   7.3744787552e+01   7.8585311699e+00    0.2185088    0.1549103  70.14 0.0007935124    1.851    0.460
       500  -8.1387    113.0393    248.6920   7.7312753781e+01   1.0334718653e+01    0.1784581    0.1306287  82.57  0.001245147    1.721    0.419
       501  -8.5664     93.8546    248.8671   8.0820716317e+01   1.2853312068e+01    0.2070101    0.1150469  68.44  0.001035536    2.152    0.535
       502  -7.6097     86.3013    249.6852   8.2255927581e+01   1.3700782073e+01    0.1135892   0.06358925  58.52 0.0004885592    1.614    0.380
       503  -9.2414    243.0945    245.7671   5.4695308445e+01  -6.5928359587e+00    0.3254321    0.1443144 -13.85  0.001787281    2.881    0.653
       504  -8.8605    156.2636    247.8051   6.9423718770e+01   4.5158001041e+00    0.1521003    0.1416904 -55.73 0.0006761541    1.449    0.310
       505  -9.0505    103.8665    246.7719   7.8814383922e+01   1.1853489308e+01    0.3138077    0.1731619 -84.30  0.001756677    2.870    0.652
       506  -9.4569    224.4915    245.5106   5.7563290354e+01  -4.3108598373e+00    0.2150532    0.1549955  -5.16 0.0009711825    1.281    0.220
