#   1 NUMBER                 Running object number                                     
#   2 MAG_AUTO               Kron-like elliptical aperture magnitude                    [mag]
#   3 X_IMAGE                Object position along x                                    [pixel]
#   4 Y_IMAGE                Object position along y                                    [pixel]
#   5 X_WORLD                Barycenter position along world x axis                     [deg]
#   6 Y_WORLD                Barycenter position along world y axis                     [deg]
#   7 A_WORLD                Profile RMS along major axis (world units)                 [deg]
#   8 B_WORLD                Profile RMS along minor axis (world units)                 [deg]
#   9 THETA_WORLD            Position angle (CCW/world-x)                               [deg]
#  10 FWHM_WORLD             FWHM assuming a gaussian core                              [deg]
#  11 ELONGATION             A_IMAGE/B_IMAGE                                           
#  12 ELLIPTICITY            1 - B_IMAGE/A_IMAGE                                       
         1 -14.3040     68.5050    144.3170   9.9591772875e+01   3.7427815411e+01      4.34297     2.209209  70.27   0.01259183    4.580    0.782
         2 -13.4198    200.8537     42.1367   4.0517136650e+01   2.9963371961e+01     1.292107     1.071783 -27.74   0.00364554    1.389    0.280
         3 -13.4852    211.2550     32.0881   3.6928467833e+01   2.8881427660e+01    0.8877442     0.791869  32.61  0.001867354    1.502    0.334
         4 -12.8864    236.7642      6.2302   2.9209824495e+01   2.6368833889e+01    0.8084888    0.5956478 -85.48  0.004994555    1.154    0.133
         5  -9.7319     44.0072      6.5003   6.4664701730e+01   6.8954236150e+01    0.1823438   0.07804989  26.08 0.0008106259    2.593    0.614
         6  -8.1568    224.4079    206.5134   7.3749961574e+01  -2.9701909463e+00    0.1342587    0.1052592  -6.87 -0.0001296584    1.080    0.074
         7 -11.1335    139.7011    248.0323   9.7980564477e+01   3.0905068617e+00    0.5278625    0.2626964 -49.54  0.002630476    2.364    0.577
         8  -9.3388    129.1805    250.3543   1.0048091427e+02   4.2753308245e+00    0.1923856   0.09595639  42.23 0.0006679907    1.704    0.413
         9 -10.5104    103.2857    237.0148   1.0435686991e+02   1.0614178725e+01    0.2454238    0.2186117  78.91  0.001583274    1.186    0.157
        10 -10.4334    102.0000    248.6046   1.0594855608e+02   8.6037030991e+00    0.2757749    0.1829753 -62.24  0.001003665    1.757    0.431
        11 -11.1538    101.3776    243.6374   1.0552841811e+02   9.6230132358e+00    0.4503105    0.2554101 -69.48   0.00209153    2.176    0.540
        12 -12.9594     54.0215    186.5480   1.0980454484e+02   2.8674673363e+01      1.76653     1.145029  82.01   0.00896221    1.634    0.388
        13 -10.5017    193.4919    205.4940   7.9689477284e+01   2.0212962120e+00    0.2110578    0.1220213  24.19 0.0009852151    1.775    0.437
        14 -10.2501    107.6155    203.8066   9.8947991458e+01   1.6877485369e+01    0.2404749    0.1848798  65.91 0.0007557932    1.418    0.295
        15 -10.6710    110.9678    202.9987   9.8020337215e+01   1.6513453038e+01     0.300892    0.2139798  52.09 0.0006366463    1.400    0.286
        16  -9.5665    204.3780    200.8340   7.6580997110e+01   1.0725482912e+00    0.2009759    0.1157439 -28.40 0.0009535099    1.748    0.428
        17 -11.0039    193.3571    195.5128   7.7819724768e+01   3.8457473728e+00      0.89442    0.4776826 -62.23  0.002836338    5.039    0.802
        18 -10.6803    121.9820    198.2308   9.4605252674e+01   1.5735260269e+01    0.4335231     0.287809 -76.02  0.001959408    2.049    0.512
        19 -10.1016    111.1518    197.2292   9.7079618236e+01   1.7773726534e+01    0.3785149    0.1818428  20.84  0.001277935    3.403    0.706
        20  -9.5091     59.3527    196.9905   1.0970884863e+02   2.5505891265e+01    0.2069881    0.1798843  52.04 0.0008659015    1.124    0.111
        21  -8.6899     82.4764    194.9622   1.0381040650e+02   2.2794592782e+01    0.2079269    0.1343155 -63.96  0.000804745    1.560    0.359
        22  -8.9905     20.5651    195.2237   1.1858899498e+02   3.0266224433e+01    0.2121049    0.1617516  44.87  0.001138091    1.330    0.248
        23 -14.6958      9.4256    207.3779   1.2183788536e+02   2.8548702666e+01     1.183958     1.054958 -48.31  0.004192895    1.509    0.337
        24  -9.4022    118.5398    191.0114   9.4240613022e+01   1.7939618539e+01    0.2173386    0.1456248 -56.51 0.0008742877    1.571    0.364
        25  -8.3564    195.9795    190.0136   7.6195275965e+01   4.4131569661e+00    0.1698948    0.1483173 -12.60 0.0003269858    1.044    0.042
        26 -10.1422    147.6173    187.6480   8.6550894722e+01   1.3530229597e+01    0.4639262    0.3206462 -74.97  0.002012809    2.216    0.549
        27  -8.1521     76.3275    184.7113   1.0392820642e+02   2.6140485372e+01    0.1484243    0.1004458  65.36 0.0003508998    1.615    0.381
        28 -13.5771     20.4294    221.4272   1.2046782677e+02   2.4436737975e+01    0.9630809    0.7253075  43.06  0.004748601    1.337    0.252
        29  -8.9446     79.8521    182.7061   1.0273308852e+02   2.6116073713e+01    0.2918023    0.1778758  83.02  0.001233505    2.229    0.551
        30  -9.6167     99.4091    180.8804   9.7382630131e+01   2.3521085574e+01    0.2724844    0.2596616 -58.12 0.0006795631    1.084    0.078
        31 -11.0497     41.2909    177.2448   1.1193480186e+02   3.2440864308e+01    0.4869311    0.3422899 -11.44   0.00169963    2.207    0.547
        32 -14.3674     40.8669    195.7348   1.1396835172e+02   2.8031611123e+01      6.23803     2.392308  72.68  0.008619872    5.623    0.822
        33 -10.1434    186.9815    175.5175   7.5149466854e+01   8.7862302403e+00    0.3800085    0.3082886 -43.81  0.001375031    1.281    0.219
        34 -12.9819     69.2262    154.1068   1.0110645611e+02   3.4814870178e+01    0.6836413    0.4994945 -54.81  0.001047981    1.303    0.232
        35 -10.3422    184.0356    212.2852   8.2916178342e+01   2.3582086414e+00    0.3256133    0.1930527 -50.41  0.001553564    2.053    0.513
        36 -11.1829    120.0935    173.4435   9.0689004048e+01   2.1745410794e+01    0.6961164    0.1846719  34.58  0.001909401    4.120    0.757
        37  -9.0634     34.6387    171.7567   1.1302431240e+02   3.4507296363e+01     0.271652    0.1755371  62.72  0.001052946    1.568    0.362
        38 -12.0016     81.0061    159.2553   9.8648624494e+01   3.1787672236e+01     1.031239     0.553904  62.40  0.000443124    2.766    0.638
        39 -10.0396    240.2426    169.5794   6.3623742670e+01   7.1464047137e-01    0.1719856    0.1199339  20.54  0.000339924    1.579    0.367
        40  -8.7575    110.8439    167.8345   9.2047754299e+01   2.4735162986e+01      0.21241     0.179325  75.89 0.0004848985    1.333    0.250
        41 -12.2036     54.2248    146.5976   1.0422728545e+02   3.8702100381e+01     1.398945     1.023581 -43.58  0.007236576    1.422    0.297
        42  -8.5242    120.4971    165.5424   8.9044216125e+01   2.3551643572e+01    0.1526267    0.1487137  62.65 6.476732e-05    1.040    0.039
        43 -15.2840      3.6332    185.0611   1.2165478971e+02   3.4109321237e+01     11.33929          nan -73.01   0.02535868    8.002    0.875
        44 -10.1631     33.1892    156.1046   1.1159040035e+02   3.8575707380e+01    0.3153112    0.2554461 -16.92  0.001817634    1.592    0.372
        45 -11.5594     88.2276    152.4905   9.5354932949e+01   3.2375079551e+01    0.6858448     0.474663 -19.26  0.001978511    2.063    0.515
        46 -10.5719    133.7564    145.2581   8.1171748438e+01   2.5831440165e+01     1.247726     0.321694 -54.33  0.002765281    5.981    0.833
        47  -8.7661    111.3306    149.5114   8.8209142307e+01   2.9131746301e+01    0.3200935    0.2055205  64.92  0.001253923    2.208    0.547
        48  -9.2485    174.9074    149.1674   7.2028729352e+01   1.6533009121e+01     0.231787    0.2139295 -79.49  0.000570298    1.281    0.219
        49 -10.7995     28.6225    144.2816   1.1138187148e+02   4.2006383028e+01    0.3371796    0.2860654 -83.00  0.002046017    1.058    0.055
        50 -10.3364    101.9398    138.7056   8.8519915564e+01   3.3512778174e+01     0.617748    0.3863339 -18.50  0.002263714    2.669    0.625
        51 -10.1410    105.9761    131.0522   8.5576077266e+01   3.4665701674e+01    0.4358139    0.3205582 -51.59  0.001643452    1.328    0.247
        52 -11.5888     89.5247    138.0229   9.2039232699e+01   3.5827676123e+01    0.3032027    0.2643595 -37.00 0.0004767232    1.168    0.144
        53 -10.6229     25.8496    137.4997   1.1129841415e+02   4.3973615892e+01    0.3414001    0.2397967  36.64  0.001434003    1.587    0.370
        54 -11.3926     68.0854    172.3470   1.0430259087e+02   3.0348186252e+01    0.4374807    0.3150249 -30.87  0.002066895    1.807    0.447
        55 -10.0526    135.4480    128.7879   7.6762667711e+01   2.9324802379e+01    0.3699965    0.2813571 -67.06  0.001210157    1.580    0.367
        56  -9.4011    111.3228    129.4885   8.3641249589e+01   3.4034864538e+01    0.3197515    0.2537711 -15.11 0.0008110388    1.507    0.337
        57 -11.4344     72.4618    167.5616   1.0239599768e+02   3.0940066683e+01    0.4799262     0.317892 -53.58  0.001139597    1.482    0.325
        58 -10.3308     28.3571    128.5796   1.0926838509e+02   4.6022862583e+01    0.3441186    0.2498033  66.53   0.00187323    1.564    0.360
        59  -9.1350    160.8076    127.9549   7.0189386901e+01   2.4057472015e+01    0.2669255    0.1870905 -69.63  0.001092303    1.996    0.499
        60 -10.1942     98.6840    125.1928   8.6348399689e+01   3.7441448312e+01    0.3421507    0.2706061 -13.65  0.001422658    1.517    0.341
        61  -8.5055    147.7962    173.9083   8.3812887388e+01   1.6501992643e+01    0.1988929     0.180291  89.69 0.0004360652    1.312    0.238
        62 -10.3893    118.5813    122.6561   7.9852168481e+01   3.4238341004e+01    0.6300218    0.3960947  -1.56  0.002090332    3.234    0.691
        63  -8.4340    163.6665    121.3456   6.7851586408e+01   2.4843469560e+01    0.1633439    0.1264925 -81.56 0.0007049646    1.765    0.433
        64  -9.0727     86.9483    120.4748   8.8845112909e+01   4.0649774160e+01    0.3343858    0.2366157  67.71  0.001443962    1.959    0.489
        65  -8.9816    135.0000    119.9496   7.4621199265e+01   3.1438007122e+01    0.2698702   0.09016977 -45.41 0.0008031345    2.947    0.661
        66 -11.2469     33.4484    118.6642   1.0602968094e+02   4.8079262648e+01    0.3844395    0.2381784 -47.54  0.001695758    1.469    0.319
        67  -9.3288    107.7424    118.5688   8.1966507286e+01   3.7349887172e+01    0.2485076    0.2212428  -7.29 0.0003336004    1.206    0.171
        68 -10.0900    231.3478    113.6804   5.3086277365e+01   1.2013723851e+01    0.2884622    0.2393509 -36.95 0.0007743421    1.067    0.063
        69 -10.9148     52.8459    109.4540   9.7614687745e+01   4.8330805329e+01    0.4798497    0.2143193 -50.07  0.001966823    1.950    0.487
        70  -9.2581    205.3185    110.2499   5.6587494264e+01   1.7912385212e+01     0.288586    0.2071257  44.48  0.001357922    1.529    0.346
        71 -10.0118    115.0237    108.7325   7.7196267025e+01   3.8191601883e+01    0.3441472    0.2783737 -34.18  0.001645459    1.241    0.195
        72  -8.9309    134.6227    105.2178   7.0750101967e+01   3.4776527189e+01    0.2302898    0.1480951 -33.50 0.0006582238    1.657    0.396
        73  -8.2584    137.5418    104.4932   6.9780437938e+01   3.4281760219e+01    0.1568702    0.1544745 -53.89  0.000259768    1.042    0.041
        74 -10.8955     33.6097    109.1170   1.0423752443e+02   5.0457975182e+01    0.3949668    0.2350562 -73.86  0.001893246    1.722    0.419
        75 -10.7101     40.7946    103.4263   1.0054767106e+02   5.1166112555e+01    0.5025717    0.2234445  43.47  0.002021957    2.825    0.646
        76  -9.9043    241.7779    101.6125   4.8904964391e+01   1.2076566540e+01    0.1728188    0.1284549  75.73  0.000910283    1.676    0.403
        77 -10.3471     32.5918     99.5706   1.0269834360e+02   5.2901236041e+01    0.3583741    0.2319549  45.50  0.001491803    1.896    0.473
        78  -9.1285     53.2350     90.9776   9.3007904996e+01   5.2741684804e+01    0.1940307    0.1096144 -54.04 0.0006056138    1.620    0.383
        79  -9.1822     14.5790     89.4784   1.0738415946e+02   5.6711115845e+01    0.2377878    0.1273368  16.22  0.001211919    2.180    0.541
        80  -7.8764    118.3029     87.6128   7.0136794110e+01   4.2066956418e+01     0.159673     0.124667 -79.37 0.0002713496    1.795    0.443
        81  -8.4451    154.6409     86.2844   6.0451794848e+01   3.3985809675e+01    0.1574586    0.1215369 -84.42 0.0007019868    1.676    0.403
        82  -8.7936     74.9074     85.1436   8.3390322635e+01   5.0946556208e+01    0.2074205    0.1993437  81.17 0.0005054066    1.260    0.206
        83  -8.8815    158.8663     82.8584   5.8541135409e+01   3.3615644961e+01    0.2109828    0.1811036 -77.52 0.0004554641    1.299    0.230
        84  -8.7416    151.0027     82.9772   6.0330269162e+01   3.5465952175e+01    0.2345435    0.1844789 -76.82 0.0004126852    1.582    0.368
        85  -9.3634    112.0709     81.9668   7.0211284557e+01   4.4548893678e+01     0.344367    0.2440799  74.96  0.001386052    2.203    0.546
        86  -9.0073     69.9583     81.8355   8.4182822692e+01   5.2458345246e+01    0.2064019    0.1919614  65.31 0.0006057241    1.339    0.253
        87  -9.1557     54.3384     65.6525   8.5074963896e+01   5.8149451979e+01    0.2119591    0.2018257  30.76 0.0006449811    1.280    0.219
        88 -11.0238     12.3989     58.7725   1.0129469244e+02   6.3772393919e+01    0.5801356    0.3618163  68.08  0.002692051    3.399    0.706
        89 -10.5106    127.6239    244.2159   1.0002893479e+02   5.5945371071e+00    0.2411487    0.1562389  29.04 0.0008705303    1.417    0.294
        90 -10.6381     13.7818     31.9868   9.1931357740e+01   6.8925683316e+01    0.2427357    0.1461708  24.97  0.001453305    1.819    0.450
        91  -8.7626    164.3437    212.2967   8.7178064561e+01   5.6177899746e+00    0.1445698    0.1025813   1.36 0.0005749151    1.668    0.401
        92  -9.1939    198.1027     23.4925   3.6299342908e+01   3.2911226381e+01     0.191438    0.1579735 -47.94  0.000581973    1.225    0.184
        93 -12.9500    190.5359     49.6776   4.3789738192e+01   3.1349039632e+01     1.075246    0.8510021  38.75  0.001118432    1.532    0.347
        94  -8.8234    189.4932     14.9559   3.5136465626e+01   3.5854780078e+01     0.174294     0.122817 -34.80 0.0005683283    1.532    0.347
        95 -17.0109     14.6459    243.0879   1.2282750878e+02   2.0578541806e+01     6.880011     5.578774  58.87   0.03222352    1.175    0.149
        96  -9.1141     89.1119    210.9637   1.0433619421e+02   1.8155827199e+01    0.2013504    0.1809442  69.96  0.000518748    1.052    0.049
