#   1 NUMBER                 Running object number                                     
#   2 MAG_AUTO               Kron-like elliptical aperture magnitude                    [mag]
#   3 X_IMAGE                Object position along x                                    [pixel]
#   4 Y_IMAGE                Object position along y                                    [pixel]
#   5 X_WORLD                Barycenter position along world x axis                     [deg]
#   6 Y_WORLD                Barycenter position along world y axis                     [deg]
#   7 A_WORLD                Profile RMS along major axis (world units)                 [deg]
#   8 B_WORLD                Profile RMS along minor axis (world units)                 [deg]
#   9 THETA_WORLD            Position angle (CCW/world-x)                               [deg]
#  10 FWHM_WORLD             FWHM assuming a gaussian core                              [deg]
#  11 ELONGATION             A_IMAGE/B_IMAGE                                           
#  12 ELLIPTICITY            1 - B_IMAGE/A_IMAGE                                       
         1 -13.0601    195.7049     31.7959   6.6148077555e+01   3.2628463944e+01    0.9635554    0.9242431  55.94  0.006212719    1.245    0.197
         2 -13.9190    209.4597     14.7887   6.0550723486e+01   3.1409553330e+01     1.375323    0.9940579  38.28  0.007891495    1.945    0.486
         3 -11.9916      2.0986      5.4623   1.1113494712e+02   7.1711411289e+01    0.8157172    0.1556882 -43.34  0.003446925    4.364    0.771
         4 -11.8888    246.4769    240.9006   1.0325833934e+02  -1.3086362805e+01    0.4277846    0.2630762  44.67  0.002458127    1.971    0.493
         5 -10.1782    205.2635    250.4402   1.1247155090e+02  -8.2315985860e+00    0.2375088    0.1040155  35.01 0.0007080612    2.001    0.500
         6 -10.4093    193.2891    249.7377   1.1465125772e+02  -6.2077284910e+00    0.2558499    0.1895664  33.20  0.000646651    1.141    0.124
         7 -12.0007    199.4355    246.3516   1.1293134124e+02  -6.6958248736e+00    0.5586862    0.2747208  40.43  0.002415869    1.785    0.440
         8 -10.2875    193.8482    245.1236   1.1381452319e+02  -5.5962200408e+00    0.1935476     0.163636  25.58 0.0003132589    1.002    0.002
         9 -10.2795    184.1361    250.4534   1.1653104626e+02  -4.8168403964e+00    0.2150813    0.1291443  35.10  0.001167504    1.428    0.300
        10 -10.8767    169.8496    248.5104   1.1902774165e+02  -2.1225571158e+00    0.3460406    0.2378931  11.67 0.0007787287    1.919    0.479
        11 -11.5523    149.8309    248.1766   1.2292526054e+02   1.3298743049e+00    0.4061079    0.3367923 -82.83  0.002529745    1.475    0.322
        12 -10.6313    143.0450    249.0466   1.2438263212e+02   2.3304324921e+00    0.3455453    0.1808885  55.80  0.001497066    2.042    0.510
        13 -12.0864    133.7156    248.7107   1.2617390978e+02   3.9624905171e+00     1.082831    0.2412093  42.36  0.003642251    3.648    0.726
        14 -11.2498    122.3840    249.6802   1.2851483882e+02   5.6765771134e+00    0.7873783    0.2713379  52.82  0.002964675    3.173    0.685
        15 -12.6240    125.0857    240.7971   1.2685467387e+02   6.8607544089e+00    0.8730471    0.4807205  34.23  0.004262198    1.888    0.470
        16 -10.7422    115.4469    250.5050   1.2996100318e+02   6.6641281998e+00    0.4101522     0.215354  43.58 0.0008873247    1.604    0.376
        17 -11.3792    109.7422    247.5134   1.3071450096e+02   8.1411432521e+00    0.5198045    0.3788216 -80.87  0.002139568    1.509    0.337
        18 -11.7240     98.7973    232.6981   1.3112271817e+02   1.2781429201e+01    0.8932994    0.3618701 -72.73  0.003348271    3.723    0.731
        19 -11.6226     96.9326    239.7641   1.3232116678e+02   1.1673442348e+01    0.4517585    0.3929569 -61.91  0.002744001    1.378    0.274
        20 -11.3489     84.9457    234.5397   1.3409426020e+02   1.4576720013e+01    0.4428774    0.3854551 -71.86  0.002329111    1.301    0.232
        21 -10.1331     84.6243    229.7544   1.3362590037e+02   1.5603621829e+01    0.2347429    0.2185513  47.09 0.0008199653    1.320    0.243
        22 -10.1753    102.9202    247.3332   1.3201438475e+02   9.2688502596e+00     0.286389    0.1983452 -73.55 0.0007877017    1.570    0.363
        23 -11.2199     98.7609    246.8988   1.3276713639e+02   1.0008819669e+01    0.6268253    0.3429079  63.43  0.003195242    1.883    0.469
        24 -10.6988    113.3168    230.4418   1.2788497541e+02   1.0849923467e+01    0.3043524    0.2414594  60.93 0.0008988596    1.107    0.097
        25 -11.9912    105.5437    228.1668   1.2918739872e+02   1.2602528350e+01    0.7649255    0.4242947  65.11  0.003560603    2.078    0.519
        26 -10.9455     99.2459    223.3287   1.2987148279e+02   1.4632247672e+01    0.3923176    0.2631056  49.79  0.001180453    1.322    0.243
        27 -10.4748     91.4343    241.5257   1.3359140636e+02   1.2188466247e+01     0.283325    0.2162204  77.43  0.001206865    1.199    0.166
        28 -10.7444     89.8077    238.2420   1.3354736386e+02   1.3087680788e+01    0.2705598    0.1997065 -61.31 0.0008988006    1.523    0.344
        29 -11.1641     87.6279    248.3871   1.3504701563e+02   1.1446360763e+01    0.4702352    0.3039468  51.21  0.001143217    1.282    0.220
        30 -10.3394     82.0254    247.1650   1.3597804811e+02   1.2523248890e+01    0.4115792    0.2266108 -86.39  0.002137242    2.125    0.529
        31 -12.8979     64.1457    245.6568   1.3915433930e+02   1.5394006278e+01     2.082851    0.7207056  35.93  0.008779303    3.273    0.695
        32 -14.5344     42.5673    218.6285   1.4079324501e+02   2.3795105184e+01     1.815306     1.539319  23.77   0.01212359    1.735    0.424
        33 -10.6892    116.6903    238.5303   1.2824575597e+02   8.7002835679e+00    0.3891668    0.2534893 -40.17  0.001774143    2.165    0.538
        34  -9.8491     84.6061    241.9278   1.3495224655e+02   1.3154654330e+01     0.262519    0.1723263  30.21  0.001437847    1.951    0.487
        35  -9.5678     61.6706    238.6826   1.3898134632e+02   1.7119432777e+01    0.2424171    0.1890201  33.48  0.001549756    1.652    0.395
        36 -10.5768    104.6460    237.9474   1.3058239917e+02   1.0795062289e+01    0.2249233    0.1619532  39.47 0.0009634892    1.381    0.276
        37 -10.7719    122.4465    233.3526   1.2640117777e+02   8.7305320777e+00    0.3703825    0.3117844 -65.06  0.001833662    1.314    0.239
        38 -10.8639    127.4093    233.7723   1.2544302126e+02   7.7995550639e+00    0.2375945    0.1789038  42.00 0.0009623431    1.215    0.177
        39  -9.5184    173.0859    235.9241   1.1645501621e+02  -5.7724299252e-01    0.1870908     0.165907  55.01 0.0002868525    1.194    0.162
        40 -14.2533      8.2172    147.6764   1.4112723796e+02   4.3351042249e+01     3.079367    0.6093056 -64.41  0.005691864    3.184    0.686
        41  -9.6935    165.5614    234.4983   1.1775147141e+02   9.8720361724e-01    0.1332327    0.1173836  36.09 -0.0004024244    1.021    0.021
        42 -10.8811    156.7386    231.7327   1.1912235395e+02   3.0409585701e+00    0.2444242    0.2331355 -26.93 0.0003991084    1.195    0.164
        43 -10.7111     62.9952    232.9424   1.3819309210e+02   1.8102299792e+01    0.1954956    0.1549758  65.89 0.0003106458    1.074    0.069
        44 -13.0187     35.4053    227.9028   1.4292997706e+02   2.2711208996e+01    0.4692531    0.4131959  84.76 0.0008303651    1.286    0.222
        45 -10.8212    142.4115    229.7211   1.2177237392e+02   5.9563122966e+00    0.3994845    0.2300062 -42.19   0.00192059    2.131    0.531
        46  -8.6937     57.4663    231.0383   1.3906852453e+02   1.9251684839e+01    0.1698365    0.1067819 -76.07 0.0009577362    1.489    0.328
        47  -9.1276    180.2795    229.2391   1.1391698547e+02  -6.8621222419e-01    0.2140437    0.1543767  72.12  0.001066404    2.112    0.526
        48  -9.8996     55.4208    235.7136   1.3988024327e+02   1.8568420246e+01    0.3158365    0.1816253  72.17  0.001305802    1.613    0.380
        49 -10.6183     79.3406    225.9887   1.3426362242e+02   1.7187017413e+01    0.4734298     0.261481 -73.40  0.001458346    1.855    0.461
        50  -9.7231     77.2997    220.9173   1.3410579616e+02   1.8565821945e+01    0.2197248    0.1622502  75.30 0.0004851734    1.212    0.175
        51  -9.9640     92.5871    226.0235   1.3157894499e+02   1.5138209802e+01     0.246115    0.1658969  54.70 0.0006229046    1.298    0.229
        52 -10.1807    158.0529    242.6247   1.2049734231e+02   8.7775392317e-01     0.205242     0.180286 -82.43 0.0007502869    1.372    0.271
        53  -9.8282    132.4635    224.4971   1.2307436835e+02   8.7319243772e+00     0.189722    0.1287216 -44.29 0.0009738852    1.753    0.430
        54  -9.5994    129.6712    222.0143   1.2329666743e+02   9.7219385665e+00    0.3908738    0.2121009 -82.02  0.001406041    3.802    0.737
        55 -10.1361    117.3310    224.2552   1.2621783739e+02   1.1417337499e+01    0.2424763    0.2090589  63.13 0.0002612189    1.018    0.018
        56 -10.3596    161.0719    223.3566   1.1689603704e+02   3.8114242724e+00    0.3791456    0.2440739  14.64 0.0007289474    2.352    0.575
        57  -8.7895    155.6686    223.2923   1.1801461499e+02   4.8027223786e+00    0.1389307    0.1019093  67.58  0.000609261    1.631    0.387
        58 -11.2550    142.2422    221.6942   1.2058798575e+02   7.5399793262e+00    0.4216226    0.2507597  38.00  0.001088625    1.583    0.368
        59  -9.6057    110.8392    221.3032   1.2717646792e+02   1.3130784694e+01    0.3583757   0.07929263 -53.20  0.001110036    4.674    0.786
        60 -10.5431     73.1795    209.7363   1.3366102443e+02   2.1609928137e+01    0.5342117    0.3312205  17.13  0.002286666    3.093    0.677
        61 -10.4910     70.4111    218.8443   1.3527882865e+02   2.0020468196e+01    0.4551229    0.2573344 -74.09  0.001990257    1.728    0.421
        62  -9.5067     68.0066    214.7074   1.3531299544e+02   2.1262730997e+01    0.1784747    0.1445258  68.92 0.0005362635    1.061    0.057
        63 -10.6297    245.8277    219.9095   9.9633029949e+01  -1.0032124137e+01    0.3265335    0.1482816 -28.18  0.001506572    2.335    0.572
        64  -8.7933    173.0000    218.9900   1.1368093146e+02   2.4528882832e+00    0.2022178   0.07973848 -46.91 0.0007797793    2.788    0.641
        65  -9.4605    104.8797    218.6946   1.2808178132e+02   1.4678860476e+01    0.2027681    0.1754739 -66.72 0.0002113159    1.246    0.198
        66  -9.2238     99.7027    217.6691   1.2904133453e+02   1.5752540651e+01    0.2306352    0.1592403 -50.22 0.0008441068    1.698    0.411
        67  -8.6380     89.4390    218.4734   1.3130483871e+02   1.7229696657e+01    0.2125096    0.1239331 -64.73 0.0001719568    1.737    0.424
        68  -9.8650     88.3270    213.1255   1.3086571794e+02   1.8561753285e+01    0.3464759    0.2048123 -83.80  0.001364567    1.945    0.486
        69 -10.7339    137.4355    214.5301   1.2049098673e+02   9.8480347602e+00    0.3913576    0.2603959  83.48  0.001253879    2.193    0.544
        70  -8.5358    133.6861    217.6964   1.2179097330e+02   9.8804168062e+00    0.1320728    0.1104074   2.09 0.0003330765    1.617    0.382
        71  -8.7484    119.4096    217.4870   1.2481699500e+02   1.2452925326e+01    0.1368512    0.1224974  65.29  0.000100557    1.020    0.020
        72  -8.6635    159.8010    213.9756   1.1560191388e+02   5.8370874970e+00    0.1734966    0.1123101 -48.73 0.0005187002    1.687    0.407
        73  -9.6516    102.4252    212.5028   1.2776112881e+02   1.6412992424e+01    0.4356128    0.2260038  76.53  0.001557869    3.556    0.719
        74  -9.7801    107.2289    209.4835   1.2629217576e+02   1.6259855397e+01    0.3226523    0.2324309 -25.40  0.001209954    2.314    0.568
        75  -9.9688    112.5116    208.4196   1.2497973514e+02   1.5583590760e+01    0.2366145    0.2222651  69.63  0.000553577    1.095    0.087
        76 -10.1398     96.2262    206.4006   1.2826312839e+02   1.8775449531e+01    0.4762176    0.2452403 -81.91  0.001549167    2.866    0.651
        77 -10.7422     91.9386    204.2872   1.2891222611e+02   1.9942722281e+01    0.4395429    0.4111244  55.72  0.001461535    1.193    0.162
        78  -9.5239    141.1834    213.0304   1.1944154344e+02   9.4692518085e+00    0.2875969    0.1687031  62.23  0.001241308    2.129    0.530
        79  -9.1424     32.8547    206.9080   1.4164250090e+02   2.7494200342e+01    0.1683615    0.1362942 -75.59 0.0003382362    1.249    0.199
        80 -11.0678    246.4964    206.0074   9.6912554320e+01  -8.0177591324e+00    0.4330116    0.2139875  23.46  0.001903222    2.613    0.617
        81  -8.9065    148.8455    204.7706   1.1639056650e+02   9.7398791029e+00    0.2458136    0.1644468  -2.73  0.000965668    2.955    0.662
        82  -8.9408    125.5180    205.5641   1.2167032483e+02   1.3895673858e+01     0.142697    0.1287973  62.21 0.0001086959    1.008    0.008
        83 -10.0027    103.1729    202.9879   1.2624093820e+02   1.8379692156e+01    0.3595282    0.2266774  52.38  0.001228605    1.492    0.330
        84  -9.6359     74.8865    203.6148   1.3254864601e+02   2.2728433763e+01    0.2895796    0.2257929   1.02 0.0007967707    2.221    0.550
        85  -8.9315    132.6710    202.7888   1.1962975834e+02   1.3184222789e+01    0.1950226    0.1317678 -67.32  0.000409774    1.676    0.403
        86 -10.6371     84.1970    201.6139   1.3025407507e+02   2.1769512675e+01    0.3300197    0.2255217 -46.31  0.001171368    1.804    0.446
        87  -9.2595     86.1093    195.8285   1.2903313245e+02   2.2791017878e+01    0.2570913    0.1786665 -89.47 0.0004246751    1.496    0.332
        88 -10.9183    165.8234    242.3570   1.1890538681e+02  -4.1535599261e-01    0.3596514    0.1389813  42.47  0.001200827    2.219    0.549
        89  -9.8167     32.5828    201.6170   1.4121494332e+02   2.8694452942e+01    0.2023459    0.1588877  85.83 0.0004847787    1.015    0.014
        90  -8.6970    182.9564    200.2663   1.0821887054e+02   4.1354898285e+00    0.1786095    0.1188184  41.96 0.0003446629    1.430    0.301
        91  -9.2492    127.9157    199.6986   1.2018032163e+02   1.4730992515e+01    0.1975497    0.1704893  55.35 0.0003416055    1.075    0.070
        92  -9.0754    115.0205    200.2921   1.2317832683e+02   1.6929524891e+01    0.1937605    0.1672444  59.61 0.0002296249    1.066    0.062
        93  -9.1268    119.9434    199.4681   1.2193799984e+02   1.6233197439e+01    0.2118388    0.1330173  44.11 0.0003604961    1.501    0.334
        94  -9.5926     53.9368    197.7801   1.3637176564e+02   2.6968080795e+01    0.3229755    0.1864611  38.97   0.00101434    1.819    0.450
        95  -9.5885     57.7090    199.2993   1.3573564083e+02   2.6125004753e+01     0.235412    0.1361108  54.64 0.0004172731    1.639    0.390
        96 -11.6433     61.6265    194.5961   1.3432863923e+02   2.6673709413e+01    0.5845811    0.3623402  38.52  0.001533464    1.717    0.418
        97  -9.2898    134.2043    197.9310   1.1846656422e+02   1.3948787028e+01    0.1849978     0.115987 -56.33  0.000537076    1.682    0.405
        98  -9.6047     97.9419    196.3809   1.2643749978e+02   2.0748418974e+01    0.4809333    0.2383245  58.90  0.001281785    2.373    0.579
        99  -9.5894    102.7509    195.9649   1.2528240832e+02   2.0034149610e+01    0.2160982    0.1953987  78.12 0.0006064253    1.019    0.019
       100 -10.8847    135.0059    236.7705   1.2430834032e+02   5.9206180643e+00    0.2945223    0.1802409  41.20  0.000699994    1.442    0.307
       101  -8.6183    168.5811    196.4919   1.1058135496e+02   7.6507579469e+00    0.1430382    0.1373554  34.99 6.016983e-05    1.014    0.014
       102  -9.1907     38.5892    195.7879   1.3941328476e+02   2.9314075356e+01    0.2688766    0.1461094 -87.65  0.001354841    1.755    0.430
       103  -9.5014     38.6304    192.2234   1.3903831059e+02   3.0120024350e+01    0.2498778    0.1464377 -52.29  0.001156384    1.951    0.487
       104 -10.3784     42.0419    189.8822   1.3805770797e+02   3.0256794298e+01    0.4528754    0.2288736  89.49  0.001600811    2.164    0.538
       105 -13.7604      5.6229    245.2128   1.4919389017e+02   2.2565131852e+01      1.24424    0.6917513  82.34  0.007352979    1.370    0.270
       106 -12.9083     14.0585    238.8215   1.4744525404e+02   2.2919800011e+01    0.6424438    0.4387908  71.59  0.001633588    1.084    0.078
       107  -8.7666    159.7935    194.4053   1.1211512280e+02   9.7916206172e+00    0.1995556    0.1353354  31.45 0.0002920958    1.565    0.361
       108  -9.0962    119.4549    194.2205   1.2118939687e+02   1.7491633786e+01    0.3161935   0.08374023  49.11  0.000743281    4.414    0.773
       109  -9.4368     72.6834    192.9371   1.3165991002e+02   2.5496049091e+01    0.1960306    0.1804299  43.47 0.0002515466    1.286    0.223
       110  -9.5574     25.6869    192.3865   1.4176615648e+02   3.1512518285e+01     0.218899    0.1504139  73.45 0.0007998279    1.275    0.216
       111  -9.8037    191.4762    191.4841   1.0473521698e+02   4.2003250452e+00    0.2458666    0.2369876   4.87 0.0006421958    1.027    0.027
       112  -9.2697    112.9988    191.9819   1.2230281848e+02   1.9158047514e+01    0.2110076    0.1771907 -19.68 0.0003940344    1.633    0.388
       113  -8.6433     84.5539    192.4275   1.2890392085e+02   2.3820089444e+01    0.1386998     0.121706  81.35 0.0001111267    1.008    0.008
       114 -11.0843     51.1641    189.5576   1.3602979247e+02   2.9214583484e+01    0.2406123    0.2068523  84.60 0.0003841966    1.068    0.063
       115  -8.9790    135.1869    190.1592   1.1688057295e+02   1.5470202946e+01    0.1966328    0.1641863  77.77 0.0003144317    1.275    0.216
       116 -13.6115     28.6147    246.8664   1.4551155189e+02   1.9714580040e+01     1.291139    0.8047977  68.56  0.007462254    1.228    0.186
       117 -11.2854    249.7001    187.6150   9.2770336636e+01  -5.5703918586e+00    0.3727526    0.2448871 -16.73  0.001960398    1.627    0.385
       118  -9.9814     76.6338    188.8231   1.3020471299e+02   2.5870868613e+01    0.2785971    0.2312245  23.70 0.0007173487    1.559    0.359
       119 -11.6634     68.0202    187.3433   1.3197145529e+02   2.7471604031e+01    0.3102675    0.2328761 -51.32 0.0005405676    1.497    0.332
       120  -9.0534    111.4530    187.8824   1.2198280717e+02   2.0372064291e+01    0.2153205    0.1397364 -60.99 0.0009323133    1.554    0.356
       121  -9.8887     32.3529    189.8364   1.4012645537e+02   3.1373779397e+01    0.3290008    0.2221482  43.14  0.001997656    1.577    0.366
       122  -9.6636     29.8559    183.9180   1.4005993201e+02   3.2998480320e+01     0.277123    0.1925961 -58.78  0.001423956    1.476    0.322
       123  -9.5435     24.4670    184.2292   1.4124547134e+02   3.3487996789e+01    0.2553134    0.1550658  40.78 0.0005979932    1.773    0.436
       124 -11.1156    249.4939    194.2343   9.4108942576e+01  -6.6179366607e+00    0.3254466    0.2619434  -1.54  0.001515971    1.177    0.150
       125  -9.4128    140.1237    183.1728   1.1445748948e+02   1.6073122646e+01    0.2064517    0.2006198  14.12 0.0003205528    1.132    0.116
       126  -8.7814    127.3398    182.1793   1.1725832844e+02   1.8760954341e+01    0.1990579    0.1366524 -66.77 0.0002652297    1.584    0.369
       127  -8.7189     65.8115    181.8793   1.3174169972e+02   2.9069481359e+01    0.1828915    0.1377482  76.29 0.0002560461    1.271    0.213
       128 -10.2552     20.0112    179.0854   1.4169799138e+02   3.5104634685e+01    0.1909816    0.1618083 -85.04            0    1.131    0.116
       129  -9.6442    115.6192    177.7186   1.1923282165e+02   2.1980741594e+01    0.3174229    0.2356137 -67.21  0.001451881    1.372    0.271
       130  -8.7841     47.8796    179.8125   1.3560024120e+02   3.1899090578e+01    0.1563582    0.1006446  34.97 0.0008395491    1.772    0.436
       131  -9.4051     11.8143    178.9767   1.4343137201e+02   3.5891627305e+01    0.2530768    0.1636807 -52.15  0.001543649    1.756    0.431
       132 -11.0241     11.7461    173.5683   1.4295108286e+02   3.7124346570e+01     0.378499    0.1809672 -57.23  0.001972603    1.976    0.494
       133  -9.0991     92.6999    178.1111   1.2481065082e+02   2.5880884954e+01    0.1915757    0.1675638 -73.37 0.0002388533    1.089    0.082
       134 -11.4231     77.6145    175.1452   1.2797149726e+02   2.8966153363e+01    0.2783844    0.2453414 -60.11 0.0004205273    1.191    0.161
       135  -8.9913     68.6448    175.8337   1.3022403703e+02   3.0110641657e+01    0.2872441    0.1278227 -66.56 0.0006970562    2.129    0.530
       136 -11.6948     64.5434    173.3983   1.3085217879e+02   3.1265713931e+01    0.5839577    0.2813826 -47.38 0.0008849592    2.415    0.586
       137 -10.1646     68.7726    166.6823   1.2882213997e+02   3.2294030596e+01    0.2484176    0.1741759 -62.27 0.0004857589    1.305    0.234
       138 -10.3762    236.3793    146.0902   8.6481646094e+01   4.1176139752e+00    0.3063532     0.224278  53.40  0.001050337    1.546    0.353
       139 -12.7699    248.1759    101.3386   7.4881944016e+01   9.8675558287e+00    0.8765618    0.5473738 -45.64  0.004456309    1.402    0.287
       140 -11.8516    247.8210    142.3187   8.3752474490e+01   2.6324452674e+00    0.6606213     0.535496 -22.79  0.003415386    1.252    0.201
       141 -12.4330    248.2934    134.2050   8.1945341525e+01   4.0024045337e+00       1.1365    0.5693077 -38.91  0.005094077    1.784    0.439
       142 -11.7108    107.8914    172.9088   1.2023553778e+02   2.4513320007e+01     0.267686    0.2502824  83.72 0.0002925959    1.018    0.017
       143 -10.4172     19.2747    172.6218   1.4121800932e+02   3.6657979852e+01    0.3905258    0.2158469  63.12  0.002130765    1.873    0.466
       144 -10.4467     12.6108    161.7624   1.4160213081e+02   3.9754261221e+01    0.2515879    0.1559321 -83.46  0.001495956    1.330    0.248
       145 -10.5295     15.5861    166.2440   1.4138998509e+02   3.8464112687e+01    0.3810221    0.1675637 -79.09  0.001857098    1.981    0.495
       146 -10.5669     12.1752    166.8908   1.4221680001e+02   3.8612604218e+01    0.2851585    0.1884095 -88.82  0.001002669    1.260    0.206
       147  -9.5308     45.9776    172.4792   1.3512532539e+02   3.3860795984e+01    0.2067534    0.1555028 -65.59 1.356612e-05    1.216    0.178
       148 -10.4325     43.9624    169.0280   1.3515851543e+02   3.4916978336e+01    0.3640206    0.3142627  38.74  0.001087965    1.373    0.272
       149  -9.9374     44.7773    164.9695   1.3443378826e+02   3.5789596954e+01    0.2408182    0.1657822 -72.80 0.0004145403    1.241    0.194
       150  -9.5329     28.8782    170.6438   1.3885451894e+02   3.6177713961e+01    0.3485215    0.2533533  86.77   0.00152053    1.203    0.169
       151  -8.8761     52.5657    170.9780   1.3337459647e+02   3.3415794639e+01    0.1882889    0.1148746 -68.55 0.0001291431    1.434    0.303
       152  -8.4000    150.7167    170.2767   1.0945018100e+02   1.6843593162e+01    0.1494908    0.1190483  81.16 0.0001678111    1.508    0.337
       153 -12.0814     85.5549    166.6087   1.2464467959e+02   2.9797288392e+01     0.583378     0.522913  42.24  0.003333132    1.223    0.182
       154  -8.9631    126.4845    167.5236   1.1467750819e+02   2.2320595831e+01    0.1534777     0.143237  81.67 0.0003022499    1.037    0.036
       155  -8.5936     58.4925    167.4922   1.3146262891e+02   3.3494666385e+01    0.1381548    0.1166705 -88.00 0.0001032777    1.044    0.042
       156 -13.2062    248.4380    114.1041   7.7600030538e+01   7.5716392047e+00     1.443752    0.8717868 -29.60  0.006821791    1.830    0.454
       157  -8.3024    118.6578    162.7425   1.1565702595e+02   2.4949149938e+01    0.1453875    0.1221082  -2.05 0.0002816976    1.586    0.369
       158  -9.8091     23.9405    162.0851   1.3902463289e+02   3.8665159878e+01     0.188877    0.1717918 -68.84 0.0003505497    1.226    0.184
       159 -10.4757     89.7059    160.2822   1.2249064519e+02   3.0663607717e+01    0.2422998    0.2040648  81.18 0.0002552682    1.192    0.161
       160  -8.6086     52.4604    158.4409   1.3163086970e+02   3.6440221811e+01    0.1350922    0.1157572 -78.97 0.0002975139    1.007    0.007
       161 -10.9940     32.0043    155.5707   1.3630304868e+02   3.9412122715e+01    0.3940699    0.2170784 -49.93 0.0009926705    1.852    0.460
       162 -10.3466     23.5456    149.4775   1.3760679894e+02   4.1660260845e+01    0.1982287    0.1714004  78.89 0.0006097793    1.171    0.146
       163  -9.2617     16.2657    158.5924   1.4042432068e+02   4.0174913754e+01    0.1364675    0.1220072  -2.00 0.0007386642    1.567    0.362
       164  -8.5170    112.2788    157.6690   1.1624681118e+02   2.7355909341e+01    0.1544221    0.1156437  84.90 0.0003026216    1.602    0.376
       165  -9.4217     72.2314    156.0276   1.2622095546e+02   3.4386799172e+01    0.3044825    0.2066085   8.82  0.001389217    2.387    0.581
       166  -9.0975    228.3593    155.2760   8.9890842799e+01   3.9600462325e+00    0.2010949    0.1248632 -47.21 0.0004918537    1.583    0.368
       167 -10.1766     84.3714    155.3173   1.2296023158e+02   3.2726583742e+01    0.3460197    0.2088605  29.19 0.0008943872    2.005    0.501
       168 -10.6420     98.3169    150.9841   1.1850522970e+02   3.1473132361e+01    0.4037129    0.3373876 -52.24  0.002121805    1.179    0.152
       169  -9.4097    101.3675    146.4191   1.1677934799e+02   3.2043338766e+01    0.3887242    0.2090323 -32.92 0.0008971433    2.942    0.660
       170  -9.8883    113.9656    150.6139   1.1437031056e+02   2.8730549690e+01      0.34784    0.2407313 -62.72  0.000734746    1.474    0.322
       171  -9.9057     86.3727    150.1268   1.2147184952e+02   3.3672069556e+01    0.2524588    0.1707524 -66.27 0.0004255499    1.436    0.304
       172  -9.7211     56.1774    149.6898   1.2932870392e+02   3.8094517731e+01    0.3603396    0.1718934 -37.75  0.001359056    3.278    0.695
       173 -11.6817     23.6569    154.4763   1.3819658005e+02   4.0475583947e+01    0.5451016    0.3091905  63.46  0.002872008    1.998    0.500
       174 -12.3301     68.3035    144.3407   1.2520349669e+02   3.7787503823e+01    0.6941035    0.4983505  87.03  0.002209041    1.596    0.373
       175 -10.9864     72.9350    139.6623   1.2307782708e+02   3.8265126881e+01    0.3917893    0.3258737  -4.11  0.001184378    1.564    0.361
       176  -9.3507     76.9503    147.0111   1.2338138711e+02   3.5889621569e+01    0.2109694    0.1885529 -64.80  0.001198525    1.047    0.045
       177  -9.0639     52.9718    146.2751   1.2961523606e+02   3.9316583296e+01    0.1819645    0.1655222 -86.16 0.0003201981    1.076    0.071
       178 -10.4166    133.3321    141.4896   1.0741996197e+02   2.7051115367e+01    0.6068107    0.2635659 -52.51  0.002131459    2.361    0.576
       179 -10.7900     32.5192    140.6800   1.3412935971e+02   4.2895373991e+01    0.2896354     0.177211  80.40  0.001135796    1.951    0.488
       180  -9.0402     41.5343    140.5088   1.3172304167e+02   4.2012433875e+01    0.1333736    0.1116895 -66.82 0.0001799061    1.037    0.035
       181 -14.2976     10.4201    208.9763   1.4611165746e+02   2.9421016239e+01      2.73805     1.209644 -79.38    0.0149913    1.845    0.458
       182 -10.2138     56.0510    138.8896   1.2754479188e+02   4.0721230882e+01    0.2340965    0.1932318 -58.91  0.000352862    1.095    0.087
       183 -11.1894     60.6925    136.9946   1.2593551722e+02   4.0589185914e+01    0.3242032    0.2615208 -80.01 0.0001523491    1.211    0.174
       184  -9.9746    109.8826    136.2205   1.1231404153e+02   3.2935128601e+01    0.3709268    0.2711605 -20.78  0.001175557    1.885    0.470
       185 -12.1706      8.9730    120.4879   1.3755430447e+02   4.9530166218e+01    0.4645503    0.2266684  21.09   0.00250149    2.613    0.617
       186 -12.1747      2.6713    129.5311   1.4040929672e+02   4.7890398102e+01    0.7382825    0.2554804 -73.43  0.003327172    2.388    0.581
       187 -11.9091     67.1859    128.2281   1.2243097045e+02   4.1827513665e+01    0.6319116    0.4302414  82.56  0.002981994    2.005    0.501
       188 -11.5525     44.7668    131.4377   1.2935341164e+02   4.3826091887e+01    0.4270633    0.3496075 -68.58  0.002590865    1.058    0.055
       189 -11.0457     33.2237    131.0124   1.3246994762e+02   4.5113914530e+01    0.4289126    0.1725315 -62.77  0.001922615    1.999    0.500
       190 -10.9371     30.2317    126.3611   1.3255345540e+02   4.6487287438e+01    0.3148269    0.1896243  -3.47  0.001554026    2.674    0.626
       191  -9.4687    116.1308    128.9902   1.0897037736e+02   3.3439185419e+01    0.3258442    0.2134053   9.06  0.001207541    2.791    0.642
       192  -8.9699     80.4677    129.5024   1.1892986812e+02   3.9586416614e+01    0.1450535    0.1329537 -66.52 6.427828e-05    1.026    0.026
       193  -9.9741     59.2084    128.2101   1.2469822788e+02   4.2886739033e+01    0.1879711     0.155054  80.69 0.0005283523    1.344    0.256
       194 -11.0073     23.9681    127.0516   1.3439453881e+02   4.6879381212e+01    0.3184693    0.1751017 -62.12 0.0009414882    1.445    0.308
       195 -10.3988    209.9450    125.8447   8.6689011422e+01   1.3464690531e+01    0.3266519     0.226917 -42.60 0.0005101789    1.365    0.267
       196  -8.3890     88.0009    125.0083   1.1581155698e+02   3.9455296870e+01    0.1682471    0.1603986 -60.21 0.0009461608    1.022    0.022
       197 -11.4911     23.2317    121.4017   1.3372298939e+02   4.8251036554e+01    0.3116045    0.1841809   3.38  0.001626548    2.518    0.603
       198 -10.0441     54.7174    120.6258   1.2450202904e+02   4.5239759599e+01    0.2815456    0.1766821   7.28  0.001319221    2.381    0.580
       199 -11.6608     30.7753    119.7046   1.3129489818e+02   4.7988159649e+01    0.4045882    0.2735685  47.70  0.002326781    1.756    0.431
       200  -9.6099    231.5376    116.5243   8.0768644258e+01   1.0588558045e+01    0.1440924    0.1313692 -49.45 0.0001129778    1.020    0.020
       201 -10.7043     67.6380    115.3007   1.1955625253e+02   4.4812382336e+01    0.3858351    0.2179929  23.31  0.001654018    2.239    0.553
       202 -13.2749     40.7303    243.8032   1.4320629975e+02   1.8847438232e+01    0.9319286    0.6903706 -80.06    0.0061316    1.313    0.238
       203 -10.7403    168.0331    113.2021   9.2161087257e+01   2.5616880632e+01    0.3771637    0.3036647 -83.78 0.0008679711    1.474    0.321
       204  -9.3137    203.6615    111.4564   8.4454914525e+01   1.7683126093e+01    0.2542588    0.1890152 -18.62 0.0009008051    1.729    0.422
       205 -10.9120    249.4938    150.8111   8.5274298353e+01   8.0672380236e-01    0.5038047    0.2944268 -42.31  0.002120321    1.532    0.347
       206  -9.5583     44.7220    105.2106   1.2433590973e+02   4.9936010225e+01    0.1938459     0.174209  44.94 0.0005323244    1.303    0.233
       207  -9.1193     60.2670    104.6448   1.1937294846e+02   4.8233673278e+01    0.1330373     0.103921 -88.15 0.0006989604    1.631    0.387
       208 -11.3159     14.6416    103.9953   1.3336230054e+02   5.2853484825e+01    0.2429214     0.187208  13.69  0.001612209    1.613    0.380
       209 -10.5120     17.2509     99.0317   1.3168037648e+02   5.3766729833e+01    0.1835394    0.1783687  41.43 0.0002179491    1.278    0.217
       210 -12.0511    248.8240    171.6466   8.9708482856e+01  -2.7294733056e+00    0.5186586     0.409606  18.33  0.002997403    1.370    0.270
       211 -13.5419    244.9952    158.2439   8.7589828796e+01   2.9634446426e-01     2.383228    0.9173007 -49.28  0.008646427    3.030    0.670
       212 -12.5449    135.6369    240.9316   1.2475501830e+02   5.0408412523e+00    0.5900883    0.5415911  25.27  0.003606627    1.239    0.193
       213 -12.0977    134.1188    232.8443   1.2393760446e+02   6.8167089796e+00    0.4673271    0.4286849 -59.91  0.002120642    1.243    0.195
