#   1 NUMBER                 Running object number                                     
#   2 MAG_AUTO               Kron-like elliptical aperture magnitude                    [mag]
#   3 X_IMAGE                Object position along x                                    [pixel]
#   4 Y_IMAGE                Object position along y                                    [pixel]
#   5 X_WORLD                Barycenter position along world x axis                     [deg]
#   6 Y_WORLD                Barycenter position along world y axis                     [deg]
#   7 A_WORLD                Profile RMS along major axis (world units)                 [deg]
#   8 B_WORLD                Profile RMS along minor axis (world units)                 [deg]
#   9 THETA_WORLD            Position angle (CCW/world-x)                               [deg]
#  10 FWHM_WORLD             FWHM assuming a gaussian core                              [deg]
#  11 ELONGATION             A_IMAGE/B_IMAGE                                           
#  12 ELLIPTICITY            1 - B_IMAGE/A_IMAGE                                       
         1 -11.9384      3.4624     62.3906   7.8066302423e+01   6.4343503267e+01     1.485245    0.4242405 -71.74  0.005595441    3.108    0.678
         2 -13.5770     12.5800     47.8587   6.9946111892e+01   6.7201223319e+01    0.7042365    0.4238075 -20.82 0.0006719206    1.772    0.436
         3 -12.2848     56.0776     37.7932   4.3553166416e+01   6.4027264479e+01     1.381013    0.5976899 -27.95  0.004837234    3.483    0.713
         4 -11.3831    140.3026     36.8644   1.7559757025e+01   4.5089564351e+01    0.3595931    0.2904857 -29.64  0.001043623    1.317    0.241
         5 -11.7472      6.0628     25.0391   6.6469154409e+01   7.2532772359e+01    0.5136119    0.4759129  48.45   0.00196295    1.424    0.298
         6 -12.3272      7.6194     14.8696   6.0999575492e+01   7.4407648138e+01    0.3701324    0.2377814 -38.96 0.0004354608    1.299    0.230
         7 -12.6759      3.0430     13.8037   6.3931215198e+01   7.4945907423e+01    0.6654559     0.265206 -43.45  0.001015895    2.000    0.500
         8 -12.4871     14.8851     18.0922   5.7387547206e+01   7.3171684074e+01    0.9224955    0.6212837 -71.67  0.004049381    2.456    0.593
         9 -12.7087    234.8112      9.6685   3.5943501521e+02   2.5773582560e+01    0.3883859    0.2960194 -57.60  0.001831328    1.045    0.043
        10 -12.3914    249.4548      8.0702   3.5826191280e+02   2.3016076194e+01     0.896058    0.3292273 -29.77  0.004371195    2.490    0.598
        11 -12.7093    242.2782      3.3132   3.5764690085e+02   2.4910518002e+01    0.6073322    0.4240828  61.93  0.003111357    1.728    0.421
        12 -12.9503    241.6319     13.9452   3.5994784668e+02   2.3938919766e+01    0.4525448    0.4112173 -63.34   0.00255827    1.194    0.163
        13 -12.1629     28.8058     19.8284   4.9255665057e+01   7.1290691496e+01     0.280242    0.2077053  -8.08 0.0003406519    1.289    0.224
        14 -11.6826    131.7767     16.6550   1.2053249769e+01   4.9696032996e+01    0.3810658    0.2865669 -53.53  0.002041034    1.416    0.294
        15 -10.6257    169.5937     17.3054   6.9149750696e+00   3.9969641866e+01    0.3977883    0.1694613 -38.02  0.001641833    2.191    0.544
        16 -10.5335    216.9272     16.1350   2.1317664846e+00   2.8895460841e+01    0.4358616    0.1383208  62.15  0.001817701    3.096    0.677
        17 -10.4988    137.2866     15.0447   1.0577817227e+01   4.8446271876e+01    0.2566833    0.2014408 -62.37 0.0004428337    1.330    0.248
        18 -12.2184     75.9925     10.6915   2.2639576848e+01   6.3965122545e+01    0.5223621     0.328091  42.79  0.001494704    1.433    0.302
        19 -10.5744     59.9647     12.6573   2.9496806514e+01   6.7138498434e+01     0.478059    0.1379109 -37.62  0.001709573    3.722    0.731
        20 -12.3929     65.2544     11.8735   2.6998520346e+01   6.6152492013e+01    0.2639278    0.2227966  29.43 0.0004313025    1.048    0.046
        21  -9.7211     53.8401     14.2062   3.2961546775e+01   6.8129707897e+01    0.2225271    0.1719886  53.30  0.001285384    1.467    0.318
        22 -10.5386    145.6955     12.1684   8.3501022885e+00   4.6573049984e+01    0.3535378    0.1042908 -30.38  0.001284693    3.176    0.685
        23 -10.5680    145.2171      8.0291   7.0363776769e+00   4.7092581576e+01    0.3029382    0.1718062  61.57 0.0003030196    1.581    0.368
        24 -10.2889    177.7456     12.0635   4.5127420308e+00   3.8491013623e+01    0.1773305    0.1614782 -63.77 0.0003635318    1.087    0.080
        25  -9.9985     27.3527     10.9351   4.5248310937e+01   7.2939130579e+01    0.2639929    0.1342042 -31.78  0.001340261    1.909    0.476
        26 -10.4511    139.7507     10.9206   8.7752578272e+00   4.8222767599e+01    0.2427188    0.1811887  79.77 0.0001961425    1.243    0.195
        27  -9.5005    119.5960     11.2498   1.2203774331e+01   5.3358812753e+01    0.1836979    0.1327628   2.25 0.0004438281    1.701    0.412
        28  -9.7771    100.0095     10.2979   1.5869650136e+01   5.8356265487e+01     0.245658    0.1725201  22.45 0.0008807576    1.613    0.380
        29  -9.8160     31.9420      9.2220   4.1421895941e+01   7.2538939400e+01    0.4167824    0.1713599 -23.30  0.001557332    3.763    0.734
        30  -9.7979     36.6461      6.1796   3.6858692370e+01   7.2223076994e+01    0.3596127    0.1712495  21.51  0.001389853    3.055    0.673
        31 -11.4168    160.4001      8.6030   5.3548252155e+00   4.3166277724e+01    0.2682265    0.2352929  49.63 0.0005837466    1.254    0.202
        32 -10.7243    164.3852      4.8238   3.7742388754e+00   4.2515263760e+01    0.2464899    0.1978498 -72.91 0.0003117643    1.147    0.128
        33  -9.6643    154.5697      8.2697   5.9338564361e+00   4.4678497354e+01    0.1840651    0.1538736  88.79 0.0003807778    1.076    0.071
        34 -10.0782    112.6829      7.5029   1.2026168921e+01   5.5463741204e+01    0.5338548    0.2598146 -71.46  0.001834885    3.932    0.746
        35  -9.2946     19.9468      8.5240   4.8697693955e+01   7.4273840422e+01    0.1631062     0.109269  24.60  0.000356528    1.448    0.309
        36 -10.4987     99.0215      4.2268   1.3441575253e+01   5.9160629565e+01    0.5929108    0.2881051 -66.65  0.002010679    4.341    0.770
        37 -11.3895     82.1976      6.9117   1.8890630852e+01   6.2940402897e+01    0.2222434    0.1756418  47.31 0.0002779488    1.115    0.103
        38 -10.1300    223.0299      5.2643   3.5917297662e+02   2.8700128352e+01    0.2010701    0.1495672 -42.44  0.001297211    1.228    0.186
        39 -10.3453     68.4382      5.4330   2.2429423222e+01   6.6178585662e+01    0.2352672    0.1865558  33.12 0.0007556404    1.123    0.110
        40  -9.8605     14.1533      2.1264   4.8890807041e+01   7.5959349471e+01    0.2946147    0.1373396 -42.14  0.001157596    2.060    0.514
        41 -11.4587     21.5608      3.1196   4.4213300578e+01   7.4892509648e+01    0.7561343    0.3529696  19.89  0.003464787    2.698    0.629
        42 -10.7495     27.5791      2.2248   3.9677083287e+01   7.4168498321e+01    0.2211412    0.2084458  19.76  0.000788533    1.368    0.269
        43 -11.5591     32.1757      1.9630   3.6716729338e+01   7.3493290071e+01     0.260526     0.178092  36.55            0    1.396    0.283
        44  -8.8319    150.6963      5.7270   5.5883448332e+00   4.5901612405e+01    0.1335824   0.09328773  46.38 0.0002150413    1.538    0.350
        45 -11.2377    179.7712      3.4531   1.9118649519e+00   3.8831382962e+01    0.4151855    0.1998935  59.26  0.001972409    2.040    0.510
        46 -10.0225    126.0955      2.6579   7.8613384384e+00   5.2473128018e+01    0.2094728    0.1771401 -49.85 0.0004184872    1.266    0.210
        47 -10.5574     90.9638      2.0866   1.4309935742e+01   6.1304723076e+01    0.1974218    0.1698814  48.29 0.0002792101    1.025    0.025
        48 -12.1124    248.9428     20.4749   8.8270426710e-01   2.1788770603e+01    0.5340634    0.1828988 -47.14 0.0004302966    2.227    0.551
        49  -9.5247    120.9503      1.5184   8.2325904645e+00   5.3881089356e+01    0.2079951    0.1185844  68.18   0.00101081    1.532    0.347
        50 -10.1867     73.7591      1.4063   1.8586890280e+01   6.5382584098e+01    0.2220096    0.1175205  61.15 0.0004877962    1.776    0.437
        51  -9.7883    120.3050    200.0376   6.2794607028e+01   1.6761489179e+01    0.1739084    0.1724222 -25.83 0.0006212127    1.142    0.124
        52 -11.9173    248.6522    248.2950   4.5264935864e+01  -7.8880728168e+00    0.5044983    0.2354617 -15.11  0.003023109    2.179    0.541
        53 -11.9771    225.3615    246.7253   4.8823127351e+01  -5.1449912406e+00    0.5888944     0.281207 -16.32  0.003286743    2.407    0.585
        54  -9.2928    110.0253    250.0296   7.1022302412e+01   9.3834591132e+00    0.1475894     0.110355  36.26 0.0005896013    1.039    0.038
        55 -11.6135     21.5430    248.4842   8.8502535449e+01   2.0131474202e+01    0.5717099    0.1515934  45.66  0.002875342    2.359    0.576
        56 -10.2094      6.9651    249.3126   9.1259708791e+01   2.1379122146e+01    0.1989785    0.1416026  65.35 0.0006652368    1.117    0.105
        57 -10.5742     10.5032    248.0252   9.0562697288e+01   2.1278043340e+01    0.4346384   0.07813386  48.54  0.001988979    2.976    0.664
        58 -10.1712     40.5840    197.5093   8.1532876759e+01   2.8210633931e+01    0.2808205    0.1161226 -82.56  0.001113339    2.681    0.627
        59 -10.2564    134.8523    196.4695   5.8922957742e+01   1.5136606474e+01    0.2117785     0.187188 -45.15 0.0004870375    1.270    0.212
        60  -9.1568     56.4867    197.4903   7.7723075408e+01   2.6359206307e+01    0.1281365    0.1115061  58.07 0.0002967171    1.037    0.036
        61 -12.1590     15.4533    192.1559   8.7109018594e+01   3.1916090254e+01    0.3667291     0.348656 -44.83  0.001749647    1.393    0.282
        62  -8.9067    209.6683    193.2493   4.2969257515e+01   3.8406241925e+00    0.1079716   0.09751374  47.45 0.0002882738    1.552    0.356
        63  -9.5120    186.5021    193.5109   4.7409565138e+01   7.3342909221e+00    0.1314315    0.1116107   8.17 4.133122e-05    1.006    0.006
        64  -9.7358     60.7202    192.0955   7.6165378487e+01   2.7015168437e+01    0.2631318    0.1625123  35.47   0.00139598    1.480    0.324
        65  -9.8664    145.2190    190.2320   5.5572766897e+01   1.4620692603e+01    0.2240905    0.1778411 -25.76 0.0007229865    1.385    0.278
        66  -9.1838      1.6693    193.6915   9.0350363440e+01   3.2758382938e+01     0.106599   0.08441248 -49.57 0.0007040591    1.665    0.399
        67 -10.7187    244.5126    188.0539   3.6125470081e+01  -3.1786996591e-01    0.1805161    0.1379301  14.15 0.0007026499    1.212    0.175
        68  -9.1082    225.5731    188.4750   3.9308860626e+01   2.2228682805e+00    0.1247785   0.09814466  -3.98 -2.207076e-05    1.048    0.046
        69  -9.9861     61.9670    184.5599   7.5059835978e+01   2.8544545782e+01    0.2345839    0.1770556 -54.68 0.0009146295    1.488    0.328
        70 -12.0434     15.4675    182.2391   8.6531425616e+01   3.4130111378e+01    0.4933176    0.2393814  54.34   0.00256999    1.789    0.441
        71 -10.8757    249.6260    180.7558   3.4013796633e+01  -3.0843985775e-02     0.206433    0.1319472 -33.93   0.00100213    1.474    0.322
        72 -11.0002     23.1201    180.1390   8.4503344982e+01   3.3907367856e+01    0.3850726    0.1462689  53.78  0.001371045    2.425    0.588
        73 -10.7809      2.4630    179.9768   8.9559234397e+01   3.5720954383e+01    0.2684135    0.1634413  -3.51  0.001432113    2.663    0.625
        74  -9.5318     53.8460    175.1346   7.6137188719e+01   3.1739378240e+01    0.1736324    0.1583892 -41.26 0.0007681735    1.323    0.244
        75 -11.6475      7.8751    172.7573   8.7856939107e+01   3.6942489477e+01    0.2726263    0.1642503 -84.18  0.001296447    1.472    0.321
        76  -9.1819    116.3187    170.3645   5.9087498907e+01   2.3542963239e+01     0.148444    0.1116626 -12.74 0.0007040151    1.776    0.437
        77  -9.7294    176.6820    168.6558   4.4786432970e+01   1.3203641003e+01    0.1458357    0.1024654  -1.65 0.0003275682    1.721    0.419
        78 -10.6300     18.0278    173.2941   8.5317517952e+01   3.5960099120e+01    0.1761543    0.1451676  59.52 0.0006465731    1.085    0.079
        79 -10.2952     67.7445    165.6919   7.1246915422e+01   3.2177121240e+01    0.2711556    0.1863199 -84.35   0.00078567    1.561    0.360
        80  -9.6033    117.2318    161.9698   5.7363966949e+01   2.5226727182e+01    0.1802317    0.1232589 -54.57 0.0002607142    1.551    0.355
        81  -9.7800      1.5062    161.9815   8.8888067891e+01   3.9937510168e+01    0.1789201   0.07238282 -57.73  0.000810502    2.589    0.614
        82  -8.9374    200.3155    161.6866   3.8715862562e+01   1.0299240992e+01    0.1232888    0.1097533 -78.85 0.0007034619    1.642    0.391
        83  -9.5752     55.4478    159.4952   7.3865239651e+01   3.5286088916e+01    0.1371858    0.1253377  76.01 0.0002207662    1.018    0.018
        84  -9.6292     19.7594    157.8920   8.3713900709e+01   3.9472055293e+01    0.1718048    0.1611317 -69.98  0.001137905    1.205    0.170
        85  -9.0445     67.3069    157.7044   7.0263816697e+01   3.4163054086e+01    0.1472184   0.09921379  64.12 0.0002125398    1.586    0.370
        86 -10.0603    250.7542    155.2579   2.9051751439e+01   3.2828404189e+00    0.2017343   0.08452974 -25.60 0.0008999732    2.430    0.588
        87 -10.4674    216.4217    154.4404   3.4341066586e+01   8.7530619805e+00    0.2618307     0.196447 -23.43   0.00108693    1.200    0.166
        88 -10.1025    158.3874    153.7733   4.5743925312e+01   1.9359626751e+01    0.3016058    0.1937068  28.77  0.001386713    1.653    0.395
        89 -10.1681     10.4867    152.5959   8.5880792172e+01   4.1518870223e+01    0.3374613    0.1542392  32.21  0.001660279    2.118    0.528
        90 -12.1253     13.8329    147.9176   8.4579857002e+01   4.2401235483e+01    0.2703852    0.2029659  85.94 0.0003135178    1.159    0.137
        91  -9.6029     40.6573    151.8478   7.7185101259e+01   3.8906791719e+01    0.2060979    0.1524806 -57.84 0.0005952125    1.384    0.278
        92  -9.8631    221.9642    151.0268   3.2702117032e+01   8.3692735200e+00    0.1970496    0.1642489 -69.75  0.001140128    1.823    0.452
        93  -9.1925    145.3009    151.6515   4.8343515408e+01   2.2280375936e+01    0.1470832    0.1187799  84.19 0.0006650195    1.689    0.408
        94  -9.7114    143.5722    148.5026   4.8097346686e+01   2.3268049566e+01    0.2141843    0.1420656 -54.96 0.0005791461    1.683    0.406
        95 -11.4601     26.0778    148.2921   8.1063432358e+01   4.1260570118e+01    0.3305675    0.2178598  85.01 0.0003895579    1.437    0.304
        96  -9.1283    201.6815    150.2690   3.6111371007e+01   1.1977418965e+01    0.1227088    0.1100583 -82.85 0.0003486401    1.559    0.359
        97  -9.9693     82.2056    150.0521   6.4804577555e+01   3.3845784425e+01    0.2926305    0.1891744   0.32  0.001173332    2.651    0.623
        98  -9.6831     91.3959    147.3819   6.1698970904e+01   3.3022326858e+01    0.2950822    0.1078567 -45.16 0.0009537283    3.287    0.696
        99 -10.5770     51.7981    147.9729   7.3417256244e+01   3.8584621385e+01    0.2872476    0.1793899 -11.75  0.001204534    2.768    0.639
       100  -9.7436    234.0000    146.8640   2.9909882129e+01   7.0470243565e+00     0.206047   0.06351195 -35.91 0.0007056896    2.839    0.648
       101 -10.4983     41.2710    146.3839   7.6355223875e+01   4.0202765211e+01    0.2871738    0.0990417  35.44 0.0009946409    2.621    0.618
       102 -10.4652    217.1674    145.0428   3.2270210155e+01   1.0125719383e+01    0.3095767    0.1664398  26.73  0.001183374    2.403    0.584
       103  -9.7974    155.8170    144.8127   4.4418027269e+01   2.1644644176e+01    0.1992096    0.1809535  85.20  0.001067862    1.327    0.246
       104 -10.8281      6.9444    145.1670   8.6349130420e+01   4.3591656439e+01    0.3208094    0.1626507  26.03   0.00143538    2.091    0.522
       105 -10.6802     17.3157    143.3431   8.3177941844e+01   4.3252427740e+01    0.3141324    0.1404649  60.54  0.001361721    2.395    0.582
       106 -10.6866     14.1285    139.8822   8.3821896532e+01   4.4366010753e+01    0.2983437    0.1959267 -37.46  0.001326657    1.892    0.472
       107 -10.3750    239.9031    140.0959   2.7631789096e+01   7.1123754170e+00    0.1956653    0.1603841 -20.33 0.0006419696    1.019    0.019
       108  -9.7446    188.9772    139.9560   3.6303850698e+01   1.6115614820e+01    0.2066488    0.1754862 -77.05 0.0004875927    1.604    0.377
       109 -10.8506     44.0685    137.8200   7.4390489558e+01   4.2051664042e+01    0.3407384     0.196042 -73.74  0.001419797    1.670    0.401
       110 -10.2378    235.6187    138.0674   2.7857059505e+01   8.1081477587e+00    0.1839647    0.1751078 -23.27 0.0003998626    1.210    0.174
       111 -13.0653     37.3605    135.1253   7.6137232717e+01   4.3465559535e+01    0.4415789    0.3170536 -80.29  0.001997836    1.304    0.233
       112  -9.7210    144.5422    136.2569   4.5177489984e+01   2.5651220418e+01    0.2152287    0.1416664 -32.01 0.0009430046    1.697    0.411
       113 -10.0785     20.5319    135.0236   8.1406713646e+01   4.5069877866e+01    0.2447794    0.1455849 -69.80  0.001262379    1.493    0.330
       114 -11.0439     16.9030    131.0353   8.2139658274e+01   4.6368604829e+01    0.3989332    0.2117916  36.85  0.001786354    1.887    0.470
       115  -9.2283      8.5711    136.5286   8.5211183868e+01   4.5608314834e+01    0.1280268    0.1088079 -83.53 0.0004805243    1.058    0.055
       116 -11.1832    241.5084    134.2691   2.6200023534e+01   7.7166419922e+00    0.2633781    0.1978844 -25.57 0.0006561549    1.124    0.110
       117 -11.7135     57.9087    132.2833   6.9177965800e+01   4.1769086147e+01    0.3801828    0.3087597 -22.35  0.001086816    1.515    0.340
       118 -10.7552     53.0600    132.9690   7.0835761414e+01   4.2215770131e+01    0.2635582     0.213337 -48.62 0.0003231135    1.294    0.227
       119 -12.7025     81.4959    125.0646   6.0315035203e+01   4.0108216463e+01    0.8577708     0.568545 -54.56  0.002636293    1.482    0.325
       120 -10.5534     64.4732    131.0390   6.6872210174e+01   4.1193840315e+01    0.2300659    0.2006841 -34.25 0.0006792046    1.283    0.220
       121 -10.5574     67.3191    127.8086   6.5374465857e+01   4.1604990735e+01    0.2355862    0.1833751 -89.47 0.0008384369    1.390    0.280
       122 -11.3845      4.8115    129.9363   8.5830137164e+01   4.7499062314e+01    0.2784515     0.182825 -71.76 0.0002798722    1.326    0.246
       123 -10.2540    110.1012    129.3724   5.2677834048e+01   3.3985414425e+01    0.2471333    0.2071022 -40.14 0.0004667579    1.243    0.196
       124 -10.2360    217.0571    129.2891   2.8912399699e+01   1.2685941857e+01    0.1808615    0.1682772  -9.64 0.0004491667    1.074    0.069
       125 -10.6344     24.7058    127.6046   7.9261302823e+01   4.6593870540e+01    0.3447694     0.193375 -70.13  0.001699383    1.578    0.366
       126  -9.8878     29.6679    127.2976   7.7602944693e+01   4.6223275771e+01      0.14341   0.09195033  62.45 0.0002401685    1.644    0.392
       127 -11.7396     46.9042    124.3734   7.1470983688e+01   4.5156075688e+01     0.286088    0.2714368 -14.03 0.0004004306    1.195    0.164
       128 -10.9349     39.7252    126.4402   7.4174017240e+01   4.5432415919e+01     0.361912    0.1403672  23.98  0.001353587    2.875    0.652
       129 -10.6819    229.5559    124.7336   2.5955973247e+01   1.1174548312e+01    0.2488674    0.1520112 -44.07 0.0009926914    1.585    0.369
       130  -9.5896     14.6822    124.9743   8.2235715752e+01   4.8068770040e+01    0.1847602    0.1429815 -79.63 0.0001605587    1.126    0.112
       131 -11.2219      2.1506    118.4718   8.5730404968e+01   5.0522310043e+01    0.3677783    0.3170971  62.13  0.002110767    1.177    0.151
       132 -11.2030     10.1591    122.1792   8.3434679743e+01   4.9094530790e+01    0.2719134    0.1969007  56.99 0.0007077584    1.384    0.277
       133 -10.9724      7.5223    119.0396   8.4002546932e+01   5.0058350933e+01      0.24234    0.1906247 -82.76 0.0006971055    1.089    0.082
       134 -11.1059     61.1387    121.3713   6.6188352414e+01   4.4107888530e+01    0.2437329    0.2158916 -34.90 0.0005418145    1.229    0.187
       135 -11.4179     68.9047    121.6278   6.3666170040e+01   4.2931754155e+01    0.3858063    0.2416535  28.19  0.001746847    1.720    0.419
       136 -11.1165     56.9821    121.0214   6.7514958538e+01   4.4757448319e+01    0.3026371    0.2058216 -77.22 0.0003320997    1.536    0.349
       137 -10.3382     25.4996    118.8396   7.7902999943e+01   4.8762431248e+01    0.2898702    0.1798054  72.59  0.001032412    1.769    0.435
       138  -9.7254     25.1120    114.6930   7.7480526874e+01   4.9857079585e+01    0.1804276    0.1745687  86.07  0.001107078    1.099    0.090
       139 -10.9141    248.9729    117.6830   2.1724433402e+01   8.9272131862e+00    0.2793486    0.1794949  -6.51  0.001468341    2.026    0.506
       140 -10.9151     15.9823    115.2660   8.0731121420e+01   5.0437344699e+01    0.2645096    0.2115898 -85.43  0.000413468    1.116    0.104
       141 -12.0398     13.5140    110.2179   8.0997926764e+01   5.1896206875e+01     0.401657    0.3230007  62.43  0.001008085    1.273    0.215
       142 -10.4749    182.0853    114.6508   3.1780621482e+01   2.2094968850e+01    0.2645249    0.2256228 -54.33 0.0005546397    1.240    0.194
       143 -10.8254     70.3708    114.7027   6.1743220662e+01   4.4451434513e+01    0.2745945    0.2325299  71.49  0.001431371    1.273    0.215
       144 -11.7557     74.2231    128.9174   6.3385005647e+01   4.0298993685e+01    0.3884287    0.3576393  -8.01  0.001051128    1.235    0.190
       145  -9.9800     36.4561    102.5074   7.1414930755e+01   5.1907057298e+01    0.1938512    0.1294877 -81.02 -5.14283e-06    1.548    0.354
       146 -11.6656     31.8154    108.2635   7.4124801543e+01   5.0896396482e+01    0.5899494    0.3572519 -87.65  0.002465348    1.803    0.445
       147  -9.3309    101.5619    111.1793   5.0864570062e+01   3.9888694459e+01    0.1988268    0.1455755 -39.17 0.0009073971    1.439    0.305
       148 -11.6438     55.2449    109.7208   6.5933628354e+01   4.7862306941e+01    0.3462597    0.2573113 -57.58 0.0005990338    1.266    0.210
       149 -10.8096     20.6196    108.2583   7.8197243337e+01   5.1871674252e+01    0.2362919     0.216454  -8.79 0.0008915894    1.262    0.207
       150 -11.2100     62.8412    106.3951   6.2529860867e+01   4.7653143209e+01    0.3053172    0.1959966 -50.28  0.001417173    1.501    0.334
       151 -10.3864      3.4276    105.5831   8.4081031276e+01   5.3686561102e+01     0.346876    0.2098296 -84.34  0.001664421    1.464    0.317
       152 -11.4262     75.0140    103.7334   5.7641934577e+01   4.6438018904e+01    0.4777314    0.2654795 -60.41 0.0004093357    1.850    0.459
       153 -10.6036     71.3190    101.3527   5.8349836426e+01   4.7618191827e+01      0.32189    0.1822159 -34.63  0.001274451    2.239    0.553
       154 -10.5536     76.6499     97.6964   5.5551863217e+01   4.7633129752e+01    0.2967941    0.2097775  -3.09 0.0009665726    2.051    0.512
       155  -9.9304     80.8038    103.8419   5.5689092404e+01   4.5440306269e+01    0.2134734    0.1815638  78.58  0.001075364    1.337    0.252
       156 -10.6046     50.4894    103.9939   6.6478214489e+01   4.9925987849e+01    0.3089898    0.2286143  17.04 0.0008874579    1.542    0.351
       157 -10.1851     23.4121    100.2264   7.5972724005e+01   5.3694683022e+01    0.4302296    0.1154257 -53.39  0.001521316    3.048    0.672
       158 -11.7650     61.6683     98.9519   6.1244430535e+01   4.9679301226e+01    0.4347327    0.3770012   0.51   0.00234073    1.300    0.231
       159  -9.5361    108.8006    100.6013   4.5897732678e+01   4.0874143933e+01    0.2105149     0.145274  53.96 0.0002466398    1.557    0.358
       160 -10.0518     35.7937    107.4557   7.2536545186e+01   5.0711101836e+01    0.3200665    0.1812371 -42.27   0.00146408    1.899    0.474
       161  -9.4995     94.7912     97.6238   4.9425566820e+01   4.4357622342e+01    0.2093085    0.1417432  50.55 0.0002630074    1.565    0.361
       162 -10.4628     57.1758     96.0369   6.2221864338e+01   5.1039516542e+01    0.2319431    0.2091295  31.56  0.000303665    1.167    0.143
       163  -9.5675     52.3001     97.0154   6.4290462330e+01   5.1451211461e+01    0.2010132     0.164666 -57.99 0.0002090592    1.143    0.125
       164 -10.3591     15.9463     96.3896   7.8261210714e+01   5.5235967783e+01    0.3416175    0.1867074 -29.86  0.001595156    2.237    0.553
       165  -9.7665    226.5872     93.3042   1.9382282289e+01   1.6566281952e+01    0.2123014    0.1642103  80.72 0.0005947831    1.632    0.387
       166  -9.5291    109.5542     92.5388   4.3400044843e+01   4.2502627333e+01    0.2795669    0.1458774 -56.79 0.0005492009    2.327    0.570
       167  -9.8184     31.6303     92.8621   7.1471942207e+01   5.4832147276e+01    0.2042584    0.1811299 -18.72 0.0004100339    1.228    0.186
       168 -10.6363     35.6656     90.2782   6.9332471572e+01   5.5080760604e+01    0.3138372    0.2300267 -29.17  0.001455518    1.502    0.334
       169 -10.4972     13.4758     91.6076   7.8524654841e+01   5.6609505008e+01    0.3257994     0.237686  85.76  0.001098694    1.398    0.284
       170 -11.8528     57.4514     90.5612   6.0777817512e+01   5.2350146540e+01    0.4107115    0.3198911 -22.60 0.0008040667    1.467    0.318
       171 -10.5128     23.4057     89.8198   7.4219568335e+01   5.6328267391e+01    0.4419464    0.2760103  66.18  0.002144643    1.993    0.498
       172 -10.9900     73.9455     89.0471   5.4190922611e+01   5.0153876494e+01    0.2319981    0.2068079 -49.40 0.0002988781    1.090    0.083
       173 -10.2467     97.4982     89.4660   4.6237246786e+01   4.5676930206e+01    0.2655019    0.1480363  30.96 0.0006542147    2.129    0.530
       174  -9.9900     94.5173     88.4941   4.6918078006e+01   4.6490150506e+01    0.2315457    0.1459331  51.42 0.0006248628    1.717    0.418
       175  -9.4616    105.4369     91.4836   4.4337652454e+01   4.3600667181e+01    0.1521189    0.1509755 -46.57 0.0006882066    1.010    0.010
       176 -10.7132    184.8287     85.1871   2.3801940814e+01   2.6688601062e+01    0.2265393    0.2074129 -51.62 0.0003047304    1.047    0.045
       177  -9.8697    109.5239     86.4310   4.1605027458e+01   4.3825807076e+01    0.1527405    0.1500259  71.13 0.0002100088    1.037    0.036
       178 -10.9791     64.4160     81.8699   5.5741983883e+01   5.3398617639e+01    0.6014528    0.2681625 -58.03   0.00227525    2.361    0.576
       179 -10.2904     30.6235     84.2038   7.0128924471e+01   5.7094774429e+01    0.3745534    0.1874618 -63.56  0.001241662    1.786    0.440
       180  -9.8357      8.6692     85.0751   7.9506307940e+01   5.8539091365e+01    0.2065788    0.1404865  89.67  0.001121281    1.481    0.325
       181 -10.8172    117.2219     82.5437   3.8184018365e+01   4.2938576571e+01    0.3711303    0.2390203  -4.38  0.001300645    3.053    0.672
       182 -11.8193     77.0563     82.2759   5.1103143164e+01   5.1188059077e+01    0.4190105    0.2668313  33.60   0.00105234    1.636    0.389
       183  -9.6131     41.9158     83.4685   6.5237877627e+01   5.6086758950e+01    0.1955348    0.1842304   6.22  0.001159513    1.132    0.116
       184  -9.8915     41.3112     79.8798   6.4607299078e+01   5.7032575588e+01    0.2396703    0.1839526  39.24 0.0008828806    1.415    0.293
       185  -9.4503     68.5635     82.0361   5.4196315032e+01   5.2694247937e+01    0.2119931    0.1410121 -53.67 3.545605e-05    1.472    0.321
       186 -10.2540     21.7008     81.5484   7.3381585571e+01   5.8530696045e+01    0.2701304    0.2015884 -19.26  0.001274713    1.496    0.332
       187 -10.0475      7.9729     80.2213   7.9056242447e+01   5.9782181109e+01    0.2241472    0.1592624 -67.34 0.0004067621    1.197    0.165
       188  -9.8849      1.8943     80.4635   8.1689448978e+01   6.0029387122e+01    0.3290838   0.09969211 -54.62  0.001350669    2.512    0.602
       189 -12.7044     88.2758     77.2195   4.5559006115e+01   5.0209099807e+01    0.4085839    0.3582775  48.21 0.0004093779    1.172    0.147
       190 -11.5206     48.9959     77.7238   6.0800859146e+01   5.6603420524e+01    0.4418844    0.3018906   4.89  0.002120544    1.830    0.454
       191  -9.3691    165.1976     78.3781   2.5567984411e+01   3.2422377376e+01     0.190235     0.142796  68.54 0.0003350586    1.440    0.306
       192 -10.5758    168.3883     74.3870   2.3830280310e+01   3.2342871314e+01    0.5115078    0.2308324 -42.84  0.001977648    2.145    0.534
       193 -11.2363    165.8883     68.3676   2.2578169394e+01   3.3944695422e+01    0.4185497    0.2742274  86.39   0.00117837    2.062    0.515
       194 -10.3298    107.1799     72.1843   3.7819076302e+01   4.7274317980e+01    0.2943825    0.2150138  69.15 0.0008628936    1.703    0.413
       195 -10.8338     99.8511     76.2006   4.1398391810e+01   4.8052674970e+01    0.3578646    0.2480059 -47.39  0.001246362    1.465    0.318
       196 -10.7548    102.5038     72.5162   3.9360459199e+01   4.8237084074e+01    0.3006833    0.2686748 -18.93 0.0006574274    1.182    0.154
       197 -10.8162    102.7886     69.3902   3.8230329916e+01   4.8798921293e+01    0.2419666    0.2270299  42.91 0.0002939236    1.055    0.052
       198 -11.4376     22.5620     76.0532   7.1882901113e+01   5.9815227500e+01    0.3605452     0.327633  30.71   0.00139964    1.233    0.189
       199 -10.5257     74.3869     75.5403   5.0021058654e+01   5.3181555177e+01    0.4150395    0.2563427  20.02   0.00154392    2.118    0.528
       200  -9.6491     61.6005     73.2747   5.4299708705e+01   5.5828498568e+01    0.2653732    0.1381301 -56.10 0.0009461613    1.965    0.491
       201 -11.9606     50.3025     68.1566   5.7458766976e+01   5.8661523729e+01    0.4475127    0.2624031 -41.73  0.000485721    1.653    0.395
       202  -9.6145     44.4615     74.4156   6.1821222822e+01   5.7967805608e+01    0.1972065    0.1653181  73.95  0.000124954    1.452    0.311
       203 -10.8904     45.0334     70.8901   6.0578301609e+01   5.8726658901e+01    0.2501122    0.2319258 -62.30 0.0003772305    1.117    0.104
       204  -9.5515    123.8171     73.1860   3.3443003990e+01   4.3266176544e+01    0.2041475    0.1803433   0.81 0.0005867088    1.284    0.221
       205 -10.2959      6.9477     73.2826   7.8371346291e+01   6.1542139718e+01    0.2513008    0.1627258  -7.76 0.0008202876    1.802    0.445
       206  -9.8815    159.9386     71.8535   2.4730078132e+01   3.4805019469e+01    0.2175639    0.2003139  22.53 0.0003278076    1.207    0.172
       207  -9.7688     36.8521     76.4712   6.5668198954e+01   5.8358360507e+01     0.189774    0.1371262  22.09 0.0007550808    1.499    0.333
       208 -13.9694     16.5413     67.4521   7.2787272818e+01   6.2360268402e+01    0.4849391    0.4591853  87.21 0.0009265003    1.176    0.150
       209 -10.8128      6.3215     68.0158   7.7732390047e+01   6.2853355677e+01    0.2337089    0.1933317 -70.37 0.0003540929    1.106    0.096
       210  -9.6185    168.9718    250.5272   5.9473196128e+01   1.4164180867e+00    0.1670755   0.08317506  15.47 0.0005968812    2.467    0.595
       211  -9.9435    182.7811    246.6259   5.6362759797e+01   1.2198497057e-01    0.1681225   0.08684418  37.23 0.0009570897    1.710    0.415
       212  -9.2341    175.6170     70.2181   2.1357623813e+01   3.1305440021e+01    0.1934567    0.1386335 -24.57 0.0005049643    1.532    0.347
       213  -9.5842    244.3311     69.2836   1.1849723108e+01   1.6624174895e+01     0.115472   0.09523916  10.26 0.0002474679    1.612    0.380
       214 -11.2385     92.7067     67.8884   4.0968714397e+01   5.1261565325e+01    0.3149565    0.2910141   9.34 0.0005519337    1.111    0.100
       215  -9.8932    147.4053     66.2978   2.5641438267e+01   3.8809320535e+01     0.289861    0.1220116 -46.48  0.001017434    2.545    0.607
       216 -10.8047    110.7264     65.3374   3.4478793338e+01   4.7793150279e+01    0.3988954    0.2673948 -66.27  0.001329859    2.103    0.524
       217 -12.8969     30.2970     63.4203   6.5209468453e+01   6.2140816407e+01    0.4251325    0.4147129  39.75  0.001093238    1.169    0.144
       218 -11.4181      6.9426     41.1444   7.1251123981e+01   6.9056681045e+01     1.173791    0.5111731 -25.78  0.005255933    2.625    0.619
       219  -9.1229    139.2186     64.9522   2.7025278156e+01   4.1049536111e+01    0.1947414    0.1228321 -37.81 0.0006662372    1.598    0.374
       220 -10.0189    131.0094     65.1957   2.9037246939e+01   4.3010733660e+01     0.209177    0.2022928  58.89  0.000471422    1.016    0.016
       221 -10.5005     81.2991     64.2099   4.3675268569e+01   5.4315811631e+01    0.4056376    0.2964186 -65.79   0.00137681    1.766    0.434
       222 -10.2697    160.3467     63.4743   2.2183451722e+01   3.6093262664e+01    0.3706494    0.2566115  -8.04 0.0009226518    2.041    0.510
       223 -10.7483    155.2077     63.6181   2.3219976715e+01   3.7334911254e+01    0.2698331    0.2576775 -61.66 0.0005141817    1.029    0.029
       224 -10.2352    209.8744     62.9848   1.4340229504e+01   2.4539599833e+01    0.2021754    0.1780752 -51.70 0.0004054085    1.012    0.012
       225  -9.8838    122.9916     63.0137   3.0333602148e+01   4.5332167191e+01    0.2269913     0.219488 -61.79 0.0004337847    1.058    0.055
       226 -10.3274    119.1247     60.9202   3.0641293363e+01   4.6628217582e+01     0.274371    0.2164279  86.16 0.0008456262    1.566    0.362
       227  -8.8919    193.5013     62.5393   1.6442211583e+01   2.8293282501e+01    0.1401394    0.1288472 -59.09 0.0001811521    1.003    0.003
       228 -10.3874     57.0269     59.4545   5.1662896729e+01   5.9596832171e+01    0.3347085    0.1891375  -8.49 0.0009123636    3.928    0.745
       229 -11.5151     46.1790     60.4166   5.6829920105e+01   6.0964863503e+01    0.4055931     0.309016  -8.99 0.0008319103    1.459    0.314
       230 -11.0404     88.9446     53.7092   3.7136806133e+01   5.4788474625e+01    0.5942293    0.2567505 -42.69  0.001846853    2.368    0.578
       231 -10.4446     93.1359     57.8792   3.7282201980e+01   5.3118025896e+01    0.3121097    0.2375166  65.53  0.001013652    1.565    0.361
       232  -8.9393    183.3105     60.2633   1.7343936393e+01   3.1023867915e+01    0.1360117    0.1096281  29.20 0.0002361072    1.534    0.348
       233 -10.3472    136.4026     58.9426   2.5731598506e+01   4.2758267711e+01    0.4657248    0.2661287  76.54   0.00174206    2.566    0.610
       234  -9.6056    114.5037     60.4625   3.1737010452e+01   4.7805522899e+01    0.2751357    0.1308307  41.55 0.0007415577    2.261    0.558
       235 -11.6631     11.7699     54.1971   7.2061483921e+01   6.5808640288e+01    0.5858104    0.3706151 -28.71  0.002889088    1.577    0.366
       236  -9.1841    170.6726     57.3068   1.8535506925e+01   3.4521850767e+01    0.1529114    0.1065382 -68.76 0.0007037202    1.654    0.395
       237 -12.2808    115.7985     55.2539   2.9564266444e+01   4.8405964439e+01     0.338046    0.2731534  69.11 0.0005504052    1.330    0.248
       238  -9.3273    110.6299     57.3094   3.1716725470e+01   4.9274466530e+01    0.1561525    0.1194847 -83.55 0.0001810437    1.766    0.434
       239  -9.4904     79.6542     56.9331   4.1646333606e+01   5.6089237190e+01    0.1978658    0.1831742 -28.76 0.0007447953    1.073    0.068
       240  -9.9985     68.8478     56.9497   4.5818246998e+01   5.8127679518e+01    0.2102475    0.2019071  -2.75 0.0004918859    1.035    0.034
       241  -9.9118    176.8008     56.0641   1.7185207822e+01   3.3214334468e+01    0.2385606    0.1956876  68.19 0.0004049475    1.223    0.183
       242  -9.2632    161.9982     55.9189   1.9624708646e+01   3.6871083950e+01    0.1705441    0.1610372 -59.69 0.0003716814    1.037    0.036
       243 -10.5955    145.7046     53.7025   2.2038897183e+01   4.1281321421e+01    0.2941672    0.2577813  21.35 0.0008745983    1.312    0.238
       244 -11.5038    149.4773     51.3628   2.0545675723e+01   4.0692658132e+01    0.3210303    0.2928935 -80.88 0.0002186022    1.092    0.084
       245 -11.8533    105.4014     52.5445   3.1500638312e+01   5.1321935611e+01    0.3802005    0.2938575  50.33 0.0001691593    1.255    0.203
       246 -10.9683     39.0791     50.3634   5.6760382111e+01   6.4074441882e+01     0.509155    0.3008431 -40.77  0.002526777    1.576    0.365
       247 -10.2955     50.1763     42.9790   4.8503632659e+01   6.4021456509e+01    0.3814511    0.2559132 -18.37  0.001893713    1.721    0.419
       248 -10.9837     54.6276     48.7154   4.8745047034e+01   6.2194834859e+01    0.4327618    0.2555456  41.35  0.001141374    1.786    0.440
       249 -10.7381     73.1775    244.6097   7.8041901968e+01   1.5039470451e+01    0.2765191    0.1683927  32.51 0.0009562298    1.413    0.292
       250 -10.5819     46.4928     48.5409   5.2466494486e+01   6.3459994681e+01    0.3715942    0.2137196 -40.97 0.0006672469    1.646    0.392
       251 -12.4563     44.2898     43.8905   5.1722458451e+01   6.4715575179e+01    0.4758783    0.2980033 -43.88 0.0003692377    1.506    0.336
       252  -9.8314    133.9788     50.9987   2.3642619273e+01   4.4639410451e+01    0.2456501    0.1777329 -71.02  0.001128334    1.713    0.416
       253  -9.7736    127.0898     50.8929   2.5188366204e+01   4.6370167727e+01    0.2310239    0.2001328 -66.86 0.0007306992    1.249    0.200
       254 -10.6951     62.2814     49.7567   4.5792219627e+01   6.0715870222e+01    0.4065512    0.1829786 -46.56  0.001526792    2.235    0.553
       255 -10.7925     82.9778     48.1789   3.7073893044e+01   5.7044149593e+01    0.3966016    0.3605348  41.68  0.001396304    1.099    0.090
       256  -9.8643     78.2014     48.0602   3.8764998395e+01   5.8044739344e+01    0.3681341     0.223129  -3.76  0.001351025    3.143    0.682
       257 -10.3558    180.4093     47.3675   1.4187443406e+01   3.3585467338e+01    0.3242213    0.1981713 -57.45  7.87875e-05    1.732    0.423
       258  -9.9055    157.0303     47.9718   1.8086680116e+01   3.9294242929e+01    0.2122802    0.2029463 -71.80 0.0003538167    1.029    0.028
       259  -9.4023     72.7253     48.3649   4.0974421921e+01   5.9068321311e+01    0.1392703    0.1150755 -76.98 0.0004039839    1.668    0.400
       260  -9.9751    163.8622     45.3917   1.6139211715e+01   3.7946903878e+01    0.3671128    0.1449152 -35.56  0.001396212    2.410    0.585
       261 -11.4289    246.0090     41.4467   5.5903115232e+00   1.9912513897e+01    0.3770953    0.1371462 -40.34  0.001645234    2.096    0.523
       262  -9.4326    191.9995     46.0302   1.2246921910e+01   3.0990294672e+01    0.1658629     0.150201 -67.19  0.000380721    1.007    0.007
       263  -9.1756    104.3219     46.6539   2.9613545327e+01   5.2557218895e+01    0.1516089    0.1163283 -74.86 0.0007049726    1.736    0.424
       264  -9.8395    237.1221     44.7200   7.0741906728e+00   2.1260815735e+01    0.1650916    0.1462232 -73.29 0.0005721619    1.132    0.116
       265 -11.9841    121.9465     43.1874   2.3691248385e+01   4.8830652769e+01    0.3991246    0.3468825 -57.88 0.0005476355    1.231    0.187
       266 -10.0434    116.3089     40.2976   2.4003550988e+01   5.0651730462e+01    0.3066126     0.192985  42.18 0.0008145396    1.623    0.384
       267  -9.7318    112.0789     45.3267   2.6962885533e+01   5.0922323004e+01    0.2016702    0.1843592  56.51 0.0004341329    1.061    0.057
       268 -10.2925     90.2551     61.0171   3.9385723331e+01   5.3134179571e+01    0.2728991    0.2140824  37.40 0.0006232114    1.267    0.211
       269 -11.2572     68.3050     41.7472   4.0013087949e+01   6.1112590303e+01    0.4384118    0.3011677 -78.56  0.001781979    3.110    0.678
       270  -9.9549     72.9416     42.7741   3.8605982454e+01   6.0034170348e+01    0.2573541    0.1889062  52.31 0.0007822249    1.481    0.325
       271 -10.1631    131.2089     42.0514   2.1185195723e+01   4.6677629596e+01    0.2875362    0.2071234 -12.81  0.001365737    1.704    0.413
       272 -10.3925    140.3819     71.0985   2.8684909536e+01   3.9688271740e+01    0.2588549    0.2066571  41.96  0.000432861    1.295    0.228
       273 -11.4891    149.4363     40.6658   1.7129379540e+01   4.2246412271e+01    0.3155847    0.2422818 -56.74  0.000290093    1.350    0.259
       274 -10.7434     97.5784     41.2936   2.9524190336e+01   5.4981072371e+01    0.4063525    0.2540778  61.63  0.001389512    1.748    0.428
       275  -9.7463    102.9083     40.7869   2.7758681877e+01   5.3815457729e+01    0.2080365    0.1888068  26.87 0.0004273256    1.101    0.091
       276 -10.0001    186.9701     41.0639   1.1545200235e+01   3.2850785903e+01    0.2043854    0.1833169 -71.56            0    1.019    0.019
       277  -9.7035     89.8505     41.5078   3.2041678620e+01   5.6696256860e+01    0.2244704    0.1385183  51.36 0.0007582962    1.584    0.369
       278  -9.9701     23.4728     40.0993   6.1319486781e+01   6.7993403049e+01    0.2594321    0.1494921 -54.55   0.00134311    1.618    0.382
       279 -12.2765     27.7071     37.6647   5.7998862523e+01   6.8058874703e+01    0.2509846    0.2344573 -11.83  0.000255986    1.129    0.114
       280 -10.7811     24.4685     34.5684   5.8621625872e+01   6.9032315062e+01     0.257661    0.1705018 -38.06 0.0005339051    1.336    0.251
       281 -11.2081    233.9626     39.5807   6.1913423799e+00   2.2542669549e+01    0.3505803     0.168052  87.19  0.001193515    2.717    0.632
       282 -11.8494    227.6037     37.6837   6.3182331487e+00   2.4095565440e+01    0.3277077    0.2553263  25.03  0.001495204    1.871    0.466
       283 -11.5835    222.9441     37.0735   6.5995952212e+00   2.5159651598e+01    0.3904644    0.2136398 -53.61  0.001222685    1.668    0.401
       284  -9.3493    200.9485     40.7795   9.7780357397e+00   2.9592358981e+01    0.1676256    0.1060001  69.64 0.0003934589    1.607    0.378
       285  -9.9641     88.0167     32.9683   2.9072024768e+01   5.8422716977e+01    0.2970644    0.1803803  -1.13  0.001141055    2.622    0.619
       286 -11.4893     84.0403     37.0424   3.2130790323e+01   5.8683146551e+01    0.4424886     0.356507   0.74  0.001080093    1.368    0.269
       287 -11.6655     77.1531     34.6731   3.3542942949e+01   6.0524381057e+01    0.4459798    0.4227636 -70.96  0.001517543    1.264    0.209
       288 -10.0443    165.9883     37.4487   1.3413158391e+01   3.8488049317e+01    0.3230745    0.2040624 -72.90   0.00147422    1.874    0.466
       289  -9.1240    159.9781     38.0090   1.4510273107e+01   3.9929167144e+01    0.1669022    0.1551906 -86.89            0    1.003    0.003
       290 -12.1670     74.6958    239.9114   7.7353213860e+01   1.5679138697e+01    0.5134292    0.4110713 -63.28  0.003384494    1.531    0.347
       291 -10.9446     65.0229     36.6189   3.9141697591e+01   6.2623072734e+01    0.2436796    0.1947924 -33.77 0.0001467186    1.257    0.204
       292 -10.2597    110.6295     34.5028   2.3225687041e+01   5.2873475912e+01    0.4167849    0.2276225  44.46  0.001802926    1.813    0.449
       293 -11.4740    248.1325     36.1239   4.2722290462e+00   2.0145704915e+01    0.2402029    0.1868657 -49.69 0.0003380569    1.033    0.032
       294  -9.7731     92.7693     34.2263   2.8108635506e+01   5.7159144901e+01    0.2415573    0.1865833 -44.81  0.001256874    1.424    0.298
       295  -9.4323    101.8340     33.8668   2.5309587024e+01   5.5089255345e+01    0.1874694    0.1673591 -74.54 0.0003013164    1.286    0.223
       296 -10.2703    100.9255     30.0595   2.4008787947e+01   5.5831830990e+01    0.7635176    0.2501096  41.96  0.002382458    3.679    0.728
       297 -10.9315     98.8540     25.9647   2.2871798123e+01   5.6865527094e+01    0.3071847    0.2500067 -17.55 0.0002927706    1.324    0.245
       298 -10.1015     34.0035     33.5826   5.2785877691e+01   6.8119820949e+01    0.2251127    0.1732782 -36.24 0.0007925353    1.191    0.160
       299 -11.4312     11.8457     29.3170   6.4288784506e+01   7.1246558968e+01    0.7796737    0.3317517 -23.42  0.002146553    3.177    0.685
       300 -10.3605     10.9540     24.5516   6.2972750554e+01   7.2276392381e+01    0.2784812    0.1848169 -32.71 0.0007919547    1.295    0.228
       301  -9.9162      4.6344    244.0784   9.1531055598e+01   2.2522558955e+01     0.145704    0.1041089  69.38 0.0005150128    1.153    0.133
       302 -10.4538     88.7385    241.4790   7.4568931409e+01   1.3607871351e+01    0.2105517    0.1333194 -47.00  0.001251651    2.085    0.520
       303 -10.0669     59.8247    240.6039   8.0481134833e+01   1.7371059831e+01    0.1800384   0.07772182  42.51 0.0007400262    1.731    0.422
       304 -10.1104     16.6630     26.9086   6.0223272786e+01   7.1323211452e+01    0.2170727    0.1614755 -56.92 0.0007992659    1.440    0.305
       305 -10.3858     15.7604     32.0028   6.2851275994e+01   7.0378876142e+01    0.2371949    0.1568301 -38.47 0.0003698861    1.295    0.228
       306 -10.3005     19.3887     31.1783   6.0288917444e+01   7.0220089477e+01    0.2267597    0.2027363 -28.24 0.0007347417    1.099    0.090
       307 -10.4988    195.8654    238.4007   5.2792598797e+01  -5.1577682259e-01    0.2108154    0.1733568  -1.52 0.0008968178    1.165    0.142
       308  -9.4136     64.9869     31.5192   3.6849724272e+01   6.3471043494e+01    0.2012538    0.1300274  44.20 0.0003723817    1.516    0.340
       309 -12.0475    214.2491     25.9766   4.7206747105e+00   2.8386109499e+01    0.4257838    0.3318842  36.94  0.002523107    1.730    0.422
       310 -10.9385    219.0004     25.4578   4.1874440639e+00   2.7399444870e+01    0.2383785    0.1939302  76.72 0.0005925035    1.280    0.219
       311 -11.0904    197.9247     28.4034   6.8871033236e+00   3.1828993801e+01    0.3121764    0.2170058  84.29  0.000998204    1.417    0.294
       312 -10.8987    203.0183     27.9395   6.2541522697e+00   3.0699815116e+01    0.1990884    0.1770653 -67.71 0.0004137976    1.038    0.036
       313 -12.1923    231.8958     26.4523   3.3810233669e+00   2.4536768406e+01    0.3711377    0.2316267 -78.01 0.0008774011    1.621    0.383
       314 -11.0512    136.1863     35.9228   1.8033681792e+01   4.6265309069e+01    0.4040231    0.2697513 -89.48  0.001294061    1.834    0.455
       315 -11.1510    119.5791     27.3616   1.8375684191e+01   5.1583929193e+01    0.2820826    0.2347833  56.90 0.0001887583    1.114    0.102
       316 -10.9393    112.2119     26.8780   1.9857915708e+01   5.3488589386e+01    0.3667139    0.2547541  -8.47  0.001097253    1.763    0.433
       317 -10.3124     79.6551     27.1464   2.9284969912e+01   6.1109207368e+01    0.2532892     0.204514  29.70 0.0007337115    1.188    0.158
       318 -10.0920     72.9430     26.2947   3.1290916942e+01   6.2663270719e+01    0.3033195    0.2019898 -11.83  0.001336031    1.767    0.434
       319  -9.1544     49.2361     28.6516   4.2568278856e+01   6.6768141662e+01    0.1205965    0.1047928 -63.23 0.0004706342    1.564    0.361
       320 -10.6256    176.4728     26.3074   8.7162129441e+00   3.7249086831e+01    0.3078597     0.202701 -49.40  0.001023019    1.453    0.312
       321  -9.6549    133.4953     27.1473   1.5485985958e+01   4.8069808499e+01    0.1906981    0.1427121 -27.94 0.0003059689    1.439    0.305
       322  -9.6387     61.0760     26.6599   3.6194875241e+01   6.4979827531e+01    0.1950738    0.1645263  21.57  0.001120906    1.097    0.089
       323 -11.4178    240.4903     26.2413   2.6936267929e+00   2.2806540107e+01    0.2142548    0.1627041  86.35  0.001406864    1.353    0.261
       324 -10.1985     91.6763     24.7986   2.4404277379e+01   5.8710866918e+01    0.3613237    0.1747033  44.20  0.001091838    1.973    0.493
       325  -9.4794     13.3104    238.8419   8.9702998364e+01   2.2673056874e+01    0.1391922   0.08611312 -75.92 0.0009334828    1.758    0.431
       326 -10.0394      3.7195    238.4517   9.1530196137e+01   2.3627388418e+01    0.1885485    0.1211156  85.42 0.0008992153    1.443    0.307
       327 -11.1426     40.0679    237.2612   8.4308983095e+01   2.0238137772e+01    0.3748211    0.1633241  52.08  0.001187689    1.830    0.454
       328 -10.9281     35.0903    237.8498   8.5350077896e+01   2.0665832733e+01    0.2853264    0.1135206  48.38  0.001409553    1.874    0.467
       329 -10.5668    159.9948     22.8846   9.8201615223e+00   4.1779264241e+01    0.4125547    0.2704338  20.37  0.001906788    2.268    0.559
       330 -10.0190    156.0805     21.6592   9.9784683705e+00   4.2913792348e+01    0.1953961    0.1636411  75.99 0.0004457487    1.105    0.095
       331  -9.7636    129.0288     24.3317   1.5322794720e+01   4.9548036558e+01    0.2001107    0.1669976  66.90 0.0003628584    1.110    0.099
       332 -10.5415    224.2450     22.9556   3.1721269280e+00   2.6550718977e+01    0.1764895      0.14399 -50.13 0.0004319631    1.084    0.078
       333  -9.1798     54.2277     23.0069   3.7415914638e+01   6.6806083973e+01    0.1683499    0.1057345 -32.72 0.0005312131    1.594    0.373
       334 -11.8966     34.1375     22.6951   4.7588070861e+01   7.0082848713e+01    0.2380579    0.1877137  -1.67 0.0002355757    1.182    0.154
       335 -10.2015     82.0444     21.3937   2.5841082001e+01   6.1350575407e+01    0.2913004    0.1813482 -44.52 0.0008657724    1.884    0.469
       336 -11.0020    193.2603     20.8029   5.3572044293e+00   3.3803592242e+01    0.2315436    0.2141142 -55.66 0.0002249887    1.123    0.109
       337  -9.5153    193.8509     16.6018   4.1904476175e+00   3.4123398556e+01    0.2373779    0.1238805 -69.56  0.001092213    2.071    0.517
       338  -9.2090    120.5463     21.5032   1.5947747755e+01   5.2035791670e+01    0.1405336    0.1305172  75.95 0.0008084027    1.047    0.045
       339 -10.1604     68.5895     21.2207   3.0493279645e+01   6.4275438981e+01     0.230654    0.1825537  43.88 0.0008241727    1.200    0.167
       340  -9.6964     58.9518     21.4505   3.4525077209e+01   6.6158609234e+01     0.196471    0.1228533  42.81 0.0004620189    1.520    0.342
       341  -9.7894     32.9955     15.4891   4.4425589372e+01   7.1433082203e+01    0.2099984    0.1345814   0.06 0.0005361773    1.816    0.449
       342 -10.7031     30.7936    234.3862   8.6036573133e+01   2.1765684983e+01     0.345072    0.1695067  82.57  0.001274375    2.134    0.531
       343  -9.8101     24.4881     20.4352   5.2232314555e+01   7.1718985516e+01    0.1890176    0.1426356 -40.10   0.00049094    1.281    0.219
       344 -10.5380    230.3328     20.1543   2.0706284939e+00   2.5575571264e+01    0.1930064    0.1579577  74.37 0.0003879661    1.335    0.251
       345  -9.7452     66.9680    236.4919   7.8693332400e+01   1.7255641179e+01     0.186774   0.09761416  34.27  0.001032225    1.591    0.371
       346  -8.9887     45.0192     19.6820   4.0140614462e+01   6.8911192541e+01    0.1979662    0.1045331  59.34 0.0007048934    4.301    0.767
       347 -11.7424    242.5034     21.9643   1.6215955602e+00   2.2888199694e+01    0.2351254    0.1424008 -73.81  0.001381223    1.615    0.381
       348 -11.4355    183.0492    233.5782   5.4485791333e+01   1.8357375636e+00    0.3399403    0.2310528 -32.27  0.001676687    1.617    0.382
       349 -10.4175    165.9516     12.9519   6.0405857330e+00   4.1336958436e+01    0.3044769    0.1662831 -84.05  0.001373024    2.025    0.506
       350 -10.0083    101.1272     17.8537   1.8846810285e+01   5.7289162355e+01    0.2501786    0.1879217  61.47 0.0006636202    1.244    0.196
       351  -9.4597     99.3117     14.7113   1.7947798859e+01   5.8075137208e+01    0.2098332    0.1387925 -29.24 0.0005225909    1.625    0.384
       352 -10.7837     63.9893     17.7488   3.0545811600e+01   6.5679339452e+01    0.2160511    0.1812493 -14.59 0.0005277745    1.194    0.162
       353 -10.8585    161.1604    233.7335   5.8767140247e+01   4.8506011501e+00    0.3143564    0.2307005 -41.96  0.002025998    1.636    0.389
       354 -10.4918    109.2194     16.7659   1.6495326031e+01   5.5411692979e+01     0.263612     0.175773  57.52 0.0007962551    1.344    0.256
       355  -9.0776    187.2411     16.0063   4.6608768456e+00   3.5766981022e+01    0.1663051     0.106846 -31.25 0.0006152371    1.579    0.367
       356 -10.1689    149.9612    240.0070   6.1829808426e+01   5.4811701090e+00    0.1472999      0.11575  26.16 0.0004226923    1.008    0.008
       357 -10.9843     76.7260     15.9843   2.5013943330e+01   6.3200958454e+01    0.2382133    0.1897294  46.88 0.0002258631    1.154    0.134
       358 -10.6348     73.2187     15.9680   2.6201721508e+01   6.3970432870e+01    0.2709508    0.1938538 -18.30   0.00118406    1.477    0.323
       359 -10.6767     55.0764    231.3606   8.0813043743e+01   1.9641356115e+01    0.2712379    0.2067203 -48.95  0.001782003    1.760    0.432
       360 -10.7425    159.8680     14.9641   7.3808328319e+00   4.2668760067e+01    0.2125529    0.1791382  79.87 0.0002671433    1.083    0.076
       361 -10.2301    236.7328    230.1262   4.4434418315e+01  -4.5772126114e+00    0.1601338    0.1319372 -21.51  0.001214988    1.479    0.324
       362 -10.5960    248.5043    229.0332   4.2368863502e+01  -5.8048017015e+00    0.1548345    0.0889466 -26.42 0.0007331286    1.580    0.367
       363  -9.7865    124.5424     14.1834   1.2416574343e+01   5.1805617955e+01    0.3409868    0.1785596  84.78   0.00139589    2.363    0.577
       364 -10.4906     39.2952    229.0393   8.3983492402e+01   2.1876465327e+01     0.228965    0.1157059  51.06 0.0009641707    1.570    0.363
       365 -10.0704    192.2382    227.2131   5.1808462055e+01   1.4599195292e+00    0.1540303    0.1322543  29.36 0.0006275255    1.329    0.248
       366 -10.3627      4.5545    225.7725   9.0951700447e+01   2.5943672509e+01    0.2609458    0.1466353  21.94  0.001582738    2.087    0.521
       367 -10.3329     79.4451    223.1523   7.4854739233e+01   1.8165814146e+01    0.2472049    0.1843876   4.89  0.001240894    1.836    0.455
       368 -10.0866     16.2599    222.0302   8.8421188270e+01   2.5601805737e+01    0.1588879    0.1206991  66.67 0.0004436114    1.069    0.065
       369 -10.0257     45.5701    244.2930   8.3608978191e+01   1.8347604732e+01    0.2117382   0.09724791  43.42 0.0005420774    1.600    0.375
       370  -9.4139    126.0371    220.5220   6.4305905106e+01   1.2090338192e+01    0.1891733   0.08703487  50.37 0.0008097017    2.520    0.603
       371 -11.8255     48.8769    218.4106   8.1213243350e+01   2.2889689413e+01    0.5309836    0.2528792  31.32  0.001950668    1.908    0.476
       372  -9.6458    211.8271    218.8281   4.6909430280e+01  -5.2432906455e-02    0.1470313    0.1322881   8.61 0.0006843813    1.337    0.252
       373  -9.5297     70.3065    217.6710   7.6376631414e+01   2.0422180289e+01    0.1332666   0.07856268  59.16 0.0004485435    1.657    0.396
       374 -10.1130    118.4014     16.8140   1.4582186291e+01   5.3096410122e+01    0.2630944    0.1793151  85.87  0.001289974    1.635    0.388
       375 -10.2970     38.3153    216.9396   8.3434555359e+01   2.4372344021e+01    0.2081439    0.1265109  46.37 0.0004972276    1.322    0.244
       376 -11.6102      7.2747    216.1281   9.0040891634e+01   2.7603790053e+01    0.3113551    0.2215872 -84.30  0.002166258    1.391    0.281
       377 -11.4108      4.3377    205.0739   9.0225074182e+01   3.0121885947e+01    0.2949218    0.2593053 -38.70  0.002157273    1.617    0.382
       378 -11.6013      5.2492    210.6588   9.0251650564e+01   2.8890163991e+01     0.369779    0.2203669 -78.80  0.001598743    1.644    0.392
       379 -11.8874     11.3438    209.2972   8.8890190267e+01   2.8631478427e+01    0.3460262    0.2417302  69.51  0.001592548    1.161    0.139
       380  -9.4443     23.9554    216.0157   8.6500550143e+01   2.6057000928e+01    0.1425494    0.1109973  62.60 0.0003893225    1.023    0.023
       381 -10.2401     29.7173    214.5804   8.5170301852e+01   2.5764852099e+01    0.2152051    0.1095686  24.62  0.001129689    2.137    0.532
       382 -10.0900     20.0317    211.5333   8.7114513296e+01   2.7358118382e+01    0.2330328    0.1287338  70.32 0.0008777254    1.610    0.379
       383 -10.4872    217.2586    209.3906   4.4397432346e+01   4.8316651653e-01    0.2887418    0.1493258 -34.84  0.001131232    1.922    0.480
       384  -9.4368     90.6641    210.3092   7.0983962404e+01   1.9146748152e+01    0.1379284     0.085632  58.14 0.0007043185    1.679    0.404
       385  -9.3736    132.3001    209.3345   6.1412199498e+01   1.3147950142e+01    0.1304103   0.09733279  -3.04 0.0005861437    1.655    0.396
       386 -10.5414     72.7277    208.3434   7.4929140892e+01   2.1991463787e+01    0.2960558    0.1847077  21.39  0.001543701    1.836    0.455
       387  -9.9647    110.5326    210.5194   6.6458927576e+01   1.6226511793e+01    0.1315599    0.1133285  37.31 0.0001574861    1.015    0.015
       388 -11.6067     19.3050    202.7807   8.6810387770e+01   2.9260015319e+01    0.6359301     0.136779 -63.95   0.00240469    4.314    0.768
       389 -10.0103     23.4864    198.5005   8.5610405568e+01   2.9775424917e+01    0.2257932    0.1076429 -86.83  0.001147488    2.063    0.515
       390 -10.5433     27.9121    205.6695   8.5036327213e+01   2.7801313993e+01    0.1682695    0.1496468  21.82 0.0007849587    1.388    0.280
       391 -10.2161    175.1167    202.0297   5.1150371271e+01   7.7339366031e+00    0.2195681    0.1626579  26.65 0.0004327876    1.186    0.157
       392  -9.3630     68.4160    203.0000   7.5405536021e+01   2.3669442840e+01    0.2896123   0.06570773  31.40 0.0009378046    3.960    0.747
       393  -9.3925    238.3665    200.7834   3.9349942878e+01  -1.1772289503e+00    0.1571918   0.09100343 -21.66 0.0004088325    1.544    0.352
