#   1 NUMBER                 Running object number                                     
#   2 MAG_AUTO               Kron-like elliptical aperture magnitude                    [mag]
#   3 X_IMAGE                Object position along x                                    [pixel]
#   4 Y_IMAGE                Object position along y                                    [pixel]
#   5 X_WORLD                Barycenter position along world x axis                     [deg]
#   6 Y_WORLD                Barycenter position along world y axis                     [deg]
#   7 A_WORLD                Profile RMS along major axis (world units)                 [deg]
#   8 B_WORLD                Profile RMS along minor axis (world units)                 [deg]
#   9 THETA_WORLD            Position angle (CCW/world-x)                               [deg]
#  10 FWHM_WORLD             FWHM assuming a gaussian core                              [deg]
#  11 ELONGATION             A_IMAGE/B_IMAGE                                           
#  12 ELLIPTICITY            1 - B_IMAGE/A_IMAGE                                       
         1 -16.1103     25.9860    188.3896   1.4410326929e+02   3.2655630001e+01     3.600609     2.769894   3.08   0.02269894    2.374    0.579
         2 -11.0985    196.1451     11.1233   6.4343863253e+01   3.4815611288e+01    0.1318483   0.09323912 -28.42 0.0007258407    1.657    0.396
         3 -10.7130     38.4789      2.9401   9.7531924862e+01   6.8262223184e+01    0.1621114   0.09149094 -24.06 0.0005922958    1.584    0.369
         4 -10.9305      2.4817      2.9625   1.1365549674e+02   7.1850083435e+01    0.1565916   0.07797392 -38.29  0.001045396    1.631    0.387
         5  -9.5803    160.8967      1.1611   6.6247097789e+01   4.4338014045e+01    0.1628352   0.08211089  69.53  0.000262587    1.716    0.417
         6 -13.5946     68.5534    145.0706   1.2891251119e+02   3.7517746937e+01     1.085849    0.6841196  61.06  0.004208295    1.837    0.456
         7 -17.3177    240.9316    124.7776   8.5339725733e+01   6.6958438021e+00     13.41582     4.244529 -39.43   0.04589074    2.865    0.651
         8  -9.7166    101.2390    134.9876   1.1848280821e+02   3.4781124691e+01    0.2022573    0.1806663 -60.38 0.0003778915    1.057    0.054
         9 -11.4884    165.4767    133.9522   1.0235951610e+02   2.1791741356e+01     0.249077    0.2134697  50.34 0.0005452111    1.166    0.143
        10 -12.5913    153.2139    131.7919   1.0468487176e+02   2.5017473859e+01    0.5239229    0.3329915 -84.46  0.001810855    3.011    0.668
        11 -11.1798    153.9873    125.9931   1.0308282388e+02   2.6112223202e+01    0.2412352    0.2384975  85.82 0.0006268855    1.020    0.019
        12 -14.0730    175.9332     73.1269   8.4114519125e+01   3.1307864422e+01     1.371479    0.7381116  64.29  0.004707968    2.021    0.505
        13 -12.3091    119.7894    111.4370   1.0797888105e+02   3.6667998006e+01    0.7521703    0.4590826  68.25  0.002860612    2.593    0.614
        14 -12.7499    127.2055    106.6834   1.0477996164e+02   3.6175812115e+01     1.111102     0.251142 -49.26  0.002703471    5.130    0.805
        15 -12.3046    117.8310     89.3611   1.0249007699e+02   4.1743095489e+01    0.6103141    0.2607585 -44.06  0.002258241    2.296    0.564
        16 -11.6312    112.4281    104.2300   1.0807721059e+02   3.9704644499e+01    0.3970698    0.3233004 -47.33  0.001208337    1.184    0.156
        17 -13.3267    120.1445    101.8802   1.0535716421e+02   3.8669883393e+01    0.8712467    0.7272537 -33.53  0.004459314    1.218    0.179
        18 -10.2698    111.9711    112.9900   1.1047081594e+02   3.7863282463e+01    0.2283936    0.1831436 -10.07 0.0005000767    1.591    0.372
        19 -11.5326    113.2308     95.7951   1.0556670591e+02   4.1345994680e+01    0.4353693    0.2669762 -35.15  0.001076788    1.723    0.419
        20 -12.6030    136.4541     90.2579   9.7869540981e+01   3.7566540417e+01    0.4314578     0.376317  40.15 0.0007690719    1.157    0.136
        21  99.0000    151.0054     33.2686   7.7387006426e+01   4.3389183084e+01     8.513786     7.480232 -44.48   0.04987687    1.242    0.195
        22 -12.0966    223.4277     79.6231   7.7526440924e+01   1.8572747290e+01    0.2656607    0.2529318  76.60 0.0006816433    1.109    0.098
        23 -10.6022    207.5762     78.6104   7.9816550174e+01   2.2544406011e+01    0.2549317    0.1470434 -27.72 0.0008666516    2.069    0.517
        24 -10.5163    217.8039     76.3270   7.7592378117e+01   2.0462354202e+01    0.3725622    0.2125605  80.39   0.00149008    2.380    0.580
        25 -13.8371    159.3660     70.8859   8.6895682865e+01   3.5772419863e+01    0.5894774    0.4364694  -6.01  0.001733095    1.823    0.451
        26 -11.9276    190.5089     66.4993   7.9594049017e+01   2.8784794813e+01    0.6020829    0.4426161   5.86  0.002718426    2.075    0.518
        27 -12.2073    187.5049     64.4790   7.9582376295e+01   2.9861896357e+01    0.5520383    0.4495206   2.34  0.001913386    1.627    0.385
        28 -10.3796    205.2770     64.3535   7.6564932568e+01   2.5468073155e+01    0.2620196    0.2172779  61.04  0.001211896    1.200    0.167
        29 -12.5766    204.3689     59.6225   7.5499521714e+01   2.6436824151e+01    0.6968061    0.3929127 -81.35  0.002628055    2.797    0.642
        30 -11.6764    201.3481     54.6465   7.4691795872e+01   2.7945338468e+01     0.473582    0.3058564  27.73  0.002014859    2.473    0.596
        31 -10.4126    178.9630     63.4433   8.0851975134e+01   3.2162757845e+01    0.2165837    0.1878339 -63.89  0.001142246    1.179    0.152
        32 -13.5017    172.3174    153.5858   1.0537951460e+02   1.6064718649e+01    0.7415507    0.5179474  66.55  0.002621076    1.752    0.429
        33 -11.2164    226.7481     55.7067   7.1315973950e+01   2.1616434049e+01     0.234795    0.1468312 -85.48  0.001081244    1.880    0.468
        34 -13.2093     59.8161    168.5658   1.3464586890e+02   3.3169128428e+01    0.3472557    0.2955571 -22.90 0.0009443897    1.707    0.414
        35 -12.0467    188.5765     49.1287   7.5267906919e+01   3.1944149451e+01    0.2905262    0.1950686 -56.16  0.001077462    1.588    0.370
        36  -8.9590    211.4118     47.8908   7.1507562363e+01   2.6463139613e+01    0.1759162    0.1256314 -50.17 0.0005341006    1.359    0.264
        37 -10.9971    176.8174     47.8292   7.6896853920e+01   3.5074208365e+01    0.2166229    0.1956877  -2.51 0.0006106591    1.309    0.236
        38 -12.5662    165.4220    152.2833   1.0662784662e+02   1.7850643041e+01     0.447482    0.3873197  85.06  0.002246732    1.292    0.226
        39 -11.9146    208.8972     37.0159   6.9160548541e+01   2.8590436086e+01    0.5076187    0.3164399 -57.37  0.002510837    1.637    0.389
        40 -10.5120    215.2751     36.2431   6.8151650677e+01   2.7141876882e+01    0.2169507    0.1494866 -86.57 0.0006902113    1.456    0.313
        41 -10.1613    201.9195     35.4499   6.9705834011e+01   3.0512643208e+01      0.24068    0.1596928 -57.21 0.0008200762    1.539    0.350
        42 -15.3453     68.6614    160.8845   1.3146157629e+02   3.3769531858e+01     1.730599     1.128821 -30.21  0.008075008    2.532    0.605
        43 -10.3261     93.7391     27.0994   8.8804703306e+01   5.6723803358e+01    0.1784809     0.169154 -12.56 0.0005050563    1.216    0.177
        44 -10.5029    176.7586     25.7069   7.0765619918e+01   3.7968671304e+01    0.2511358    0.1614346  83.69 0.0009903846    1.654    0.395
        45 -10.2977     93.0767     22.6711   8.7339366899e+01   5.7371758716e+01    0.1948509    0.1589259 -23.77 0.0005132462    1.297    0.229
        46 -10.5665    176.6808     21.1531   6.9528694821e+01   3.8509824871e+01     0.170871    0.1251573 -34.18 0.0007133815    1.507    0.336
        47 -12.5177    168.1216    148.3049   1.0512296336e+02   1.8113066980e+01    0.5349129    0.3158844  64.08  0.001859764    2.276    0.561
        48 -11.4146    133.3868    144.5524   1.1243390941e+02   2.6399396554e+01     1.134734    0.2518046 -54.09   0.00243686    6.691    0.851
        49 -11.2879    143.6415    145.1972   1.1009754034e+02   2.4113887325e+01    0.5489045    0.2618535 -60.08  0.001866747    2.766    0.639
        50 -10.5746    169.4845    227.9917   1.2009556062e+02   2.1277732148e+00    0.3081163    0.1621791  53.80  0.001186388    1.999    0.500
        51  -9.3966    189.2870    238.3044   1.1788997449e+02  -3.0651764189e+00    0.1247637   0.09185069  12.80 0.0001925727    1.565    0.361
        52 -11.6605    192.5507    194.6830   1.0961421490e+02   3.6744612512e+00     1.012337    0.4930167 -63.89  0.002619706    7.051    0.858
