#   1 NUMBER                 Running object number                                     
#   2 MAG_AUTO               Kron-like elliptical aperture magnitude                    [mag]
#   3 X_IMAGE                Object position along x                                    [pixel]
#   4 Y_IMAGE                Object position along y                                    [pixel]
#   5 X_WORLD                Barycenter position along world x axis                     [deg]
#   6 Y_WORLD                Barycenter position along world y axis                     [deg]
#   7 A_WORLD                Profile RMS along major axis (world units)                 [deg]
#   8 B_WORLD                Profile RMS along minor axis (world units)                 [deg]
#   9 THETA_WORLD            Position angle (CCW/world-x)                               [deg]
#  10 FWHM_WORLD             FWHM assuming a gaussian core                              [deg]
#  11 ELONGATION             A_IMAGE/B_IMAGE                                           
#  12 ELLIPTICITY            1 - B_IMAGE/A_IMAGE                                       
         1 -12.0713    168.0650     36.0258   4.1893331222e+01   3.8768195148e+01     1.007934    0.7448104 -70.43   0.00559003    1.409    0.290
         2  -8.7773    120.1876      8.9618   4.1666250263e+01   5.2999308290e+01    0.2372398    0.1631873  62.86 0.0009465723    1.237    0.191
         3  -9.9353    178.7375      7.3729   3.3118105986e+01   3.9402472528e+01    0.2154805    0.2032808 -69.45  0.001521227    1.201    0.167
         4 -10.5874    185.5798      2.9074   3.1369789690e+01   3.8261736812e+01    0.3216166     0.243453  24.74  0.001785275    1.970    0.492
         5 -11.6109    155.9672     34.2142   4.3277671118e+01   4.1882623061e+01    0.8214878    0.6256258  80.53  0.004617813    1.273    0.214
         6  -7.9943    218.3485      2.3071   2.8580010677e+01   3.1168735928e+01    0.1078148   0.08177084  52.73  0.000462133    1.704    0.413
         7  -9.8379    154.4202    236.1810   9.0787372608e+01   2.8195645004e+00    0.3279725    0.2403587 -14.59  0.001386321    1.575    0.365
         8 -15.0869    118.7025    220.9208   9.6507382043e+01   1.1350824424e+01     1.673646    0.8336809 -51.07  0.007527119    2.163    0.538
         9 -15.6432     73.0822    241.4364   1.0915992646e+02   1.3744721624e+01     1.615632    0.5835674  50.26  0.006721046    2.673    0.626
        10 -16.1432    108.2267    216.3266   9.8293117401e+01   1.3961221651e+01     5.612892    0.4921443 -49.75   0.01102174   11.060    0.910
        11 -15.7518     81.4181    185.4938   1.0046216075e+02   2.5200661797e+01     1.182716    0.8148783 -16.98  0.005291184    2.243    0.554
        12 -19.3541     77.6586    212.8306   1.0505120978e+02   1.9268759477e+01     5.508772     4.758697  54.81    0.0276245    1.054    0.051
        13  -8.7638    212.4971    226.3681   7.7218828443e+01  -4.0895293200e+00    0.2899634     0.170471  -6.89  0.001090041    2.022    0.505
        14  -8.5449    181.9135    162.6180   7.1137887855e+01   1.2658146126e+01    0.2277583    0.1802287  13.46  0.001137691    1.392    0.282
        15 -10.4268    157.7650    156.9278   7.5372505870e+01   1.8544881571e+01    0.4158562    0.3757919  78.78    0.0010973    1.313    0.239
        16  -8.7933    154.2058    152.2098   7.5174489638e+01   2.0303471056e+01    0.2680278    0.2315231 -60.65 0.0004556763    1.252    0.201
        17 -10.6236    148.9015    156.9793   7.7528435932e+01   2.0273094980e+01    0.5894716    0.3686191  55.75  0.002027781    1.981    0.495
        18  -9.0383    213.5902    232.5220   7.8064672904e+01  -5.1969840501e+00    0.2241842    0.1883169  16.31  0.000755281    1.208    0.172
        19  -9.9200    172.7941    151.3814   7.0664847392e+01   1.6784286371e+01    0.3067012    0.2356297 -33.94 0.0005053632    1.269    0.212
        20  -8.9841      1.9853    151.2997   1.1762028328e+02   4.2412475014e+01    0.2911175    0.1565542 -77.37 0.0009102113    1.520    0.342
        21  -8.1615    188.5507    151.5034   6.7294264298e+01   1.3674326167e+01    0.1500811    0.1369199 -23.34 9.539828e-05    1.024    0.024
        22  -9.7923    149.3100    147.6183   7.5327405361e+01   2.2321846637e+01    0.6320472    0.3305169 -63.78  0.002065903    3.156    0.683
        23  -9.4917    161.9883    140.3947   7.0603523091e+01   2.1347384528e+01    0.5815049    0.2534154 -38.07  0.002025636    2.433    0.589
        24  -8.2877    200.5153    235.1350   8.1054077360e+01  -3.8032684924e+00    0.1695103     0.117383 -34.66 0.0005035159    1.473    0.321
        25  -9.3837    164.8109    202.1630   8.2834407496e+01   7.6180992423e+00    0.3393512    0.2544817  -5.17  0.001291022    1.507    0.336
        26  -8.9956    181.1521    138.5623   6.5906520428e+01   1.7804051243e+01    0.2771767    0.2333238 -24.35  0.000568702    1.200    0.166
        27 -10.4247     35.0883    136.4945   1.0621176528e+02   4.3531675333e+01    0.4704717    0.2029388  16.62  0.001850679    3.057    0.673
        28  -9.9555    161.3027    207.0980   8.4507399694e+01   7.2246983950e+00    0.5362124    0.3575442  58.44  0.001755952    2.130    0.531
        29 -10.2094    157.7528    133.4044   6.9932111479e+01   2.3761919872e+01    0.6850773     0.380879 -45.33  0.001718105    1.745    0.427
        30  -8.8713      1.6228    134.2038   1.1606552172e+02   4.6691309606e+01    0.2504708    0.1880119 -35.87  0.001529456    1.488    0.328
        31 -10.0255      3.2052    130.5908   1.1520707091e+02   4.7500705026e+01    0.4317745    0.2409236 -18.78  0.002155704    2.445    0.591
        32  -9.7486    153.0873    130.5582   7.0356327027e+01   2.5372904905e+01    0.4157761    0.2884166 -75.73  0.001024059    2.195    0.545
        33 -10.0675    136.0240    127.4302   7.3879766143e+01   2.9669296087e+01    0.4933776    0.2677995 -53.07   0.00189362    1.954    0.488
        34 -10.0115    165.6825    205.4271   8.3230390996e+01   6.8242089920e+00    0.4614862    0.2757742   6.08  0.001873846    2.573    0.611
        35  -9.5498     31.1837    122.2233   1.0517526147e+02   4.7554707111e+01    0.3007507    0.2342499 -23.47  0.001678788    1.438    0.304
        36 -10.3530    194.2559    232.7505   8.1907672967e+01  -2.5335855186e+00    0.3869885     0.339794  19.52  0.001753793    1.200    0.166
        37  -9.1854    204.4114    199.9993   7.4024311167e+01   1.5400054307e+00    0.3239487    0.2033473  -3.80  0.001523814    2.014    0.503
        38  -8.6814      5.1793    197.8869   1.2038424190e+02   3.0937222046e+01    0.2885573    0.1662618 -83.43  0.001296896    1.461    0.315
        39 -16.3015    100.2773    200.3084   9.7885445018e+01   1.8787045504e+01     1.776883    0.6925105 -67.79  0.005849115    3.695    0.729
        40 -11.7980     97.5484    112.9963   8.1190241994e+01   4.0690625028e+01    0.8631201    0.3966173  36.85  0.003199279    2.257    0.557
        41  -8.7335    168.2934    113.6095   6.2616417502e+01   2.5690446325e+01    0.3377438     0.248429 -77.38  0.001489507    1.858    0.462
        42 -11.6499     53.2171    110.6726   9.5383455266e+01   4.8123010029e+01    0.9172153     0.350178  32.52  0.003488089    2.721    0.632
        43 -12.1464     73.9585    107.1115   8.7356470847e+01   4.6110030004e+01    0.9338758    0.4724344  38.77  0.003823355    2.080    0.519
        44 -11.1546     65.1399    109.2972   9.0920754679e+01   4.6886476943e+01    0.6784005     0.301077  32.47  0.002659705    2.367    0.577
        45 -10.8371     63.1628    106.1565   9.0844648485e+01   4.7928820954e+01    0.4171021    0.2935648  27.88   0.00125647    1.518    0.341
        46  -8.6388    187.9877    103.6170   5.6122228750e+01   2.3319246198e+01    0.2731119    0.2017854 -25.41 0.0006707511    1.520    0.342
        47 -11.1235     31.3685    249.1270   1.1825174323e+02   1.7275062894e+01    0.4375908    0.1904176  75.83  0.002111073    2.599    0.615
        48  -9.0649     50.3594    105.9778   9.5333978873e+01   4.9626977507e+01    0.2641142    0.1915658  45.54  0.000823453    1.604    0.376
        49  -9.9546     89.7622     95.2490   7.8827240965e+01   4.6200109531e+01    0.5228531    0.2652186  55.46   0.00180974    3.091    0.676
        50 -10.1795    118.3597     93.8424   6.9654089727e+01   4.0822924898e+01    0.4764536    0.1974328  42.28  0.001671334    2.446    0.591
        51 -10.3801     83.8461     98.4830   8.1708393823e+01   4.6517285140e+01    0.3578416    0.2954614  40.44  0.000903095    1.279    0.218
        52  -8.5596    101.7244     82.9708   7.1326991430e+01   4.6515525660e+01    0.2091856     0.193175 -26.54 0.0003626445    1.066    0.062
        53 -10.9241    144.3935     74.2035   5.7216442523e+01   3.8722959773e+01      0.53069    0.3878264  45.21   0.00174445    1.369    0.270
        54 -12.0204    154.2491     62.7464   5.1789950510e+01   3.8300063040e+01    0.7203047    0.6895934 -50.54   0.00419181    1.078    0.072
        55  -9.9316    144.3221     59.6049   5.2916943514e+01   4.1155744456e+01    0.2875852    0.2323558 -70.74 0.0006299341    1.407    0.289
        56 -10.2439    159.5753     53.3985   4.8110923220e+01   3.8449218999e+01    0.2751616    0.2342085  31.61 0.0007199599    1.358    0.264
        57 -11.6130    164.8818     47.8932   4.5646463553e+01   3.7964161421e+01    0.8854049    0.6139429 -83.43  0.004430154    1.680    0.405
        58  -9.4035    140.0234    247.7210   9.5523563215e+01   2.9338162448e+00    0.3100214    0.2580333  17.30  0.001238645    1.133    0.117
        59 -10.5966    248.0298     46.6711   3.5136579575e+01   1.9915616495e+01    0.4480496    0.4087574  64.99  0.002659402    1.416    0.294
        60 -10.6965    152.3777     47.2411   4.7663812565e+01   4.1049160004e+01    0.3414447     0.328805  73.70  0.001201674    1.053    0.050
        61  -8.1351    231.6597     43.6528   3.6045967029e+01   2.3555006503e+01    0.1137074   0.09696506  27.23 0.0007046365    1.789    0.441
        62  -8.4230    221.8132     40.1687   3.6280775388e+01   2.6059035610e+01    0.1984714    0.1413484 -65.37 0.0005667749    1.236    0.191
        63 -10.3278     14.2609     37.3022   9.1220107597e+01   6.7994844422e+01     0.355207    0.1823007 -52.71  0.001906743    1.931    0.482
        64  -8.6672    213.2966     37.5006   3.6573992047e+01   2.8227441790e+01    0.2042474    0.1694586 -65.60  0.001313041    1.048    0.046
        65  -7.8064    226.0012     36.5084   3.5083607366e+01   2.5656162622e+01    0.1660946    0.1110308  75.10 0.0004449454    1.462    0.316
        66  -8.7781    193.3137     16.3309   3.3786099761e+01   3.5167843535e+01    0.1188431   0.09029085  43.72 0.0003086318    1.677    0.404
        67  -9.3134    189.5899     15.1880   3.3894658820e+01   3.6133322893e+01     0.154267    0.1225717 -14.46 0.0009494007    1.697    0.411
        68  -9.2757    191.0792    174.8161   7.1765425823e+01   8.5112067266e+00    0.2426984    0.1958502 -36.23 0.0003251373    1.175    0.149
        69  -8.7338     21.6944    244.4413   1.1983064736e+02   1.9250030930e+01    0.2662593    0.1126832  55.10  0.001404293    1.963    0.491
        70  -7.8762    220.4090    230.4651   7.6416713671e+01  -5.7973168727e+00    0.1242283    0.1004622  -3.93 8.452238e-05    1.041    0.039
        71  -9.1638      2.2265    227.4340   1.2267176286e+02   2.4656802391e+01    0.3677853    0.1796947  80.08  0.002058353    1.802    0.445
