#   1 NUMBER                 Running object number                                     
#   2 MAG_AUTO               Kron-like elliptical aperture magnitude                    [mag]
#   3 X_IMAGE                Object position along x                                    [pixel]
#   4 Y_IMAGE                Object position along y                                    [pixel]
#   5 X_WORLD                Barycenter position along world x axis                     [deg]
#   6 Y_WORLD                Barycenter position along world y axis                     [deg]
#   7 A_WORLD                Profile RMS along major axis (world units)                 [deg]
#   8 B_WORLD                Profile RMS along minor axis (world units)                 [deg]
#   9 THETA_WORLD            Position angle (CCW/world-x)                               [deg]
#  10 FWHM_WORLD             FWHM assuming a gaussian core                              [deg]
#  11 ELONGATION             A_IMAGE/B_IMAGE                                           
#  12 ELLIPTICITY            1 - B_IMAGE/A_IMAGE                                       
         1 -12.1834    195.5417     37.8841   4.9350194996e+01   3.1574508925e+01    0.9808173    0.9253241 -49.80  0.003429264    1.092    0.084
         2 -12.3946    204.9008     27.6086   4.5331734334e+01   3.0546557654e+01    0.8190105    0.7579294  19.93  0.001662278    1.311    0.237
         3 -10.9036    230.7995      3.0093   3.6702406900e+01   2.7125976082e+01    0.6391586     0.334267  59.63  0.003047487    1.985    0.496
         4 -10.2787    225.2111      2.4106   3.7004617695e+01   2.8479448854e+01    0.4102152    0.2244762  71.81  0.001963072    1.692    0.409
         5 -10.0174     59.7812      3.5523   6.7744617460e+01   6.6885262155e+01    0.3056712     0.159077 -26.00  0.001640151    1.860    0.462
         6 -10.3917     49.5560    218.9273   1.2113834475e+02   2.3110812479e+01    0.3849376    0.2338706  87.00  0.001488365    1.510    0.338
         7 -10.6615    116.5815    247.9853   1.1120618091e+02   8.5008436601e+00    0.3888389     0.300059 -82.01  0.001407256    1.525    0.344
         8  -8.3261     86.8351    249.3581   1.1676670263e+02   1.2602328301e+01     0.157425    0.1274029 -76.34 0.0006335765    1.413    0.292
         9 -16.0852     53.7735    198.5784   1.1856447150e+02   2.6754773271e+01     11.04513     7.326239 -79.68   0.02952249    1.380    0.276
        10 -10.4096     34.7938    208.6480   1.2318103746e+02   2.6887159033e+01    0.3172754    0.1525366  46.34  0.001651134    1.788    0.441
        11 -10.8022     72.7670    175.4311   1.1181827340e+02   2.9350311154e+01    0.4392719    0.2839875 -39.93  0.001456707    2.176    0.540
        12 -10.3875     76.9361    170.5589   1.1018132923e+02   2.9873574418e+01    0.3259051    0.2644005 -40.13  0.001333434    1.555    0.357
        13  -8.5005     99.6465    181.0687   1.0636545027e+02   2.4022343601e+01     0.239233    0.1712428  57.10  0.000795558    1.330    0.248
        14 -13.4074     58.6660    243.2627   1.2129448289e+02   1.7414873140e+01    0.8924079    0.6778082  49.72 0.0005230392    1.247    0.198
        15  -8.9047    113.1597    207.4867   1.0709144633e+02   1.6304857147e+01    0.2123601    0.1637873  76.13 0.0006029084    1.353    0.261
        16 -11.4448     84.4958    161.9743   1.0708145576e+02   3.0747585315e+01     1.162007     0.485806  56.35 0.0008230488    3.219    0.689
        17 -12.5359     58.7101    132.2585   1.0903883095e+02   4.1453267045e+01     1.767741    0.6280839 -74.77  0.005154959    4.780    0.791
        18  -9.2968    133.8727    144.7477   9.1467158084e+01   2.6008408528e+01    0.7134783    0.1876295 -55.33  0.001659181    5.957    0.832
        19  -8.2214     86.0664    145.4585   1.0392108078e+02   3.4419509429e+01    0.1981653    0.1393553  39.60 0.0003638809    1.484    0.326
        20  -8.4203    103.4993    141.4612   9.8562122276e+01   3.2489003361e+01    0.2823833    0.2139882 -84.72 0.0008965693    1.510    0.338
        21  -8.8617    105.4743    138.0518   9.7343853287e+01   3.2947207169e+01    0.2982658    0.1816124 -40.72  0.001287882    1.844    0.458
        22 -10.5474     91.9475    139.8430   1.0131504535e+02   3.4828253975e+01    0.2920717    0.2496764 -43.63 0.0004121211    1.252    0.201
        23  -9.1258     93.2628    218.7677   1.1256222725e+02   1.7209140234e+01    0.2610789    0.1896646  88.62   0.00135158    1.423    0.297
        24  -9.8255    113.2912    130.6522   9.3659615478e+01   3.3258019981e+01    0.3331973    0.3248608 -47.27  0.001434318    1.060    0.057
        25  -8.8604    106.2634    130.8599   9.5599251352e+01   3.4507284999e+01    0.3207663    0.2580961 -44.61  0.001624603    1.260    0.206
        26  -9.4392     99.9468    126.6524   9.6406780793e+01   3.6631043914e+01      0.35849    0.2651443 -16.32 0.0009548189    1.931    0.482
        27  -7.3670    159.6744    196.7257   9.5555596817e+01   1.0271566056e+01    0.1360547    0.1038103  11.31 0.0002045603    1.583    0.368
        28 -10.5112     91.3520    154.8082   1.0419107367e+02   3.1362700358e+01    0.6003883    0.4093203 -28.15  0.001729972    2.225    0.550
        29  -8.0288    134.6488    119.3020   8.5310142613e+01   3.1573999474e+01     0.161049    0.1248584  84.91 0.0003420105    1.698    0.411
        30  -8.2636    108.8502    119.1569   9.2204524851e+01   3.6785450592e+01    0.2162123    0.1992287 -83.78 0.0003538848    1.122    0.109
        31 -12.8468     68.6030    144.3443   1.0834383104e+02   3.7236789623e+01     1.583182    0.8611305  71.41   0.00306972    2.718    0.632
        32  -9.2057    192.6649    193.9745   8.8255462524e+01   4.7238665376e+00    0.3409647    0.1701811 -61.18 0.0009876353    6.258    0.840
        33  -7.8986    205.6536    110.2713   6.7126482743e+01   1.7300353831e+01    0.1498977    0.1191748 -78.22 0.0006994835    1.620    0.383
        34 -10.6108    119.5222    110.0315   8.6961070843e+01   3.6803356967e+01    0.6466936    0.2666279 -56.81  0.002032394    3.160    0.684
        35  -9.8504    115.7406    109.2501   8.7804271837e+01   3.7740022015e+01    0.4472947    0.2854058  22.35  0.001807055    2.175    0.540
        36 -12.0737     73.2143    157.0206   1.0913336322e+02   3.3566425245e+01    0.5531366     0.522241 -39.58  0.001097735    1.281    0.219
        37  -7.6593    134.6619    107.3124   8.2178847892e+01   3.4220002299e+01    0.1610657    0.1262185 -89.60 0.0007045958    1.691    0.409
        38 -14.3473      7.6491    250.1243   1.3011453950e+02   2.1944984671e+01    0.6660023    0.5263994  26.66  0.003242509    2.030    0.507
        39 -10.2725     48.4471    224.4482   1.2176570277e+02   2.2169654757e+01    0.2415224    0.1644863  57.30 8.525456e-05    1.181    0.153
        40 -16.6354      1.9239    241.8111   1.3068106918e+02   2.3949251694e+01     21.57976          nan -77.75   0.01161725   30.152    0.967
        41  -9.1194     41.4238     91.7455   1.0666728221e+02   5.3123316343e+01    0.2481604     0.117153 -66.18 0.0008069468    2.012    0.503
        42  -8.4971    156.9907     81.4804   6.9291533168e+01   3.4318167814e+01    0.2396181    0.1544803  52.56 0.0008696956    1.560    0.359
        43  -8.5918     62.1964     69.1666   9.3491150165e+01   5.5753824187e+01    0.1715102    0.1615414  68.62 0.0005532086    1.318    0.241
        44  -9.3097     33.0000     67.0352   1.0384821871e+02   5.9511003009e+01    0.3711991    0.0617135 -58.63  0.001063339    5.044    0.802
        45  -8.9156    151.5783     54.7199   6.2210403885e+01   4.0312557836e+01    0.2726246    0.2479691 -64.29 0.0005884782    1.177    0.150
        46 -11.9087    185.1113     46.2613   5.3306495046e+01   3.3065111635e+01    0.8754933    0.6465581   4.37  0.002714045    1.847    0.459
        47  -9.2928    139.6341    249.3267   1.0707543676e+02   4.7504259370e+00    0.1886059    0.1254953  62.57  0.001126851    1.679    0.405
        48 -10.0262    125.4799    248.4823   1.0960981651e+02   7.0678767275e+00     0.251427    0.1766139 -71.51  0.001435921    1.796    0.443
        49  -8.7441    153.6232     48.5634   5.9790474656e+01   4.0748876049e+01    0.3012466    0.2321895 -75.04 0.0006064025    1.591    0.371
        50  -9.6811     41.9866     19.1603   8.2902714045e+01   6.7559100878e+01    0.1724667    0.1485243  60.59  0.001093309    2.021    0.505
        51 -10.3873     28.5913     35.2394   9.5797639912e+01   6.6341049923e+01    0.2271141    0.1871636  55.86  0.001456649    1.920    0.479
        52 -11.1140     45.4423    220.8348   1.2205701114e+02   2.3231370264e+01    0.2741089    0.1869297  69.73 0.0006722562    1.166    0.143
        53 -13.8649     85.4735    228.7714   1.1513074362e+02   1.6450243265e+01     3.593461     2.138656  40.93     0.021016    1.514    0.339
