#   1 NUMBER                 Running object number                                     
#   2 MAG_AUTO               Kron-like elliptical aperture magnitude                    [mag]
#   3 X_IMAGE                Object position along x                                    [pixel]
#   4 Y_IMAGE                Object position along y                                    [pixel]
#   5 X_WORLD                Barycenter position along world x axis                     [deg]
#   6 Y_WORLD                Barycenter position along world y axis                     [deg]
#   7 A_WORLD                Profile RMS along major axis (world units)                 [deg]
#   8 B_WORLD                Profile RMS along minor axis (world units)                 [deg]
#   9 THETA_WORLD            Position angle (CCW/world-x)                               [deg]
#  10 FWHM_WORLD             FWHM assuming a gaussian core                              [deg]
#  11 ELONGATION             A_IMAGE/B_IMAGE                                           
#  12 ELLIPTICITY            1 - B_IMAGE/A_IMAGE                                       
         1 -15.4686     22.5578    132.8627   1.2071554395e+02   4.5357330418e+01     4.379335      3.47838  35.94    0.0295411    1.528    0.345
         2 -12.2946    190.1667     37.5107   5.2610513022e+01   3.2828167155e+01     1.144811     1.018385 -13.37  0.005060439    1.261    0.207
         3 -12.0045    198.0522     27.2362   4.8561225429e+01   3.2091097476e+01    0.8004385     0.770921  32.01  0.001456188    1.180    0.152
         4  -7.5604    136.2021      9.0317   5.2099057295e+01   5.0045845099e+01    0.1729695    0.1107299 -18.66 0.0005486858    1.704    0.413
         5  -9.6542    211.5803      7.9165   4.1796965454e+01   3.0830670235e+01    0.2716112    0.1873047  78.03 0.0008011733    1.340    0.254
         6 -10.6407      4.3510      4.8835   9.7172084659e+01   7.3616495196e+01    0.4181665    0.2825177 -53.71  0.002860969    1.764    0.433
         7  -9.6588     19.0849      3.5718   8.8318174543e+01   7.2556651272e+01    0.3226852    0.1294976 -24.73  0.001499979    2.837    0.648
         8 -10.0789     12.3913      2.1691   9.1237044242e+01   7.3389205484e+01    0.2643317    0.2167872  24.38  0.002018235    1.609    0.379
         9  -9.4991    221.1808      2.2977   3.9513294695e+01   2.9043018303e+01    0.3926498    0.1954681  67.59  0.001798259    1.864    0.464
        10  -8.9422    216.7957      1.6245   3.9713961965e+01   3.0180801454e+01    0.2849557     0.178995  65.51   0.00110376    1.527    0.345
        11 -10.6673     55.2588    217.4381   1.2181492217e+02   2.3425742704e+01    0.2243439    0.1257291 -84.14  0.001337813    1.694    0.410
        12 -13.0799    244.3602    232.1533   8.8624257502e+01  -8.7965659508e+00     2.943028      1.04999 -29.11    0.0140199    3.082    0.676
        13 -14.9372    123.6657    225.9417   1.0974710612e+02   1.1813338368e+01     3.837555     3.405787 -77.51   0.02660672    1.280    0.219
        14 -14.6449     10.4776    214.6680   1.2960437784e+02   2.8972757882e+01    0.8249485    0.5479861  46.73  0.006143446    1.503    0.334
        15 -15.4872     52.7699    246.7316   1.2437397364e+02   1.8428104223e+01    0.8483033    0.5704138  38.23  0.005958943    1.704    0.413
        16 -14.8032     39.6262    224.8865   1.2516979517e+02   2.3919190065e+01    0.9174201    0.4598165  69.85  0.005516967    1.723    0.419
        17 -15.2219     38.5987    246.9525   1.2669478343e+02   2.0097014008e+01    0.5475104    0.3696307  61.39  0.004192508    1.090    0.083
        18 -17.9137     19.3278    239.8875   1.2939958592e+02   2.3462800301e+01     2.567401     1.362568  46.68   0.01802485    1.602    0.376
        19 -11.1558     50.9624    214.9911   1.2241325399e+02   2.4437555699e+01    0.2722744      0.13253  65.13  0.001494346    1.873    0.466
        20  99.0000     25.5381    193.8892   1.2561497013e+02   3.1577483449e+01    0.4664269    0.2002375 -85.63  0.002006892    2.104    0.525
        21 -10.8544     40.4462    202.6982   1.2342096515e+02   2.8138375484e+01    0.1544816     0.111073 -77.65  0.000199886    1.320    0.242
        22 -10.0760     29.0250    198.8335   1.2530329650e+02   3.0197427394e+01    0.2071683    0.1179327  70.94  0.000276984    1.463    0.317
        23 -11.2174     31.6865    216.2873   1.2600381926e+02   2.6453650787e+01    0.1687938    0.1043664  69.66 0.0004506899    1.245    0.197
        24 -11.8117     25.1348    211.9080   1.2689137602e+02   2.8012539144e+01    0.5770288    0.2068299  61.09  0.002915541    2.488    0.598
        25 -12.8247     31.5395    209.4075   1.2557331728e+02   2.7807613315e+01    0.5506191    0.2847169  83.10  0.003281265    1.708    0.415
        26 -12.0309     36.4735    206.5302   1.2446023767e+02   2.7825056637e+01    0.3224618    0.1482458 -63.01  0.001790956    2.244    0.554
        27 -12.5202     32.4012    203.5158   1.2500270518e+02   2.8883807832e+01    0.3143619    0.2195014  36.21  0.002121476    1.718    0.418
        28 -10.6421     60.7746    209.0954   1.2006348017e+02   2.4343935239e+01    0.1560964    0.1231919  74.70 0.0002466101    1.032    0.031
        29 -10.2959     17.8480    201.4704   1.2756028959e+02   3.0821483413e+01    0.2624057    0.1074646  65.28  0.001401223    2.178    0.541
        30  -9.9057    234.1659    217.1724   8.7821874178e+01  -5.4833793656e+00    0.3821388    0.2227342  41.61  0.001510598    1.639    0.390
        31 -11.4355     74.4604    242.4816   1.2039801326e+02   1.6330944274e+01    0.1832845      0.12983  65.31 0.0001113235    1.083    0.076
        32  -7.9272     90.1914    196.8398   1.1286963129e+02   2.2645762758e+01    0.1455483    0.1370414  85.35 0.0002404819    1.225    0.184
        33  -8.9984     49.7578    197.4129   1.2116855081e+02   2.8108181253e+01    0.2631001    0.1218627  19.61  0.000727683    9.605    0.896
        34 -10.6280     20.8645    196.9119   1.2671012913e+02   3.1437571784e+01    0.1253801    0.0885537  78.42 0.0008778664    1.046    0.044
        35 -11.5977     71.4417    250.6007   1.2153779538e+02   1.5370330431e+01    0.1695527    0.1519741  73.87 0.0006166502    1.365    0.267
        36 -10.2474     12.1283    191.5072   1.2800561245e+02   3.3389804989e+01    0.1613482    0.0696754  77.15 0.0008423819    2.120    0.528
        37  -9.5138     10.1576    185.9738   1.2803436022e+02   3.4710849962e+01   0.09760598   0.07116423  75.67 0.0006927968    1.062    0.059
        38  -9.9280      9.8090    182.0585   1.2785191424e+02   3.5557459470e+01    0.1417973   0.08810693 -81.09 0.0003312666    1.298    0.229
        39 -10.4640    250.3448    191.8198   8.0400997050e+01  -4.8175107173e+00      0.38598    0.1857198 -27.70 0.0004173129    2.029    0.507
        40  -8.7163     77.2634    178.1624   1.1330897744e+02   2.8543227736e+01    0.2456637    0.2117138 -32.93  0.001487568    1.651    0.394
        41  -9.0703     81.1002    172.9657   1.1175852627e+02   2.9126082403e+01    0.2345557    0.1875512 -53.00 0.0004827655    1.433    0.302
        42 -12.0842     76.5723    248.4518   1.2050804840e+02   1.5035277069e+01    0.3567737    0.1358153  38.56  0.001370612    2.501    0.600
        43 -11.3956     77.2172    244.9812   1.2012242148e+02   1.5528985413e+01    0.1925641    0.1475485 -74.96 0.0003405556    1.475    0.322
        44  -9.5863    175.4311    172.4181   9.0667546928e+01   1.2069020088e+01    0.3088572    0.2771316  42.58   0.00078489    1.061    0.057
        45 -11.5992     66.2533    249.8686   1.2235164409e+02   1.6177807797e+01    0.1758134    0.1363839 -75.64  0.001338603    1.498    0.332
        46  -9.7251    112.5816    169.4765   1.0401179482e+02   2.4764223267e+01    0.5017147    0.2307388  62.41  0.001683912    3.608    0.723
        47  -8.4169      7.0518    170.0623   1.2760254700e+02   3.8338398785e+01     0.142943   0.09557755  71.69 0.0003255128    1.225    0.184
        48 -12.9934      5.2611    199.3024   1.2971427903e+02   3.2451376645e+01     1.049014    0.3087248 -65.05  0.005155241    3.155    0.683
        49  -8.7134     88.7774    163.9705   1.0867297358e+02   2.9969236009e+01    0.2391884    0.2296602  33.82 0.0009934548    1.278    0.217
        50  -7.6882    209.9597    164.4473   8.2102771466e+01   6.5574464112e+00    0.1969972    0.1329642  41.91 0.0003109319    1.441    0.306
        51 -12.2120     61.6716    231.0566   1.2173572511e+02   2.0054027389e+01     0.215242    0.1409286  65.55 0.0004797136    1.194    0.162
        52  -7.9572    126.9742    147.7094   9.6551053975e+01   2.6897680204e+01    0.1974729    0.1795423  59.28 0.0003282755    1.068    0.064
        53 -12.2963     67.9448    144.2351   1.1069158226e+02   3.7621090184e+01     1.040621    0.6246374  67.39  0.003325871    1.948    0.487
        54  -7.6915    113.1427    145.3663   9.9466092573e+01   3.0055104689e+01    0.1947416    0.1299725  54.64  0.000119979    1.539    0.350
        55  -7.9048    171.2255    159.0052   8.8809128273e+01   1.5482597081e+01    0.3098316    0.1860998  67.76  0.001176121    2.699    0.629
        56  -7.3183    230.2891    144.2963   7.3935690876e+01   5.8578640562e+00    0.1419906    0.1043361   5.41 0.0002772921    1.553    0.356
        57  -8.0930    106.9036    140.6287   1.0008392636e+02   3.2281176154e+01    0.2846537    0.1884484 -33.48  0.001260439    2.016    0.504
        58  -7.8262    104.8704    133.3217   9.9101931713e+01   3.4343495749e+01    0.1899274    0.1796408  66.74 0.0002947728    1.073    0.068
        59 -10.0428     93.6663    157.7372   1.0650834214e+02   3.0605314252e+01    0.4217636    0.2844944 -49.62   0.00137662    1.593    0.372
        60  -8.8335     89.0385    124.5331   1.0147868656e+02   3.9132550269e+01    0.3710608    0.2066464  62.17  0.001051381    2.498    0.600
        61  -9.8591     97.7552    152.8457   1.0467548647e+02   3.1050901251e+01    0.3552738    0.3119498 -57.63 0.0007912883    1.186    0.157
        62  -7.1095    122.2697    115.6909   9.0450805354e+01   3.5053125427e+01    0.1516074    0.1197559 -85.64 0.0002418819    1.542    0.352
        63  -7.8158    168.9862    114.2931   7.8729190927e+01   2.4961643744e+01    0.2180659    0.1956595  53.41  0.000309936    1.130    0.115
        64  -7.4237    162.2775    112.0259   7.9641355055e+01   2.6992904190e+01     0.209881     0.196923 -41.03  0.000277578    1.058    0.055
        65  -8.7206    211.4352    110.5217   6.9217014884e+01   1.5720419089e+01    0.2949584    0.2567782 -73.69 0.0008652926    1.333    0.250
        66  -7.9750    117.7351    109.4053   9.0053356998e+01   3.7388398682e+01    0.2075255    0.1480718  32.66 0.0009398785    1.584    0.369
        67  -8.3530    113.0953    107.9647   9.0940697032e+01   3.8639440460e+01    0.2243869    0.2146183 -61.41 0.0004291584    1.006    0.006
        68  -8.2685    196.7331    107.0449   7.1066723524e+01   1.9785342808e+01    0.2569457    0.2213272  50.31 0.0005447885    1.194    0.162
        69  -7.8621    181.0545    104.6540   7.3572880569e+01   2.3988450641e+01    0.2124685    0.1937244  46.03 0.0003618062    1.114    0.103
        70  -8.7559    119.0704    102.2522   8.7789340899e+01   3.8708969102e+01    0.2933495    0.2162855 -56.11 0.0006354586    1.382    0.276
        71  -7.3673    164.2901    158.3099   9.0166174705e+01   1.7063140133e+01    0.1461508    0.1167787   3.09 0.0002575188    1.582    0.368
        72  -7.7667    123.2063     96.1891   8.4981293476e+01   3.9162129587e+01    0.2072821    0.1761712 -70.32 0.0003740845    1.303    0.233
        73  -7.4750    112.5616     88.4571   8.5682067492e+01   4.3041615952e+01    0.1510456    0.1443266 -41.12 0.0001157714    1.006    0.006
        74  -8.6760    109.3874     83.7220   8.5172320694e+01   4.4688353638e+01    0.2417529    0.2247295  56.61 0.0003630152    1.153    0.133
        75  -7.3706    157.3101     82.6958   7.2498291220e+01   3.4000697060e+01    0.1599898    0.1244552 -75.42 0.0003210684    1.610    0.379
        76  -8.4285    106.5473    154.1811   1.0276728435e+02   2.9234554235e+01    0.2363895    0.1865351  51.52 0.0002380701    1.236    0.191
        77  -7.2877     95.3066     77.3344   8.7408360417e+01   4.8755531584e+01    0.1507546    0.1127532 -11.65 0.0002295152    1.669    0.401
        78  -9.0482     87.0074    153.4873   1.0742465228e+02   3.2648476618e+01    0.4183272    0.1953321  63.35   0.00147169    3.411    0.707
        79  -7.5263     52.2925     68.7177   9.9222312962e+01   5.7191460807e+01    0.1206737     0.101711 -89.74 0.0001853603    1.534    0.348
        80  -6.9772    119.2914     65.6870   7.6581793298e+01   4.6164567189e+01    0.1483486    0.1200246 -73.24 0.0001622233    1.590    0.371
        81  -7.3387    210.9607     61.0000   5.6173174309e+01   2.4135269324e+01    0.2322242   0.08415455  61.95  0.000583405    2.836    0.647
        82  -8.6744    160.5115     56.5101   6.3670986602e+01   3.7776846677e+01    0.2779195    0.1998176  26.91  0.000639032    1.690    0.408
        83 -11.9723    178.9828     47.2579   5.7309636296e+01   3.4393968369e+01    0.8736922    0.7837954 -10.54  0.002765317    1.229    0.186
        84 -11.9510     63.4181    237.4312   1.2191886504e+02   1.8684292395e+01    0.2241534    0.1564838  68.43  0.001225746    1.101    0.092
        85  -7.3308     25.6239     53.2370   1.0492024880e+02   6.3157420276e+01    0.1066588   0.09106185  66.53 0.0006918195    1.620    0.383
        86 -11.8973     65.3747    234.2354   1.2133036573e+02   1.8994923221e+01    0.1779593    0.1410775  46.63  0.001284278    1.369    0.270
        87  -8.1525     34.1023     26.6575   9.1847961662e+01   6.7393261616e+01     0.161448    0.1328332  -8.98  0.001104554    1.125    0.111
        88 -13.1724     68.3743    230.6323   1.2050747265e+02   1.9244049578e+01    0.2844837    0.1790965  74.36  0.001690869    1.408    0.290
        89 -11.5924     81.0357    235.3569   1.1864197935e+02   1.6657704811e+01    0.1757229    0.1461459  71.21  0.000278893    1.138    0.121
        90  -9.6829     73.9225    227.2871   1.1921822207e+02   1.9098675290e+01   0.09452464   0.05538727 -80.57            0    1.751    0.429
        91 -11.8087     57.8633    225.4639   1.2197889217e+02   2.1575007484e+01    0.3824271    0.2120645  40.12  0.002307296    1.770    0.435
        92 -13.5319     47.7976    221.1709   1.2346242526e+02   2.3641922128e+01    0.4099663    0.1920666 -72.57  0.002362393    2.042    0.510
        93 -11.9351     66.1580    221.6081   1.2015016057e+02   2.1210150348e+01    0.2392825    0.1459397  65.38  0.001241758    1.380    0.275
