#   1 NUMBER                 Running object number                                     
#   2 MAG_AUTO               Kron-like elliptical aperture magnitude                    [mag]
#   3 X_IMAGE                Object position along x                                    [pixel]
#   4 Y_IMAGE                Object position along y                                    [pixel]
#   5 X_WORLD                Barycenter position along world x axis                     [deg]
#   6 Y_WORLD                Barycenter position along world y axis                     [deg]
#   7 A_WORLD                Profile RMS along major axis (world units)                 [deg]
#   8 B_WORLD                Profile RMS along minor axis (world units)                 [deg]
#   9 THETA_WORLD            Position angle (CCW/world-x)                               [deg]
#  10 FWHM_WORLD             FWHM assuming a gaussian core                              [deg]
#  11 ELONGATION             A_IMAGE/B_IMAGE                                           
#  12 ELLIPTICITY            1 - B_IMAGE/A_IMAGE                                       
         1 -14.4797    217.0414      6.1976   3.9239051088e+01   2.8399645285e+01     2.274778     1.383029  72.80  0.005807109    1.687    0.407
         2 -15.2239    192.1142     36.0688   5.1202195969e+01   3.1837254811e+01     3.546877     2.010568  18.99   0.01340444    2.619    0.618
         3 -13.4203    176.8982     50.7753   5.8234346178e+01   3.3936976228e+01    0.9169537    0.8301418  21.49 0.0008938715    1.158    0.137
         4 -12.7567    247.2621    246.7832   8.6758059804e+01  -2.1297200751e+00    0.5412708    0.3189282  18.56  0.004396049    1.339    0.253
         5  -7.9770     43.1322    221.0346   1.1692304727e+02   2.7874036927e+01    0.1638587    0.1394465  30.37  0.001404894    1.697    0.411
         6  99.0000     43.3259    209.6750   1.1632533974e+02   2.9620115868e+01    0.3875751   0.09251895  58.96  0.001649504    4.106    0.756
         7  -9.9846     43.9493    205.4497   1.1598889768e+02   3.0231122428e+01    0.2074393    0.1330935  36.11  0.001505384    1.609    0.378
         8 -11.9859     67.4337    206.6048   1.1175165311e+02   2.7299807173e+01    0.2038678    0.1534504  51.87 0.0006958905    1.141    0.123
         9  -9.6673     72.8231    204.1425   1.1057648686e+02   2.7016456790e+01    0.3130072    0.1850267  62.89  0.001456678    1.414    0.293
        10 -11.3455     32.8650    205.8235   1.1802334344e+02   3.1357627285e+01    0.1628821    0.1297223  79.11  0.001388717    1.282    0.220
        11 -13.3220     57.7621    200.2324   1.1311390219e+02   2.9500742200e+01    0.4060689    0.2374097 -68.35  0.002393735    1.974    0.493
        12 -12.5569    203.6039    198.0078   8.6600579085e+01   8.1467005258e+00    0.5513926    0.2628852  28.67  0.002964025    2.119    0.528
        13  -9.7053     87.4944    202.7325   1.0773055381e+02   2.5319619241e+01     0.192979    0.1253159  31.20   0.00118185    1.771    0.435
        14  -9.5604    161.0409    199.6372   9.3979033087e+01   1.4756760463e+01    0.1624172    0.1130965  42.12 0.0008714502    1.106    0.096
        15  -9.8811     44.9604    198.7160   1.1542589688e+02   3.1227103283e+01     0.143827   0.08977656  52.14 0.0003644212    1.178    0.151
        16  -9.8448     36.1996    197.7728   1.1701846059e+02   3.2338294412e+01    0.1193847   0.06854884  41.67 0.0003448421    1.485    0.326
        17 -11.7064    151.3881    195.6884   9.5173552708e+01   1.6817614741e+01    0.3319461    0.1439131  42.41  0.001162004    1.801    0.445
        18  -9.9639     82.1810    194.9781   1.0806150720e+02   2.7273729401e+01    0.1973949     0.129337  49.67  0.001044286    1.171    0.146
        19 -17.7706     38.1363    245.2560   1.1876640511e+02   2.4912065905e+01     7.383333     1.873442  32.80   0.02970203    5.586    0.821
        20 -11.8192    193.7673    195.9535   8.7898987933e+01   9.9365968157e+00    0.8414013     0.517886 -64.58   0.00389531    4.729    0.789
        21 -11.5866     96.9141    190.6082   1.0479965077e+02   2.5941467613e+01    0.2719247    0.2459874  46.58 0.0007060674    1.289    0.224
        22 -11.1268     99.6987    187.3457   1.0391735860e+02   2.6069956973e+01    0.2232562    0.1568072  59.06 0.0008276813    1.185    0.156
        23  -9.4515     39.0718    192.5316   1.1619287350e+02   3.2920366890e+01    0.1382894   0.08691172  39.60 0.0009722754    1.498    0.333
        24 -12.8057     68.4035    185.9037   1.0998299622e+02   3.0606939989e+01    0.6395944    0.5168264 -86.15  0.004848216    1.318    0.241
        25 -10.6281     70.1824    177.1908   1.0886323235e+02   3.1910955379e+01    0.3911298    0.1731965  53.26  0.002120645    1.866    0.464
        26 -10.7183    153.4752    184.4264   9.3267577089e+01   1.8023997516e+01    0.2016598    0.1208568 -47.67  0.001185882    2.090    0.522
        27 -11.5148     99.4198    180.7473   1.0325522615e+02   2.7205881594e+01    0.2504271    0.1872203  40.91 0.0006280562    1.278    0.217
        28 -10.6145    188.5729    175.2334   8.5570975417e+01   1.3246545992e+01    0.3443637    0.2107076 -46.05  0.001980008    2.154    0.536
        29 -10.6156    204.4975    175.9171   8.2987772762e+01   1.0425938831e+01    0.2510663    0.2341922  26.95 0.0009752844    1.246    0.198
        30 -10.4468    196.6438    175.3481   8.4207622685e+01   1.1837664652e+01    0.2651836    0.2129137  50.11  0.001777395    1.319    0.242
        31  -9.8373     50.6161    172.5513   1.1255613144e+02   3.5183872318e+01    0.2475748   0.09898312  47.84  0.001211108    1.923    0.480
        32 -10.0754     45.4141    172.1808   1.1362271739e+02   3.5852266075e+01     0.210278    0.1236164  55.96 0.0007082245    1.321    0.243
        33  -9.8509     42.4123    171.5133   1.1420695275e+02   3.6313308419e+01    0.2187918    0.1245091  62.17 0.0007735658    1.405    0.288
        34 -10.1933     29.1496    170.4540   1.1692624295e+02   3.7919239210e+01    0.2248662    0.1525944 -73.50  0.001515817    1.573    0.364
        35  -9.0388     72.6871    217.2601   1.1154171433e+02   2.5008477000e+01    0.1074174   0.05511631  57.79 0.0003724798    1.534    0.348
        36  -9.9356     49.9752    216.7003   1.1551438785e+02   2.7780397264e+01    0.2673042    0.1842902  11.94  0.001685296    3.150    0.683
        37  -9.6859    186.5290    164.9302   8.4195484010e+01   1.4924604541e+01    0.1645297     0.122666 -31.81 0.0006372168    1.548    0.354
        38  -9.8729    149.1941    155.7913   8.9659793625e+01   2.3071775499e+01     0.223618    0.1495148 -66.55  0.001178472    2.092    0.522
        39 -11.7236    133.9565    145.9309   9.1115652088e+01   2.7514334261e+01      1.02162    0.2886231 -55.43   0.00310153    5.675    0.824
        40 -10.8326     62.0326    220.3419   1.1361069187e+02   2.5836088741e+01    0.1582718    0.0910866  51.37  0.001150776    1.206    0.171
        41 -10.1924    113.2343    151.0632   9.6448296610e+01   3.0246741524e+01    0.2739193    0.1814181  86.92  0.001431104    1.990    0.498
        42 -10.7900    174.4579    149.0203   8.3535418401e+01   1.9373973845e+01    0.2521256    0.2409863  85.86  0.000969267    1.248    0.199
        43 -11.4569    144.2516    146.3852   8.9029805413e+01   2.5529038273e+01    0.4908019      0.24797 -60.95  0.002080045    3.019    0.669
        44 -11.8304     55.4990    212.0611   1.1427227744e+02   2.7869173362e+01    0.2790773    0.1468182  59.90  0.001262543    1.457    0.314
        45 -11.1499    106.7762    144.9223   9.6942260315e+01   3.2476646299e+01    0.2829183     0.201995  74.49  0.001596541    1.504    0.335
        46 -12.0811    107.5072    138.5378   9.5749979125e+01   3.3575704471e+01    0.4916273    0.3466378 -33.95  0.002602908    2.064    0.515
        47 -12.6188     95.6019    138.2933   9.8506309635e+01   3.5600863410e+01    0.2922619    0.2230075  50.38 0.0004638737    1.186    0.157
        48 -11.4959    105.7595    131.0759   9.4894345438e+01   3.5335837046e+01    0.3993224    0.3221638 -51.43  0.002251735    1.394    0.283
        49 -11.3160    135.8627    128.4716   8.7448003614e+01   3.0273048267e+01    0.5409226    0.1857931 -51.89   0.00192952    3.489    0.713
        50 -11.2481    114.8483    129.3229   9.2422005901e+01   3.4071432331e+01    0.3459702    0.2949334   9.52 0.0008804527    1.595    0.373
        51 -11.1798    120.2521    122.9406   8.9922817568e+01   3.4312758820e+01    0.4594995    0.3132237 -12.37  0.001941679    3.071    0.674
        52 -10.2356    160.6289    127.7507   8.2022363772e+01   2.5432761333e+01    0.2801896    0.2476765 -64.76   0.00158265    1.303    0.233
        53 -11.3004    102.3435    125.2739   9.4692044701e+01   3.7088159290e+01    0.2577094    0.2322445 -24.38 0.0009146467    1.465    0.317
        54  -9.4322     52.2892    207.7711   1.1459869426e+02   2.8918143489e+01    0.1549823    0.0722151  44.52            0    1.575    0.365
        55 -10.2590    109.9700    118.6107   9.1546795975e+01   3.7079576748e+01    0.2247382    0.1876294 -75.93 0.0003598412    1.226    0.184
        56 -10.4124    167.6061    112.5875   7.7236769935e+01   2.6462125733e+01    0.3346858    0.2592295 -82.37  0.001498475    1.788    0.441
        57 -10.6484    135.0000    111.6125   8.4055765282e+01   3.3571794095e+01     0.539471   0.08129107 -45.03  0.001260816    7.025    0.858
        58  -9.8834    134.4471    105.7373   8.2822301887e+01   3.4796516143e+01    0.2922565    0.1428713 -44.94  0.001036044    2.143    0.533
        59 -11.6848    118.5879    110.6509   8.7757026196e+01   3.7048895296e+01    0.5549331    0.3485102  63.64  0.002041698    1.817    0.450
        60 -10.2946    205.3791    110.1139   6.9691730333e+01   1.8635194296e+01    0.2979157    0.1909253  43.92  0.001104033    1.479    0.324
        61  -9.4989    130.8358     96.6515   8.1456196268e+01   3.7297893775e+01    0.2051466    0.1301303  58.98 0.0004060511    1.657    0.397
        62  -9.3053    182.4188     82.7707   6.6766836604e+01   2.7820536658e+01    0.2020399    0.1419904 -15.76 0.0009392832    1.603    0.376
        63 -10.9144     37.4371    210.3702   1.1741418256e+02   3.0145047596e+01    0.1822442    0.1016181  88.06  0.001317276    1.721    0.419
        64  -8.9810    154.5171     81.4802   7.1934620345e+01   3.4721039923e+01    0.1479857    0.1448581  47.67 0.0001056343    1.010    0.010
        65  -9.0381    184.3293     77.3111   6.4904968592e+01   2.8183332721e+01     0.155689    0.1111847  22.74 0.0007042068    1.668    0.400
        66 -19.2461     11.4515    102.4145   1.1660406429e+02   5.3569256623e+01     15.87666     1.144172 -77.85   0.03205176   13.125    0.924
        67  -9.2770     68.7615     71.7633   9.2734139714e+01   5.4240346655e+01     0.179528    0.1460241  85.94 0.0003180481    1.290    0.225
        68 -11.9774    160.8735     62.2487   6.4839561968e+01   3.6358519687e+01     1.035506    0.5881082  84.14  0.001084452    3.166    0.684
        69 -16.8299     70.2993    145.4230   1.0550869713e+02   3.7943762764e+01     9.254071     3.964172  67.14   0.03656776    3.492    0.714
        70 -11.0663    158.1526    235.4923   9.8654520882e+01   1.0977707358e+01    0.2245874    0.1443642  42.68  0.001114523    1.099    0.090
        71 -11.5666     60.5996    232.9482   1.1457214933e+02   2.4167299514e+01    0.1716208   0.09711722  55.32 0.0005109617    1.218    0.179
