#   1 NUMBER                 Running object number                                     
#   2 MAG_AUTO               Kron-like elliptical aperture magnitude                    [mag]
#   3 X_IMAGE                Object position along x                                    [pixel]
#   4 Y_IMAGE                Object position along y                                    [pixel]
#   5 X_WORLD                Barycenter position along world x axis                     [deg]
#   6 Y_WORLD                Barycenter position along world y axis                     [deg]
#   7 A_WORLD                Profile RMS along major axis (world units)                 [deg]
#   8 B_WORLD                Profile RMS along minor axis (world units)                 [deg]
#   9 THETA_WORLD            Position angle (CCW/world-x)                               [deg]
#  10 FWHM_WORLD             FWHM assuming a gaussian core                              [deg]
#  11 ELONGATION             A_IMAGE/B_IMAGE                                           
#  12 ELLIPTICITY            1 - B_IMAGE/A_IMAGE                                       
         1 -14.4832      6.2416    161.7659   1.2078078223e+02   3.9560415682e+01      2.14638      1.07452 -76.20   0.01148234    1.608    0.378
         2 -14.0294    223.2236     61.9621   4.5392958308e+01   2.2283345368e+01     2.848923    0.6839924 -35.42  0.009241675    3.778    0.735
         3 -14.1899    230.2654     50.6140   4.1940873595e+01   2.2399477968e+01     3.127981    0.9192845 -35.20   0.01172332    3.084    0.676
         4 -13.0943    242.1129     53.2972   4.1263440935e+01   1.9535090745e+01     0.921706    0.8025731 -52.88  0.002937969    1.100    0.091
         5 -12.8666    249.3364     35.1006   3.6712481718e+01   2.0508609795e+01     1.131864    0.4699525 -31.21  0.003388432    2.552    0.608
         6 -13.2570    245.7963     25.5882   3.5041572845e+01   2.2411413517e+01     0.560524    0.5566399 -45.63 0.0007876173    1.384    0.277
         7 -11.9192    248.5664     19.8399   3.3654505699e+01   2.2537081260e+01    0.5947746    0.3265562 -25.87  0.002706362    2.275    0.560
         8 -12.2171    243.7607      6.9182   3.1398247910e+01   2.4969624853e+01     1.023632    0.7033576 -31.48  0.003195909    1.636    0.389
         9 -12.3608    233.4797     27.1975   3.6422460083e+01   2.4780439571e+01     1.126755    0.6758645  -6.90  0.004996478    3.584    0.721
        10  -9.7783    201.0654     28.1985   3.9915312686e+01   3.1901884509e+01    0.2307714    0.1313212 -74.73  0.001088466    2.015    0.504
        11  -9.8126    230.0685     17.8922   3.4702814138e+01   2.6610987778e+01    0.3807608    0.2425249  35.17  0.001964949    2.727    0.633
        12  -9.7038    227.5299     11.9009   3.3617111425e+01   2.7828368782e+01    0.3286591    0.1268067 -36.74  0.001575359    2.324    0.570
        13 -10.0464    236.5527      7.3587   3.1984017682e+01   2.6408282893e+01    0.3560551    0.2182462 -54.95  0.002191395    1.369    0.269
        14  -9.6192    229.6450      4.8901   3.1964616521e+01   2.8125950489e+01     0.166803    0.1273234 -56.05 0.0007300887    1.157    0.136
        15 -10.5185    186.5750    119.2752   6.5562842714e+01   2.0417446366e+01    0.3411236     0.213984 -69.44  0.001283836    2.653    0.623
        16  -9.4021    243.1660    117.3395   5.5258496171e+01   9.2485902251e+00    0.3174503    0.1272272 -52.75  0.001093714    3.508    0.715
        17  -9.8461    247.8113    115.2583   5.4130623779e+01   8.7447634703e+00    0.3711794    0.2386414 -73.42  0.001568849    2.600    0.615
        18  -9.9105    189.7891    115.1998   6.3909640176e+01   2.0512853870e+01    0.2583881    0.1657153 -75.87 0.0009551884    2.825    0.646
        19  -9.3401    197.1305    129.6939   6.5976910117e+01   1.6124163428e+01    0.2719632    0.1969557 -50.20  0.001138595    1.406    0.289
        20  -8.9364    235.0603    113.5081   5.5624108487e+01   1.1431880000e+01    0.1836709    0.1400195  57.18 0.0005627048    1.526    0.345
        21  -9.5194    159.4823    129.4894   7.4033598751e+01   2.4202849667e+01     0.155717     0.151205 -28.10 -3.033401e-05    1.000    0.000
        22  -8.8180    228.5899    110.1877   5.5869239009e+01   1.3273828766e+01    0.2070281    0.1243479 -28.97 0.0009563187    1.703    0.413
        23  -9.2294    197.3423    109.6684   6.1087650692e+01   1.9916444678e+01    0.1555732    0.1151886 -72.84 0.0007051079    1.751    0.429
        24 -10.4461    241.4943    107.5080   5.3335018018e+01   1.1215731296e+01     0.282937    0.1751909 -47.36  0.001437143    1.466    0.318
        25  -9.7336    249.1898    105.1848   5.1752459831e+01   1.0153972115e+01    0.2313509    0.1813015 -77.96  0.001160898    1.569    0.363
        26 -11.0201    244.2956    104.0779   5.2182183642e+01   1.1253724322e+01    0.3927443    0.2676688 -67.07  0.000890524    1.834    0.455
        27  -9.4405    218.3961    105.2406   5.6343287109e+01   1.6218939878e+01    0.2111631     0.119968 -46.90 0.0006872897    1.657    0.396
        28 -10.3006    233.9129    102.5746   5.3328193244e+01   1.3520229555e+01    0.3259542    0.1559126 -41.38  0.001432885    1.809    0.447
        29 -10.4893      4.0065    103.2840   1.1515534229e+02   5.3787260863e+01     0.324728    0.1629248  51.99  0.001586764    2.616    0.618
        30 -10.6301    227.6078    100.4454   5.3778772207e+01   1.5150812057e+01    0.4362722     0.246986 -63.74  0.001797924    2.562    0.610
        31  -9.4301    198.6259    100.8111   5.8651503362e+01   2.1276924628e+01    0.2242214     0.126255 -47.63 0.0009491814    1.738    0.425
        32 -10.5973    249.3848     97.1814   4.9987985661e+01   1.1417486032e+01    0.4399576    0.2075383 -42.97   0.00081134    1.780    0.438
        33 -11.1721    245.3248     96.0663   5.0278924037e+01   1.2369696672e+01    0.2985678    0.2306543 -55.05 0.0002162235    1.220    0.180
        34 -10.5369    238.0367     98.5559   5.1828775261e+01   1.3378138826e+01    0.2508589    0.1878274 -75.68 0.0007245863    1.625    0.385
        35 -10.8772    236.8279     95.1600   5.1233559548e+01   1.4179407130e+01    0.3323047    0.2606523  19.59  0.001328006    1.748    0.428
        36 -10.6293    221.1309     93.2150   5.3069574925e+01   1.7728719508e+01    0.4257222    0.1947799 -27.45  0.001581021    2.791    0.642
        37 -10.8279    157.8600     94.7297   6.5299918600e+01   3.1774494951e+01    0.3223017    0.1780141 -48.85  0.001278623    1.893    0.472
        38 -10.3060    186.0692    249.2891   9.1407464927e+01  -3.3449192552e+00    0.3313096     0.126627  25.07  0.001274987    3.366    0.703
        39 -13.2503    231.6326     79.1748   4.8301477176e+01   1.7830888465e+01     1.318594    0.7681209 -62.27  0.003143701    2.007    0.502
        40  -9.8822    175.4069    248.7521   9.3405528919e+01  -1.6993619752e+00    0.1624612    0.1107224 -26.17 0.0009582589    1.681    0.405
        41 -11.8238    240.4498     39.5019   3.8441212580e+01   2.1754430422e+01    0.6481095    0.3990176 -49.89  0.002704583    1.381    0.276
        42 -11.9152    247.6210     59.0349   4.1927896451e+01   1.7603788817e+01    0.8114977    0.3299498 -46.26  0.003702302    2.066    0.516
        43  -9.4051    163.3183    249.3179   9.5869523931e+01   1.7681933681e-02    0.1246494   0.08750896   5.70 0.0007040678    1.658    0.397
        44  -9.2149     14.3322    249.3192   1.2461815568e+02   2.0016329048e+01   0.09170679   0.08046456 -56.37 0.0007048557    1.694    0.410
        45 -10.1165    248.2179    247.3179   7.9701442262e+01  -1.1418436395e+01    0.2352581   0.08345532  27.18  0.001106889    2.740    0.635
        46 -10.0319    159.3781    246.3970   9.6247685523e+01   1.0719594572e+00    0.2544146    0.1016592  25.83 0.0009565239    3.320    0.699
        47  -9.5200    209.8492     89.9105   5.4038574194e+01   2.0728900599e+01     0.385639   0.08464547 -39.45  0.001110777    3.918    0.745
        48  -9.4939    216.0000    244.9916   8.5072501617e+01  -6.9754609647e+00    0.1792181   0.06406716 -38.52 0.0008078158    2.980    0.664
        49 -10.5912    216.1898     86.9980   5.2338340982e+01   1.9838554049e+01    0.3563925    0.1873181 -50.13 0.0009122962    1.883    0.469
        50 -11.0664    193.7774     86.8873   5.5983560255e+01   2.4871229640e+01    0.5318089    0.3181542 -69.54  0.002075884    2.572    0.611
        51 -10.5876    181.8317     86.9098   5.8175887331e+01   2.7636292159e+01    0.2851593    0.2010228 -44.77  0.001208063    1.369    0.270
        52 -11.0106    176.5016    124.5167   6.8968432407e+01   2.1558971579e+01     0.328058    0.2557301 -28.24  0.001576347    1.323    0.244
        53 -11.4009    198.9044     83.4283   5.4217520652e+01   2.4297160199e+01    0.5755064    0.2941681 -60.49  0.002104379    2.841    0.648
        54  -9.4186    209.5191     83.7481   5.2577669243e+01   2.1850515505e+01    0.2078017     0.121202 -48.74 0.0007625925    1.642    0.391
        55 -11.3337    212.7880     79.4592   5.1025608932e+01   2.1837975071e+01    0.5930865    0.1573056 -36.67  0.001886905    3.459    0.711
        56 -10.1878    185.0934     82.8613   5.6490874242e+01   2.7591393115e+01    0.2418032    0.1990953 -68.40  0.001230511    1.294    0.227
        57 -11.0223    150.7566     82.2073   6.3365100615e+01   3.5827799554e+01    0.3851137    0.1749686 -43.83  0.001425584    2.214    0.548
        58 -11.6087    248.0484     89.3077   4.8445189372e+01   1.2931488804e+01     0.617228    0.4945827 -86.38  0.002828587    1.432    0.302
        59 -11.9507    167.0485     80.0354   5.9212805766e+01   3.2359695301e+01    0.5368034    0.3069744 -52.89  0.002202342    1.969    0.492
        60 -10.7126    200.7129     77.3450   5.2374621278e+01   2.4909346080e+01    0.3255992    0.2224773 -68.50  0.001534892    1.731    0.422
        61 -10.1509    187.9840     78.0247   5.4691583846e+01   2.7748609191e+01    0.2457933    0.1734553 -69.93  0.001139095    1.704    0.413
        62 -10.9460    181.1371     77.9559   5.5905417186e+01   2.9374321009e+01    0.3535167    0.2173864  72.06  0.001462038    1.993    0.498
        63 -10.9667    159.9466     77.3084   5.9918561131e+01   3.4538476464e+01    0.3470596    0.2279587 -65.02  0.001461378    2.014    0.503
        64 -11.2824    207.0743     70.5415   4.9680503316e+01   2.4562649151e+01    0.5443384     0.185716 -31.42  0.001819695    3.344    0.701
        65 -10.5885    205.1339     64.6997   4.8506448295e+01   2.5921658541e+01    0.2687832    0.2006891 -33.96 0.0007751863    1.354    0.262
        66 -11.2469    193.4882     71.7448   5.2107929315e+01   2.7504402159e+01     0.477972    0.2513286 -34.96  0.002052968    1.883    0.469
        67 -10.9749    176.4673     73.1685   5.5465592284e+01   3.1300467220e+01    0.4263073    0.2093843 -50.89   0.00164569    2.275    0.560
        68  -9.8490    200.7595     71.6003   5.0907588488e+01   2.5838678129e+01    0.1987995    0.1353444  75.74  0.000954191    1.651    0.394
        69 -11.2550    168.4327     67.8695   5.5504160686e+01   3.4114529141e+01    0.5246221    0.2509977 -27.20  0.001954866    2.576    0.612
        70  -9.0652    199.2987    122.6437   6.3876848986e+01   1.7030284545e+01    0.1529595    0.1148918 -68.73 0.0007035842    1.703    0.413
        71 -10.0894      3.5921     69.7725   1.0964884971e+02   6.1551274415e+01    0.1703863    0.1023453 -74.62 0.0007609138    1.670    0.401
        72 -10.8046    200.0146     65.9257   4.9576674346e+01   2.6912629870e+01    0.3599097    0.2026182 -20.73  0.001477148    2.486    0.598
        73 -10.2648    160.4439     66.2175   5.6602798077e+01   3.6316979142e+01    0.2867659    0.1486703 -30.56  0.001147998    2.111    0.526
        74  -9.8359    234.5003    243.4855   8.1472213554e+01  -9.2328515940e+00    0.1197975    0.0899225   4.30 -7.258179e-05    1.024    0.023
        75 -11.5379    210.5081     64.1256   4.7598858755e+01   2.4784773424e+01    0.5974181    0.2240317 -45.59  0.001844675    2.499    0.600
        76 -11.6360    215.4704     42.9929   4.1847843663e+01   2.6703883798e+01    0.3640199    0.3037075 -79.21  0.002222218    1.097    0.088
        77 -10.9809    211.0701     37.2375   4.0978283635e+01   2.8462247983e+01    0.5182679    0.1239271 -40.24  0.001766692    3.371    0.703
        78 -11.1053    210.0688     56.8127   4.5862256515e+01   2.5982027673e+01     0.582135     0.219448 -48.93   0.00220973    2.692    0.629
        79 -11.7578    210.3804     49.5164   4.4035854754e+01   2.6960383640e+01    0.5199369     0.345251  -5.50  0.001830622    2.550    0.608
        80 -11.9637    215.0103     57.4156   4.5359879005e+01   2.4775907126e+01    0.7778577    0.2331643 -43.19   0.00282177    2.919    0.657
        81 -10.7412    217.1438     54.1593   4.4307770849e+01   2.4771611593e+01    0.2534062    0.1780525 -39.75 0.0006369804    1.346    0.257
        82 -11.1752    195.1568     62.0727   4.9326485433e+01   2.8645243563e+01    0.6127182    0.1938373 -44.91  0.002087688    3.085    0.676
        83 -10.9149    171.2817    132.6763   7.2108735556e+01   2.0994343860e+01    0.4896062    0.2018215 -49.63  0.001650322    2.649    0.623
        84 -11.1143    199.0000     57.5127   4.7577642761e+01   2.8434103079e+01    0.4101113    0.1843365 -31.70  0.001667082    2.336    0.572
        85 -11.1778    201.4822     53.4874   4.6201326139e+01   2.8446050070e+01    0.3024601    0.2591783 -69.00  0.001760197    1.089    0.082
        86 -11.2208    205.0225     46.5661   4.3992391038e+01   2.8603365819e+01    0.5263308    0.2103346 -30.14  0.002074839    2.740    0.635
        87  -9.2330    179.6081     55.8171   5.0134208539e+01   3.3304373587e+01    0.2142472    0.1223452 -45.68 0.0009576575    1.740    0.425
        88 -10.9407    187.7977     54.7495   4.8534229072e+01   3.1494049407e+01    0.4779273    0.2673129 -11.53  0.001766727    3.370    0.703
        89  -9.6497    190.1522     41.3565   4.4643803020e+01   3.2810824770e+01    0.3808106   0.06264888 -35.93  0.001105321    4.651    0.785
        90  -9.8474    196.6483     39.3469   4.3254632063e+01   3.1534633425e+01    0.2658363    0.1866043  30.67  0.001122262    2.032    0.508
        91 -10.0748    204.0162     39.0179   4.2245622160e+01   2.9853331329e+01    0.2126219    0.1814288 -68.15   0.00128307    1.059    0.055
        92  -9.4952    197.1668     32.0457   4.1335198008e+01   3.2344544090e+01    0.3135121    0.1540581 -40.35  0.001376196    1.927    0.481
        93 -10.5189    216.0039     30.7903   3.8912467076e+01   2.8162908203e+01    0.3011877    0.1329173 -46.70   0.00139184    2.049    0.512
        94  -9.2788      2.6788    242.6770   1.2632217638e+02   2.2403667288e+01   0.09242303   0.07673444 -61.39 0.0007045934    1.677    0.404
        95  -9.4951    248.4886    240.5152   7.8536581555e+01  -1.0616014993e+01    0.1184343   0.08640921   0.70 9.994027e-06    1.040    0.039
        96 -13.6298    242.9487     74.2216   4.5761345683e+01   1.6288782500e+01     1.781774     1.045214 -52.40  0.009206657    1.562    0.360
        97  -9.5465    216.1164     21.9730   3.6857130447e+01   2.9198143061e+01    0.1910363    0.1603442 -69.38 0.0004406327    1.031    0.030
        98 -10.2848    202.7133    248.2852   8.8073356731e+01  -5.5840655208e+00    0.2056785    0.1615531 -54.05   0.00130259    1.967    0.492
        99  -8.8810    248.2300    120.8537   5.5280811785e+01   7.7365823996e+00    0.2145216    0.1295539 -66.24  0.000652463    2.740    0.635
