#   1 NUMBER                 Running object number                                     
#   2 MAG_AUTO               Kron-like elliptical aperture magnitude                    [mag]
#   3 X_IMAGE                Object position along x                                    [pixel]
#   4 Y_IMAGE                Object position along y                                    [pixel]
#   5 X_WORLD                Barycenter position along world x axis                     [deg]
#   6 Y_WORLD                Barycenter position along world y axis                     [deg]
#   7 A_WORLD                Profile RMS along major axis (world units)                 [deg]
#   8 B_WORLD                Profile RMS along minor axis (world units)                 [deg]
#   9 THETA_WORLD            Position angle (CCW/world-x)                               [deg]
#  10 FWHM_WORLD             FWHM assuming a gaussian core                              [deg]
#  11 ELONGATION             A_IMAGE/B_IMAGE                                           
#  12 ELLIPTICITY            1 - B_IMAGE/A_IMAGE                                       
         1 -13.2599    187.7052     48.0665   1.4540028174e+01   3.2259162277e+01     1.179851    0.9999425  25.51  0.004082368    1.546    0.353
         2 -13.5111    212.5488     17.8357   4.5652316621e+00   3.0284288750e+01     1.190102    0.9124414 -34.90  0.005482106    1.492    0.330
         3 -11.1597    119.1573      9.8484   1.4738711160e+01   5.3023515159e+01    0.6358206    0.3430881  43.33  0.003244795    1.724    0.420
         4  -9.8348      8.0044      8.5068   5.4653723469e+01   7.2851635552e+01    0.1373181   0.08556357  40.17  0.000810655    2.620    0.618
         5  -9.4339     96.3212      5.9116   1.8164051176e+01   5.8520766761e+01     0.170923    0.1437104  37.43 0.0003556362    1.073    0.068
         6  -9.5804    112.8705      3.8711   1.3910280940e+01   5.4956976186e+01    0.1925635    0.1455775  44.34  0.000407595    1.178    0.151
         7  -8.9113    172.0000      3.0170   5.1163472818e+00   4.1067806993e+01    0.1758838   0.07128527 -26.12 0.0007770348    2.904    0.656
         8 -10.7251     75.3616    249.7901   8.2220286224e+01   1.2350835896e+01    0.2222987    0.1326549 -58.05  0.001244331    1.933    0.483
         9 -13.4107    245.0370    236.6758   4.5655807874e+01  -1.0426512740e+01     2.254367    0.8404712 -32.53   0.01074545    2.496    0.599
        10 -11.7334     60.8801    188.0961   7.8752976947e+01   2.7912854846e+01    0.5219074    0.3175241  50.77  0.002462708    1.615    0.381
        11  -9.2477    191.5087    192.6974   4.7925977156e+01   4.7190142866e+00    0.3556343    0.2411988 -74.54  0.001413575    3.235    0.691
        12 -14.2925     11.8040    207.5584   9.2030489435e+01   2.8813459260e+01    0.8927674    0.4290308  26.51  0.004660476    2.441    0.590
        13 -10.2138     71.1448    187.3916   7.6057649397e+01   2.6682858904e+01    0.3986203    0.3817383  -6.07  0.001467144    1.243    0.195
        14  -9.0442     86.8403    187.4333   7.2048514806e+01   2.4348317893e+01    0.2268066    0.1899079 -87.07  0.000549602    1.216    0.178
        15  -9.9327     58.9246    217.9082   8.2618678907e+01   2.1214541837e+01    0.1823218    0.1568499  83.64 0.0004360199    1.079    0.073
        16  -9.8102     28.5200    185.7878   8.6488595431e+01   3.2245071489e+01     0.161076    0.1319961  57.95 0.0002460207    1.184    0.155
        17  -8.5705     23.7929    185.9988   8.7640333470e+01   3.2663914337e+01    0.1809497   0.08967321 -83.18 0.0002601271    1.893    0.472
        18  -9.3013    181.7030    180.9518   4.7675850688e+01   8.7811638649e+00    0.3670073    0.1989643 -48.94  0.001211861    1.983    0.496
        19  -9.9068    180.5489    175.2835   4.6755949980e+01   1.0144761809e+01     0.304725    0.2188981 -51.73  0.001460579    1.530    0.347
        20  -8.8209     46.5082    177.3312   8.1070580447e+01   3.2346297701e+01    0.2097765    0.1260168  30.53 0.0007512126    1.799    0.444
        21  -9.5348    221.4022    176.2240   3.8628739048e+01   2.6085043863e+00    0.1970827    0.1215551 -45.94 0.0009542378    1.670    0.401
        22  -9.7451     14.6836    174.7085   8.8813454761e+01   3.6209152228e+01    0.2788891    0.1390778  29.14  0.001416798    2.210    0.547
        23  99.0000     19.2678    173.3516   8.7556409031e+01   3.6136130647e+01    0.4176476    0.1318616 -57.13  0.001679414    2.815    0.645
        24  -9.1060     28.8931    174.6491   8.5271134787e+01   3.4911625453e+01     0.222391    0.1042106  38.17  0.001045662    2.125    0.529
        25  -8.6887     23.2181    174.5350   8.6686748031e+01   3.5486306316e+01    0.1487811    0.1107261  57.60 -0.0001541599    1.319    0.242
        26 -10.8717    232.0000    170.0025   3.5423356831e+01   1.9452915728e+00    0.3119954    0.1536219 -33.07  0.001398094    1.889    0.471
        27 -10.2356     18.5621    164.9055   8.6899627953e+01   3.8262682647e+01    0.3959494    0.3118847  58.69  0.002077204    1.280    0.219
        28 -10.2414    246.8186    165.8143   3.2043282324e+01   2.8491986343e-01    0.1750521    0.1508979 -49.66  0.001081128    1.349    0.258
        29  -9.3342     48.6626    209.4252   8.4084610589e+01   2.4425540603e+01    0.4074646     0.201918  41.37  0.002002562    1.838    0.456
        30 -11.4652    125.9062    160.8100   5.6913500465e+01   2.3998266259e+01    0.5482005    0.3282612 -51.71  0.001026599    1.688    0.408
        31  -9.9050     73.3160    205.9595   7.7947153156e+01   2.1970638337e+01    0.2266067    0.1607191  89.18  0.001166738    1.492    0.330
        32  -9.1213    152.6011    162.2512   5.0446168545e+01   1.8406718435e+01    0.2141742    0.1452765 -36.84 0.0004746967    1.532    0.347
        33  -9.0507      7.0316    161.9895   8.9572009854e+01   3.9900093027e+01    0.1343429    0.1224747  55.73 0.0003784588    1.237    0.192
        34 -11.2975    136.6482    155.6325   5.2994755724e+01   2.3115034895e+01    0.6641864    0.4154353 -74.13  0.001773189    2.658    0.624
        35 -11.9387    133.9588    146.3080   5.1594374646e+01   2.5836677706e+01     1.438666    0.4318558 -55.34  0.003521499    4.986    0.799
        36  -9.0141     87.2012    205.9118   7.4613452822e+01   1.9945396342e+01    0.2382062    0.2136424  30.41 0.0004733854    1.195    0.163
        37  -9.6496      1.8062    163.6165   9.1024581815e+01   3.9884685043e+01    0.1792952    0.1399978 -65.49 0.0007155719    1.209    0.173
        38 -11.2927    140.2496    146.7881   5.0070369753e+01   2.4439154167e+01    0.6196435     0.417358  83.92  0.002108401    2.735    0.634
        39  -8.7470     90.1798    202.1065   7.3366080781e+01   2.0364841316e+01    0.2395448    0.1881646 -39.60 0.0006984437    1.511    0.338
        40 -11.5870    124.6438    140.0574   5.2635343490e+01   2.9192581541e+01    0.5490199     0.401162  74.13  0.001989306    1.907    0.476
        41 -10.8115    144.8076    147.2131   4.9007008060e+01   2.3401359578e+01    0.4177389    0.2972841 -84.86  0.001670844    2.236    0.553
        42 -17.9161     25.2292    230.4400   9.0822665056e+01   2.2487898215e+01     7.382615     3.893285  31.06   0.02092013    2.038    0.509
        43  -9.6383     57.6370    211.7234   8.2270535999e+01   2.2772536202e+01    0.4271513    0.2351959 -69.36  0.002146062    1.782    0.439
        44  -9.8930    135.8804    128.0632   4.6699583678e+01   2.9655725389e+01    0.4629863    0.1695153 -45.99  0.001476745    2.711    0.631
        45 -10.4388    115.6378    127.7318   5.2177636327e+01   3.3916306418e+01    0.3193628    0.2782917   8.20 0.0007297194    1.268    0.211
        46  -9.5775    120.7555    122.9947   4.9536400954e+01   3.3989388966e+01      0.28011    0.2373082  34.38 0.0009500897    1.198    0.165
        47 -10.0939    105.0044    117.9217   5.2813155002e+01   3.8310011582e+01    0.4302333    0.3163678  73.11  0.001418883    1.924    0.480
        48 -16.4562     65.6516    140.7701   7.0043377709e+01   3.9173242655e+01     8.984205     4.552532  47.89   0.03651579    2.267    0.559
        49  -8.7975    110.8356    117.7704   5.1042761742e+01   3.7205331844e+01    0.2267122    0.2084692  -1.67 0.0004373738    1.137    0.121
        50 -11.1731    118.3775    110.5881   4.6949799157e+01   3.7303907102e+01    0.5438349    0.4292484  69.91  0.001754869    1.585    0.369
        51  -7.7087    182.2719    108.2825   3.0839815459e+01   2.3471287745e+01    0.1436591    0.1196015   3.93 0.0001967632    1.498    0.333
        52  99.0000     66.1031    194.0615   7.8208934595e+01   2.5773068989e+01    0.5224652    0.2793591  84.84  0.002103981    2.659    0.624
        53  -8.5177    109.1521     99.8597   4.6668471340e+01   4.1568094543e+01    0.2083106    0.1786822  -1.90  0.001031518    1.275    0.216
        54 -10.9039     62.2007    200.7350   7.9977328936e+01   2.4715144045e+01    0.2791138    0.1836244 -55.55 0.0004711127    1.600    0.375
        55  -8.0651     51.6303    200.2501   8.2445737542e+01   2.6188012738e+01    0.1352534    0.1137017  68.99 0.0004040633    1.061    0.058
        56  -8.9225     54.0995    198.0393   8.1612701015e+01   2.6400819772e+01    0.1983091    0.1628101  80.18 0.0006658015    1.104    0.094
        57  -8.7298     82.1293     83.9115   5.0619792833e+01   5.0107955716e+01    0.2019718    0.1970045  89.29  0.001148771    1.223    0.183
        58  -8.6698     33.0667     83.7406   6.8912430807e+01   5.6807751076e+01    0.1798229    0.1546202 -11.09 0.0006993931    1.163    0.140
        59  -9.0965     81.9285    196.0110   7.4542131250e+01   2.3044981790e+01    0.2088691     0.183935  59.43 0.0004523346    1.061    0.057
        60 -12.2685    170.8448     62.0632   2.0906316205e+01   3.4271829702e+01    0.9100195    0.7530616  31.41  0.001506868    1.433    0.302
        61 -10.2665     79.1525    245.6593   8.1037774308e+01   1.2633780442e+01    0.1830691     0.144573 -71.59 0.0004230816    1.390    0.281
        62 -12.0638    193.2071     42.3970   1.2376431365e+01   3.1724681097e+01    0.5200821    0.4452792   6.87  0.001660388    1.620    0.383
        63  -9.7324    171.8764     49.8368   1.7422927867e+01   3.5811031592e+01    0.2046874    0.1850773  43.43 0.0005228368    1.223    0.183
        64  -8.7829     31.4684     44.0457   5.7450530415e+01   6.4974661347e+01    0.1789476    0.1096955 -42.70 0.0003352349    1.522    0.343
        65  -9.3909    141.6995     42.0433   2.0636519260e+01   4.4200553030e+01    0.1855819    0.1803367  49.12  0.000340246    1.083    0.077
        66 -10.3978     54.5401    206.5986   8.2443419903e+01   2.4343295966e+01    0.2485681    0.1765282  60.15 0.0007422906    1.300    0.231
        67 -10.4947     51.9361    245.1845   8.6566529442e+01   1.6337327652e+01    0.1330904    0.1173428  85.83 0.0003405088    1.194    0.162
        68  -9.2806    189.5099     15.5133   6.3032089372e+00   3.5764295227e+01    0.1276944    0.1056755 -87.77 0.0001610149    1.011    0.011
        69 -10.8304     68.5440    243.7216   8.3056238942e+01   1.4474013638e+01    0.1812816     0.154727  32.91 0.0006982088    1.307    0.235
        70  -9.4396     72.7283    229.9560   8.0808718884e+01   1.6738380309e+01    0.2930635    0.1700321 -47.95  0.001469089    2.185    0.542
        71  -8.7080     76.1177    230.6225   8.0137990516e+01   1.6124719039e+01    0.1175216   0.07773559 -85.17 0.0003246901    1.660    0.398
        72  -9.9953     53.1421    181.8730   7.9929371721e+01   3.0425364691e+01    0.2457406    0.1722285  47.67 0.0006057789    1.401    0.286
