#   1 NUMBER                 Running object number                                     
#   2 MAG_AUTO               Kron-like elliptical aperture magnitude                    [mag]
#   3 X_IMAGE                Object position along x                                    [pixel]
#   4 Y_IMAGE                Object position along y                                    [pixel]
#   5 X_WORLD                Barycenter position along world x axis                     [deg]
#   6 Y_WORLD                Barycenter position along world y axis                     [deg]
#   7 A_WORLD                Profile RMS along major axis (world units)                 [deg]
#   8 B_WORLD                Profile RMS along minor axis (world units)                 [deg]
#   9 THETA_WORLD            Position angle (CCW/world-x)                               [deg]
#  10 FWHM_WORLD             FWHM assuming a gaussian core                              [deg]
#  11 ELONGATION             A_IMAGE/B_IMAGE                                           
#  12 ELLIPTICITY            1 - B_IMAGE/A_IMAGE                                       
         1 -10.9806     58.0768     30.5782   1.0708832996e+02   6.2885180288e+01    0.9831513    0.4067262 -35.09  0.004016052    2.709    0.631
         2 -12.3674     60.3970     45.1974   1.1151763178e+02   5.9721816210e+01     1.286016    0.4776552 -49.76  0.005416526    2.300    0.565
         3 -11.2460    110.5997      2.1011   7.8084383239e+01   5.7100592515e+01     1.732438    0.2681877  61.23  0.004436529    6.054    0.835
         4 -12.2834    131.0178     13.8009   7.8746621663e+01   5.0888737701e+01     1.952115     0.804345  67.16  0.007047134    2.860    0.650
         5 -12.4526    105.0052     13.1172   8.4468464726e+01   5.7069641651e+01    0.7945021    0.6344442 -33.43  0.003348326    1.232    0.188
         6 -12.5994    124.2636     27.2766   8.5680313804e+01   5.0751404457e+01     1.119125     0.848716 -18.10  0.003228328    1.316    0.240
         7 -12.9699    112.6729     24.8836   8.7550662000e+01   5.3747548083e+01     1.484523    0.6506956  46.39  0.005941322    2.339    0.572
         8 -11.6804    178.1046     21.3020   7.3322420774e+01   3.7840114972e+01    0.5928911    0.3801545  29.90  0.001887937    1.804    0.446
         9 -12.0256    145.5146     47.7662   8.8421424846e+01   4.2593531151e+01     1.226029    0.5369053 -25.98  0.004217957    2.558    0.609
        10 -10.5698    189.0989     40.2522   7.7881978177e+01   3.2639449305e+01      0.88219    0.3375739 -15.69  0.002645593    3.752    0.733
        11 -10.2071    148.2072     16.1175   7.6345011105e+01   4.6280718128e+01    0.5645713    0.4278146  33.55  0.002824033    1.361    0.265
        12 -11.5841    154.7679     24.0501   7.8129644007e+01   4.3634530677e+01     0.889965    0.5824314  29.00  0.003973158    1.758    0.431
        13 -11.4081    163.7899     28.0330   7.7960400450e+01   4.0795874388e+01    0.5267079    0.4049173  54.59  0.001427363    1.292    0.226
        14 -11.6227     26.4994     27.9043   1.1883767538e+02   6.7101383048e+01    0.6442918    0.4194292 -66.76  0.003768058    1.546    0.353
        15 -11.4985     19.8344     23.1241   1.2014418445e+02   6.8639321666e+01    0.4522448    0.2407552 -51.55  0.001386327    1.430    0.301
        16 -11.5236     15.0009     22.4085   1.2211344610e+02   6.9166457392e+01    0.7623317     0.531499  87.30  0.003660415    2.048    0.512
        17 -11.5175     22.9369     10.8136   1.1386885610e+02   7.0725588300e+01    0.4624046    0.2986386 -17.25  0.002459713    1.836    0.455
        18 -11.7632     16.8105     13.4405   1.1798093792e+02   7.0778172417e+01    0.4325446    0.2133659 -44.38 0.0007572569    1.592    0.372
        19 -11.1781     14.5668      9.2070   1.1737590536e+02   7.1763794585e+01    0.3263521    0.2133458  21.07  0.001903131    1.901    0.474
        20 -10.6445     88.2469      7.3426   8.6389168542e+01   6.1369190585e+01     0.453089    0.2687474  33.89  0.001355877    1.834    0.455
        21  -9.5184     83.1677      5.8402   8.7172166549e+01   6.2579416752e+01    0.2552263    0.2111685  49.16 0.0007229034    1.336    0.252
        22 -11.4483     90.6837     20.8167   9.1906809170e+01   5.8986773771e+01    0.5987863    0.4279493 -25.57   0.00219484    1.303    0.233
        23 -11.4204     85.9483     14.5559   9.0515183648e+01   6.0842950983e+01    0.6367162    0.3399272 -18.73  0.001920891    2.121    0.529
        24 -10.8596     42.3872      3.8435   1.0131224224e+02   6.9684114600e+01    0.5667284     0.269219 -24.27  0.002567018    2.593    0.614
        25 -10.9727     47.5528     18.8983   1.0636811633e+02   6.6460174455e+01    0.3999618    0.3782087 -65.45  0.002595088    1.308    0.235
        26 -12.1003     49.3600     13.0207   1.0293353486e+02   6.7232807137e+01    0.6297114    0.3340491  40.88  0.003326852    2.212    0.548
        27 -11.1963     40.6863     14.2630   1.0720044076e+02   6.8159870489e+01    0.5129749    0.2238199  33.28  0.002497019    2.786    0.641
        28 -11.8309     38.7828     18.7871   1.1002210539e+02   6.7574067168e+01    0.5119643    0.1778737 -47.37  0.001300298    2.340    0.573
        29 -11.2754     35.4078     18.8118   1.1150526939e+02   6.7955801706e+01    0.4124741     0.191756 -47.10  0.001345728    1.728    0.421
        30 -11.8564     68.6216     18.2349   9.7974622372e+01   6.3420311489e+01    0.7759876    0.6320515  52.97  0.004710214    1.507    0.337
        31 -10.5055     71.6687      3.1313   8.9492004157e+01   6.5117666497e+01    0.4556816    0.3578238  -1.14  0.002370152    1.215    0.177
        32 -10.5167     66.4034     10.4975   9.5092803470e+01   6.5003429717e+01    0.6389422    0.2715428  39.52   0.00282006    2.669    0.625
        33 -10.0566     77.0012      6.8002   8.9601452170e+01   6.3639628370e+01    0.2795036    0.2659996 -67.93  0.001470248    1.340    0.253
        34 -10.4013     77.4327      2.7758   8.7409846370e+01   6.4085634369e+01    0.2668018    0.2022277   9.80 0.0009532755    1.334    0.250
        35 -10.0477    206.8556     19.1390   6.8819744596e+01   3.0492093169e+01    0.4574174    0.2210059 -42.88  0.001855607    2.065    0.516
        36 -12.1407    239.0582     15.9460   6.4552919589e+01   2.2688572050e+01    0.8991267    0.5390907  65.58  0.003231369    1.735    0.424
        37 -11.5469    245.7239      8.1629   6.1858223453e+01   2.1831951794e+01    0.4862661    0.3625892 -12.74  0.001623017    1.346    0.257
        38 -11.4484    239.2138      7.3821   6.2174112680e+01   2.3471974753e+01    0.4996036    0.2914981 -83.38  0.001875745    2.031    0.508
        39 -11.0359    241.6490      4.2730   6.1125732004e+01   2.3167783588e+01    0.3722059    0.2375752  83.24   0.00139646    1.696    0.411
        40 -11.1382    165.1644     17.3048   7.3909374896e+01   4.1718215380e+01    0.4627283    0.2815598  34.84  0.001045317    1.830    0.454
        41  -9.9340    225.0125     16.2216   6.5972748513e+01   2.6135309042e+01    0.3201998    0.2030998 -21.35  0.001148292    1.514    0.340
        42 -10.0158    200.1924      6.1307   6.5492572459e+01   3.3542683176e+01    0.5978891    0.2527187  77.80  0.001633419    2.655    0.623
        43 -10.8579    187.1225     14.4973   6.9772364170e+01   3.6185691226e+01    0.6194052    0.3071118  39.95  0.001334145    2.293    0.564
        44 -11.6704    192.1094      7.4652   6.6831712152e+01   3.5561418200e+01     0.691702     0.391063   3.19  0.002851129    2.233    0.552
        45 -10.0570    219.2670     12.7951   6.5546071340e+01   2.7934371812e+01    0.3357176    0.2083492  55.11  0.001097323    1.638    0.389
        46 -11.6910    211.5554      9.8749   6.5456536964e+01   3.0206629770e+01    0.5406117    0.3518229  14.85  0.001537154    1.878    0.467
        47 -10.2115     63.2127      6.2592   9.4119233715e+01   6.6165674320e+01    0.3440971    0.2062064 -26.99   0.00125665    1.494    0.331
        48  -9.8670     31.8142     12.0386   1.1018074165e+02   6.9592180860e+01     0.171117    0.1555572 -80.52 0.0004120931    1.488    0.328
        49  -9.4094      4.0231     10.9809   1.2353250627e+02   7.2181468207e+01     0.288495    0.1701868 -40.73  0.001354569    1.435    0.303
        50  -9.2282    157.6401     10.7816   7.2717026500e+01   4.4413465421e+01    0.2207668    0.1244397 -32.88 0.0009132939    1.729    0.421
        51 -10.4367    169.3575      9.6172   7.0516326968e+01   4.1427762878e+01    0.4369757    0.2104592  49.08  0.001244159    2.031    0.508
        52  -9.9833    157.5901      2.4012   6.9571576632e+01   4.5259654561e+01    0.3460357    0.2728852  52.67  0.001506505    1.225    0.183
        53  -9.3548    162.6194     10.2223   7.1732198744e+01   4.3156813172e+01    0.2265169    0.1933118  55.00 0.0006972329    1.151    0.131
        54 -11.0542    162.9491      4.3299   6.9513673916e+01   4.3655176317e+01    0.5986345    0.2725345 -21.54  0.002377292    2.161    0.537
        55 -10.3865    151.2412      7.3514   7.2449109952e+01   4.6447822184e+01     0.431183    0.2834305  56.45  0.001125969    1.463    0.316
        56 -10.0116      1.3036      7.2700   1.2361404571e+02   7.3066656339e+01    0.1810661   0.07500844 -57.91 0.0002354484    1.769    0.435
        57 -10.8766    174.0715      4.4732   6.8042467639e+01   4.0670697306e+01    0.7337914    0.3229632  79.78  0.002652894    2.747    0.636
        58 -11.4248    225.1555      2.5644   6.2000068359e+01   2.7401046139e+01    0.7172835    0.3753146 -85.44  0.002863387    2.324    0.570
        59 -10.6573    218.6839      3.2597   6.2776225187e+01   2.8985913824e+01    0.3128448    0.2652029 -32.11 0.0009517788    1.128    0.113
        60 -10.4905    141.6390      3.5714   7.2567487598e+01   4.9316976585e+01    0.3874836    0.3115596  68.01  0.001399266    1.278    0.218
        61 -11.9703    133.7196      2.7329   7.3629194049e+01   5.1417974317e+01    0.4413834    0.3135322  63.55 0.0007781328    1.421    0.296
        62  -8.7400    126.6486      4.7181   7.5823959137e+01   5.2979490033e+01    0.1538182   0.09826268  31.81 0.0004682981    1.653    0.395
        63  -9.4320     55.3416      4.0605   9.5983009984e+01   6.7761317174e+01    0.1731233    0.1418549 -25.50 0.0003190796    1.066    0.062
        64  -9.9060     23.0081      2.6377   1.0997931984e+02   7.2178068755e+01    0.2872527    0.1751813 -33.62  0.001782496    1.381    0.276
        65 -10.2895    206.1548      2.5216   6.3741378703e+01   3.2304327153e+01    0.4638522    0.2462333 -84.74  0.001895541    2.333    0.571
        66 -10.8329      2.9718      1.7778   1.2047930175e+02   7.4005131090e+01    0.3433268    0.1885778   3.48  0.002091224    2.487    0.598
        67  -8.6964      5.2801      5.3292   1.2068409263e+02   7.3185291329e+01    0.1167427    0.0621036 -38.66 0.0006999932    1.601    0.376
        68  -8.8404     16.4602      1.0000   1.1260876631e+02   7.3092959358e+01    0.1967555   0.06479103  29.27 0.0009113289    3.748    0.733
        69 -10.3659    133.4888    139.8783   1.1492308690e+02   2.8480908216e+01    0.3204763    0.2992926  41.78  0.001524221    1.135    0.119
        70 -11.1906     81.7518    135.0283   1.2536263212e+02   3.7853518083e+01    0.5702351    0.3918274  22.74  0.003082345    2.205    0.546
        71 -11.0936     92.7282    130.1485   1.2211569444e+02   3.7208560231e+01    0.7363052    0.3694085 -69.33  0.003444661    2.284    0.562
        72 -10.8045     93.4174    123.7739   1.2087778678e+02   3.8387254627e+01     0.247292    0.2024285  84.67 0.0002911627    1.170    0.146
        73 -10.6735     47.6818    134.9296   1.3304516210e+02   4.2198269217e+01    0.3368042    0.1545013 -63.70  0.001304648    1.971    0.493
        74 -10.7513     71.6617    133.9126   1.2748464607e+02   3.9470231700e+01    0.4879006    0.3724371   7.88  0.002844639    2.280    0.561
        75 -10.4469     79.5125    127.6066   1.2475233953e+02   3.9674755823e+01    0.5025699    0.3053408 -36.47  0.001910488    2.712    0.631
        76  -8.8705    216.6753    134.7039   9.8209195310e+01   1.2987501550e+01    0.1376284   0.09258316  19.52 0.0005116447    1.624    0.384
        77  -9.8828     62.3067    132.3694   1.2940982000e+02   4.0992629009e+01    0.3351152    0.1569512 -56.53  0.001732982    2.126    0.530
        78  -8.7164    106.9861    131.0395   1.1905189279e+02   3.4755739933e+01    0.1508079    0.1356241  89.31 0.0004380354    1.040    0.039
        79 -11.0539     55.1062    123.0534   1.2985668882e+02   4.3794539577e+01    0.5459595    0.3485891  31.44  0.002482789    1.938    0.484
        80 -10.4210     45.6451    120.4273   1.3179007031e+02   4.5421421093e+01    0.3044018    0.2059814  76.83  0.001072141    1.385    0.278
        81  -9.8959     18.7883    124.2575   1.3857757844e+02   4.7224045215e+01      0.26359    0.1157673 -70.06  0.001282046    1.858    0.462
        82 -10.5762      3.2339    123.7145   1.4210301262e+02   4.8555818841e+01    0.3381602    0.2450719 -61.74   0.00256182    1.523    0.344
        83 -10.1763    239.4808    124.4917   9.2367909494e+01   9.7663558378e+00    0.1323241    0.1140352  10.69 0.0001878208    1.008    0.008
        84 -11.9826    104.9175    120.5819   1.1761776687e+02   3.7171090497e+01    0.5674925    0.4792265 -84.72   0.00341262    1.154    0.133
        85 -10.9661     34.8613    119.8733   1.3432954275e+02   4.6658837271e+01    0.2712895     0.212378 -85.15 0.0009169494    1.047    0.045
        86  -9.4643    221.4626    120.5022   9.4309630010e+01   1.3896442153e+01    0.1354572    0.1212989  13.36 8.495645e-05    1.003    0.003
        87  -9.5232    148.8549    119.4841   1.0763012085e+02   2.9222490704e+01    0.2229285    0.1956409  -5.37  0.001156905    1.357    0.263
        88  -9.2225     81.9282    117.5028   1.2252194640e+02   4.1411344912e+01    0.1734058    0.1215366  43.83 0.0003752781    1.487    0.328
        89 -10.6703     50.8889     98.7629   1.2728798029e+02   4.9464985878e+01     1.435051    0.9019465 -27.30  0.007122736    2.931    0.659
        90 -10.7945     45.4012     85.9834   1.2659440298e+02   5.2858347202e+01    0.6397853    0.3590475 -85.06  0.003020688    2.046    0.511
        91 -12.1062     33.8648     93.0620   1.3107333547e+02   5.2490337696e+01     1.657515    0.5790684 -72.57   0.00724644    2.664    0.625
        92 -11.7177     37.9194     86.1385   1.2880331843e+02   5.3603635593e+01    0.8250619    0.4111114  89.56  0.002260246    2.741    0.635
        93 -12.1451      7.4225     88.6013   1.3791968956e+02   5.5597654559e+01    0.5141606    0.3514556 -71.22  0.001122337    1.180    0.152
        94 -11.3967     23.8244     98.8721   1.3463057471e+02   5.2140503276e+01    0.4582499    0.2418105 -78.76  0.001704276    1.582    0.368
        95 -12.2138     19.4451     92.4594   1.3501790324e+02   5.3883968612e+01     1.067027     0.375175 -75.66  0.005001788    2.451    0.592
        96 -11.7778      3.1368    111.3705   1.4119955105e+02   5.1088034453e+01     0.441259     0.320769 -71.29  0.002559648    1.272    0.214
        97 -11.6559      3.3808    104.9554   1.4060604106e+02   5.2405612257e+01    0.3158741    0.2980915 -33.85  0.001266449    1.513    0.339
        98 -12.1764     28.6374    113.1007   1.3508370744e+02   4.8678262645e+01    0.6824937    0.3470502  23.23  0.003731358    2.836    0.647
        99 -12.4438     25.4772    107.5115   1.3523923462e+02   5.0148688941e+01    0.7870744    0.4521061 -39.20  0.004364646    2.662    0.624
       100  -9.3532    113.8620    115.9074   1.1462020273e+02   3.6559527747e+01    0.1945982    0.1833651 -16.60 0.0004477485    1.290    0.225
       101 -10.5293     88.4890    114.6980   1.2042615319e+02   4.1011328560e+01    0.2706614    0.1982767  57.15  0.000546128    1.358    0.263
       102 -10.5045     67.1138    112.3017   1.2530113254e+02   4.4561195105e+01    0.4145166    0.2623512 -76.36  0.002129931    1.522    0.343
       103 -10.6337    108.0212    112.7448   1.1534367415e+02   3.8216573329e+01    0.3973983    0.2647306 -82.04  0.001587594    1.949    0.487
       104 -11.1812    104.0073    109.5317   1.1564264498e+02   3.9558167295e+01    0.4941365     0.449327  18.63  0.001839787    1.364    0.267
       105  -9.8898     49.2211    112.4171   1.2982955841e+02   4.6719226636e+01    0.2337797    0.1883049 -84.76 0.0009337703    1.028    0.027
       106 -11.0791     86.0476    105.3344   1.1924332208e+02   4.3340914788e+01    0.3996886    0.3421816 -21.15  0.001526352    1.586    0.369
       107  -9.8004     83.2801    111.0161   1.2102853652e+02   4.2566367965e+01    0.3626216    0.2063791  66.64  0.001706583    2.273    0.560
       108 -10.5558     79.2551    107.5094   1.2138790745e+02   4.3896720014e+01     0.378702    0.3392251 -38.91  0.001672409    1.357    0.263
       109  -9.4125    126.8609    113.9142   1.1122048247e+02   3.4563471735e+01    0.2000432    0.1897974  -6.52 0.0006737465    1.232    0.188
       110 -11.2536    170.7723    110.0151   1.0098017431e+02   2.6289176543e+01    0.5226399    0.3837398  38.09  0.001752898    1.371    0.271
       111  -9.7389     14.7626    108.9344   1.3810978059e+02   5.0740447319e+01    0.2534173     0.105638  51.17  0.001382816    2.395    0.582
       112 -10.7249    158.1982    104.9264   1.0230958170e+02   2.9870386181e+01    0.4718121    0.3218159 -13.32  0.001432848    2.096    0.523
       113 -10.6492    143.2948    105.9733   1.0574973904e+02   3.2815864965e+01    0.3566423    0.2451077  46.36  0.001428002    1.436    0.303
       114 -11.7348    145.9753    100.6802   1.0387982623e+02   3.3233035882e+01    0.5472203    0.4464409   1.78   0.00285627    1.567    0.362
       115  -9.7620    247.6782    104.3452   8.6574901199e+01   1.0555756112e+01    0.1316491    0.1009813 -54.15 0.0007049908    1.733    0.423
       116 -10.6981     57.7681     97.7615   1.2524839637e+02   4.8866427607e+01    0.3609006    0.2661889 -77.67  0.002224747    1.213    0.176
       117 -11.1212     67.4421     97.3638   1.2255565214e+02   4.7712568754e+01    0.5257494    0.3226622 -59.11  0.001685397    1.456    0.313
       118  -9.8239    137.2683    100.0772   1.0566958357e+02   3.5154058557e+01    0.2905962    0.1941578  33.35 0.0008874157    1.761    0.432
       119  -9.6949    140.3518     96.0463   1.0396891946e+02   3.5271444326e+01    0.2902614    0.2375273  -6.80  0.000902849    1.545    0.353
       120  -9.7768    138.2590     93.2241   1.0372140791e+02   3.6237751831e+01    0.3580479     0.246831  28.57  0.001678496    1.830    0.453
       121 -10.3776    211.2269     97.2934   9.0462754481e+01   1.9284568000e+01    0.4167822    0.3083043  17.32  0.001962473    1.489    0.328
       122 -12.2206     89.9987     59.6016   1.0666145144e+02   5.2199399395e+01    0.8885407    0.7096552 -68.26  0.004935299    1.375    0.273
       123 -11.2719     89.7297     89.4571   1.1485152112e+02   4.6101207230e+01    0.6238664    0.3660173 -37.82  0.002928347    2.074    0.518
       124 -12.4280     74.9527     50.0351   1.0822860145e+02   5.6601235705e+01     1.044342    0.7449132 -59.12  0.005711561    1.424    0.298
       125 -11.7568     52.9560     76.7289   1.2249036642e+02   5.4017560425e+01    0.7256324    0.4602853 -72.21   0.00404647    1.503    0.335
       126 -11.4064     82.0372     92.7847   1.1767506175e+02   4.6607277424e+01    0.5955842     0.584118 -21.67  0.003918434    1.221    0.181
       127 -10.0398     76.8781     92.9546   1.1910703741e+02   4.7339683345e+01    0.2197724    0.1796302  58.99  0.000512986    1.277    0.217
       128 -10.8185     93.9098     76.0844   1.1033668416e+02   4.8184105339e+01     0.508599    0.4045049  22.99  0.001625784    1.583    0.368
       129 -11.4678     40.5297     71.2863   1.2519722283e+02   5.6582727470e+01     0.473533    0.4653728   0.86   0.00348458    1.278    0.218
       130 -11.0506     33.1459     71.8426   1.2766058131e+02   5.7189160779e+01    0.3870101    0.2666478  32.52  0.002451946    1.766    0.434
       131 -11.3779     80.4953     82.7350   1.1579186817e+02   4.8976900257e+01     0.544017     0.470358 -87.12  0.002572751    1.167    0.143
       132 -12.1803     69.7105     80.1460   1.1826700370e+02   5.1110215477e+01      1.07596    0.8519928  -7.78  0.006145621    1.852    0.460
       133 -12.0732     85.4039     72.6082   1.1180055803e+02   5.0328829762e+01    0.6709707    0.5249556 -66.61  0.001337128    1.276    0.216
       134 -11.6674     78.7532     67.1678   1.1225811629e+02   5.2519749748e+01    0.7079549     0.477813 -83.83  0.003350204    2.141    0.533
       135 -10.5791    118.0910     92.3028   1.0825680199e+02   4.0475893391e+01     0.655056    0.4078442  19.86  0.002620269    2.997    0.666
       136 -10.9238    119.9858     85.2344   1.0596339084e+02   4.1500614747e+01     0.534309    0.3202234  56.64  0.001430682    1.846    0.458
       137 -10.3746    104.4537     88.1499   1.1065111613e+02   4.3851986147e+01     0.778667     0.289107 -50.32  0.002961465    2.588    0.614
       138  -9.5672     98.6251     91.2811   1.1293130037e+02   4.4233893123e+01    0.2232965    0.1804178  80.91  0.001247193    1.369    0.269
       139  -9.9178    101.6471     90.7100   1.1200878741e+02   4.3826399683e+01    0.2781958    0.2270111  72.22 0.0008242514    1.326    0.246
       140  -9.6019    159.9090     93.1756   9.8983768897e+01   3.1555111094e+01    0.3619157      0.19443  68.60  0.001317592    2.937    0.660
       141 -10.6257    152.7912     91.7638   1.0012103569e+02   3.3380448274e+01    0.3807614     0.330199  36.01  0.001596078    1.189    0.159
       142 -10.0970    104.9423     75.6873   1.0722313412e+02   4.6286245070e+01    0.4144997    0.3375983 -41.13  0.001824968    1.205    0.170
       143 -10.9529    108.7912     80.8085   1.0761550443e+02   4.4539630324e+01    0.4904515     0.393892  33.41  0.002016105    1.416    0.294
       144 -10.8772    114.0397     87.3380   1.0799841044e+02   4.2239479040e+01    0.3910177    0.3338726  29.99  0.000794282    1.339    0.253
       145 -10.8353    113.5947     83.2165   1.0702723499e+02   4.3145544936e+01    0.4963896    0.2956102 -33.22  0.002216608    1.999    0.500
       146 -10.0029    212.1566     87.0814   8.7695867647e+01   2.0512375921e+01     0.278578    0.2197891 -11.57 0.0004421982    1.277    0.217
       147 -10.4361    183.8704     85.5844   9.2218094849e+01   2.7322664764e+01     0.684137     0.230803 -40.40  0.002306546    2.964    0.663
       148 -10.9539     25.7573     86.5046   1.3240255590e+02   5.4651576238e+01    0.5100687     0.324755  45.59  0.002537337    1.736    0.424
       149  -8.8645    135.3042     86.3432   1.0258646738e+02   3.8151428844e+01    0.1454596    0.1152449   2.18 0.0007040735    1.684    0.406
       150 -10.8137    164.3872     83.1317   9.5347348821e+01   3.2265053791e+01    0.4492992    0.3988305 -71.30  0.001575684    1.265    0.209
       151 -11.6931    143.3839     83.0711   9.9840956240e+01   3.7017374480e+01    0.5575504    0.3801615 -32.52  0.002376092    1.536    0.349
       152 -10.7199    127.4968     83.3889   1.0363182288e+02   4.0341286961e+01    0.3936596    0.2790686  50.50  0.001313121    1.444    0.307
       153 -10.9513    120.6138     79.9049   1.0435741203e+02   4.2415224145e+01    0.5240334    0.2170072  51.35  0.001988744    2.593    0.614
       154 -10.0360    134.4863     77.5025   1.0031748460e+02   3.9977294277e+01    0.3113354    0.2879247 -77.36  0.001156964    1.140    0.123
       155 -12.0980      9.8869     97.7697   1.3823599135e+02   5.3469276697e+01     0.778443    0.4296515  64.34  0.004821966    1.814    0.449
       156 -10.1519     22.6049     72.0004   1.3104618739e+02   5.8075775982e+01      0.32359    0.1746914  42.10  0.001783674    2.119    0.528
       157  -9.7959      2.3304     56.1438   1.3518541914e+02   6.2895351256e+01    0.2561394    0.1691747  47.40  0.001532336    1.808    0.447
       158 -10.1536      5.9464     75.6032   1.3679112984e+02   5.8488503301e+01    0.5150425    0.1192203 -54.88  0.001667392    3.481    0.713
       159  -9.8229     13.8735     54.0578   1.3070652411e+02   6.2624242773e+01      0.30625    0.1645955 -49.91 0.0003781114    1.654    0.395
       160 -11.8688     13.6329     74.7722   1.3430759850e+02   5.8153947315e+01    0.4341531    0.3190689 -73.23  0.001671098    1.054    0.051
       161 -10.8457     14.4597     67.4518   1.3290924392e+02   5.9684531108e+01    0.3416893    0.2335889 -78.46  0.001520426    1.193    0.162
       162 -12.1626      2.2297     70.5759   1.3729501722e+02   5.9796157269e+01    0.6949589    0.1555573 -69.45  0.002991021    2.950    0.661
       163 -12.1354      6.5332     62.1811   1.3469463312e+02   6.1349864737e+01    0.8935387    0.1886022 -57.30  0.003816088    3.105    0.678
       164 -10.8977     11.6614     62.5149   1.3301855890e+02   6.0948335284e+01    0.3204474    0.2006447   8.52  0.001752039    2.344    0.573
       165 -10.8844     58.6374     78.3108   1.2112162583e+02   5.2978778785e+01    0.3862692     0.251274  52.68  0.001014389    1.739    0.425
       166 -10.0752    241.8773     76.1352   8.0455245325e+01   1.5218711089e+01    0.2446265    0.1761147  69.26  0.001263108    1.682    0.405
       167  -9.5332    184.4896     61.0345   8.5081410374e+01   3.0929154636e+01    0.3300013    0.2678768 -10.28  0.001261564    1.291    0.225
       168  -9.5628    192.1484     65.6836   8.5129289286e+01   2.8353168727e+01    0.2935264    0.2354538 -73.22  0.001187321    1.537    0.349
       169 -10.3733    183.9831     74.7780   8.9195289529e+01   2.8980915341e+01    0.3718284    0.2227294  53.46  0.001167989    1.665    0.400
       170 -12.0261    186.8624     69.9110   8.7278815920e+01   2.9023820879e+01    0.8615048    0.6364461 -46.33   0.00317673    1.426    0.299
       171  -9.1657    197.3120     74.3338   8.6718258995e+01   2.5834809021e+01    0.1558605    0.1106978  18.91 0.0003876482    1.680    0.405
       172  -9.0407    151.4703     73.4890   9.5307379178e+01   3.6903073920e+01    0.1473932    0.1426118   1.20 0.0001731875    1.048    0.046
       173  -9.4037     61.6137     73.0851   1.1901075451e+02   5.3724631044e+01    0.2131005    0.1610574  56.15 0.0005901837    1.491    0.330
       174 -11.6727    122.8001     67.9352   1.0032184686e+02   4.4250025297e+01    0.6880711    0.4582476  45.79  0.002104437    1.567    0.362
       175 -10.1970    162.1225     70.2679   9.2108960946e+01   3.4950999842e+01    0.3807006    0.3141217 -83.76  0.001909182    1.477    0.323
       176 -10.2540    207.1382     68.4665   8.3461487981e+01   2.4296122816e+01    0.4591027    0.2148572  46.90  0.001823443    2.159    0.537
       177 -10.7002    172.1838     67.7765   8.9369911667e+01   3.2931441974e+01    0.4570322    0.3288583 -45.86  0.001540034    1.444    0.307
       178  -9.6705    167.8821     63.0122   8.8763249668e+01   3.4732177348e+01    0.2252953    0.2172889  35.55   0.00123712    1.042    0.040
       179 -10.3852    129.5138     65.6534   9.7965396443e+01   4.3233832428e+01    0.6092166    0.3352093 -61.31  0.002257651    2.834    0.647
       180 -11.6756    219.4679     66.0856   8.0925039356e+01   2.1652530354e+01    0.6760167    0.4203945  56.06  0.002193135    1.649    0.394
       181 -11.1114     25.4115     56.2471   1.2704150513e+02   6.1265335495e+01     1.030361    0.7240034  11.32  0.006583773    1.970    0.492
       182 -11.1775     32.6635     42.1981   1.2080365786e+02   6.3596491267e+01    0.6076406    0.4956136  56.20  0.002274622    1.522    0.343
       183 -10.1193     20.5287     47.9745   1.2694686932e+02   6.3437996765e+01    0.3258268    0.2068389 -49.73  0.001173647    1.365    0.268
       184 -10.0768     26.6081     47.8504   1.2463278025e+02   6.2961922629e+01     0.365988    0.2197007 -17.21  0.001148277    2.655    0.623
       185 -11.0144     51.3108     45.8185   1.1494061311e+02   6.0787329681e+01      0.45103    0.3317482 -82.50 0.0006305307    1.748    0.428
       186 -11.8054     47.6588     30.6951   1.1111982962e+02   6.4254350928e+01    0.7059485    0.3757587  22.75  0.003438895    2.711    0.631
       187 -11.4924     51.6986     61.5437   1.1928954385e+02   5.7443660194e+01     0.485637    0.3078104 -75.32 0.0009671978    1.768    0.435
       188  -9.8537    142.4946    249.4909   1.2746349767e+02   1.1077515433e+01    0.1005041    0.0703674  48.38 0.0008105978    1.005    0.005
       189 -11.1747     46.1300     58.2988   1.2032153972e+02   5.8784434558e+01     0.581068    0.3137983 -62.84  0.003035172    1.642    0.391
       190 -11.2852     40.3941     56.2574   1.2177511149e+02   5.9845283384e+01    0.5169903    0.3416937  86.00   0.00195702    2.033    0.508
       191  -9.4283    174.2300    246.7665   1.2250369976e+02   6.9105660085e+00    0.1616268   0.09647135  22.24   0.00106569    2.208    0.547
       192 -10.9292     60.9067     36.3751   1.0825291491e+02   6.1383346266e+01     0.353229    0.1816755 -47.67  0.001124408    1.684    0.406
       193 -11.6948     46.2244     48.9830   1.1772806000e+02   6.0741488288e+01    0.4169603    0.3282448 -25.19  0.001197925    1.467    0.319
       194 -12.4519     41.8308     45.4802   1.1829920458e+02   6.1965579311e+01    0.3055785    0.2926181  39.18 0.0003435689    1.261    0.207
       195 -10.7779     20.9679     65.1351   1.3035859401e+02   5.9701198985e+01    0.1883701    0.1744674  88.41 0.0006204329    1.206    0.171
       196  -9.6608    204.8977     63.6411   8.2448318293e+01   2.5507451320e+01    0.3383511    0.2026981  35.12  0.001452615    1.904    0.475
       197 -10.8880    159.6221     61.5474   8.9959380118e+01   3.6976573028e+01      0.47497    0.3200044  34.65   0.00170833    1.674    0.403
       198 -11.5612    156.6320     53.4878   8.7997661064e+01   3.8987649663e+01    0.9798644    0.4813703 -36.69  0.003909498    1.953    0.488
       199 -12.1177    156.2147     41.7672   8.4155451471e+01   4.0864785891e+01     0.768201    0.4659146  73.37 0.0007300729    2.065    0.516
       200 -11.0730    153.3970     36.1964   8.2767549616e+01   4.2371217314e+01    0.3536531    0.3245699 -70.25 0.0006508694    1.193    0.162
       201 -10.7946    127.9344    243.0427   1.2906695801e+02   1.3821190584e+01    0.2898551    0.1355486 -68.88  0.001719224    3.605    0.723
       202  -9.5830    199.0057    244.5041   1.1862630755e+02   3.5870151282e+00    0.1621473   0.07291149  43.77  0.001033565    1.601    0.375
       203 -11.1649    116.2520     57.7698   9.8776177215e+01   4.7505320049e+01     1.200462    0.7272261  -9.73  0.004414622    3.212    0.689
       204 -10.1663    150.5804    237.7574   1.2512479316e+02   1.1263301993e+01    0.1157737   0.09482527 -86.40  0.000952905    1.614    0.380
       205  -9.3716     15.4344    233.3541   1.4528839878e+02   2.8359204854e+01     0.144044   0.06855706 -79.20  0.001123971    2.056    0.514
       206 -11.7187    112.8813     50.8616   9.7336221011e+01   4.9459876355e+01     1.511684    0.6238649 -43.24   0.00579419    2.317    0.568
       207 -11.7942    105.8206     32.6847   9.2517021184e+01   5.4038320352e+01    0.5694914    0.3591438   0.93  0.001698467    2.483    0.597
       208 -10.3567    242.4757    231.1023   1.1069435660e+02  -1.4836925671e+00    0.2052086    0.1856662  85.17  0.001668263    2.165    0.538
       209 -12.4527    117.4218     43.0837   9.3387796783e+01   4.9839500017e+01     0.862001    0.5862369 -82.12  0.003590938    2.507    0.601
       210 -13.0135    120.6295     38.8519   9.1014672549e+01   4.9825180017e+01    0.8185609    0.5870074 -70.39  0.002560816    1.963    0.490
       211 -10.5096    105.8219     61.2901   1.0269695674e+02   4.8947447011e+01    0.5605422    0.3143207 -46.36  0.002546526    1.688    0.408
       212 -10.8716    125.0342     93.7408   1.0693829243e+02   3.8837099183e+01     0.595943    0.3070134  42.25  0.002527406    2.059    0.514
       213  -9.8998    147.8836     60.5555   9.2125628208e+01   3.9947475581e+01    0.4457581    0.1514592  56.39  0.001441353    3.152    0.683
       214  -8.9443    234.6110     59.2548   7.6975187402e+01   1.8937283118e+01    0.1423184    0.1054595 -64.51  0.000696202    1.680    0.405
       215  -9.1520    229.5498     59.5475   7.7720953070e+01   2.0090575293e+01    0.2240353    0.1441547  79.48 0.0006284611    2.044    0.511
       216 -10.8254    139.5352     43.4010   8.8214709446e+01   4.4715295332e+01    0.6261652    0.2965333  33.71  0.001881168    3.172    0.685
       217 -11.4254    136.4278     56.1387   9.3272766511e+01   4.3362780270e+01    0.6493086    0.4763212 -27.58  0.001994174    1.382    0.276
       218  -9.2378    219.9480     57.0077   7.8329896990e+01   2.2710288652e+01    0.2303598    0.1680763 -58.91 0.0007563441    1.625    0.385
       219  -9.4857    187.6483     55.2017   8.2770341880e+01   3.0980024143e+01    0.3250406    0.1909124  48.25  0.001403295    1.710    0.415
       220  -9.6666     67.0609     54.9840   1.1236993508e+02   5.6793828231e+01    0.2008353    0.1742515 -58.09 0.0005851348    1.065    0.061
       221  -9.8812    249.3067     53.0270   7.3522225247e+01   1.6293187650e+01    0.3484892    0.2525042 -76.15  0.001372096    1.814    0.449
       222 -10.4664    231.6198     39.8582   7.2004570107e+01   2.1946664198e+01     0.327659    0.2276568 -63.32   0.00131568    1.711    0.416
       223 -10.4491    233.4734     44.9874   7.3213530780e+01   2.0907736510e+01    0.8351713    0.3964352  37.08  0.003238736    2.667    0.625
       224 -11.1955    239.8549     50.2679   7.3893957610e+01   1.8782493966e+01    0.4524208    0.3793814  69.13  0.001196074    1.325    0.245
       225 -10.1311    244.4966     50.5097   7.3411896418e+01   1.7678032659e+01    0.2873023    0.2173153 -25.91 0.0009635736    1.202    0.168
       226  -9.9485    211.5028     53.1598   7.8431759230e+01   2.5275848213e+01    0.2765301    0.2195233  63.38  0.001422214    1.331    0.249
       227 -11.2323    202.1730     49.2937   7.8667021076e+01   2.8114979234e+01    0.9174007    0.4678339 -50.98  0.003518938    2.414    0.586
       228 -10.2058     98.4474     62.3583   1.0508194100e+02   5.0137496889e+01     0.282479    0.2660727  34.13  0.001167077    1.157    0.135
       229  -9.5061    216.0281     51.3693   7.7273719344e+01   2.4384611344e+01    0.3417429     0.172803 -33.73  0.001431414    1.833    0.454
       230 -10.8965    176.8276     37.5955   7.9002281295e+01   3.6167948869e+01    0.4543318    0.3156577 -23.16  0.001434988    1.431    0.301
       231 -11.2166    172.0452     33.8892   7.8567459898e+01   3.7896063047e+01    0.5111901    0.2773311  58.69  0.001844749    1.817    0.450
       232 -10.4394    176.0430     29.5235   7.6432711138e+01   3.7405802627e+01    0.3927836    0.3361596 -14.87  0.001039398    1.169    0.145
       233 -11.1507    183.6258     24.5247   7.3596119795e+01   3.6008039946e+01    0.5844009    0.3471742  56.73  0.002228806    1.644    0.392
       234  -9.1015     23.4803    231.5498   1.4405311274e+02   2.7849372475e+01   0.09280144   0.05924921  64.29 0.0002603013    1.019    0.018
       235 -11.3924    173.5332     48.0923   8.3002533161e+01   3.5569083785e+01    0.6566334    0.4176044  64.58   0.00145973    1.678    0.404
       236 -10.5145    176.9964     43.4865   8.0903040386e+01   3.5330464196e+01    0.5085434    0.3427788 -51.23  0.002218016    1.648    0.393
       237  -9.9823     90.7432     48.1915   1.0267069759e+02   5.4277006466e+01    0.2944814    0.2217737 -51.34  0.001098251    1.294    0.227
       238  -9.3126      3.8319     48.9756   1.3341800616e+02   6.4347720802e+01    0.1585063    0.1582027   1.29  0.001248277    1.331    0.248
       239  -9.9767    194.1393     46.3690   7.9007592201e+01   3.0542095731e+01    0.5545473    0.3004838 -86.29   0.00182628    3.636    0.725
       240  -9.7049     14.4138     46.3875   1.2890203459e+02   6.4231007370e+01    0.2700121    0.1236706 -46.29  0.001457822    2.009    0.502
       241  -9.6427      9.1563    227.1677   1.4598868383e+02   2.9842110016e+01    0.1240572   0.09210429  67.77   0.00032364    1.219    0.180
       242  -8.8712     93.9794     36.2010   9.7284027853e+01   5.5840472203e+01    0.2520552    0.1653173 -49.92 0.0008493484    1.598    0.374
       243 -10.2548    100.5581     43.7998   9.8223070852e+01   5.3223393817e+01    0.4126634    0.2922043  89.62  0.001874857    2.349    0.574
       244 -11.2630     93.8435     41.2640   9.9247651124e+01   5.4975511922e+01     0.527875    0.3470531  45.18  0.001777503    1.649    0.394
       245  -9.9853      4.5157     44.2131   1.3224960209e+02   6.5324682751e+01    0.2792802    0.1755507  -7.83  0.001338937    2.303    0.566
       246  -9.3519    200.4713    226.5288   1.1622673786e+02   5.0791927604e+00    0.1077475   0.07842044  34.99 7.691251e-05    1.037    0.036
       247 -10.5136    189.9107     32.7968   7.5378377480e+01   3.3368125174e+01    0.3894473    0.3069626 -66.08 0.0008987476    1.439    0.305
       248 -10.3840    189.1523     27.9413   7.3919650934e+01   3.4151109745e+01    0.3972932    0.3115749  11.58  0.001505467    1.409    0.290
       249  -9.4648     18.2244     41.8571   1.2635322587e+02   6.4914579408e+01    0.2148374    0.1418614  -9.34  0.001311858    2.161    0.537
       250 -11.2234     81.7273     39.4687   1.0232065343e+02   5.7501706980e+01    0.4337815     0.342276  82.07  0.001072262    1.803    0.445
       251 -10.8652     77.7809     34.4481   1.0168477479e+02   5.9094048071e+01    0.3889222    0.2759729  42.70  0.001188428    1.573    0.364
       252 -10.6241     82.0399     31.5832   9.9156802718e+01   5.8857906977e+01    0.4319479    0.3999904 -75.65  0.002658819    1.293    0.227
       253  -9.4869    218.0314     38.9455   7.3404299791e+01   2.5405217203e+01    0.2265069    0.2147879  -9.88 0.0008076496    1.027    0.026
       254  -9.4443    134.7652     31.1925   8.4807741723e+01   4.7691465603e+01    0.3284849    0.2292618 -76.41  0.001448016    2.080    0.519
       255  -9.9962    133.6060     37.2206   8.7317739962e+01   4.7080659926e+01    0.4556791    0.3268547 -69.15  0.002086741    1.890    0.471
       256 -10.5234    139.8213     31.6222   8.3876217376e+01   4.6398239319e+01    0.6292724    0.3943807  -9.12  0.002702894    1.933    0.483
       257 -10.5756     22.2042     36.2669   1.2325584612e+02   6.5770057059e+01    0.4731292    0.2683203  50.42  0.002652424    2.447    0.591
       258 -10.4041    206.8187     37.1948   7.4356535455e+01   2.8455033700e+01    0.3333376    0.2800917 -46.37 0.0007870072    1.204    0.169
       259 -10.9407      5.2174     35.9806   1.3020179312e+02   6.7025033056e+01    0.4292143    0.3013873 -32.18  0.002991007    1.590    0.371
       260  99.0000      6.2403     30.7167   1.2848526504e+02   6.8063684177e+01    0.2791113    0.1629445   8.45  0.001739121    2.374    0.579
       261  -8.2550     88.2837     37.2509   9.9417174807e+01   5.6730279167e+01     0.128758    0.1027662  -0.52 0.0002526992    1.468    0.319
       262 -11.5539     70.0117     32.6621   1.0361350852e+02   6.0700006869e+01    0.4507078    0.3094464  30.46  0.002465358    1.708    0.414
       263  -9.3204    249.0000     33.9690   6.8502522677e+01   1.8470788075e+01    0.2327612   0.07221176 -22.95 0.0007637963    2.932    0.659
       264  -9.0879    189.8355    229.8454   1.1825087374e+02   6.3437984588e+00    0.1355788    0.1010307  49.52 0.0004621565    1.260    0.206
       265  -8.8708    167.6759    221.6541   1.2069878571e+02   1.0592207342e+01    0.1060766   0.07273392  22.49 0.0007050095    1.741    0.426
       266 -10.1503    160.5577     33.5394   8.0472935359e+01   4.0913336909e+01     0.421785    0.3005857 -51.61  0.001974155    1.550    0.355
       267  -9.8194      9.9593    217.9240   1.4555358957e+02   3.1156659198e+01    0.1456929    0.0923453  67.58 0.0006892558    1.036    0.035
       268 -10.3063    144.0837     24.9229   8.0483057419e+01   4.6247420978e+01    0.4581991     0.330304  86.74  0.002137053    1.763    0.433
       269 -10.9529    140.7355     20.2820   7.9368615781e+01   4.7680871699e+01    0.6777407    0.3196243  44.93  0.002671503    2.174    0.540
       270 -10.7007    240.6856     30.9891   6.8543230502e+01   2.0746065507e+01    0.5510525    0.3271817 -16.09  0.002049544    1.671    0.402
       271  -9.9059    217.0296     31.9672   7.1478669509e+01   2.6466800179e+01    0.2172581    0.2077608  -6.89 0.0004162457    1.035    0.034
       272 -11.1209    197.9827     29.0741   7.3047603907e+01   3.1704120472e+01    0.4792206    0.4000434  13.95  0.001434769    1.284    0.221
       273  -9.0145    182.4855     32.0479   7.6259779448e+01   3.5403485780e+01    0.2225579      0.14483 -25.12 0.0003882594    1.504    0.335
       274 -10.9840     57.9718     61.7169   1.1727276067e+02   5.6626831970e+01    0.7695694    0.3905275 -68.80   0.00342932    2.398    0.583
       275 -10.4065    230.5807     29.6403   6.9240854213e+01   2.3341463525e+01    0.4806579    0.2779562 -29.71  0.001674608    1.572    0.364
       276 -10.5229    199.8110     24.8676   7.1478744563e+01   3.1707757696e+01     0.332442    0.2660373  16.39  0.000774339    1.368    0.269
       277  -9.4877    166.7697    213.5310   1.1985699345e+02   1.1697320404e+01    0.2372009    0.1541515  83.55  0.001295318    3.134    0.681
       278  -9.4403    152.9512    207.9557   1.2143534611e+02   1.4561007148e+01    0.1734139    0.1178782  66.32 0.0009638096    1.676    0.403
       279 -10.6596      4.1568    205.0081   1.4598848304e+02   3.3691571596e+01    0.2318666    0.1248297 -76.81  0.001626767    1.807    0.447
       280 -12.5019      5.5043    185.6555   1.4502164890e+02   3.6773077872e+01    0.7629551    0.3702041  82.78  0.005442791    1.619    0.382
       281 -10.5723    245.4683    200.9610   1.0584041365e+02   6.1067530475e-01    0.1742937    0.1174866  33.12   0.00064852    1.157    0.136
       282 -10.3952    234.2702    196.9253   1.0686149600e+02   2.7335792279e+00     0.309904     0.217472  19.89  0.001388734    1.230    0.187
       283  -9.9325    250.5497     25.3289   6.6047064166e+01   1.9013955083e+01     0.257232    0.1243518 -21.68 0.0001947449    1.907    0.476
       284  -9.8772    133.4759     24.4025   8.2476481580e+01   4.8945893738e+01    0.4039433    0.3101207 -60.24  0.002002611    1.556    0.357
       285 -10.6010     16.9259    192.6592   1.4340358722e+02   3.4564959318e+01    0.1774696    0.1189708  67.59 0.0004056697    1.050    0.047
       286  -9.7353    169.9747    191.1493   1.1632875467e+02   1.4022387417e+01    0.3238059    0.1263816  36.22  0.001433605    2.742    0.635
       287  -9.1421    168.4688    188.4650   1.1619834927e+02   1.4634745562e+01    0.1183507   0.09702159  42.63 0.0005548802    1.014    0.014
       288  -9.9227     80.7911     19.3907   9.4360567296e+01   6.1097387159e+01    0.2890441    0.2185249  22.05  0.001159918    1.466    0.318
       289  -9.6032    101.4933    183.0053   1.2752065156e+02   2.6146846958e+01    0.1432758    0.0939995 -37.17 0.0008106549    2.629    0.620
       290  -9.5086    223.1988     22.3844   6.7955209169e+01   2.5957591852e+01    0.2620707    0.2373298 -78.76 0.0008324154    1.159    0.137
       291 -10.2385    220.9894     19.0741   6.7221837741e+01   2.6861804475e+01    0.2319054    0.2195089  36.13            0    1.105    0.095
       292 -10.1437    213.4914    181.6661   1.0760885119e+02   7.7715922092e+00    0.2175677    0.1839364 -27.29  0.001530995    1.392    0.282
       293  -9.7265    250.4835    180.0010   1.0162643199e+02   1.7636959298e+00     0.245827    0.1051465 -18.37  0.001221153    2.730    0.634
       294  -8.9348     17.8929    177.8516   1.4248533163e+02   3.7027622602e+01    0.1391447   0.08107491  67.65            0    1.292    0.226
       295  -9.0433    224.6691    175.6778   1.0480536231e+02   6.5232113295e+00    0.1262916   0.07804608  19.63 0.0007049579    1.698    0.411
       296  -9.0908     57.3086    175.1008   1.3501748256e+02   3.3375674809e+01    0.1492209    0.1128824  79.70  0.000523562    1.082    0.076
       297 -10.1385     51.8789    174.4394   1.3598764754e+02   3.4127523614e+01    0.2090938    0.1212498  81.05   0.00110222    1.587    0.370
       298  -9.9736    214.9676     21.5084   6.8605645907e+01   2.8143520080e+01    0.3732098    0.2138536  36.77  0.001604648    2.039    0.510
       299  -9.8279    247.6665    173.6137   1.0091493226e+02   2.8481454785e+00    0.3149745    0.1001623  35.91  0.001316698    3.063    0.674
       300  -9.7276     39.5112    173.4801   1.3824115336e+02   3.5666870431e+01    0.1665937   0.07996363 -64.85 0.0008437191    2.117    0.528
       301 -11.1318     34.8968    170.5380   1.3889688516e+02   3.6683994403e+01    0.2159951    0.1614172  59.32 0.0008844931    1.188    0.159
       302 -10.0854     18.4844    165.2012   1.4165196876e+02   3.9256910468e+01    0.2434815    0.1855944  16.65  0.001827337    2.176    0.541
       303 -11.4698      9.2893    166.7022   1.4346145089e+02   3.9793673223e+01    0.4147538    0.2608397  79.37  0.002604436    1.173    0.147
       304 -11.8413     13.3651    158.9659   1.4225822236e+02   4.0870350231e+01    0.5481882     0.280276  82.28  0.002009644    1.597    0.374
       305  -9.0435    148.9858    168.2547   1.1664420409e+02   2.0931192609e+01    0.1682502   0.09299216  46.23 0.0008878477    1.566    0.361
       306  -9.4895     39.9908    166.2607   1.3760196177e+02   3.6937658212e+01    0.1421108    0.1047963 -61.58 0.0008169498    1.636    0.389
       307  -9.9717    188.8698    164.3508   1.0876230186e+02   1.4323541221e+01    0.2249847    0.1814486 -14.76 0.0007734012    1.411    0.291
       308  -9.7903    205.0980    163.1329   1.0575887366e+02   1.1502120842e+01     0.246876    0.1576579  35.17  0.000632461    1.401    0.286
       309  -9.3297      1.6733     20.3811   1.2774745840e+02   7.0448323914e+01    0.1302509   0.09596459 -21.37 0.0006153246    1.573    0.364
       310  -9.7997     28.0961    162.7788   1.3964961384e+02   3.8798762481e+01    0.2433374    0.1452986 -60.76  0.001649186    1.916    0.478
       311 -10.9231    246.5152    159.8567   9.8549195390e+01   4.4547667469e+00    0.4327562    0.1113259 -28.40  0.001654356    3.996    0.750
       312  -9.9848    191.6832     16.9015   6.9974402894e+01   3.4720718118e+01    0.3044141    0.2738005  17.81  0.001100358    1.153    0.133
       313 -10.2601     81.1132    159.9274   1.2879494684e+02   3.3118362625e+01    0.3180597    0.2262323  43.65  0.002073902    1.412    0.292
       314  -9.6452    215.4027    158.2359   1.0313433953e+02   1.0221107580e+01    0.2236055    0.1189981 -24.94  0.001129483    2.123    0.529
       315  -8.8849    224.3217    156.3289   1.0132081083e+02   8.8120281375e+00    0.1323553   0.08460329  17.94  0.000467714    1.692    0.409
       316  -8.5819     55.3342     17.2770   1.0251108344e+02   6.5660184467e+01    0.1255657   0.09035394  -8.75 0.0006998228    1.606    0.377
       317  -9.0104     27.9538     15.4758   1.1347824196e+02   6.9369491443e+01    0.1457611    0.1168539  28.17   0.00100066    1.527    0.345
       318 -10.5315    104.3759    153.6470   1.2320627955e+02   3.0872470019e+01    0.3630799    0.2113348 -62.62  0.002012167    1.804    0.446
       319 -10.8441     10.3582    128.3755   1.4083712196e+02   4.7076027802e+01    0.6602454    0.1454256 -66.29  0.002968479    3.359    0.702
       320 -10.7459     14.1300    132.5501   1.4031684670e+02   4.5930913685e+01    0.2612914    0.1558941  73.12  0.001771771    1.405    0.288
       321 -11.0289     13.2879    139.4824   1.4101020321e+02   4.4621563516e+01    0.5310275    0.2513503  62.88  0.003259752    1.871    0.466
       322 -11.9732     22.3779    149.7479   1.3985441746e+02   4.1818232651e+01    0.4638042    0.3348218 -58.90   0.00342054    1.686    0.407
       323 -10.3504     15.5902    147.8192   1.4110788471e+02   4.2797443272e+01    0.3011798    0.1910022  59.94  0.001312226    1.334    0.251
       324 -12.2245     23.3386    136.3809   1.3860197572e+02   4.4363243455e+01     1.065741     0.535831  74.82  0.006301143    1.870    0.465
       325 -11.6544     29.8013    132.7391   1.3684386789e+02   4.4495641835e+01    0.4568804    0.2635403  88.92 0.0004685692    1.501    0.334
       326 -11.3561     30.4883    148.8988   1.3811627320e+02   4.1212478970e+01    0.6953245    0.2152372 -77.43    0.0028881    3.013    0.668
       327 -10.8662     33.3442    144.3459   1.3712887450e+02   4.1823009153e+01    0.3105778     0.198089 -86.22  0.001413977    1.298    0.230
       328 -11.9583      5.1566    147.3689   1.4319979255e+02   4.3748251109e+01     0.573509    0.3149022 -75.15  0.004008087    1.555    0.357
       329 -10.7577      1.8603    141.2956   1.4352160792e+02   4.5173761421e+01    0.2824239    0.1528933 -87.34  0.001535065    1.417    0.295
       330 -11.8241      3.5684    136.4225   1.4287134237e+02   4.5996491551e+01    0.2408751      0.16503  85.00 0.0004628281    1.071    0.066
       331  -9.9089    214.0708    151.6855   1.0209799300e+02   1.1291429350e+01    0.2126209    0.1838893 -59.68  0.001143794    1.590    0.371
       332 -11.2789     62.9268    150.6584   1.3148716227e+02   3.7266815985e+01    0.3943009      0.32473  12.64  0.002394355    1.944    0.486
       333  -9.5995     47.2836    151.4721   1.3485080076e+02   3.8951716996e+01    0.5529401    0.1799588  55.70  0.002465728    3.207    0.688
       334 -10.3523     48.0630    147.9736   1.3434409674e+02   3.9547990169e+01    0.2825997    0.2030756  31.37  0.001667202    1.776    0.437
       335  -9.9825     46.3832    144.7871   1.3438187974e+02   4.0363504822e+01    0.3500331    0.2031972 -42.75  0.001649131    2.888    0.654
       336  -9.5735     71.4245    151.4960   1.2979497065e+02   3.6019928704e+01    0.2390272    0.1049891  40.47  0.001225008    2.214    0.548
       337  -9.7745     60.5450    147.4990   1.3163803290e+02   3.8177809190e+01    0.2080775    0.1672385  76.61 0.0006970582    1.023    0.022
       338  -9.6387    239.8622    146.8374   9.7014224471e+01   7.0683816128e+00    0.1988901     0.147587  19.38 0.0007670686    1.215    0.177
       339 -10.8442    249.5034    142.4940   9.4681246981e+01   5.7982288692e+00    0.5040064    0.2213029 -25.33  0.002410397    2.252    0.556
       340 -10.2120     69.0465    141.1233   1.2902961021e+02   3.8365656567e+01    0.2616045    0.1538099 -40.20  0.001295273    2.838    0.648
