#   1 NUMBER                 Running object number                                     
#   2 MAG_AUTO               Kron-like elliptical aperture magnitude                    [mag]
#   3 X_IMAGE                Object position along x                                    [pixel]
#   4 Y_IMAGE                Object position along y                                    [pixel]
#   5 X_WORLD                Barycenter position along world x axis                     [deg]
#   6 Y_WORLD                Barycenter position along world y axis                     [deg]
#   7 A_WORLD                Profile RMS along major axis (world units)                 [deg]
#   8 B_WORLD                Profile RMS along minor axis (world units)                 [deg]
#   9 THETA_WORLD            Position angle (CCW/world-x)                               [deg]
#  10 FWHM_WORLD             FWHM assuming a gaussian core                              [deg]
#  11 ELONGATION             A_IMAGE/B_IMAGE                                           
#  12 ELLIPTICITY            1 - B_IMAGE/A_IMAGE                                       
         1 -11.5967      7.3749     29.3459   1.1597509565e+02   6.8127186975e+01    0.8232075     0.205529 -46.54  0.003210333    2.995    0.666
         2 -11.9255      4.1341     18.9093   1.1448068038e+02   7.0405419460e+01    0.8575974    0.1876052 -53.60  0.003875135    2.654    0.623
         3 -11.6104     61.5707     24.3926   9.1210225624e+01   6.3612655947e+01    0.4964581    0.3347847 -66.25  0.002449625    2.476    0.596
         4 -10.7486     24.0000     21.6455   1.0602115944e+02   6.8488723825e+01    0.4236707    0.1380049 -56.32    0.0018613    2.636    0.621
         5 -11.4896     19.3862     16.2743   1.0617638988e+02   6.9896133569e+01    0.3995972    0.2552433 -47.43  0.002595047    1.199    0.166
         6 -12.0105    129.0708     23.3901   7.0250591966e+01   5.0403241603e+01    0.4323922    0.3048411 -30.18 0.0006414944    1.392    0.282
         7 -10.3958     35.1134     15.6302   9.8507906106e+01   6.8536787846e+01     0.318193     0.186389 -24.41 0.0006485379    1.831    0.454
         8 -10.8251     75.7392     16.5274   8.2504072648e+01   6.2602793687e+01    0.5778736    0.3040069 -13.96  0.001924697    2.725    0.633
         9 -11.2086     74.9146      4.5045   7.6943546897e+01   6.4435017602e+01    0.6033238    0.2670973 -34.58   0.00181296    2.103    0.524
        10 -10.5376     77.3093      9.7169   7.8725098799e+01   6.3303624195e+01    0.2339331    0.2131366  64.41 0.0008835935    1.447    0.309
        11 -12.0169     81.2352      6.2002   7.5690184836e+01   6.3034708688e+01    0.3433248    0.2132932 -23.05 0.0002389808    1.482    0.325
        12 -11.2473    132.2481     15.9529   6.6561110116e+01   5.0563667909e+01    0.4348321    0.2096927 -42.10  0.001728925    2.302    0.566
        13 -10.8810     56.2746     14.8655   8.9040275575e+01   6.5988706359e+01    0.4031018    0.2211212 -49.96  0.001993669    2.120    0.528
        14 -10.7458    115.4999     12.4333   6.8931431083e+01   5.4991470749e+01     0.476487    0.2889655  60.46  0.002070829    1.758    0.431
        15 -10.5919     99.6953     13.1816   7.3415413256e+01   5.8410551552e+01    0.2864803    0.2333499 -39.33  0.001366478    1.327    0.247
        16 -11.5848     62.1748     11.8047   8.5246534996e+01   6.5578610165e+01    0.3981454    0.3108862  74.72  0.001142315    2.268    0.559
        17 -10.7462     26.2332     13.7201   1.0184601083e+02   6.9776437926e+01    0.2044974    0.1494595 -30.32  0.000374413    1.175    0.149
        18  -9.8793    175.4952     11.9317   5.7369323301e+01   3.9755925572e+01    0.2224789    0.1454415 -19.67  0.001025268    1.568    0.362
        19  -9.8239    108.2215     10.8099   7.0045401943e+01   5.6845187740e+01    0.1964637    0.1845226 -38.50  0.000497344    1.203    0.169
        20 -10.0188    154.9594     10.0018   5.9892873084e+01   4.5418544118e+01     0.216533    0.2106491  37.46 0.0004000647    1.029    0.029
        21 -13.3816     29.8408      2.7245   9.4937494972e+01   7.1318449178e+01    0.6627456    0.3746355   4.04  0.001699235    2.556    0.609
        22 -12.0439     18.5533      4.1845   1.0145860737e+02   7.2171336037e+01    0.3682568    0.2480593 -26.66  0.002475462    1.313    0.238
        23 -12.2273     11.2945      2.7219   1.0468967743e+02   7.3013456509e+01    0.5889894    0.3567383 -29.21  0.002846269    1.482    0.325
        24 -10.1774      3.9643     12.0190   1.1231115414e+02   7.1760533638e+01    0.1776776    0.1228104 -45.81  0.001266516    1.088    0.081
        25  -9.7949    116.6965      8.3080   6.6850579836e+01   5.5190382084e+01    0.2154548    0.1746451 -16.21 0.0004929822    1.198    0.165
        26 -10.8732    115.0796      4.5615   6.5576073186e+01   5.5977105189e+01    0.2997721    0.2356403   3.17 0.0008648402    1.246    0.198
        27  -9.1622     92.4433      7.9468   7.3075598572e+01   6.0589309068e+01     0.190992    0.1681482 -32.45  0.001139851    1.230    0.187
        28  -9.1027     89.0042      7.2317   7.3759621262e+01   6.1378573968e+01    0.2539369   0.09664369  50.16 0.0008282222    2.597    0.615
        29  -9.0934     37.6961      8.6443   9.4110041801e+01   6.9453932211e+01    0.1273013   0.07821073 -19.57 0.0006049325    1.714    0.417
        30  -9.8951      2.8485      8.0030   1.1145256873e+02   7.2590031565e+01    0.1667356    0.1082118 -40.64 0.0003361764    1.213    0.176
        31  -9.8518    155.8838      6.2316   5.8328227029e+01   4.5553504433e+01    0.2052005    0.1923229 -77.85 0.0003278808    1.154    0.133
        32  -9.8754     30.4740     13.1966   9.9600476336e+01   6.9457564878e+01    0.2248672   0.08986939 -44.17  0.001105763    1.965    0.491
        33 -10.6831     70.4148     14.6999   8.3544254523e+01   6.3795712337e+01    0.3108301    0.1911381 -24.98  0.001505468    1.515    0.340
        34 -10.1187    129.4663    226.6926   1.1558982064e+02   1.4805568833e+01    0.2558665    0.1188999  58.08    0.0014046    2.215    0.549
        35 -10.5690    246.8193    249.9757   1.0009404568e+02  -5.0064823969e+00    0.2658204    0.1099242  32.38   0.00133922    1.800    0.444
        36 -11.1034    250.4092    245.0207   9.8917295991e+01  -5.1255058670e+00    0.3467186    0.1600907 -19.08   0.00223152    2.639    0.621
        37 -10.1564     72.5816    250.1468   1.2642308195e+02   1.9179811326e+01    0.1411842    0.1157307  40.80  0.001249107    1.581    0.367
        38 -12.2493     15.2041    238.5267   1.3424448327e+02   2.6974865450e+01    0.7518493    0.1508915  40.58  0.004192808    3.334    0.700
        39 -12.7928     20.8215    248.7755   1.3381122064e+02   2.4971059408e+01    0.7429863    0.1917913  41.42  0.004543721    2.778    0.640
        40 -11.2603     14.2226    244.5385   1.3458632417e+02   2.6200092754e+01    0.3295751      0.11855 -80.71  0.002298564    2.636    0.621
        41 -12.2692      6.7276    243.8497   1.3560520195e+02   2.6990072519e+01    0.4475964     0.270903  72.87  0.004115772    1.159    0.137
        42 -10.1172    180.7048    224.4744   1.0689383434e+02   7.2299168051e+00    0.1555915    0.1025714 -40.33 0.0006195774    1.994    0.498
        43  -9.6535     81.1501    224.0340   1.2332242684e+02   2.1852952913e+01    0.1751961   0.09125879  73.01  0.001090416    2.054    0.513
        44 -10.8808    123.1106    221.5392   1.1612598500e+02   1.6452614458e+01    0.2731855    0.1768828  55.44  0.001476064    1.245    0.197
        45 -10.7368    141.4105    221.2829   1.1302292522e+02   1.3749286190e+01    0.2486596    0.1611146  27.55  0.001563952    1.891    0.471
        46 -10.1940     13.2383    221.9035   1.3393131485e+02   2.9662700022e+01    0.1482439   0.09780809  59.12 0.0005586027    1.151    0.131
        47 -10.0345    174.1706    219.8480   1.0737661403e+02   8.8124491826e+00    0.1571728     0.109606  31.04  0.000628186    1.329    0.248
        48  -9.7068    250.4788    219.0992   9.5178881215e+01  -3.0353607464e+00    0.1380557   0.09588648 -10.77 0.0005055158    1.503    0.335
        49 -11.3580    234.9897    216.5164   9.7136081538e+01  -4.6207696419e-01    0.2663809    0.1705039 -16.37  0.001809507    1.758    0.431
        50 -10.0719    191.5425    217.2360   1.0416469875e+02   6.3404147283e+00    0.1699799     0.112671 -42.96  0.001068071    1.994    0.498
        51 -11.0337     10.0030    216.9888   1.3423834195e+02   3.0728997769e+01      0.22706    0.1126562  61.82 0.0006543964    1.397    0.284
        52  -9.4921    136.9845    215.8458   1.1316293247e+02   1.5173694731e+01     0.176849    0.1120775  27.99  0.001063116    1.973    0.493
        53  -9.6876    201.5322    215.5465   1.0229724655e+02   4.9235417972e+00    0.1163857   0.08646573  31.63 0.0008067954    1.076    0.071
        54  -9.7090    194.5376    215.4680   1.0342883168e+02   6.0601955661e+00    0.1152915   0.08831041  36.22 -9.392012e-06    1.001    0.001
        55  -9.8007     21.9419    220.4927   1.3254781651e+02   2.9057959117e+01    0.1311066   0.07008329  47.62 0.0004631836    1.502    0.334
        56 -10.1550     31.0171    215.6893   1.3090497241e+02   2.8916923592e+01    0.1830937    0.0941859  69.38  0.001322117    1.515    0.340
        57 -11.0023     20.6685    211.7869   1.3236419955e+02   3.0566641283e+01    0.2551899    0.1094383  68.17  0.000934482    1.862    0.463
        58  -9.3678    212.9700    212.0399   9.9936117064e+01   3.4623859162e+00    0.1347873    0.1053653  29.43   0.00040306    1.034    0.033
        59 -10.2570    208.9659    212.0930   1.0059097637e+02   4.1032012214e+00    0.1756541     0.133317  31.98 0.0004617845    1.013    0.013
        60  -9.2091      2.2850    212.3210   1.3525290861e+02   3.2153025382e+01    0.0767085   0.06228047 -78.92 0.0003467305    1.594    0.373
        61 -11.9634      4.7509    207.3327   1.3469462142e+02   3.2744706882e+01    0.3799492    0.1799869  76.74  0.002786574    1.608    0.378
        62  -9.5017    184.4007    208.7531   1.0417343585e+02   8.5116318698e+00    0.1375707     0.107606 -12.72 0.0007033977    1.608    0.378
        63 -11.0584    240.8489    211.1150   9.5404479476e+01  -8.5754650154e-01    0.1679363    0.1361178  33.91  0.001253224    1.261    0.207
        64 -10.9920     18.9673    202.6714   1.3222010526e+02   3.2227180425e+01    0.2498242     0.159238  73.96    0.0010558    1.132    0.117
        65 -10.0577    175.0709    202.4981   1.0488208801e+02   1.0858758210e+01    0.1823073   0.09559804  44.63 0.0005651394    1.531    0.347
        66  -9.9686    223.0964    201.2642   9.6642405043e+01   2.9679058295e+00    0.2467902    0.1845684 -78.98   0.00130616    3.464    0.711
        67  -9.1210    218.2616    201.6406   9.7485271118e+01   3.7244697854e+00   0.09927157    0.0908642  73.53 0.0003095245    1.629    0.386
        68  -9.5277     34.6708    200.9943   1.2951588641e+02   3.0958376332e+01    0.1358379   0.09797467  74.68 0.0004276129    1.059    0.056
        69  -9.7547    227.1464    196.8590   9.5276139344e+01   2.7723256494e+00    0.1687213    0.1128011  21.23 0.0007065292    1.352    0.260
        70  -9.6242    202.8725    196.1026   9.9158966323e+01   6.9493990297e+00     0.166826    0.1206968  23.23  0.000909403    1.299    0.230
        71 -10.6314    215.4767    194.5074   9.6795721744e+01   4.9905307519e+00    0.1794338     0.108649 -14.47 0.0006581914    2.068    0.517
        72  -9.7072    192.7038    194.3401   1.0061581273e+02   8.9127955298e+00    0.1113726   0.09111141  71.57 0.0003444834    1.659    0.397
        73  -9.9532    232.0177    191.4010   9.3581782204e+01   2.5485977718e+00    0.2181605     0.121516  -4.74  0.001133463    2.398    0.583
        74  -9.2491    205.5165    190.4699   9.7804096818e+01   7.1775278134e+00    0.1229624   0.09860576  30.99 0.0001219971    1.010    0.010
        75 -10.6723    187.4705    190.0325   1.0084775494e+02   1.0379317077e+01    0.1608576    0.1017826  -5.39 0.0008098737    2.574    0.612
        76  -9.3086      1.5264    188.4293   1.3449446819e+02   3.6194487807e+01   0.09633582   0.06712351  73.84 0.0002619766    1.033    0.032
        77  -9.5040     61.7732    184.9993   1.2355002492e+02   3.0716269285e+01    0.1375721   0.07995624 -75.65 0.0008802289    1.667    0.400
        78 -11.5658     16.0399    182.7754   1.3173232493e+02   3.5936143413e+01    0.3478755    0.1576063  80.71  0.002204148    1.896    0.473
        79  -9.5188      8.0260    184.2062   1.3320485885e+02   3.6386762041e+01    0.1175997   0.06684354  41.55 0.0008638698    1.724    0.420
        80 -10.0468    246.9553    183.6924   8.9876043550e+01   8.7647069536e-01     0.205885   0.06274053  32.05 0.0004917272    4.305    0.768
        81  -9.9353    167.0105    183.4986   1.0349076874e+02   1.4888454629e+01    0.1963179    0.1049273  45.54  0.001026227    1.575    0.365
        82  -9.4295    236.4657    182.5161   9.1325416924e+01   2.7624582459e+00    0.1222123   0.09696171  22.03 0.0002513757    1.005    0.005
        83  -9.6079     23.5300    180.5063   1.3026640092e+02   3.5650565804e+01    0.1043782   0.07423918  73.87 4.113363e-05    1.020    0.019
        84 -10.0625      1.9939    180.2940   1.3407755116e+02   3.7582753831e+01    0.1363922   0.09458258  68.28 0.0005451888    1.087    0.080
        85 -10.4251    244.2803    178.3317   8.9330622530e+01   1.8890550662e+00    0.2149588    0.1297663  -9.79  0.001225922    1.777    0.437
        86 -10.9394    224.3696    178.2857   9.2543145367e+01   5.3385212646e+00    0.2495376    0.2021562  39.61 0.0004861204    1.205    0.170
        87  -9.3641     36.0535    178.5037   1.2783961278e+02   3.4776431546e+01    0.1403976    0.0884795  46.78 0.0005117076    1.468    0.319
        88 -10.2490    200.1847    176.7988   9.6410428912e+01   9.8627468318e+00    0.1744861    0.1310099  19.82 0.0004849401    1.323    0.244
        89  -9.5251     70.0520    177.5471   1.2129154763e+02   3.1041403369e+01    0.1548505   0.09802585  43.89  0.000589998    1.491    0.329
        90  -9.7151     74.7397    171.2189   1.1972363023e+02   3.1608603134e+01    0.1373677    0.1310359  89.24 0.0006502507    1.328    0.247
        91 -11.0850     12.8046    170.1486   1.3163840758e+02   3.8518241561e+01    0.2733746    0.1046578  87.15  0.001510196    2.401    0.583
        92  -9.6493    209.8776    166.1950   9.2792171045e+01   9.4778763589e+00    0.1824266    0.1323198  22.29 0.0005370457    1.329    0.247
        93  -9.7640     67.1586    165.1621   1.2060880994e+02   3.3731770258e+01    0.1679824    0.1116786  69.37  0.000757863    1.348    0.258
        94 -10.7428     51.3867    164.7569   1.2376354165e+02   3.5699138074e+01    0.2272314    0.1629899 -43.79  0.001472645    2.115    0.527
        95  -9.3903    200.2121    162.6525   9.3835724502e+01   1.1779449399e+01    0.1824284    0.1053388  38.67 0.0004975431    1.540    0.351
        96 -11.4362     37.0947    158.8715   1.2613893499e+02   3.8381876273e+01    0.3375122    0.1555807 -73.47            0    1.904    0.475
        97 -11.2959     43.8739    162.7870   1.2510030790e+02   3.6910442435e+01    0.3535732    0.1790723  60.89  0.002099083    1.790    0.441
        98 -10.4306    247.4855    158.5028   8.5058440346e+01   3.5246970364e+00    0.1256785    0.1051972  14.72 -5.289746e-05    1.047    0.045
        99  -9.8201    238.5003    158.4971   8.6489578986e+01   5.1452954434e+00    0.1320995    0.1034682  17.05 -0.0001637198    1.099    0.090
       100 -11.1695     22.6613    155.6629   1.2881365893e+02   4.0399004137e+01    0.3219279    0.2408049  83.47  0.002477583    1.032    0.031
       101  -9.2645    147.5298    156.5154   1.0279349595e+02   2.2728740666e+01    0.1315943    0.1172138  56.02  8.95866e-05    1.036    0.035
       102  -9.5468    216.7802    154.6539   8.9358951517e+01   9.6992101916e+00     0.188701    0.1146876  52.53 0.0009531349    1.736    0.424
       103  -9.4140    151.5440    153.0709   1.0136678542e+02   2.2578161122e+01    0.1751363    0.1149538 -75.93 0.0008068444    2.424    0.587
       104  -9.9466     10.6468    153.1619   1.3105901734e+02   4.1918952370e+01    0.1481059    0.1032303  69.18 0.0006813171    1.151    0.131
       105 -10.4017    178.0205    151.4043   9.5808295205e+01   1.7752356305e+01    0.2371168    0.2204172  71.52  0.001198629    1.216    0.177
       106 -10.2003    207.0043    146.0500   8.9331754716e+01   1.2797337335e+01     0.210825    0.1813126  24.31 0.0007085875    1.038    0.037
       107 -10.6526     11.1312    146.6851   1.3054586283e+02   4.3145617628e+01    0.1964801   0.06817394  40.30   0.00109859    2.593    0.614
       108  -9.6743     22.6774    144.2991   1.2795073767e+02   4.2644701883e+01    0.1145535   0.06295063  68.37  0.000235071    1.626    0.385
       109 -10.5114      2.9582    143.8177   1.3204914966e+02   4.4339631673e+01    0.1897266    0.1022369 -68.64  0.001277755    1.676    0.404
       110  -9.9858    236.5560    138.9308   8.2771861306e+01   7.9158809989e+00    0.2007912    0.1599666  34.02 0.0005342541    1.165    0.142
       111 -10.0125     57.8046    139.0032   1.1965590014e+02   4.0099775262e+01    0.2332886    0.1641873  43.43   0.00139039    1.476    0.323
       112 -10.0850     55.4946    136.4498   1.1987238777e+02   4.0901046975e+01    0.2442293    0.1248189  63.86 0.0008502828    2.154    0.536
       113 -11.1509     21.8293    136.2351   1.2747213077e+02   4.4351984595e+01    0.2934267      0.21097  84.53  0.001769552    1.089    0.081
       114 -11.1622      3.2045    136.8674   1.3156880643e+02   4.5698361357e+01    0.3653726    0.1419613 -65.42  0.001427382    2.237    0.553
       115 -11.6002      9.6774    136.4065   1.3014740495e+02   4.5308980608e+01    0.2355379    0.2010716 -30.48 0.0007182054    1.806    0.446
       116  -9.7249    137.8808    135.3769   1.0090333327e+02   2.8355023093e+01    0.2007912    0.1219785  36.09  0.000948827    1.770    0.435
       117  -9.3761     40.6130    135.7676   1.2320341944e+02   4.2673427530e+01   0.09907774    0.0858335 -37.10 0.0006904324    1.635    0.388
       118 -10.4308    106.9714    133.1977   1.0743671585e+02   3.4296688395e+01    0.2367348    0.2093227  57.52  0.001031633    1.095    0.087
       119 -11.4149     36.5269    130.2264   1.2355252875e+02   4.4239174129e+01    0.3674967    0.2519522  87.18  0.002437565    1.245    0.197
       120 -10.6613     74.2916    129.5641   1.1451904452e+02   3.9980809735e+01    0.2603944    0.1684289  49.95  0.001491364    1.519    0.342
       121  -9.4016    243.1717    128.3904   7.9409613302e+01   7.9548552652e+00    0.1662726    0.1261376  55.42 0.0005204445    1.540    0.351
       122 -10.8952      1.8585    125.6261   1.3111411241e+02   4.8061249121e+01    0.2913885    0.1223775 -71.21 0.0009128054    1.868    0.465
       123 -10.2291    226.1938    124.3877   8.1264497065e+01   1.1917365035e+01    0.1857308    0.1304067  58.53 0.0009437263    1.659    0.397
       124  -9.4095    219.5361    124.5156   8.2424669966e+01   1.3288823176e+01    0.1397445    0.1251179  13.93 0.0008093709    1.003    0.003
       125  -9.3741     82.4346    124.5609   1.1175807865e+02   3.9898606130e+01    0.1252666    0.1135898 -83.49 7.555984e-05    1.062    0.058
       126 -11.2439     10.4292    122.6357   1.2892286101e+02   4.8068589848e+01    0.2535121    0.1387687  60.81   0.00114812    1.723    0.420
       127 -11.3419     18.3824    115.0567   1.2632599743e+02   4.9049985459e+01    0.2964596    0.2049993 -67.98  0.001310773    1.280    0.219
       128 -10.8908     20.2431    121.7672   1.2653205706e+02   4.7484270379e+01    0.1865093    0.1571376   9.65  0.001387599    1.747    0.428
       129  -9.4970    117.5129    118.9905   1.0222710543e+02   3.5346132140e+01    0.1900868    0.1169055 -29.15  0.000810069    2.510    0.602
       130 -10.1621     86.0546    116.7011   1.0948457673e+02   4.1034437065e+01    0.1752114    0.1604178  87.61 0.0005583459    1.036    0.034
       131  -9.1503    179.3215    116.6924   8.8073810855e+01   2.3185836823e+01    0.1421091    0.1158786 -84.23 0.0003819497    1.642    0.391
       132  -8.9468    166.3214    115.7058   9.0506085907e+01   2.6183103173e+01    0.1423976    0.1150639 -89.26 0.0003012847    1.613    0.380
       133 -11.9936     35.3487    110.2196   1.2147978756e+02   4.8617356607e+01     0.511618    0.3077177 -85.21  0.001705527    1.512    0.338
       134  -8.8979    212.6911    112.6496   8.0827125119e+01   1.6470725988e+01    0.1519807      0.10467  14.40 0.0007044014    1.713    0.416
       135  -9.2015     66.5317    112.6139   1.1374322413e+02   4.4627411941e+01    0.1243382    0.1078288 -89.73 -1.280176e-05    1.040    0.038
       136 -11.9985     15.9561    109.1288   1.2633087381e+02   5.0497478981e+01    0.3844457    0.2528817  23.37  0.001914612    2.020    0.505
       137 -11.6878     23.8104    107.5056   1.2413685438e+02   5.0224979732e+01    0.4564672    0.2270266  68.93  0.001778127    2.297    0.565
       138 -10.3229     55.8489    109.6500   1.1604310207e+02   4.6580039693e+01    0.2128206    0.1223522  22.80  0.001082979    2.506    0.601
       139  -9.8627     44.6021    109.1140   1.1891540282e+02   4.7937927329e+01    0.1761123    0.1541954 -47.89 0.0006467456    1.353    0.261
       140 -11.3261      6.1540    107.7750   1.2867572292e+02   5.1479166956e+01    0.2481378    0.2063946   3.15  0.001013815    1.777    0.437
       141 -10.1400      2.9381    105.2895   1.2926528998e+02   5.2211148337e+01    0.1753486    0.1129894 -80.49 0.0004735426    1.170    0.146
       142  -9.3389    133.4642    107.5405   9.5885675333e+01   3.4593579871e+01    0.1393553    0.1377797  61.30 0.0001143732    1.033    0.032
       143 -11.3391    243.8065    104.0197   7.3665574924e+01   1.0952456929e+01    0.2605204    0.1770848  -0.98  0.001308325    1.582    0.368
       144 -10.8951    247.8337    102.1737   7.2622054182e+01   1.0346778936e+01     0.237409    0.1942834  35.35  0.000857333    1.213    0.176
       145 -10.1697    223.3792    103.9293   7.6872219163e+01   1.5374900267e+01    0.2177234    0.2004826  57.70 0.0004812857    1.227    0.185
       146 -10.6671    248.8831    112.1386   7.4825697229e+01   8.8650574365e+00     0.198023    0.1799033 -27.57 0.0005429714    1.214    0.176
       147 -10.6417     69.7154    102.7166   1.1113418652e+02   4.6364473470e+01    0.2071987    0.1774278  54.34 0.0005925543    1.236    0.191
       148 -10.1557    119.8594    101.2763   9.7683644379e+01   3.8512030507e+01    0.2645937     0.186748 -19.57  0.001219148    2.067    0.516
       149 -10.3099     27.6864    101.0781   1.2231501937e+02   5.1290670698e+01    0.2061164    0.1331937 -50.25  0.001075042    1.637    0.389
       150 -10.2544      9.6942    102.5521   1.2727090912e+02   5.2349695842e+01    0.1636077    0.1139724  13.83  0.001118868    2.067    0.516
       151 -10.0036     36.1475    101.5614   1.2008589821e+02   5.0425075964e+01    0.2160932    0.1048553  38.07  0.001167216    2.240    0.554
       152 -11.1763      3.4769    100.3488   1.2867866739e+02   5.3222447297e+01    0.2618668    0.1854166  79.39 0.0009010286    1.231    0.188
       153 -10.3342     84.7998     99.3984   1.0638025110e+02   4.4937088595e+01    0.2598096    0.1910969 -44.82  0.001342153    1.409    0.290
       154  -9.2075     49.9568    100.0432   1.1606372663e+02   4.9348980630e+01    0.2435178    0.1202684 -34.20 0.0009529737    4.083    0.755
       155 -11.7683     20.3800     97.7052   1.2387122279e+02   5.2617178655e+01    0.3080238     0.209444  86.49 0.0008548455    1.317    0.241
       156 -10.7601     63.5024     98.9475   1.1212261869e+02   4.7993410893e+01    0.3691808     0.189285  31.01  0.001799914    2.385    0.581
       157  -9.5540      6.5068     95.9848   1.2744485197e+02   5.3962447756e+01    0.1671745   0.05497682 -56.70 0.0008105983    2.615    0.618
       158 -10.4988      1.7694     92.9441   1.2842033896e+02   5.4899934949e+01     0.392434   0.09989721 -70.73  0.001800906    2.691    0.628
       159  -9.6562     66.9158     93.4532   1.1008850247e+02   4.8759304103e+01    0.1679644    0.1277203  38.68 0.0004984103    1.479    0.324
       160 -10.9804     26.2326     91.3075   1.2137708293e+02   5.3544310052e+01     0.231959    0.2094516  -7.53  0.001716332    1.497    0.332
       161 -12.1619     11.5706     90.9412   1.2549070059e+02   5.4716863132e+01    0.3539481    0.2072472  29.88  0.001453321    2.085    0.520
       162  -9.6764    105.3255     91.3436   9.8983702011e+01   4.3251148518e+01     0.203404    0.1288098 -57.05 0.0009672416    1.589    0.371
       163  -9.5742    103.5426     88.5283   9.8749624234e+01   4.4156270728e+01    0.1901654    0.1325357  55.47 0.0002448393    1.574    0.365
       164 -10.6115     96.0498     90.3003   1.0122953924e+02   4.5082725994e+01    0.3927143    0.2658571  -3.98  0.001661919    2.917    0.657
       165 -10.1528    171.3345     90.6838   8.3088583733e+01   2.9446060039e+01    0.1525922    0.1197748 -76.77 0.0007047508    1.692    0.409
       166 -12.2449     48.6795     85.6077   1.1383543807e+02   5.2665815849e+01    0.4190744    0.2845158  62.03  0.001410376    1.710    0.415
       167 -10.5099     23.2689     86.5585   1.2154605949e+02   5.4821302613e+01    0.2543882     0.143651 -43.01  0.001417131    2.038    0.509
       168 -10.7261     66.8578     85.0697   1.0831781958e+02   5.0600578575e+01    0.2506053    0.2061141 -79.05  0.001530137    1.193    0.162
       169 -10.6005      3.3268     85.8702   1.2724459014e+02   5.6322954086e+01     0.205197    0.1828606  34.95 0.0009562366    1.458    0.314
       170 -10.8607    118.0331     82.3488   9.3244917139e+01   4.2691891213e+01    0.4113613    0.2070124 -43.00   0.00171978    1.934    0.483
       171  -9.2602     88.2723     83.6494   1.0174954136e+02   4.7773655594e+01    0.1371461    0.1029776 -84.65 0.0006998666    1.631    0.387
       172 -10.9154    112.6162     85.6576   9.5572962023e+01   4.3075921998e+01    0.3223535    0.2479778 -53.76  0.001689157    1.274    0.215
       173 -11.6004     22.6210     80.4460   1.2081261834e+02   5.6209005422e+01     0.401254    0.1913936 -51.59   0.00192479    1.912    0.477
       174 -10.4783     18.4922     79.5518   1.2193595620e+02   5.6711659913e+01    0.4658327    0.1711565 -54.34  0.002314077    2.267    0.559
       175  -9.9169     74.7646     81.0008   1.0502750117e+02   5.0395677760e+01     0.206507    0.1269731 -56.44 0.0007561728    1.463    0.316
       176 -10.5216     71.2849     79.1377   1.0561547467e+02   5.1289564840e+01    0.2165746    0.1931921  49.35  0.000573953    1.243    0.196
       177 -10.3848     39.7867     80.7981   1.1561015736e+02   5.4639684474e+01    0.2352662    0.1889453 -86.22  0.001085077    1.194    0.163
       178 -11.6731      3.2990     78.3792   1.2638315259e+02   5.7934864189e+01    0.4043115    0.2955216  41.77  0.002247158    1.639    0.390
       179 -11.1884      7.5926     73.8501   1.2448020363e+02   5.8665621348e+01    0.2802221    0.2200263  16.51  0.002069953    1.712    0.416
       180 -11.2727      2.1195     72.7252   1.2603778466e+02   5.9215811355e+01    0.2420392     0.152876 -69.44 0.0002687536    1.188    0.158
       181  -9.6810     81.3218     78.9791   1.0257984252e+02   4.9858258943e+01    0.1841859    0.1535274 -52.85 0.0003849357    1.091    0.083
       182 -11.8235     58.9889     75.6308   1.0855216454e+02   5.3661979380e+01    0.5536819    0.3629537  71.60  0.002851615    2.129    0.530
       183 -11.7706     64.0830     73.1068   1.0634679241e+02   5.3563365273e+01    0.4408227    0.3267434  67.93  0.001475027    1.677    0.404
       184 -10.7792    150.0897     77.5499   8.3997269418e+01   3.6703725945e+01    0.2742363    0.2142775 -36.93 0.0003488376    1.270    0.212
       185 -11.1496     92.4792     77.7760   9.9006221501e+01   4.8320465077e+01    0.3031222    0.2122559  30.66  0.001521531    1.687    0.407
       186  -9.3993     12.2635     77.9461   1.2360724351e+02   5.7487853604e+01    0.1503426   0.07863005 -73.49 0.0004407197    1.492    0.330
       187  -9.7880    121.6189     76.7332   9.0709618185e+01   4.3079264685e+01    0.2137945    0.1320204 -51.33 0.0009528405    1.675    0.403
       188 -11.3374     44.7830     75.1174   1.1291487172e+02   5.5384961493e+01     0.203029    0.1798278 -82.46 0.0002726377    1.122    0.108
       189 -11.3913     38.7190     69.5018   1.1367975162e+02   5.7219926998e+01    0.6367429    0.3465863 -85.03  0.003023791    2.512    0.602
       190 -10.3896     41.0923     64.0466   1.1166527722e+02   5.8173222624e+01     0.179648    0.1680161 -67.75 0.0003463975    1.133    0.118
       191 -10.7504    152.3850     72.1513   8.1865936202e+01   3.7129081709e+01    0.3140891    0.2581417 -31.62  0.000906777    1.211    0.174
       192 -10.8583    108.7781     72.7926   9.2991400790e+01   4.6404589009e+01    0.2871342    0.2005725 -64.58  0.001365904    1.723    0.420
       193 -11.2710    102.6309     72.9333   9.4747557513e+01   4.7530198505e+01    0.2461673    0.2299699  22.89  0.000459906    1.160    0.138
       194 -11.0857     16.9252     72.5900   1.2134279212e+02   5.8340513468e+01    0.4654123    0.2250805  77.90   0.00216515    3.074    0.675
       195 -10.5522     18.4646     60.4318   1.1868565116e+02   6.0873866805e+01    0.3550168    0.2100289  68.13  0.001992107    2.272    0.560
       196 -10.6659     16.6691     67.9336   1.2065501614e+02   5.9371372885e+01    0.2348662    0.1694857  73.01  0.001034981    1.536    0.349
       197 -10.7473     20.4656     65.6201   1.1898077017e+02   5.9606289876e+01    0.2728283     0.197663  35.65  0.001845016    1.686    0.407
       198  -9.7000    245.2972     72.6817   6.5621777541e+01   1.4672472451e+01    0.1415559    0.1030058 -53.52 0.0004817553    1.613    0.380
       199  -9.8826     92.3377     72.2700   9.7517792865e+01   4.9488424317e+01      0.13453    0.1076818  -8.45 0.0002992813    1.600    0.375
       200 -11.1248     77.9307     71.8012   1.0170796087e+02   5.1897516500e+01    0.4043476     0.226309  54.96  0.001201475    2.327    0.570
       201 -10.7953     27.3551     70.3983   1.1758845995e+02   5.8033243057e+01    0.2910982    0.1933973  89.14  0.001756359    1.615    0.381
       202 -10.9697     30.9736     66.3065   1.1558244220e+02   5.8622629380e+01    0.3331372    0.1790683 -69.05  0.001039622    1.608    0.378
       203 -11.8291     49.8300     69.4837   1.1003331554e+02   5.6071587748e+01    0.4150999    0.2900418 -40.34  0.001992226    1.466    0.318
       204 -10.7331     68.7584     67.8667   1.0350764337e+02   5.4056874892e+01    0.3821268    0.2077813 -45.34  0.001134193    1.691    0.409
       205 -10.8552    129.3467     66.1349   8.5502830031e+01   4.3455046787e+01    0.6947056    0.2300549 -34.34  0.001575835    3.411    0.707
       206 -11.5499     95.3116     67.3129   9.5194011116e+01   4.9985804231e+01    0.4180707      0.26263 -43.64  0.002044403    1.483    0.326
       207 -10.2633    102.7609     68.1692   9.3295505625e+01   4.8463149536e+01     0.190716    0.1666436  -4.09  0.001053786    1.301    0.231
       208  -9.9392      6.3137     67.9330   1.2404554786e+02   6.0018277047e+01      0.18682    0.1358194 -84.22 0.0005075932    1.184    0.155
       209 -11.4051      2.8450     64.0393   1.2461513886e+02   6.1045569853e+01     0.341036    0.2154198 -86.74  0.001578549    1.410    0.291
       210  -9.5858    146.4841     66.0262   8.1322861310e+01   3.9586136275e+01     0.218384    0.1464385 -36.38 9.443528e-07    1.466    0.318
       211  -9.4099    135.4646     65.4939   8.3777102455e+01   4.2213658207e+01    0.1484696    0.1435327 -14.14 -1.614551e-05    1.013    0.013
       212 -10.5412     77.4163     63.8031   9.9611508437e+01   5.3650416855e+01    0.3539255    0.2538087 -48.19  0.001782467    1.246    0.197
       213 -11.5035     84.2952     61.2828   9.6692985160e+01   5.3080283998e+01    0.4820051    0.3914146  -9.79  0.002693935    1.476    0.323
       214  -9.4319     45.4508     64.8941   1.1039323210e+02   5.7541568559e+01    0.1793652    0.1006615 -82.90 0.0008058436    2.634    0.620
       215  -9.5467    174.1396     63.8518   7.4739084443e+01   3.3221020522e+01    0.2102217    0.1743797  24.75 0.0003843463    1.281    0.219
       216  -9.6602    120.7060     64.6865   8.7277235047e+01   4.5577887545e+01    0.1463929    0.1147369   1.41  0.000278377    1.597    0.374
       217 -12.3386     10.3443     62.2070   1.2180363082e+02   6.1018940927e+01     0.453821    0.2343274  62.79 0.0007549152    2.654    0.623
       218  -9.8898    168.9419     63.2416   7.5587540773e+01   3.4613267894e+01    0.2084328    0.1914201  42.88   0.00030874    1.084    0.077
       219 -10.4317     51.6748     62.5945   1.0771968209e+02   5.7348980813e+01    0.2668452    0.1721251 -35.63  0.000988157    1.690    0.408
       220 -10.7384     56.3377     62.1591   1.0603312528e+02   5.6889140609e+01    0.1920135    0.1743087 -15.81 0.0005427467    1.252    0.201
       221  -9.4958    160.5499     61.4783   7.6772371601e+01   3.6973233679e+01     0.151714    0.1468285   2.49 0.0001693684    1.011    0.010
       222 -11.4539     29.4688     60.8589   1.1494121072e+02   5.9933212310e+01     0.538598    0.2423449  15.14  0.002493953    3.516    0.716
       223 -12.2907     37.8161     51.7151   1.0974092525e+02   6.1135758685e+01    0.6894208     0.384145 -44.18  0.002924623    1.613    0.380
       224 -10.9286     64.8036     59.9754   1.0259053818e+02   5.6261799264e+01    0.3830346    0.1911749  37.22  0.001830426    2.283    0.562
       225 -10.6547     70.0216     58.0199   1.0027998082e+02   5.5940439094e+01    0.3821129    0.2310152 -45.14  0.001468745    1.468    0.319
       226  -9.4015    195.5200     59.0018   6.9354582183e+01   2.8553109798e+01    0.2167504    0.1469794 -27.07 -1.630761e-05    1.453    0.312
       227 -11.1187     57.8908     56.0963   1.0380949167e+02   5.7975369582e+01    0.3650636    0.1990169 -65.06            0    2.076    0.518
       228 -11.2511    123.2825     56.5049   8.3922198411e+01   4.6527010208e+01    0.3083229    0.2638276 -70.92 0.0008635569    1.388    0.279
       229 -12.4703    128.1581     50.8870   8.0748093447e+01   4.6427100097e+01    0.7651085    0.3654833 -32.06  0.001033194    2.110    0.526
       230 -10.6459     44.5161     57.4784   1.0885618785e+02   5.9232630059e+01    0.2842103    0.2120363  47.64  0.001502615    1.616    0.381
       231 -10.1897     45.0050     51.4411   1.0703793477e+02   6.0456667566e+01    0.2677123    0.1877269 -42.34  0.000471277    1.286    0.223
       232 -10.8140    115.2455     56.6229   8.6105809516e+01   4.8215736744e+01    0.4493292    0.2816636  20.40  0.001081464    2.420    0.587
       233 -10.0142    121.2836     52.0020   8.2908360605e+01   4.7759155746e+01    0.3803305    0.2082609  22.20  0.001279466    3.510    0.715
       234  -9.8298    146.3911     56.1837   7.8169728947e+01   4.1285351615e+01    0.2115111    0.1361556 -43.37 0.0004590228    1.587    0.370
       235 -10.2785    100.1993     55.6603   9.0049670647e+01   5.1383461152e+01    0.3216814    0.1648308  40.09  0.001208799    2.143    0.533
       236  -9.6814     75.6305     56.3425   9.7918217684e+01   5.5451821585e+01    0.1939522    0.1545765 -84.76  0.001064498    1.646    0.393
       237 -11.3916      5.2654     52.3185   1.2187172041e+02   6.3429965327e+01    0.3201998    0.2008073 -33.29  0.002091742    1.821    0.451
       238 -10.5738     87.1311     52.5863   9.2998465587e+01   5.4331014358e+01    0.2203392    0.1822859 -53.03 0.0009976421    1.209    0.173
       239 -10.9144     12.8812     51.2556   1.1886788651e+02   6.3216119479e+01      0.30352    0.1697816 -66.41  0.001291729    1.381    0.276
       240 -10.6949     71.3781     51.1143   9.7652896149e+01   5.7144487948e+01    0.3201303    0.2595892  48.88  0.001160243    1.443    0.307
       241 -10.5456     51.2315     50.5697   1.0452914015e+02   5.9936330159e+01    0.3629426    0.2091955 -35.27  0.001869594    1.850    0.460
       242 -11.0057    114.2592     49.9061   8.4063029300e+01   4.9631605265e+01    0.4419962    0.2769664 -43.93  0.001550861    1.577    0.366
       243 -10.3656     77.3000     49.8613   9.5254585137e+01   5.6484324641e+01    0.2949337    0.1876822 -25.19  0.001274344    1.887    0.470
       244 -10.1277    196.9108     48.2820   6.5888726983e+01   2.9693786705e+01    0.2392587    0.1947355 -37.57 0.0001696561    1.221    0.181
       245 -10.8358    153.7718     48.3537   7.3916633686e+01   4.0736604537e+01     0.381842    0.2359186 -61.41  0.001230472    2.347    0.574
       246 -10.7263     62.5422     47.3811   9.9481779348e+01   5.9150690704e+01    0.2329069    0.1901875 -31.22 0.0004069523    1.173    0.147
       247  -9.6831     19.3617     47.3729   1.1557463643e+02   6.3608549793e+01    0.2151195    0.1437881  79.18 0.0008577622    1.982    0.495
       248 -10.2470    142.8882     46.1261   7.5549286588e+01   4.3755788340e+01    0.2619939    0.2222682 -10.15 0.0007029722    1.212    0.175
       249  -9.7515    104.3577     46.2936   8.5565678360e+01   5.2302373670e+01    0.2282243    0.1441015  40.41 0.0007140668    1.684    0.406
       250 -10.9288      4.6081     47.1759   1.2115980861e+02   6.4558349569e+01    0.2468572    0.1616759 -42.86  0.001678741    1.474    0.321
       251 -11.1511     11.5546     43.8028   1.1777787046e+02   6.4879859469e+01     0.287575     0.223797 -41.27  0.001127276    1.268    0.211
       252 -10.8132      7.0264     41.6004   1.1907916991e+02   6.5606040093e+01    0.3499702    0.1259212 -66.07 0.0009213293    2.087    0.521
       253 -11.2587     85.6099     44.9128   9.0806488525e+01   5.6053878234e+01    0.2369825    0.2196862 -32.34 0.0003048422    1.046    0.044
       254  -9.0175    233.2947     45.2969   5.9867177184e+01   2.0903843854e+01    0.1443697    0.1057201  23.78 0.0003538298    1.565    0.361
       255 -10.1206    121.8714     43.9152   7.9878775186e+01   4.9007863099e+01    0.4451115    0.1842758 -36.13  0.001161375    2.300    0.565
       256  -9.4800     91.6466     45.1842   8.8990569142e+01   5.4930360481e+01    0.1967698    0.1202862 -32.00  0.000306016    1.615    0.381
       257 -11.1092     50.9150     44.4871   1.0275996736e+02   6.1220276141e+01    0.2083216    0.1918901  -6.23 0.0009833319    1.207    0.172
       258 -11.2842     99.9901     29.8533   8.0518788111e+01   5.5948376998e+01    0.5969261    0.3396156  10.89 0.0007573605    3.378    0.704
       259 -11.3353     97.3361     41.1907   8.5764756933e+01   5.4581198191e+01    0.3649036    0.3145406 -81.20  0.001524439    1.516    0.340
       260 -10.8687     97.0593     36.9888   8.4242187955e+01   5.5360822369e+01    0.2205626    0.2136386 -31.51 0.0004083641    1.119    0.107
       261 -10.7644    101.6267     36.8924   8.2839567891e+01   5.4473277257e+01    0.2638729    0.2028691  45.31 0.0004076194    1.375    0.273
       262 -10.8432    105.7469     34.7906   8.0823161801e+01   5.3976665369e+01    0.4059787    0.2819843 -58.68  0.001533131    1.914    0.477
       263  -9.9658     64.1376     41.7874   9.7005031325e+01   6.0033000649e+01    0.2731108    0.1522324 -48.57  0.001371065    1.594    0.373
       264  -9.6458    163.4520     42.4460   6.9936211126e+01   3.9168787410e+01    0.1511281    0.1456097  15.38 0.0001049835    1.012    0.012
       265  -9.9606    110.9476     41.9909   8.2109795830e+01   5.1697201032e+01    0.2115369    0.2015329 -29.06 0.0004658355    1.067    0.063
       266  -9.9579     29.1131     40.8954   1.1007579384e+02   6.4198051751e+01    0.2187253    0.1986045 -48.99 0.0006999224    1.138    0.122
       267 -10.5568     23.5319     41.4716   1.1246025763e+02   6.4537802003e+01    0.2460236     0.221797  27.14  0.001559834    1.390    0.281
       268 -11.7713     20.6812     37.8585   1.1263032843e+02   6.5505390992e+01    0.2470181    0.1807943 -48.94 0.0003514719    1.106    0.096
       269 -11.4286     24.2120     35.3796   1.1046229855e+02   6.5741189899e+01    0.3156054    0.2178159  54.06  0.001180988    2.030    0.507
       270 -10.6519     89.8218     40.5729   8.7859478493e+01   5.6098749537e+01    0.2116783    0.1795519  70.39 0.0007474234    1.522    0.343
       271  -9.9754    226.2248     40.1986   5.9327854068e+01   2.3259032740e+01    0.2082901    0.1909727  11.31 0.0004717671    1.124    0.110
       272 -10.4484    135.4640     39.9713   7.5072459915e+01   4.6496601851e+01    0.2233712    0.1422654 -32.52 0.0004081214    1.529    0.346
       273  -9.8665     43.4157     38.3152   1.0360828946e+02   6.3321692448e+01    0.3858617    0.2216728 -75.56  0.001690175    3.173    0.685
       274  -9.8617    149.4828     38.0112   7.1236286419e+01   4.3352815749e+01    0.2235212    0.1470282 -27.16 0.0003519444    1.511    0.338
       275 -11.3568     80.2174     36.9975   8.9628974545e+01   5.8428932325e+01    0.2224774    0.2005057  29.44 0.0009536753    1.207    0.172
       276  -9.7841    154.8651     35.8595   6.9361422631e+01   4.2296370732e+01     0.227363    0.1953499  19.41 0.0004780979    1.200    0.167
       277 -10.8495      9.6044     15.9168   1.1082629277e+02   7.0669148146e+01    0.2128316    0.1553255 -24.71 0.0008940381    1.386    0.278
       278 -10.9208      9.5028     34.0250   1.1627672299e+02   6.7043719482e+01    0.3380324    0.1986825  11.69  0.002131662    2.239    0.553
       279 -12.5561    226.4723    246.3397   1.0258541819e+02  -1.8642774940e+00    0.4824794    0.3053495  20.48  0.003581445    1.421    0.296
       280 -11.2731      8.1114     21.1439   1.1327081983e+02   6.9736298107e+01    0.2113068    0.1362709 -64.40 0.0003705798    1.350    0.259
       281 -10.3318    147.7457    245.2535   1.1451570251e+02   9.7844840059e+00    0.1286031   0.08525759 -33.30 0.0008979369    2.442    0.591
       282 -10.3720    110.9615     35.0075   7.9443938855e+01   5.2840651731e+01    0.2109524    0.1973597 -29.16 0.0003482158    1.083    0.077
       283 -10.3527     31.7029     33.9609   1.0690622885e+02   6.5380211392e+01    0.2111302    0.1674237  27.70 0.0007369868    1.538    0.350
       284 -10.5217     18.4944     31.8805   1.1184567945e+02   6.6892322541e+01    0.2853178    0.2008515 -80.15  0.001352609    1.666    0.400
       285 -10.2450    178.5533     31.8701   6.3654425840e+01   3.6652768228e+01     0.245332    0.2065307 -74.46 0.0006091452    1.345    0.257
       286  -9.5270    118.1715     32.2124   7.6418709023e+01   5.1690886672e+01    0.1911098     0.162809 -52.19 0.0003273015    1.323    0.244
       287 -10.7852     73.4088     31.3770   8.9755457202e+01   6.0558795242e+01    0.2277054    0.2029972   4.25 0.0005351119    1.148    0.129
       288 -11.3576     70.8363     26.5329   8.8674888975e+01   6.1815302151e+01    0.4314475    0.3480241  15.43  0.002178972    1.326    0.246
       289  -9.9535     56.1335     30.8750   9.5946128517e+01   6.3211114709e+01    0.1772808    0.1320404 -24.43 0.0003632219    1.306    0.234
       290  -9.9570     82.9964     30.0094   8.5915346028e+01   5.9163442090e+01     0.210183    0.1665342 -66.98  0.001130408    1.751    0.429
       291 -10.0645     50.0100     28.4308   9.7406906870e+01   6.4461047413e+01    0.2984415     0.144181 -34.18  0.001290669    2.083    0.520
       292 -11.4027    213.5566     28.6981   5.7588374611e+01   2.7828557849e+01     0.392988    0.2081034  52.26  0.001679195    1.879    0.468
       293  -9.6027    162.8657     28.8498   6.5349279209e+01   4.1163499706e+01    0.2009984    0.1709721 -52.89 0.0002629817    1.275    0.216
       294  -9.5145    140.3629     28.7822   6.9809568107e+01   4.6920732775e+01    0.2172976     0.139444 -13.29  0.000954413    1.719    0.418
       295 -10.4058    154.6606     27.2574   6.6319451663e+01   4.3498498635e+01    0.2562553    0.1918816  -4.65 0.0007860247    1.448    0.309
       296 -10.2816    124.9666     27.9328   7.3023615261e+01   5.0756590118e+01    0.2124673    0.1942149  10.67 -0.001320134    1.049    0.047
       297  -9.7182    203.0421     27.4509   5.8578345922e+01   3.0712358580e+01    0.2208373    0.1420964  63.66 0.0004690632    1.547    0.353
       298  -9.6194    115.4453    244.7042   1.1950627019e+02   1.4407233745e+01    0.1053348    0.0977499 -63.44 0.0006976908    1.543    0.352
       299  -9.9266     27.0021     19.4811   1.0382182703e+02   6.8636187264e+01    0.1931162    0.1459674   2.30 0.0006722804    1.529    0.346
       300 -11.8360     74.3000    238.3299   1.2542229773e+02   2.0613112722e+01    0.3582784    0.2373638  72.86  0.002870021    1.293    0.227
       301 -10.1795    109.6267    242.8808   1.2026208067e+02   1.5435497556e+01    0.2083663    0.1055619  51.51 0.0009541651    1.443    0.307
       302 -10.4384     16.7612     26.3944   1.1093252398e+02   6.8123209967e+01    0.2542357    0.1108248 -55.87 0.0008515169    1.720    0.418
       303 -10.2423     88.8538    241.2478   1.2336952741e+02   1.8387550159e+01    0.1477625    0.1264195 -36.75  0.001219159    2.091    0.522
       304 -10.9196    121.1394     21.9705   7.1564216236e+01   5.2471068841e+01     0.519596    0.3374071  50.44  0.002500063    1.522    0.343
       305  -9.4459    191.5207     28.9577   6.0674636586e+01   3.3576139214e+01    0.2090859     0.146222 -22.54 0.0001451651    1.435    0.303
       306 -10.2983    173.9905     24.2952   6.1848408708e+01   3.8789012185e+01    0.2114402    0.1836944  60.52 0.0002966075    1.139    0.122
       307  -9.8867    112.0292     24.5190   7.4939470102e+01   5.4191742678e+01    0.2006058    0.1402331  52.42 8.771173e-05    1.485    0.327
       308 -10.4039     98.8350     22.8005   7.7906653807e+01   5.7259664950e+01     0.406665    0.2345496   1.12  0.001431155    2.785    0.641
       309 -10.2567     54.0886     23.2942   9.3676340662e+01   6.4863048361e+01    0.1848823     0.172304  54.72 0.0006509301    1.416    0.294
       310  -8.9869    246.2628     22.7268   5.2306750767e+01   2.0332697794e+01    0.1361916   0.09362002 -53.00 0.0006853987    1.468    0.319
       311 -11.3676     84.9091     20.5324   8.1228531535e+01   6.0333333911e+01    0.3849421    0.2788641   5.79  0.002050344    1.549    0.354
       312  -9.9298     36.0303     21.7708   1.0065346631e+02   6.7317124105e+01    0.3178608     0.172027 -50.44  0.001295813    1.579    0.367
       313 -12.0389     35.5374    241.4878   1.3142652977e+02   2.4532068498e+01    0.3330916    0.1588652  46.76  0.002520204    1.572    0.364
       314 -10.2216     65.8524     21.0871   8.8152338321e+01   6.3523306351e+01    0.1886189    0.1739376 -51.79  0.001214812    1.319    0.242
       315  -9.3668    227.1763     20.3626   5.3585037878e+01   2.5268407443e+01    0.1852637    0.1315626  89.86 0.0009149043    1.565    0.361
       316  -9.3015     45.5165     20.5180   9.6032859218e+01   6.6463287529e+01    0.1262426    0.1010583 -29.56 0.0008097744    1.045    0.043
       317 -10.8428    108.2259     17.1692   7.2841813503e+01   5.6041705658e+01    0.2349269    0.2195218 -36.62    0.0003832    1.181    0.153
       318 -10.8521    156.1962    240.7125   1.1272337916e+02   9.0809295163e+00    0.1791196    0.1311899  79.57  0.001298339    1.889    0.471
       319  -9.3058     50.3045    240.3346   1.2919020234e+02   2.3115860660e+01   0.07537138   0.07127068  65.42 0.0003912159    1.665    0.399
       320 -10.3055    195.8878    238.4215   1.0622799723e+02   3.3769173502e+00    0.2049855    0.1342147  23.69  0.001439536    1.511    0.338
       321  -9.6088     24.1961    232.3438   1.3270420016e+02   2.7022653239e+01    0.1620321    0.0800302  53.80 0.0008923076    1.401    0.286
       322 -10.9087     31.7902    237.3241   1.3179322872e+02   2.5523157321e+01    0.2133041    0.1442106  74.20  0.001313225    1.149    0.129
       323 -10.5272     29.1809    232.9064   1.3198785108e+02   2.6441900875e+01    0.2357074    0.1632764  49.73  0.002065967    1.356    0.263
       324 -10.2247    217.3181     16.5267   5.3545428314e+01   2.8187554572e+01    0.3288848    0.1285621  65.01  0.001249601    2.442    0.590
       325  -9.1945     82.2476     16.3816   8.0226037394e+01   6.1448177973e+01    0.1386583   0.09474545  -2.62 0.0006947507    1.650    0.394
       326 -10.0916    165.0204     14.8243   5.9992133327e+01   4.2248352728e+01    0.2501704    0.1643606 -71.67   0.00107807    2.004    0.501
       327 -11.1480    177.2750    235.3008   1.0877529121e+02   6.5317603914e+00    0.2910475     0.187392   9.42   0.00123489    2.503    0.600
       328  -9.4563    243.4814    237.4955   9.8893128672e+01  -3.5629093867e+00    0.1066977   0.07395103  27.34 7.077691e-05    1.002    0.002
       329 -10.6338      1.4321    245.0092   1.3636416714e+02   2.7298937699e+01    0.1480926   0.06382034 -79.85 0.0005040301    2.213    0.548
       330  -9.9876    137.0061    247.6976   1.1642098070e+02   1.1031559052e+01    0.1476089   0.09925522  47.42 0.0004140711    1.064    0.060
       331 -10.2757    159.9209    235.8635   1.1160711065e+02   9.0960207649e+00    0.1660594    0.1179206  34.89 0.0006202186    1.268    0.211
       332 -11.2805     73.9778    232.9975   1.2511734666e+02   2.1421056375e+01     0.206185    0.1238359  56.81 0.0008540648    1.201    0.167
       333 -10.1664    167.0369    233.9277   1.1024910687e+02   8.2467897998e+00    0.1681906    0.1266294  41.48 0.0008875452    1.040    0.038
       334  -9.0906     43.7270     14.7484   9.4262897616e+01   6.7694489610e+01    0.1164755   0.08110905 -17.25 0.0001919438    1.451    0.311
       335  -9.7388     85.9743    233.1612   1.2323049369e+02   1.9893781321e+01    0.1477027     0.087451  71.06 0.0007151506    1.588    0.370
       336  -9.9777     79.7313    231.4113   1.2409598529e+02   2.0938786918e+01    0.1665698    0.1002134  44.30 0.0006431611    1.418    0.295
       337 -10.6671    115.9659    225.7663   1.1773282622e+02   1.6888335711e+01    0.1538164    0.0999262  72.95 0.0007028776    1.663    0.399
       338 -11.3810    238.2075    246.4145   1.0087049281e+02  -3.5358683447e+00    0.2182107   0.07624502  44.48 0.0009007781    2.284    0.562
       339  -9.4869     58.4979    230.4657   1.2738461793e+02   2.3637935254e+01   0.09971204   0.06936096  62.70 0.0001536693    1.004    0.004
       340 -10.2980    190.5204    227.3320   1.0567419217e+02   5.3698047363e+00    0.2720241     0.110951 -39.14  0.001483426    3.227    0.690
       341 -10.4866    153.4498    233.7458   1.1241434455e+02   1.0323747776e+01    0.1848848    0.1423199  18.14  0.001355974    1.669    0.401
       342  -9.6357    249.3339    227.2893   9.6574040293e+01  -3.5630711834e+00    0.1121159   0.06049318  22.13 0.0003556799    1.630    0.387
       343  -9.3910    140.1873    227.3727   1.1389029237e+02   1.3123425449e+01    0.1631486   0.07645363  50.27 0.0009439776    1.698    0.411
       344 -10.1828     88.0252    227.2701   1.2245140476e+02   2.0485378540e+01    0.1509135     0.105161  56.14  0.001160174    1.057    0.054
       345 -10.3762     66.3933    226.4999   1.2588538323e+02   2.3305532278e+01    0.2252696    0.1038352  47.01 0.0007652211    1.634    0.388
       346 -10.2790     10.5427    226.5178   1.3450167752e+02   2.9200518566e+01   0.09452741   0.05867508  66.57 3.704285e-05    1.056    0.053
