#   1 NUMBER                 Running object number                                     
#   2 MAG_AUTO               Kron-like elliptical aperture magnitude                    [mag]
#   3 X_IMAGE                Object position along x                                    [pixel]
#   4 Y_IMAGE                Object position along y                                    [pixel]
#   5 X_WORLD                Barycenter position along world x axis                     [deg]
#   6 Y_WORLD                Barycenter position along world y axis                     [deg]
#   7 A_WORLD                Profile RMS along major axis (world units)                 [deg]
#   8 B_WORLD                Profile RMS along minor axis (world units)                 [deg]
#   9 THETA_WORLD            Position angle (CCW/world-x)                               [deg]
#  10 FWHM_WORLD             FWHM assuming a gaussian core                              [deg]
#  11 ELONGATION             A_IMAGE/B_IMAGE                                           
#  12 ELLIPTICITY            1 - B_IMAGE/A_IMAGE                                       
         1 -13.5273     66.8722    143.6241   1.2863453168e+02   3.8084429601e+01     2.972142     1.344079 -82.85  0.003001859    5.880    0.830
         2 -13.9476    192.3766     23.3106   6.7573065341e+01   3.4465351438e+01     1.863554     1.205287   2.14   0.00796417    2.627    0.619
         3 -14.1635    199.7890     17.6451   6.5214789370e+01   3.3311830444e+01     1.735493     1.488857  46.11  0.007798939    1.348    0.258
         4 -13.5683    205.3130     10.8526   6.2938913793e+01   3.2730679261e+01     1.183529    0.6870076  43.59  0.001368866    2.182    0.542
         5 -13.5096      4.8856     11.7614   1.1541473306e+02   7.0459034490e+01     1.532883    0.4494559 -40.15  0.007973497    2.526    0.604
         6 -13.9812      5.6626    150.5439   1.4433648620e+02   4.2819717968e+01     2.187716    0.7561108  34.29  0.006902258    3.164    0.684
         7 -11.8187    247.6080    250.1020   1.0881652601e+02  -1.3839750736e+01    0.4448115    0.3220938  61.61  0.002526308    2.799    0.643
         8 -12.0551    126.0779    244.4489   1.3042255527e+02   6.9122283472e+00    0.2726954    0.2509349  16.04  0.001838248    1.433    0.302
         9 -14.3095    102.0360    246.3828   1.3509972991e+02   1.0465442708e+01     2.581585    0.8139254  45.56   0.01109888    2.570    0.611
        10 -11.8883     85.4822    239.9833   1.3744813363e+02   1.4192138932e+01    0.2803914    0.1954977  66.69  0.001004075    1.198    0.165
        11 -12.9506     81.3559    235.2992   1.3772690279e+02   1.5701831218e+01    0.7729664    0.3740326  70.66  0.002599886    2.548    0.607
        12 -15.0837     34.1708    247.2253   1.4688713050e+02   1.9735586033e+01     9.489328     2.822401  33.12   0.03256295    7.125    0.860
        13 -12.6801     57.1736    225.5366   1.4122075287e+02   2.1035320046e+01    0.6734701    0.4055201 -47.75  0.003667919    2.554    0.608
        14 -15.3626     21.7442    174.7579   1.4329652612e+02   3.6035339576e+01     6.347132      2.19573 -88.75   0.02109618    4.920    0.797
        15 -13.8153     45.3075    227.8073   1.4355622112e+02   2.2109510823e+01    0.6998501    0.4139731  72.58  0.001965244    1.446    0.309
        16 -15.2989     53.0076    214.2406   1.4093409909e+02   2.3898733197e+01     3.901829     1.235562  46.45   0.01741684    2.729    0.634
        17 -10.3774    192.7764    194.6419   1.0916584360e+02   3.7805311829e+00    0.8878983    0.3999512 -61.74  0.001997184    9.142    0.891
        18 -11.7839     69.0097    193.6442   1.3548477657e+02   2.6183255339e+01    0.4025182    0.2601483 -44.81  0.001916792    2.087    0.521
        19 -11.8137     73.8898    186.5802   1.3353259439e+02   2.7070335774e+01    0.3016254    0.2257301 -55.07 0.0007697354    1.451    0.311
        20  -8.9163    181.4952    192.4581   1.1105849241e+02   6.3943096714e+00    0.1426197    0.1339223  35.82 0.0001416548    1.008    0.008
        21 -11.1908     82.6452    174.7781   1.2988879365e+02   2.8470339156e+01    0.2547682    0.2168755 -68.08 0.0004611266    1.143    0.125
        22 -13.4004     70.2254    172.0949   1.3233914946e+02   3.0916856640e+01    0.5064602     0.280116 -44.83   0.00187339    2.270    0.559
        23 -12.6114     88.6295    166.1534   1.2711549235e+02   2.9547284953e+01     2.077957    0.6360407  51.06  0.006357129    4.293    0.767
        24 -12.2672    139.1164    248.6287   1.2850518648e+02   4.0085604124e+00    0.3942708    0.3491281  84.52  0.002690483    1.221    0.181
        25 -10.7851    173.6060    220.3676   1.1765851542e+02   2.7776084641e+00     0.283593    0.1998298  51.33  0.001529649    1.369    0.270
        26  -8.8434    164.6768    157.6757   1.0756117750e+02   1.6955370251e+01    0.1556716    0.1236361   0.37  0.000354748    1.684    0.406
        27 -10.1065    101.1058    149.9780   1.2113420588e+02   3.1288239614e+01    0.2765328    0.2503016 -53.76 0.0007193114    1.129    0.114
        28  -9.3820    104.0272    145.7348   1.1955018696e+02   3.1777835643e+01    0.3936099    0.2173142 -31.67  0.001341666    3.035    0.670
        29 -12.1647     90.1294    149.2598   1.2375251286e+02   3.3293821446e+01    0.2824446    0.2525044 -38.97 0.0005154037    1.267    0.211
        30 -12.1346     42.7182    148.6259   1.3546146682e+02   3.9856639261e+01    0.3998137    0.2564593  26.59  0.002138283    2.001    0.500
        31  -8.5963    134.3253    148.6683   1.1266089060e+02   2.5319693812e+01    0.1602583    0.1196814  85.62 0.0004599786    1.708    0.414
        32  -9.7965    111.6699    135.6470   1.1544800552e+02   3.2755460028e+01    0.3102134    0.2367448 -18.75  0.001248188    1.793    0.442
        33 -10.6556     99.2296    132.7449   1.1805206843e+02   3.5671980191e+01    0.2790307    0.2176035 -32.42 0.0004349301    1.476    0.323
        34 -11.8310     44.3335    130.3220   1.3222375488e+02   4.3953763549e+01    0.2966609    0.2392878  25.96  0.001837451    1.530    0.347
        35 -14.3051     10.3162    206.7397   1.4813754897e+02   3.0283889453e+01      1.30497    0.9686813 -87.83  0.004786153    1.121    0.108
        36  -9.5766    108.1951    123.0751   1.1347119014e+02   3.6309658412e+01    0.2074988    0.1909575 -32.65 0.0003021966    1.139    0.122
        37 -12.4975     67.5115    233.1738   1.4004921955e+02   1.8108287447e+01     0.482026    0.3135073 -77.30  0.002579781    1.456    0.313
        38 -11.2617    168.0875    113.0403   9.6113720946e+01   2.5706641633e+01    0.3814653    0.3198231 -85.71 0.0007406896    1.377    0.274
        39  -9.5764    204.7952    110.8495   8.8031225667e+01   1.7511063317e+01    0.3979733    0.1843164  37.72  0.001340754    3.036    0.671
        40 -11.2671     43.5340    109.0425   1.2856879924e+02   4.8929080482e+01    0.4350077    0.1460412  38.37  0.001782867    3.356    0.702
        41 -11.6388      1.9861     89.2016   1.3724863673e+02   5.6528334555e+01    0.5660194    0.1302987 -68.21  0.002082111    3.910    0.744
        42 -11.0608      2.1501     80.8081   1.3571338037e+02   5.8272022582e+01    0.2858132    0.1078701 -57.67  0.001508931    1.828    0.453
        43  -9.3550    156.2832     76.3724   8.8719699503e+01   3.5607987540e+01     0.154795    0.1196168   9.18 0.0007015406    1.705    0.414
        44 -10.3355    128.4204     54.5953   8.8601587021e+01   4.5695574850e+01    0.2674327    0.2403088 -85.83 0.0006567964    1.325    0.246
        45 -11.1407    120.9996     49.9988   8.8961038814e+01   4.8021717427e+01    0.4230444    0.2935973  80.55  0.000913505    2.276    0.561
        46 -10.8470     89.5053    245.0057   1.3722843887e+02   1.2648979535e+01    0.2729001    0.1747336  65.41  0.000773526    1.359    0.264
        47 -14.9981      3.2463    231.4347   1.5085304340e+02   2.6078762340e+01     8.575541          nan -69.77   0.02440893    9.228    0.892
        48 -10.1541    229.3466    206.7680   1.0439608523e+02  -5.0028680546e+00    0.2484962    0.2084722 -62.49 0.0009794383    1.705    0.414
