#   1 NUMBER                 Running object number                                     
#   2 MAG_AUTO               Kron-like elliptical aperture magnitude                    [mag]
#   3 X_IMAGE                Object position along x                                    [pixel]
#   4 Y_IMAGE                Object position along y                                    [pixel]
#   5 X_WORLD                Barycenter position along world x axis                     [deg]
#   6 Y_WORLD                Barycenter position along world y axis                     [deg]
#   7 A_WORLD                Profile RMS along major axis (world units)                 [deg]
#   8 B_WORLD                Profile RMS along minor axis (world units)                 [deg]
#   9 THETA_WORLD            Position angle (CCW/world-x)                               [deg]
#  10 FWHM_WORLD             FWHM assuming a gaussian core                              [deg]
#  11 ELONGATION             A_IMAGE/B_IMAGE                                           
#  12 ELLIPTICITY            1 - B_IMAGE/A_IMAGE                                       
         1 -13.1409    179.4961     34.4597   6.8468265556e+01   3.6177400343e+01     1.136784     0.946553  17.17  0.004608053    1.609    0.378
         2 -11.8713    199.7379      3.4172   5.8462380258e+01   3.4878630650e+01    0.7902063    0.3600289  70.87  0.003976434    1.827    0.453
         3  -8.3897    169.2686    237.3113   1.1663987260e+02  -2.9387617723e-01    0.1262382    0.0988639   3.87 0.0001957321    1.545    0.353
         4 -10.4418    140.1321    249.7662   1.2429329526e+02   2.5181171153e+00    0.3515164    0.2558397  70.38  0.001653287    1.588    0.370
         5 -10.8042    140.2606    245.5710   1.2369986109e+02   3.2406628712e+00     0.270174    0.2150955  45.65  0.001128438    1.071    0.066
         6 -19.5208     37.9957    146.9051   1.3287698448e+02   4.0846444502e+01     20.74213     3.017277 -66.11    0.0513039    6.539    0.847
         7  -8.6012    209.5311    199.0412   1.0170654648e+02  -6.3933077069e-01    0.1817342     0.122765 -65.85 0.0006561953    2.400    0.583
         8  -8.5436    121.4974    199.4531   1.2079220124e+02   1.5848230127e+01    0.1429883    0.1336935  64.08 0.0001295224    1.046    0.044
         9 -10.6847    193.5217    192.8065   1.0373209949e+02   3.4955057480e+00    0.7070569    0.4282333 -48.25  0.003087386    1.753    0.430
        10  -8.7497    155.2316    197.3890   1.1284823147e+02   9.9591369704e+00    0.2146691    0.1293588  50.97 0.0009463013    1.677    0.404
        11  -9.7930    111.2769    197.3997   1.2278529299e+02   1.8131424690e+01      0.32144    0.1632061  46.55  0.001377926    1.866    0.464
        12  -9.1661    114.6525    194.6659   1.2157089657e+02   1.8154072372e+01     0.210334    0.1442716 -42.81 0.0008939985    1.715    0.417
        13 -10.2678    102.9624    195.1738   1.2433818824e+02   2.0078226806e+01    0.3879153    0.2725467  69.82  0.001408614    1.521    0.343
        14 -10.8492      1.6832    249.6813   1.4949939362e+02   2.1956623549e+01    0.1732904    0.1096024 -84.42 0.0005976984    1.324    0.245
        15  -9.7177     90.4685    194.0114   1.2702780707e+02   2.2420111033e+01    0.2767923    0.1740333  58.50 0.0009242994    1.602    0.376
        16 -10.4805    176.8997    218.1036   1.1189630017e+02   1.7959439026e+00    0.2734138    0.1830161  34.73  0.001392215    1.403    0.287
        17 -10.0821    205.8031    180.6185   9.8766272936e+01   3.4979582129e+00    0.5287562    0.2810024  38.72  0.002282198    1.928    0.481
        18  -9.4472    209.0047    178.7433   9.7739640383e+01   3.2442917352e+00    0.2892885      0.23019  16.64 0.0007203501    1.372    0.271
        19  -9.9622     98.5248    180.7580   1.2306322029e+02   2.4202663733e+01    0.4158021    0.2438366  36.17  0.001342607    1.823    0.451
        20 -10.1918    183.3380    215.1923   1.1004882668e+02   1.1640243068e+00     0.202118    0.1706368  25.28 0.0009032051    1.124    0.110
        21  -8.8238    193.5166    164.9758   9.7983315304e+01   9.0572464926e+00    0.2316241    0.1451824 -43.53 0.0008494142    1.568    0.362
        22  -9.9495    195.7320    170.6844   9.8745201121e+01   7.4435978414e+00    0.3953079    0.3078174 -43.77  0.001672364    1.272    0.214
        23  -9.4984     10.3126    214.0107   1.4589109681e+02   2.8258944015e+01    0.1569643    0.1463264  60.52 0.0005463902    1.457    0.314
        24 -10.2986    115.9899    211.7154   1.2393689976e+02   1.4141782315e+01    0.3869956    0.2259047 -78.63  0.001672657    2.336    0.572
        25  -9.0161     15.7384    213.2301   1.4483031357e+02   2.7876747990e+01    0.1533678    0.1135669  84.80 0.0003414646    1.018    0.018
        26  -9.8863    101.3509    169.4636   1.2041649968e+02   2.6420766340e+01    0.2936698    0.1826582 -62.99 0.0009308436    1.593    0.372
        27  -8.0600    223.6900    164.3069   9.1872920103e+01   3.1828560637e+00    0.1382436     0.113437 -76.61 0.0003199922    1.616    0.381
        28 -10.5514    106.1918    210.6880   1.2593129786e+02   1.6049607861e+01    0.5052321    0.3014529  37.10  0.002427809    1.714    0.417
        29  -9.9584     97.5955    161.4249   1.1988449757e+02   2.9013400651e+01    0.2693857    0.2429384 -40.37 0.0001844611    1.236    0.191
        30 -11.3234    106.9612    202.6836   1.2458127223e+02   1.7690470446e+01    0.4894028    0.4274451  36.66  0.001947813    1.261    0.207
        31 -11.2818    102.1465    154.5466   1.1739177910e+02   2.9891290701e+01    0.6827255    0.4126154 -35.16  0.002149137    2.194    0.544
        32  -9.8110    134.5368    147.4902   1.0762424972e+02   2.5354258910e+01    0.5434886    0.1914201 -56.39  0.001570348    3.581    0.721
        33 -10.5886     79.3313    143.7494   1.2131538889e+02   3.6292387427e+01    0.2657105    0.2416622  -7.53 0.0007174567    1.327    0.246
        34 -10.5374    100.7135    139.6979   1.1469714456e+02   3.3738400287e+01    0.3015814    0.2805168 -46.27 0.0006310472    1.097    0.088
        35 -10.7252    111.6377    139.4325   1.1171767245e+02   3.1797246907e+01    0.5515347     0.333978 -30.27  0.002151012    2.341    0.573
        36  -9.4709    145.3221    145.8894   1.0460463802e+02   2.3469293967e+01     0.270243    0.2180546  62.23  0.000645238    1.321    0.243
        37  -9.8226    106.1141    130.9002   1.1126790395e+02   3.4859099570e+01    0.3570433    0.3098166 -75.48  0.001230886    1.200    0.166
        38  -9.3968    105.6838    126.3829   1.1033077168e+02   3.6002534688e+01    0.3037485    0.2457662 -28.72 0.0007217218    1.388    0.280
        39  -9.7004    117.4546    130.0279   1.0800672598e+02   3.2895243673e+01    0.3123546     0.251083 -20.78 0.0007950371    1.519    0.341
        40  -8.9403    125.2971    127.6098   1.0535483605e+02   3.1879116755e+01    0.1642492    0.1225268 -86.53 0.0001388704    1.787    0.440
        41 -10.0557    135.1160    121.1912   1.0122863790e+02   3.1274644565e+01    0.5251123    0.1730669 -46.48   0.00162035    2.993    0.666
        42  -8.6428    162.9850    210.0000   1.1341716566e+02   5.9126588851e+00    0.2434316   0.07599864  41.22 0.0002393484    2.974    0.664
        43  -9.1323    112.1908    119.1451   1.0678544634e+02   3.6441948097e+01    0.2223315    0.2047898 -22.16 0.0002702602    1.155    0.134
        44  -9.3838    168.5405    113.5039   9.1299671788e+01   2.5409756291e+01    0.3165745    0.2541809 -82.90  0.001030026    1.472    0.321
        45 -12.5741     11.6189    206.2186   1.4508276330e+02   2.9800477082e+01     0.570296    0.2993204  35.55   0.00334259    2.157    0.536
        46  -8.9407    205.0505    110.4793   8.3186031554e+01   1.7574199693e+01    0.2253925    0.1483907  53.70  0.001027949    1.579    0.367
        47  -9.1837    153.0507    103.3573   9.2196016824e+01   3.1094149371e+01    0.3214471    0.2342327  76.51  0.001409028    1.741    0.425
        48  -9.5224    163.0548    205.2113   1.1255247632e+02   6.8550746961e+00    0.4552233    0.1995728  35.94  0.001720404    2.362    0.577
        49  -9.6975     83.1375     76.3415   1.0363302746e+02   5.0790898989e+01    0.2354816    0.1745533 -31.17 0.0004612899    1.304    0.233
        50 -10.2262     94.5982    200.1907   1.2699129138e+02   2.0327847882e+01    0.4948074     0.266328  80.84  0.001837544    3.152    0.683
        51 -12.1887    165.5909     49.8997   7.4893020566e+01   3.7465078825e+01    0.5879898    0.5484163 -54.24  0.001266036    1.133    0.117
        52 -10.0800    135.0126    246.3290   1.2484969634e+02   3.9927843033e+00    0.1933879      0.15132  43.95  0.001040809    1.108    0.097
        53 -11.7452    183.6914     27.7896   6.6164948546e+01   3.5989853996e+01    0.4806906     0.455516 -84.74   0.00143409    1.140    0.123
