#   1 NUMBER                 Running object number                                     
#   2 MAG_AUTO               Kron-like elliptical aperture magnitude                    [mag]
#   3 X_IMAGE                Object position along x                                    [pixel]
#   4 Y_IMAGE                Object position along y                                    [pixel]
#   5 X_WORLD                Barycenter position along world x axis                     [deg]
#   6 Y_WORLD                Barycenter position along world y axis                     [deg]
#   7 A_WORLD                Profile RMS along major axis (world units)                 [deg]
#   8 B_WORLD                Profile RMS along minor axis (world units)                 [deg]
#   9 THETA_WORLD            Position angle (CCW/world-x)                               [deg]
#  10 FWHM_WORLD             FWHM assuming a gaussian core                              [deg]
#  11 ELONGATION             A_IMAGE/B_IMAGE                                           
#  12 ELLIPTICITY            1 - B_IMAGE/A_IMAGE                                       
         1 -13.7995    168.4789     94.7366   4.6342546421e+01   2.8676560198e+01     4.128733     2.742614 -16.85   0.01754107    1.929    0.481
         2 -15.2740    246.0930     59.6031   2.5206407818e+01   1.6236292336e+01     5.677616     2.323126 -59.60  0.009414867    4.580    0.782
         3 -12.3136    249.3758     16.1812   1.4762361066e+01   2.0605581612e+01     2.112679     1.241904   5.03  0.009731407    3.125    0.680
         4 -16.5317    243.4505     88.9607   3.2413589364e+01   1.2894392826e+01     6.560978     5.685386  12.93   0.01162115    1.250    0.200
         5 -10.0347    182.8499      3.2821   1.6590380653e+01   3.7801684212e+01    0.5598123     0.222631 -51.59     0.002175    2.603    0.616
         6 -10.6851    217.9090    185.3977   5.6886308296e+01   4.0506335233e+00      0.44798    0.3306526  34.06  0.002126295    1.286    0.222
         7 -10.5041    192.4451    194.3107   6.3137383773e+01   6.9671336868e+00    0.8575304    0.4616868 -59.30   0.00305734    5.612    0.822
         8  -9.8424    241.9998    200.2538   5.5428323457e+01  -1.3774719671e+00    0.1720811    0.1470362   8.74   0.00126426    1.275    0.216
         9  -8.9317    146.7845    248.4153   7.9457671500e+01   6.5195434948e+00    0.1644566    0.1547345  15.20 0.0002895354    1.308    0.235
        10  -9.0645    179.5129    165.0708   6.0379298204e+01   1.3751574359e+01    0.1925943    0.1350751 -35.91 0.0004867108    1.527    0.345
        11  -8.8872    207.7383    162.4227   5.4360987521e+01   8.9972178038e+00     0.181376    0.1138387  30.52 0.0003813049    1.511    0.338
        12  -9.7017    208.7425    157.6665   5.3220150956e+01   9.5263056056e+00     0.350331    0.2363711  16.13 0.0009048466    1.582    0.368
        13  -9.9062    191.3766    152.1766   5.5388377810e+01   1.3629846706e+01    0.7061126    0.3395986 -51.91  0.002682917    3.234    0.691
        14 -11.5335      5.2215    146.6263   1.0182743790e+02   4.3812650123e+01    0.9348579    0.4183111  83.59  0.004744814    2.008    0.502
        15 -13.0227     16.3553    135.5553   9.8037333145e+01   4.5538048728e+01     1.109161    0.9268104  47.56   0.00463435    1.228    0.186
        16 -11.4889      2.4786    132.0813   1.0173013585e+02   4.7345772627e+01     1.103534    0.2183881 -80.32  0.003776161    4.248    0.765
        17  -9.3679    207.6421    151.6915   5.2193026289e+01   1.0631500426e+01    0.3906752    0.2368823  44.05  0.001570458    1.641    0.391
        18  -8.2281    166.2990    152.3102   6.0622507109e+01   1.8506472593e+01    0.1445253    0.1082201   6.96 0.0002305095    1.600    0.375
        19 -10.9245    223.4221    178.2873   5.4617238177e+01   4.1067155888e+00    0.5643402    0.3098361 -22.37  0.002964059    1.877    0.467
        20 -10.0411    185.5565    171.1532   6.0323780803e+01   1.1650639867e+01    0.4942434    0.2637705 -55.43  0.002016597    3.245    0.692
        21 -10.2553     68.2267    143.9974   8.4126217152e+01   3.7840690328e+01    0.5968447    0.3528639  65.10  0.002536209    1.911    0.477
        22  -9.0255    215.0499    142.2712   4.8867827165e+01   1.0677385508e+01    0.2367384    0.1886006 -25.07  0.001364051    1.202    0.168
        23  -8.6585    148.9239    175.2306   6.8819476797e+01   1.7632330192e+01    0.2067296     0.196923 -38.40 0.0004114902    1.196    0.164
        24  -8.5735    101.0349    175.9759   8.0130583477e+01   2.5757652849e+01    0.1900625    0.1676847  51.91  0.001148956    1.021    0.020
        25  -8.3906    194.7772    173.3792   5.8934469091e+01   9.6537549549e+00    0.2529558    0.1630878 -68.27 0.0009625236    4.320    0.769
        26 -13.2614     56.6463    127.7384   8.5113621357e+01   4.3288173018e+01     2.199958     1.130102  28.13  0.007254546    2.133    0.531
        27 -11.5999     44.5865    129.4713   8.9048855993e+01   4.4310988832e+01    0.4620094    0.4068848 -75.13  0.001024481    1.109    0.098
        28 -10.3512    160.3998    129.5460   5.6959711043e+01   2.3971675559e+01     0.470759    0.3907274 -30.16  0.001234119    1.263    0.208
        29 -10.4103     65.8316    112.2281   7.9512811512e+01   4.5840627420e+01    0.2377941    0.2189504 -81.37 0.0002103176    1.025    0.024
        30  -7.9192    175.0048    247.4693   7.4167348015e+01   2.6438806606e+00    0.1692442   0.08435374  35.50 0.0003147485    1.481    0.325
        31  -9.8201    113.3503    104.2476   6.2795434990e+01   3.9332126774e+01    0.3707353    0.3009469 -17.01  0.001777361    1.523    0.343
        32  -9.3949    140.1797    100.7375   5.4563487710e+01   3.4188615265e+01    0.3515908    0.3037356  84.75 0.0007680114    1.339    0.253
        33 -10.1296    177.0828    170.1237   6.1847996745e+01   1.3363697011e+01    0.2694944    0.1796983  27.43  0.001386094    1.448    0.309
        34  -9.7982    113.5357    238.9762   8.4815379768e+01   1.2585566466e+01    0.2054506    0.1731339  45.95 0.0005137846    1.129    0.114
        35  -8.8591     64.8149    229.0526   9.3621958364e+01   2.0735535450e+01     0.184169    0.1278256  46.28 0.0002661391    1.107    0.097
        36  -8.1761    135.2771     71.8705   4.7251558771e+01   4.1013940543e+01    0.2082707    0.1959756 -21.46 0.0002520207    1.105    0.095
        37  -9.4221    209.0815     70.0269   3.2391746141e+01   2.2990678881e+01    0.2248594    0.2054736  66.77 0.0003865763    1.152    0.132
        38 -11.4827    196.8571     64.6631   3.2763403387e+01   2.6703537651e+01    0.9011846    0.5498558   1.79  0.003210485    2.792    0.642
        39 -10.9878    198.8351     57.0997   3.0363515640e+01   2.7310707987e+01    0.5197784    0.3526918 -25.35 0.0007714428    1.515    0.340
        40  -8.9834    110.8991    168.2846   7.6572381359e+01   2.5717127076e+01    0.2211807    0.2034505 -61.19 0.0003622431    1.210    0.173
        41 -11.0796    180.8818     60.8240   3.4247358323e+01   3.1269420053e+01    0.4905274    0.3750779  76.37  0.002403692    1.405    0.288
        42  -8.0746    105.4856     60.4863   5.1766590436e+01   5.0257345584e+01    0.1514596    0.1482998  21.97 4.919614e-05    1.000    0.000
        43  -8.3294    213.5557    167.5358   5.4309889822e+01   7.2312492135e+00    0.2012475    0.1850283 -87.15 0.0007988295    1.690    0.408
        44 -10.3449    157.0488     46.0846   3.3916419142e+01   3.9683993956e+01     0.413514    0.2590843  73.09  0.001590364    1.735    0.424
        45 -10.6691    205.7420     42.8640   2.5494952776e+01   2.7531091591e+01    0.6750909    0.4166802  21.96  0.002846444    2.589    0.614
        46 -10.5264    189.9906     41.2411   2.7076074900e+01   3.1699935140e+01     0.382716    0.2832561 -86.00  0.001210832    1.456    0.313
        47 -10.3387    190.6665     37.7276   2.5955897239e+01   3.1979540891e+01    0.6415854    0.3875586 -63.38  0.002839198    1.898    0.473
        48 -10.6958    151.0610     34.8592   3.1228074743e+01   4.2847876310e+01    0.6959555    0.3263719  64.88  0.001604591    2.068    0.516
        49  -9.4685    191.8978     24.0458   2.1800599309e+01   3.3310489689e+01    0.2893304    0.2448218  11.07  0.001104827    1.445    0.308
        50  -9.0821    189.5277     21.4390   2.1304828624e+01   3.4216515124e+01    0.3004011    0.2406417  21.81 0.0008532808    1.558    0.358
        51  -9.6311    231.6658     21.0332   1.7197007778e+01   2.3967343406e+01    0.2372683    0.2036718 -67.24 0.0007557826    1.062    0.058
        52  -8.8154      1.7461    191.0547   1.0459244128e+02   3.4561329332e+01    0.1586438    0.1203867  69.59 0.0004678615    1.051    0.048
        53  -9.6958    210.6400    188.1398   5.8677722907e+01   4.8524074469e+00    0.3193154    0.2079051 -40.58  0.001820798    1.848    0.459
        54  -8.4331    137.8386    227.1345   7.8724868612e+01   1.0826518251e+01    0.1735531    0.1330385  44.36 0.0002567522    1.138    0.121
