#   1 NUMBER                 Running object number                                     
#   2 MAG_AUTO               Kron-like elliptical aperture magnitude                    [mag]
#   3 X_IMAGE                Object position along x                                    [pixel]
#   4 Y_IMAGE                Object position along y                                    [pixel]
#   5 X_WORLD                Barycenter position along world x axis                     [deg]
#   6 Y_WORLD                Barycenter position along world y axis                     [deg]
#   7 A_WORLD                Profile RMS along major axis (world units)                 [deg]
#   8 B_WORLD                Profile RMS along minor axis (world units)                 [deg]
#   9 THETA_WORLD            Position angle (CCW/world-x)                               [deg]
#  10 FWHM_WORLD             FWHM assuming a gaussian core                              [deg]
#  11 ELONGATION             A_IMAGE/B_IMAGE                                           
#  12 ELLIPTICITY            1 - B_IMAGE/A_IMAGE                                       
         1 -14.3787    201.8129     19.0473   2.8952651036e+02   6.3957187463e+00    0.1150341   0.03679547 -48.28   0.00831215    3.131    0.681
         2 -16.8111    192.7339    123.3276   2.9025865631e+02   5.2387345939e+00    0.2263994    0.1482971 -30.71   0.02261125    1.788    0.441
         3 -15.0087    217.9522     36.7953   2.8944542652e+02   6.0960670825e+00   0.08453412   0.04906219 -46.06  0.008216817    1.745    0.427
         4 -16.0583    191.1985     87.0947   2.9005909906e+02   5.6682402273e+00    0.1029679   0.08450775 -78.97  0.009802229    1.305    0.234
         5 -16.6182    243.9814     73.5976   2.8936399030e+02   5.5178322084e+00    0.2725591   0.08197322 -68.02   0.01683511    4.453    0.775
         6 -16.4173    187.5264     73.5596   2.9002056700e+02   5.8466398251e+00    0.1501347   0.08773787  -8.21   0.01282478    2.641    0.621
         7 -15.8858    244.1781    106.7819   2.8956109697e+02   5.1317756932e+00    0.1397675   0.05094012 -45.33    0.0104304    2.986    0.665
         8 -16.1940    214.4498     51.0318   2.8957180527e+02   5.9513967501e+00     0.108561   0.06857573  89.20   0.00783314    2.183    0.542
         9 -18.7808    219.2112     89.7683   2.8974920513e+02   5.4743892834e+00     0.403841    0.3761646 -19.77   0.04992776    1.098    0.089
        10 -11.0519    150.7111     31.5847   2.9019726143e+02   6.5474056008e+00   0.02429671   0.01313448  42.49  0.001832191    1.912    0.477
        11 -10.4406    165.9618     17.2444   2.8993329219e+02   6.6251051868e+00   0.02012596   0.00981428 -66.88  0.001753385    2.184    0.542
        12 -11.3791    247.6093     15.1928   2.8897041468e+02   6.1736050737e+00   0.01651232   0.01159268 -67.51  0.001754339    1.465    0.317
        13 -10.0383    122.2270     14.7240   2.9042809458e+02   6.9081988935e+00   0.01713151   0.01062558  73.64  0.001195666    2.363    0.577
        14  -9.3424      5.8415     15.2193   2.9179015557e+02   7.5750062425e+00    0.0089463  0.007451332 -28.82  0.000390154    1.267    0.210
        15 -11.9206    238.0230     10.2837   2.8905234515e+02   6.2863513607e+00   0.02014366   0.01433454   9.66  0.001811833    1.581    0.367
        16  -9.9948    160.3876     11.0411   2.8996095146e+02   6.7294020264e+00   0.01046986  0.008956529   8.52 0.0004274478    1.226    0.184
        17 -10.9997    142.7268      8.1484   2.9014946186e+02   6.8654996421e+00   0.01210267   0.01145233 -58.40 0.0002552867    1.050    0.047
        18  -9.5483    117.4218      7.9193   2.9044326074e+02   7.0149581374e+00  0.009814516  0.006489403 -66.62 0.0006518683    1.552    0.356
        19 -10.8153    210.2122      6.1560   2.8935112896e+02   6.4961958329e+00   0.01242569   0.01019728  -5.28  0.001074317    1.346    0.257
        20 -10.8871    151.1284      3.2196   2.9002184947e+02   6.8738454140e+00    0.0168758   0.01308902  79.74 0.0008941685    1.527    0.345
        21 -10.6857    180.3389      1.8642   2.8967322414e+02   6.7197766173e+00    0.0121151   0.01051958 -30.15 0.0009323866    1.193    0.162
        22 -11.4034    166.2502      2.2021   2.8983944252e+02   6.7977773018e+00   0.01337615   0.01185201  -8.72  0.001597131    1.192    0.161
        23  -9.6219    223.0724      8.1462   2.8921342220e+02   6.3982347644e+00  0.008951896  0.007369915  55.73            0    1.305    0.234
        24  -8.9752     26.6466      3.6894   2.9147789968e+02   7.5888800120e+00   0.00712999  0.004899908 -25.71 0.0007044278    1.725    0.420
        25  -9.7642    165.8029    223.6164   2.9117222399e+02   4.2299619373e+00  0.009921459  0.005764067  37.90 0.0009533629    1.710    0.415
        26 -10.9298    228.9794    250.4926   2.9059877760e+02   3.5517768127e+00   0.01594914  0.009016344  28.88  0.001199894    1.751    0.429
        27 -10.6711    232.5019    248.9758   2.9054881334e+02   3.5489699209e+00   0.01153322  0.009023729  40.67 0.0004298383    1.295    0.228
        28  -9.5900    222.4696    250.4888   2.9067434190e+02   3.5895503071e+00  0.006526228  0.006464733  77.64  0.000153285    1.030    0.029
        29  -9.8733    192.0297    250.6281   2.9102874117e+02   3.7642841735e+00  0.009440819   0.00630288  26.30            0    1.507    0.336
        30 -10.2734    165.3195    249.6467   2.9133327134e+02   3.9303257624e+00   0.01387199   0.01001063  62.62 0.0007862375    1.639    0.390
        31  -9.6607    124.7288    250.0238   2.9180742795e+02   4.1607233678e+00  0.009304222  0.008510849 -60.68 0.0004544119    1.086    0.079
        32 -10.1495     93.6787    222.1153   2.9200226730e+02   4.6645360568e+00   0.01089206  0.008766637  41.01 0.0003335798    1.260    0.206
        33 -11.3365     63.0460    219.7699   2.9234483520e+02   4.8686229041e+00   0.01672948   0.01249118  54.58 0.0004213405    1.475    0.322
        34 -10.9120     59.5183    215.0838   2.9235799184e+02   4.9434574499e+00   0.02013313   0.01229746  33.54  0.002019953    1.611    0.379
        35  -9.6491     78.6867    219.0091   2.9215823967e+02   4.7872146513e+00  0.009364096  0.008164511 -54.98 0.0003610712    1.129    0.114
        36 -10.5639    179.1360    216.7220   2.9097601085e+02   4.2328377370e+00   0.01368767  0.007551658 -37.70  0.001231359    2.094    0.522
        37 -11.2430    124.5848    215.8107   2.9160502702e+02   4.5591963249e+00   0.01527597   0.01208685 -47.34 0.0009602846    1.253    0.202
        38 -10.9850    202.9129    211.7789   2.9067007706e+02   4.1524570348e+00   0.02574718   0.01230635 -63.44  0.001656922    2.100    0.524
        39 -10.3590      3.1289    214.1800   2.9300920623e+02   5.2787624164e+00   0.01574756  0.009419701  24.82  0.000854797    1.701    0.412
        40 -10.4969     89.9950    211.2974   2.9198064106e+02   4.8115728683e+00   0.01102239   0.00938585 -62.93 0.0003301556    1.170    0.145
        41 -11.0941     89.1749    206.7618   2.9196313928e+02   4.8690373161e+00   0.02107809   0.01326358 -10.11  0.001948274    2.202    0.546
        42  -9.4063    232.3322    210.1955   2.9031879768e+02   4.0002192038e+00   0.00935515  0.006227795 -75.33 0.0009340392    1.681    0.405
        43 -10.8737    157.7884    209.9161   2.9118356968e+02   4.4355558633e+00   0.01193591  0.009432087  33.42 0.0002500897    1.263    0.209
        44 -11.2152     96.9529    208.8808   2.9188523939e+02   4.7994736916e+00    0.0112184  0.009699268 -52.26 0.0002995453    1.138    0.121
        45 -10.0390    237.4324    208.1992   2.9024761103e+02   3.9938046078e+00   0.01357344   0.01074349 -39.99 0.0009215619    1.291    0.225
        46  -9.2985     34.0153    209.0385   2.9261894475e+02   5.1607609622e+00  0.007722293  0.007627168  -7.66 0.0003251244    1.013    0.013
        47  -9.6560    127.4847    206.9910   2.9151863395e+02   4.6449314243e+00  0.009946331  0.006481594 -62.62 0.0005425805    1.525    0.344
        48 -10.0090    210.4468    204.5049   2.9053900440e+02   4.1932535066e+00   0.01128523  0.006310211 -63.08 6.784163e-05    1.784    0.440
        49  -9.8987    210.1015    201.1723   2.9052307388e+02   4.2339600923e+00   0.01058478  0.009528748  85.69  0.001266461    1.190    0.159
        50  -9.6800    250.6607    202.7247   2.9006121481e+02   3.9805842596e+00  0.009151761  0.006253747 -74.35 0.0007536297    1.608    0.378
        51 -11.0627    191.6248    201.9290   2.9074236288e+02   4.3323087187e+00   0.02104923   0.01172403  53.75  0.001433979    2.220    0.550
        52 -10.2167    244.8639    201.9125   2.9012366377e+02   4.0236614303e+00   0.01004565  0.009437171 -26.87 0.0008953486    1.075    0.070
        53 -10.8603    156.8976    202.1308   2.9114740614e+02   4.5311768379e+00   0.01063381  0.008998781  63.32   0.00100357    1.290    0.225
        54  -9.1367    111.6413    202.3236   2.9167514678e+02   4.7908037165e+00  0.007198224  0.004891568  60.52 0.0001721221    1.774    0.436
        55  -9.8242     85.8195    202.1636   2.9197477670e+02   4.9418728172e+00  0.009143141  0.007547121 -27.01 0.0003674732    1.294    0.227
        56  -9.6112     36.9777    199.6788   2.9252871950e+02   5.2525278383e+00  0.009059469  0.008209684  30.64  0.000321232    1.109    0.098
        57 -11.4418    214.7091    197.5517   2.9044785827e+02   4.2492797194e+00   0.02077649    0.0165015  73.47  0.001926817    1.460    0.315
        58  -9.6391    103.6807    199.0777   2.9174843266e+02   4.8745514503e+00  0.009188801  0.008190176 -58.17 0.0002701496    1.109    0.098
        59  -9.0753     59.9594    198.9999   2.9225702471e+02   5.1279211403e+00  0.007674502  0.007414022 -54.38 0.0009474166    1.025    0.025
        60 -11.5622    149.0939    196.4256   2.9120408825e+02   4.6426568896e+00   0.01735268    0.0125007 -47.26 0.0005235111    1.379    0.275
        61 -12.5379    155.7283    194.3889   2.9111472992e+02   4.6279062732e+00   0.02599359   0.01760508  41.13  0.002480362    1.500    0.333
        62 -12.0570    214.2117    186.4804   2.9038735388e+02   4.3807365195e+00   0.02533428    0.0198226 -30.84  0.001402891    1.374    0.272
        63 -12.6348    201.1219    193.9375   2.9058414321e+02   4.3700646849e+00   0.04335208   0.01970209 -52.26  0.003790382    2.094    0.523
        64 -11.6860    207.8844    191.1858   2.9048906752e+02   4.3627997214e+00   0.02345459   0.01495911 -43.47 0.0005666384    1.614    0.380
        65 -10.4230     49.1162    193.2230   2.9234888171e+02   5.2576258936e+00   0.02861387   0.01579716 -83.71  0.002410737    2.618    0.618
        66 -11.3972    166.1081    195.4114   2.9100010092e+02   4.5559011076e+00     0.016488    0.0113946  37.46  0.001355754    1.445    0.308
        67 -12.2163    143.2892    188.6664   2.9122525060e+02   4.7664301958e+00   0.02080489   0.01440002 -85.48  0.002118961    1.751    0.429
        68 -11.0695    143.7746    195.0261   2.9125761390e+02   4.6897170032e+00   0.01469686   0.00987367 -72.78 0.0008954784    1.615    0.381
        69 -11.0891    141.0035    192.5115   2.9127482938e+02   4.7349796693e+00   0.01323299   0.01176022  53.70 0.0008301471    1.176    0.150
        70  -9.6565    249.5428    194.8003   2.9002672986e+02   4.0790630345e+00   0.01270618  0.008859585  24.63  0.001344555    1.455    0.313
        71  -9.6799    107.0000    194.9899   2.9168539265e+02   4.9028812954e+00   0.01118572  0.003740777 -62.82 0.0008060529    2.968    0.663
        72 -10.3072     76.0152    195.0575   2.9204654957e+02   5.0810983172e+00  0.009662383  0.009345732 -36.40            0    1.025    0.025
        73 -11.5022    117.8552    190.4806   2.9153210465e+02   4.8925250630e+00   0.02593069   0.01372582 -71.41  0.001918127    2.152    0.535
        74 -10.5840    129.9929    192.3409   2.9140194327e+02   4.8006865288e+00   0.01130838  0.009393012 -79.02 0.0003706786    1.284    0.221
        75 -11.0679    128.4845    188.1225   2.9139429561e+02   4.8584399741e+00   0.02083837   0.01025036 -45.18   0.00164517    2.113    0.527
        76 -10.8783    226.4352    189.8523   2.9026550253e+02   4.2706464955e+00   0.02258889   0.01508255 -84.30  0.002245124    1.843    0.457
        77 -11.5957    231.0855    187.3716   2.9019661498e+02   4.2724587607e+00    0.0230523   0.01714796  68.99  0.001462202    1.613    0.380
        78 -10.6800    107.2148    190.5996   2.9165668058e+02   4.9526705424e+00   0.01257603   0.01032003   8.79  0.001097721    1.297    0.229
        79 -10.4613    132.1136    246.8725   2.9170276517e+02   4.1546536510e+00   0.01149936  0.009823608  48.29 0.0003352677    1.213    0.175
        80  -9.5666     69.3448    247.3058   2.9243546065e+02   4.5121385327e+00  0.007073354  0.004921713 -25.88  0.000704216    1.692    0.409
        81  -9.8176    161.8047    246.1640   2.9135334077e+02   3.9911305843e+00  0.009248474  0.007522335 -30.69 0.0003844051    1.303    0.232
        82 -12.0672    225.6662    241.8360   2.9058549854e+02   3.6714929681e+00   0.02045896   0.01525488 -41.81 0.0004589661    1.369    0.270
        83 -11.1646    215.0364    244.2193   2.9072319473e+02   3.7054290407e+00   0.01623623    0.0128421  54.61 0.0004448741    1.369    0.269
        84 -10.2187     65.8393    242.4081   2.9244710226e+02   4.5893015718e+00   0.01197804  0.009203118 -62.34  0.000282605    1.293    0.226
        85  -9.7321     56.7303    241.9523   2.9255038452e+02   4.6471295453e+00  0.009452868  0.008197511 -59.45 0.0008367034    1.140    0.123
        86  -9.7778     32.4989    242.5107   2.9283569067e+02   4.7802681398e+00  0.006629162  0.006367196 -30.68 0.0008102744    1.040    0.038
        87 -10.5554     13.7565    241.5970   2.9304838844e+02   4.8987852887e+00   0.01214426   0.00850676  82.78  0.001220759    1.820    0.451
        88  -9.8611     26.0443    172.2058   2.9249243563e+02   5.6349640032e+00  0.009959437  0.008706949 -18.63 0.0003840267    1.210    0.174
        89  -9.1173    106.5912    171.4934   2.9154981911e+02   5.1783516450e+00   0.00652644  0.006372533 -55.19 -6.161637e-05    1.018    0.018
        90 -10.2231     72.5051    168.0164   2.9192608250e+02   5.4157278321e+00   0.00996644  0.006522656 -64.22 0.0004443467    1.535    0.348
        91 -11.1958    140.3805    165.4940   2.9112053984e+02   5.0525381241e+00   0.01782973  0.009149454  48.98   0.00155274    2.268    0.559
        92 -15.4253    232.4427     79.0536   2.8953094518e+02   5.5217167312e+00   0.04118149   0.03523791 -42.07  0.003314699    1.172    0.147
        93 -10.7275    229.8310    164.9131   2.9007662246e+02   4.5404913103e+00   0.01408202   0.01057698   1.77 0.0005722058    1.522    0.343
        94 -10.9251    235.0333    164.1062   2.9001133284e+02   4.5196435123e+00   0.02153233  0.009997594  28.34  0.001176255    2.124    0.529
        95 -11.3332    128.3845    163.9200   2.9125078187e+02   5.1402827642e+00   0.02037704   0.01032499  54.26  0.001380377    2.634    0.620
        96 -10.2592     55.9972    164.4676   2.9209724304e+02   5.5522615765e+00   0.01288862  0.009535179 -88.98  0.001364065    1.601    0.375
        97 -11.7330    120.5173    162.6181   2.9133460126e+02   5.2009423873e+00   0.01785438    0.0098377 -44.84  0.001669451    1.871    0.465
        98  -9.7057     55.2139    188.7856   2.9225140851e+02   5.2740551614e+00    0.0114148  0.006345718  63.22 0.0007993614    2.698    0.629
        99  -9.6567    102.3949    166.7883   2.9157057463e+02   5.2573013139e+00  0.009662718  0.005768794 -50.85  0.000940796    1.633    0.387
       100  -9.7470    242.9803    160.3107   2.8989624473e+02   4.5175371889e+00   0.01143356  0.008819053  68.98 0.0008248462    1.518    0.341
       101  -9.4868     20.6578    185.6885   2.9263551739e+02   5.5092128613e+00  0.007096773  0.004908863 -26.50 0.0004501883    1.699    0.412
       102 -10.2463     16.2743    156.2178   2.9251102126e+02   5.8771155255e+00   0.01411418  0.009641677 -37.39  0.001460022    1.573    0.364
       103 -10.9401    238.8764    154.3336   2.8990808432e+02   4.6107619191e+00   0.01748127   0.01368695 -47.79  0.001389938    1.264    0.209
       104 -10.6236     77.0544    154.3121   2.9179124059e+02   5.5487566009e+00   0.01156241  0.009490531 -74.89 0.0001843388    1.278    0.218
       105  -9.7855    249.2543    153.1718   2.8978054380e+02   4.5639396743e+00   0.01282151  0.007546447  52.45  0.001193439    1.998    0.500
       106 -11.8980    121.4861    150.5358   2.9125105824e+02   5.3357392003e+00   0.01879352   0.01490176 -88.85 0.0009679592    1.432    0.302
       107 -11.0178    172.8335    183.0237   2.9084777660e+02   4.6608509001e+00   0.01031107  0.008835261  68.97 0.0007445788    1.283    0.220
       108 -10.7081     42.1605    150.1730   2.9217320408e+02   5.7982418341e+00   0.01213438  0.007740058 -49.55 0.0006621104    1.540    0.351
       109 -12.5862     11.3364    146.6281   2.9251142189e+02   6.0170306301e+00   0.02030234   0.01469099  58.80 0.0006313691    1.588    0.370
       110  -9.8797     36.4522    147.1941   2.9222197126e+02   5.8657801707e+00  0.009382429  0.006447654 -83.05 0.0009404172    1.732    0.423
       111 -10.5531    110.6800    184.3089   2.9157876998e+02   5.0057547652e+00   0.01282905   0.01134844 -29.08 0.0009958638    1.166    0.142
       112 -12.3335    129.2262    180.1728   2.9133815353e+02   4.9465371408e+00   0.01806238   0.01568959 -64.70  0.001949391    1.153    0.133
       113 -11.3654    123.3746    176.5174   2.9138442371e+02   5.0228795450e+00   0.02060291   0.01094504  69.41  0.001522339    3.525    0.716
       114 -10.5050     32.4904    135.4906   2.9219831496e+02   6.0246591362e+00   0.01459015   0.01060318 -45.54 0.0008709863    1.378    0.274
       115  -9.2862     86.9883    135.0269   2.9156021848e+02   5.7154962036e+00  0.007824925  0.007652082  13.23 0.0004072204    1.028    0.027
       116  -9.7294      1.5001    133.2027   2.9254607997e+02   6.2297023557e+00  0.009937234  0.006409242 -60.58  0.001007563    1.521    0.342
       117 -11.2399    105.4692    132.5032   2.9132976096e+02   5.6379556022e+00   0.01928954  0.005711808  30.49  0.001385834    3.096    0.677
       118  -9.7206     41.6812    131.0080   2.9206437852e+02   6.0237770928e+00  0.009104936  0.008346382 -63.59 0.0005384061    1.089    0.082
       119  -8.8772      6.6938    131.2899   2.9247409453e+02   6.2220535221e+00  0.006763535   0.00497367  60.94 0.0002359036    1.574    0.365
       120 -12.0363    101.3766    125.4025   2.9133496282e+02   5.7441338869e+00   0.02707551    0.0131981 -49.46   0.00179762    2.009    0.502
       121 -10.9696     94.5342    115.5147   2.9135553887e+02   5.8985898565e+00   0.01245246   0.01008036  26.80 0.0009748465    1.240    0.194
       122 -10.4691     74.0932    128.3705   2.9167072265e+02   5.8673602876e+00   0.01377535  0.009516226  57.74  0.001137306    1.687    0.407
       123 -12.5831     99.6061    117.6627   2.9130927749e+02   5.8442992970e+00   0.02766729   0.01888149  20.10 0.0001967515    1.532    0.347
       124 -10.3277     41.9694    126.4740   2.9203393887e+02   6.0748120886e+00  0.009933474  0.008900844 -62.08 0.0003087784    1.110    0.099
       125 -10.2644    121.1590    182.1240   2.9144372150e+02   4.9705389966e+00  0.009011047  0.007683296  68.98   0.00103841    1.292    0.226
       126 -10.2352     48.4584    123.7709   2.9194211894e+02   6.0687983038e+00   0.01287014   0.01008211 -38.83  0.000846413    1.314    0.239
       127  -8.9668     45.2454    182.3457   2.9232914238e+02   5.4064154054e+00  0.006874293  0.004744503 -35.97 0.0003015797    1.573    0.364
       128 -10.5717     89.8668    116.8414   2.9141788582e+02   5.9101654107e+00  0.009425489  0.007863769  68.31 0.0005041478    1.335    0.251
       129 -11.4499     56.3596    115.5663   2.9180094204e+02   6.1185500669e+00   0.02496865   0.01567912  89.30  0.001830117    2.198    0.545
       130  -9.5625     11.3298    114.3045   2.9231865844e+02   6.3927878288e+00  0.007004395  0.004921712 -26.62  0.000500327    1.654    0.395
       131 -12.2322    112.8644    109.3454   2.9110495395e+02   5.8641993053e+00   0.01873821   0.01369502 -42.34   0.00124428    1.396    0.284
       132 -12.1748     99.9956    106.4451   2.9123758118e+02   5.9723633814e+00   0.02381524   0.01764492 -43.92  0.000986458    1.362    0.266
       133 -10.8622     29.5374    107.1065   2.9206324419e+02   6.3715567718e+00   0.01294398    0.0116761  84.60 0.0004269853    1.187    0.158
       134 -11.0939    120.1888    103.5144   2.9098466380e+02   5.8895199708e+00   0.01274001   0.01009971  72.86 0.0006441192    1.463    0.317
       135 -11.1332    127.0327    101.6962   2.9089401305e+02   5.8709955177e+00  0.009507564  0.008771243  13.42 0.0008901939    1.101    0.092
       136  -9.2935     76.6665     98.7073   2.9146326778e+02   6.1971444283e+00  0.006949638  0.004945382 -25.29 0.0002738729    1.636    0.389
       137  -9.5888     64.1703     97.8151   2.9160367429e+02   6.2796998275e+00  0.009562728  0.007679837 -28.63  0.001070889    1.337    0.252
       138 -11.6351    107.3154     90.1823   2.9105483294e+02   6.1188923335e+00   0.01757277   0.01205048 -53.76  0.001861913    1.419    0.295
       139 -10.0889     33.4507    178.7854   2.9244534136e+02   5.5157928669e+00   0.01979503   0.00681956 -65.54  0.001427649    3.134    0.681
       140 -10.5415     87.2411     88.5220   2.9127895885e+02   6.2543192708e+00   0.01725202   0.01018901 -26.30  0.001547677    2.262    0.558
       141 -11.1276    221.3268    177.4226   2.9025041210e+02   4.4446242182e+00   0.02117591   0.01499409 -36.90  0.002245184    1.510    0.338
       142 -12.4225    115.9336     84.5539   2.9092062602e+02   6.1343528015e+00   0.01558049   0.01333236  39.47 0.0003390814    1.181    0.153
       143 -11.3271    104.9769     85.7508   2.9105554024e+02   6.1838916996e+00    0.0104442  0.008821812 -28.88 0.0005764383    1.244    0.196
       144  -9.4150     31.2309    187.9542   2.9252583107e+02   5.4219718797e+00  0.008550717  0.005494524 -64.17 0.0003856868    1.562    0.360
       145  -9.6845     74.6246     84.7110   2.9140328826e+02   6.3715184119e+00  0.007089961  0.004927082 -23.08 0.0001757444    1.727    0.421
       146  -9.5685     49.1489     84.6909   2.9170038825e+02   6.5188751665e+00   0.01352481  0.005088311  34.30  0.001075372    2.495    0.599
       147 -10.0082     58.8423     83.1622   2.9157813627e+02   6.4806767137e+00  0.009926362  0.009014709  65.63 0.0004668045    1.170    0.145
       148 -11.2835     94.9004     78.5663   2.9112998719e+02   6.3256334064e+00   0.01706289  0.008888378 -58.29  0.001045471    1.842    0.457
       149 -12.2042    135.2692     64.3330   2.9057393961e+02   6.2570492162e+00   0.03405366  0.009603292 -53.13  0.002422977    3.141    0.682
       150 -11.9338    126.0675     77.1814   2.9075828636e+02   6.1612443635e+00   0.01796352   0.01406403 -30.68  0.001328835    1.374    0.272
       151 -12.7349    129.9997     71.6162   2.9067906713e+02   6.2030602479e+00   0.03896866     0.017105  45.49  0.003182851    2.556    0.609
       152 -10.1634     80.1906     75.5260   2.9128334387e+02   6.4460133484e+00   0.01179778  0.009098521 -62.57 0.0005763437    1.290    0.225
       153 -10.4938     87.6758     74.8544   2.9119200543e+02   6.4105281423e+00   0.01121951  0.009022943   8.98 0.0005644492    1.331    0.249
       154 -11.5169    105.0153     73.0810   2.9097914660e+02   6.3307837231e+00   0.01490325   0.01183566  80.37 0.0003694555    1.465    0.317
       155 -11.3866    102.3514     69.2839   2.9098744622e+02   6.3902890752e+00   0.01418165   0.01179588 -25.86 0.0008035026    1.284    0.221
       156  -9.7065     49.1377     73.1490   2.9163144027e+02   6.6529931038e+00  0.009924882   0.00856254 -28.14 0.0002610911    1.209    0.173
       157 -11.6702    101.1234     78.3826   2.9105631315e+02   6.2917559636e+00   0.02064591  0.007785864  41.23  0.001312656    2.724    0.633
       158  -9.4854     20.7939     72.6489   2.9195929166e+02   6.8222438726e+00  0.009278106  0.005795711  36.92 0.0002522854    1.590    0.371
       159 -11.4786    120.1445     69.6742   2.9078230590e+02   6.2827157567e+00   0.01490635   0.01133451  76.86  0.000882874    1.580    0.367
       160 -12.5669    108.3544     66.5046   2.9090077135e+02   6.3878005432e+00   0.02668481   0.02009055 -78.95  0.001704959    1.468    0.319
       161  -9.9512     62.7526     63.9786   2.9141762917e+02   6.6808701185e+00  0.009495289  0.008650009 -60.64 0.0004384617    1.091    0.083
       162 -10.3051     13.0090     64.4937   2.9200140482e+02   6.9617967204e+00   0.01003461  0.006503756  26.55 0.0005573797    1.550    0.355
       163 -11.6585     99.8542     61.5725   2.9097033043e+02   6.4942663408e+00   0.02114508   0.01307441  75.97  0.001892011    2.400    0.583
       164 -10.3357     18.2910     61.9272   2.9192437487e+02   6.9611771094e+00   0.01174776  0.008167661 -68.63 0.0009562596    1.491    0.329
       165 -11.5458     88.4772     57.1226   2.9107636558e+02   6.6117576844e+00   0.01571892   0.01215226  27.24 -0.0001485154    1.297    0.229
       166 -10.1461     49.2373     57.9810   2.9153945106e+02   6.8285471317e+00  0.009058604  0.008696706 -54.78 0.0003943282    1.032    0.031
       167 -10.5366    236.1928    177.4804   2.9007801938e+02   4.3576455955e+00   0.01214083   0.01038666  47.20 0.0005548197    1.207    0.171
       168 -11.3932    131.5041     53.5325   2.9055300307e+02   6.4042232916e+00    0.0154333  0.008932417 -27.29  0.001361561    2.324    0.570
       169 -10.4731    247.3010    174.0201   2.8992824288e+02   4.3333019352e+00   0.01108092    0.0100225 -13.34 0.0002385818    1.154    0.133
       170 -10.4997    107.1234     51.1256   2.9082287300e+02   6.5734356924e+00   0.02294759   0.01225794  -2.95  0.001750326    3.284    0.695
       171 -10.2619    233.8322    172.1349   2.9007341191e+02   4.4334112202e+00   0.01631445   0.01128676  54.93  0.001686615    1.641    0.391
       172 -10.3591     24.3295     51.4698   2.9179127547e+02   7.0478031885e+00   0.01150302  0.008866021  52.40 0.0005827527    1.399    0.285
       173 -10.0203     29.1350     50.7376   2.9173077436e+02   7.0286039002e+00   0.01371069  0.007432026 -39.22  0.001092167    2.083    0.520
       174 -11.9492    133.1254     47.4658   2.9049767718e+02   6.4652173968e+00   0.01829524    0.0149914  59.44            0    1.335    0.251
       175 -12.1909    123.4078     48.5755   2.9061764628e+02   6.5086815506e+00   0.01923609   0.01330362  37.64  0.001589968    1.445    0.308
       176 -11.0747    126.4631     46.0028   2.9056657460e+02   6.5208225212e+00   0.01303545   0.01068542 -26.33  0.001487687    1.310    0.237
       177 -11.6776    140.0442     45.5238   2.9040535201e+02   6.4476196804e+00   0.02190608     0.014822 -82.58  0.001318892    1.774    0.436
       178 -10.4996    140.8798     41.1290   2.9036921393e+02   6.4937562784e+00   0.01224995   0.01016939  52.47  0.001410885    1.275    0.215
       179 -11.3799    140.7589    172.2228   2.9115638149e+02   4.9721601746e+00   0.01500318   0.01374562  54.77  0.001113946    1.135    0.119
       180  -9.7160     64.2640     42.6505   2.9127216671e+02   6.9197276265e+00  0.006759351  0.005039134  69.93 0.0003848852    1.613    0.380
       181 -11.2803    126.0336     40.4852   2.9053845210e+02   6.5873296434e+00   0.02011456   0.01160246   3.53  0.001318456    2.416    0.586
       182  -9.5826     54.7464     40.0178   2.9136749741e+02   7.0052592679e+00  0.008620796  0.005648847 -63.07 0.0007389066    1.522    0.343
       183 -10.2835    249.8157     38.1461   2.8908293148e+02   5.8948179928e+00   0.01125188  0.009146045 -43.98 0.0004940186    1.233    0.189
       184 -10.1314    105.7933     37.1820   2.9075470376e+02   6.7429410871e+00  0.009468849  0.008775681  67.63 0.0003301548    1.137    0.121
       185 -10.8478    123.3528     34.4261   2.9053332858e+02   6.6731639923e+00   0.01387861  0.008938311 -37.71 0.0007825447    1.694    0.410
       186 -10.2319    126.9230    238.2069   2.9171145121e+02   4.2853761838e+00   0.01216565  0.009606343 -42.62 0.0007141543    1.279    0.218
       187 -10.8686    127.1339     30.5643   2.9046603373e+02   6.6960376277e+00    0.0147983  0.009251188 -29.75  0.001395575    1.949    0.487
       188 -10.9385     21.5772     30.9660   2.9170063115e+02   7.3016595525e+00   0.01176954  0.009653545  26.10 0.0003159152    1.225    0.184
       189 -10.1098     99.0643     25.7678   2.9076469101e+02   6.9143285968e+00  0.009058793  0.008622184  -4.33 0.0003909612    1.066    0.062
       190 -11.0475    133.1463     31.2091   2.9039979151e+02   6.6536896441e+00   0.01866296   0.00972864 -65.91  0.001193747    1.991    0.498
       191 -10.3391    124.0716     24.1516   2.9046322534e+02   6.7881733475e+00   0.01598991   0.01122313 -20.55 0.0004580241    1.723    0.420
       192 -11.0756    128.3060     22.9874   2.9040684209e+02   6.7771193837e+00   0.01702577   0.01073424  83.97  0.001536699    2.272    0.560
       193 -10.1415     43.2046     23.1674   2.9140125747e+02   7.2674248199e+00   0.01134929  0.009753316 -66.27 0.0005896259    1.172    0.147
       194  -9.9915     40.9915     19.5146   2.9140520408e+02   7.3225751863e+00   0.01076515  0.008811662 -75.71 0.0009025664    1.290    0.225
       195 -11.0923    134.2938    172.1539   2.9123122423e+02   5.0103928284e+00    0.0123361  0.008143754 -56.38 0.0008833836    1.470    0.320
       196 -10.5881    187.9521    236.4706   2.9099155268e+02   3.9523500040e+00   0.01159277  0.009391303 -63.28 0.0002835419    1.232    0.188
       197  -9.9039    112.1120     18.1566   2.9056672963e+02   6.9270268768e+00   0.01373712  0.008382332 -57.40 0.0008221852    1.587    0.370
       198  -9.6688    236.4925    187.1452   2.9013244406e+02   4.2436994430e+00  0.009560931  0.006472304 -62.05 0.0004498776    1.464    0.317
       199 -10.5702    236.5444    234.8205   2.9041722937e+02   3.6898763103e+00   0.01277295   0.01116307   7.52 0.0006885678    1.194    0.162
       200 -11.0566     75.1492    188.6207   2.9201823978e+02   5.1609317187e+00   0.01897227   0.01211539 -61.43 0.0008319694    1.543    0.352
       201  -9.5453     18.9937     17.4785   2.9164999818e+02   7.4730451269e+00  0.009749709    0.0047783  48.87 0.0006154813    2.414    0.586
       202  -9.2261    167.2863    233.5620   2.9121438164e+02   4.1058186970e+00   0.01866817  0.004171731 -56.51  0.001215177    3.667    0.727
       203 -10.5691    217.7037    233.4834   2.9062803348e+02   3.8146406797e+00   0.01877959   0.01048856   7.24  0.001626528    2.425    0.588
       204  -9.5369     32.0391    233.4713   2.9278730422e+02   4.8880285998e+00   0.01019306     0.006563  23.98  0.001027868    1.586    0.369
       205 -10.0076    176.9327    231.9433   2.9109257855e+02   4.0687666453e+00  0.009943514  0.009749142 -88.84 0.0005102872    1.042    0.040
       206 -10.1297    153.9237    231.0112   2.9135451246e+02   4.2128071889e+00  0.009724183  0.009505025 -69.72 0.0003344993    1.031    0.031
       207 -10.2001     69.1311    230.3150   2.9233680602e+02   4.7109129462e+00   0.01105321  0.008622348 -48.89 0.0004936389    1.265    0.210
       208 -10.7272    203.9416    226.1211   2.9074389403e+02   3.9799156059e+00   0.01940214  0.009395038  37.52   0.00159121    2.026    0.506
       209  -9.5470     99.5605     12.7658   2.9068081539e+02   7.0622570761e+00  0.009256119  0.006512176 -78.02 0.0004363156    1.602    0.376
       210 -10.2302    149.8808    226.5997   2.9137518674e+02   4.2874663334e+00   0.01292123  0.009670671 -33.12 0.0007162226    1.442    0.307
       211 -10.7113    127.7361    226.5787   2.9163262640e+02   4.4158208274e+00   0.01271679   0.01126027  57.54  0.001015027    1.193    0.162
       212 -11.6970    238.1520    224.0360   2.9033404276e+02   3.8057619088e+00   0.01248121   0.01192599  -8.70 0.0002767811    1.060    0.057
       213 -10.7936    180.6956    222.9249   2.9099495257e+02   4.1517420253e+00    0.0271422  0.009360124  27.01  0.002044603    2.883    0.653
