#   1 NUMBER                 Running object number                                     
#   2 MAG_AUTO               Kron-like elliptical aperture magnitude                    [mag]
#   3 X_IMAGE                Object position along x                                    [pixel]
#   4 Y_IMAGE                Object position along y                                    [pixel]
#   5 X_WORLD                Barycenter position along world x axis                     [deg]
#   6 Y_WORLD                Barycenter position along world y axis                     [deg]
#   7 A_WORLD                Profile RMS along major axis (world units)                 [deg]
#   8 B_WORLD                Profile RMS along minor axis (world units)                 [deg]
#   9 THETA_WORLD            Position angle (CCW/world-x)                               [deg]
#  10 FWHM_WORLD             FWHM assuming a gaussian core                              [deg]
#  11 ELONGATION             A_IMAGE/B_IMAGE                                           
#  12 ELLIPTICITY            1 - B_IMAGE/A_IMAGE                                       
         1 -12.4576      4.7245     46.8878   1.0736128351e+02   6.5912655262e+01     2.016257    0.4906733 -59.80  0.008247139    3.020    0.669
         2 -11.1463    186.9667     41.5427   4.9660133164e+01   3.3269034765e+01    0.9321823    0.8024707  34.77  0.004766492    1.323    0.244
         3 -11.4357    209.6697     12.1505   3.9011823219e+01   3.1270368606e+01     0.846081    0.6453016 -88.09  0.005031925    1.199    0.166
         4 -10.2442    210.5208      6.2646   3.7470281466e+01   3.1685404025e+01    0.6264465    0.3125715  87.81  0.002949063    2.071    0.517
         5  -7.8784    119.6072      8.7492   5.0593874309e+01   5.3680321405e+01    0.1760604    0.1198768 -33.66 0.0008055487    1.614    0.380
         6  -8.2979    237.7082      4.9035   3.4961973973e+01   2.5629651920e+01    0.1865508    0.1522649  74.70 0.0004799323    1.281    0.219
         7  -7.3814    123.6193      4.4648   4.8213181484e+01   5.3104392340e+01    0.1298467    0.1157824  43.21 0.0002415832    1.030    0.029
         8  -8.5163    250.0369    239.0048   8.3849437689e+01  -1.0684115327e+01     0.173137    0.1320876   6.27 0.0004992179    1.047    0.045
         9  -8.9987    124.8938    250.1354   1.0824451105e+02   6.4392276984e+00    0.1813386    0.1361299  58.79 0.0006724963    1.250    0.200
        10 -10.5788    107.1636    249.8226   1.1149494625e+02   9.1246354502e+00       0.4977    0.2188511  46.64 0.0008732594    1.823    0.452
        11 -17.7256     26.0808    239.0655   1.2511882841e+02   2.1503739651e+01     2.671985     2.028017  53.50   0.01411828    1.272    0.214
        12  -9.1598     76.1897    216.1380   1.1400920350e+02   1.9792437138e+01     0.245231    0.1922017  77.81 0.0005289649    1.136    0.120
        13  -8.9130     78.9657    213.3140   1.1314936418e+02   1.9975922451e+01    0.2328747     0.168834 -80.91 0.0006082036    1.360    0.265
        14  -9.3154     91.5775    214.9267   1.1074740127e+02   1.7825017816e+01    0.3510863    0.2548332  85.83    0.0011141    1.422    0.297
        15  -8.9413    219.6255    210.8403   8.4323362616e+01  -2.6188065843e+00    0.2502064    0.2235155 -55.36  0.001114749    1.639    0.390
        16  -8.3278    142.6592    209.0229   9.9292114567e+01   1.0734632361e+01    0.2454987    0.1836386  14.92  0.001317291    1.650    0.394
        17  -8.1197    186.0000    229.0388   9.3746290549e+01   8.8961659204e-02    0.2930441   0.07160497 -43.21  0.001022669    4.678    0.786
        18  -7.8683     81.8972    209.1287   1.1208524950e+02   2.0416896193e+01    0.1508656    0.1452418 -88.23 0.0002559124    1.249    0.199
        19  -8.0571    220.9492    228.2417   8.7113598215e+01  -5.2529075540e+00    0.1685621    0.1421228  22.91 0.0002624012    1.186    0.157
        20  -9.0682    207.6901    205.3732   8.5565769813e+01   1.4903862606e-01    0.2520682     0.223956  27.23 0.0008407764    1.172    0.147
        21  -8.9780    208.8258    200.8968   8.4524569289e+01   6.5960138684e-01    0.2271726    0.1808369  13.71 0.0003285655    1.145    0.126
        22 -10.4441    239.1173    203.9141   7.9542829745e+01  -4.6682942234e+00     0.231307    0.1930434  -4.56 0.0003288052    1.079    0.073
        23  -8.2834    132.2964    202.7243   1.0051515977e+02   1.3721512351e+01    0.3227348    0.2126894   2.31  0.001359364    2.977    0.664
        24  -9.6769    150.0461    226.7685   1.0042365048e+02   6.3316788221e+00    0.3533952    0.1933866  21.04  0.001540677    2.728    0.633
        25 -10.0418    145.0670    223.0223   1.0088204997e+02   7.7969246873e+00    0.2881667    0.2135886 -23.53  0.001628053    1.802    0.445
        26  -7.5852    247.6410    219.3082   8.0873452537e+01  -7.9769815430e+00    0.1012554   0.09774707  49.73 0.0007041217    1.733    0.423
        27  -9.4857     86.2549    200.7375   1.1017502239e+02   2.1540165634e+01    0.2907259    0.1869757  77.10 0.0009767258    1.728    0.421
        28  -9.0118     82.4282    196.0676   1.1042799129e+02   2.3103567814e+01    0.4863922    0.2527332  86.90  0.001242577    2.945    0.660
        29 -11.1048     63.6482    195.1023   1.1439000665e+02   2.5920672292e+01      0.89756    0.5124992  52.70  0.002972216    1.611    0.379
        30 -10.1837     61.2259    186.4564   1.1395636112e+02   2.8155383463e+01    0.4561015    0.3705847  88.59 0.0009696594    1.069    0.064
        31  -7.5897     97.9532    198.4545   1.0734462948e+02   2.0248310189e+01    0.1786922   0.09600275  60.24 0.0003410754    2.103    0.525
        32  -7.5877    218.9660    196.0811   8.1704358543e+01  -2.8982440908e-01    0.1574341    0.1342622  -5.78 0.0004489601    1.058    0.055
        33  -8.5465    209.2887    196.0772   8.3529926056e+01   1.3481332241e+00    0.2203945    0.1777762  32.80 0.0002168524    1.206    0.171
        34  -9.8312    153.8451    216.2275   9.8094285880e+01   7.5173357865e+00    0.3104911    0.2671829  10.34  0.001910742    1.261    0.207
        35  -8.5407     91.7098    192.0984   1.0786525926e+02   2.2579270127e+01    0.2297705     0.214822  -3.95  0.001052709    1.398    0.285
        36  -8.7006    235.8677    191.8725   7.7818359230e+01  -2.4190095513e+00    0.1972218    0.1510675   2.60 0.0003619981    1.183    0.155
        37  -9.8828    177.0271    191.4743   8.9093470952e+01   7.8705863119e+00     0.237522    0.2287598  18.97 4.721932e-05    1.086    0.079
        38  -8.5576     97.1966    190.7169   1.0644757577e+02   2.2028897222e+01    0.3171509    0.1895396 -70.98  0.001545392    1.809    0.447
        39  -8.6440    129.0252    190.9070   9.9351583114e+01   1.6675169127e+01    0.2022241    0.1886464  50.69 0.0002871041    1.025    0.024
        40 -10.4014    139.7214    217.4637   1.0116458095e+02   9.6756856247e+00    0.3021884    0.2739968  49.50   0.00194241    1.045    0.043
        41  -9.2665     66.6497    173.4511   1.1112220626e+02   3.0416347074e+01    0.5362989    0.2278463  57.80  0.002080653    2.964    0.663
        42  -9.1155     62.7363    169.2819   1.1150290840e+02   3.1911267699e+01    0.2336913    0.1997679 -88.58  0.000266995    1.017    0.016
        43  -9.7102     72.6632    184.3230   1.1113163996e+02   2.7097388295e+01    0.5533904    0.3344735  31.17  0.002813379    1.908    0.476
        44 -10.4415     74.3999    179.5589   1.1011735955e+02   2.7937172643e+01    0.7435738    0.4392462  44.55  0.003804274    1.634    0.388
        45  -7.7531    123.7827    183.8336   9.9358416748e+01   1.9085369265e+01     0.192677    0.1581992  75.63 0.0003101545    1.315    0.239
        46  -9.3304     52.5324    183.1684   1.1552377787e+02   2.9993565114e+01    0.3578808    0.2353437  57.28  0.001160075    1.421    0.296
        47  -9.2978     23.5066    180.3889   1.2159692174e+02   3.3809082708e+01     1.144063    0.3654933 -59.35  0.005018729    2.930    0.659
        48  -7.9626      6.8170    177.4321   1.2488767152e+02   3.5978326939e+01    0.1922529     0.120065  87.49 0.0007096694    1.258    0.205
        49 -10.0055     16.8397    159.9436   1.2129425673e+02   3.9088517283e+01    0.4176062    0.2284846  35.21  0.002377372    2.022    0.505
        50 -10.3472     18.3541    165.4788   1.2144648474e+02   3.7676921739e+01    0.5623157    0.3000206  73.78  0.003014053    1.842    0.457
        51  -9.7079     13.6245    174.3389   1.2322347953e+02   3.6082936757e+01    0.4345805    0.1947176  27.43  0.002255742    2.748    0.636
        52  -9.2358     19.9368    172.8487   1.2173434632e+02   3.5848692064e+01     0.296068    0.2109121 -85.45 0.0009081821    1.120    0.107
        53  -8.4656     16.4707    183.9401   1.2335584186e+02   3.3690253557e+01    0.3254931    0.1458564  19.30  0.001495289    3.824    0.739
        54  -7.5542    246.3027    181.3673   7.3925376118e+01  -2.5233248373e+00    0.1385469   0.08852733  -2.41 0.0007034431    1.741    0.425
        55  -8.3410    150.9072    179.8284   9.2524466816e+01   1.4977679080e+01    0.3427403    0.2352522 -68.79  0.001548353    1.934    0.483
        56  -8.9658    198.0359    175.9178   8.1752144629e+01   6.7887791387e+00    0.2172697    0.1925501 -24.59            0    1.113    0.102
        57  -9.0527    132.1539    236.1969   1.0521011661e+02   7.6168601515e+00    0.2630486    0.1539154  55.31   0.00140889    1.731    0.422
        58  -8.4188     89.0473    174.0809   1.0589871460e+02   2.7032279934e+01    0.2337424    0.1546138  73.52 0.0009958236    1.751    0.429
        59  -7.2069    183.7054    173.3426   8.4151853243e+01   9.9842099133e+00    0.1391855    0.1170737 -86.32 0.0004548302    1.661    0.398
        60  -7.5236      6.5005    172.5057   1.2460551866e+02   3.7098694229e+01    0.1175858   0.09027701 -87.37 -0.0001255969    1.070    0.065
        61  -9.2639     78.4573    166.6979   1.0733739749e+02   3.0345359133e+01    0.3076122    0.2392184 -73.76  0.001715448    1.199    0.166
        62  -8.8655     80.8032    161.3925   1.0593932970e+02   3.1257395775e+01    0.2192283      0.16975 -30.45  0.001138472    1.720    0.419
        63  -9.2263     83.0530    170.3198   1.0676664155e+02   2.8816219995e+01    0.2848116    0.2777046 -33.64 0.0007884783    1.246    0.197
        64  -9.0659     86.8225    165.8433   1.0515737085e+02   2.9293573622e+01    0.3326108    0.2443652 -38.52  0.001704902    1.681    0.405
        65  -7.8124    107.4506    170.4383   1.0090639557e+02   2.4881494153e+01    0.1392198    0.1346717  83.43 0.0001685627    1.065    0.061
        66  -8.4054    125.9773    167.6784   9.5978402333e+01   2.2225020752e+01    0.1973522    0.1840718  56.22 0.0004880651    1.042    0.040
        67  -8.5751    130.6111    165.3555   9.4433954032e+01   2.1882751655e+01    0.3669022    0.2095199 -45.61   0.00156945    1.818    0.450
        68  -8.5923     34.9109    164.4338   1.1752842753e+02   3.6319902654e+01    0.2887784    0.1571139 -72.40  0.001528402    1.555    0.357
        69  -9.4842     73.0030    161.5533   1.0790728362e+02   3.2348518230e+01    0.4670012    0.1775265  39.56  0.001867809    2.593    0.614
        70  -9.7208     55.6688    160.7023   1.1207976629e+02   3.4845033127e+01    0.3974019    0.2508943  65.22  0.002051806    1.676    0.403
        71  -8.3884      5.7250    162.1814   1.2400140130e+02   3.9487950233e+01    0.1875347    0.1347204  57.69 0.0005622082    1.368    0.269
        72  -8.1615     93.1089    157.6956   1.0223184434e+02   3.0231965152e+01    0.1869258    0.1811163  78.37 0.0004200768    1.091    0.084
        73 -10.3153     19.0367    147.0705   1.1950906677e+02   4.1918763523e+01    0.5059385    0.1904701  30.20   0.00168517    2.955    0.662
        74  -9.5681      5.9318    153.8093   1.2327892185e+02   4.1390029000e+01    0.3760194    0.1660706  56.43  0.001055951    2.341    0.573
        75  -8.4972      1.5892    153.0760   1.2421978166e+02   4.1877072789e+01    0.3524083    0.1295535 -71.86 0.0008930467    2.044    0.511
        76 -10.5578     32.4287    154.6181   1.1703995580e+02   3.8891303287e+01    0.4908655    0.3539521  69.53  0.001903627    1.335    0.251
        77 -10.6992     21.2763    151.8475   1.1945782811e+02   4.0595347857e+01    0.9029006    0.2147421  26.56  0.003298261    4.936    0.797
        78  -7.9438    148.5629    157.4967   8.8604734042e+01   2.0134826811e+01    0.1471567     0.146241   2.21 7.795443e-05    1.010    0.009
        79  -8.0016     22.9735    156.4944   1.1952445350e+02   3.9348831909e+01    0.1541244    0.1235919  33.62 0.0005099548    1.517    0.341
        80 -10.4549     82.4085    151.8521   1.0395225764e+02   3.3305390154e+01    0.4046966    0.2633342 -42.06  0.001080894    1.772    0.436
        81  -8.9311     97.4718    152.5705   1.0019746013e+02   3.0738412118e+01    0.3281205    0.2315881 -33.53 0.0007520205    1.796    0.443
        82  -7.8036     58.5039    153.5172   1.1036966234e+02   3.6218521992e+01    0.1372682    0.1173119 -87.33 0.0001942606    1.032    0.031
        83  -7.1828    217.3162    152.2731   7.2941822555e+01   7.3341092349e+00    0.1433788    0.1059219   4.88 0.0003293301    1.562    0.360
        84  -9.2317     42.6632    152.1442   1.1419857251e+02   3.8414451910e+01    0.2868333    0.1563953  50.20  0.001030889    1.914    0.477
        85  -8.8539     37.7034    150.4559   1.1523495641e+02   3.9349730422e+01    0.2242671    0.1517216  49.62  0.001278461    1.539    0.350
        86 -12.1717     68.6455    141.9233   1.0587732350e+02   3.7710085203e+01     1.181518    0.6956264 -72.15  0.004429769    1.692    0.409
        87  -7.4939    156.1255    147.8001   8.4723801132e+01   2.0691139162e+01    0.2038108    0.1768477   1.31 0.0004116595    1.300    0.230
        88 -10.3438     44.7631    146.5175   1.1291525117e+02   3.9543084966e+01    0.4317382    0.2361078  43.50  0.002177108    1.922    0.480
        89 -10.3534      7.1633    145.4775   1.2225679765e+02   4.3232314494e+01     0.394398    0.2068984  82.94  0.002112187    1.811    0.448
        90  -9.0357     10.4903    143.4936   1.2125641720e+02   4.3449012225e+01    0.1878341     0.121067  73.89 -6.22504e-05    1.482    0.325
        91  -7.5125    149.9985    147.1888   8.6019803819e+01   2.2085720830e+01    0.2501218    0.1774931  73.71  0.001058624    2.008    0.502
        92  -8.1750    144.4987    146.5052   8.7175947358e+01   2.3359617089e+01     0.151028    0.1494838 -79.08 0.0008106097    1.018    0.017
        93  -8.6240     96.7981    140.6146   9.8057329722e+01   3.3720720055e+01    0.3384493    0.2235627  57.53  0.001549367    1.716    0.417
        94  -9.1615     97.6970    137.0808   9.7090898245e+01   3.4420537069e+01    0.2706206    0.2475362 -33.58 0.0003192063    1.193    0.162
        95 -10.5951      4.2725    138.6467   1.2233139593e+02   4.5034711046e+01    0.4816687    0.2224583 -80.51  0.002504055    1.752    0.429
        96  -9.3733     22.8403    140.1268   1.1777973955e+02   4.3247332831e+01    0.1971069    0.1474582  83.56 0.0007947357    1.221    0.181
        97  -9.1882     79.9314    138.9194   1.0227798043e+02   3.6823982746e+01    0.2398619    0.1680673  76.04  0.001139233    1.736    0.424
        98  -8.0872    110.7578    135.5683   9.3268144834e+01   3.2465743595e+01    0.2171628    0.1414078  51.76 0.0009573857    1.657    0.396
        99  -8.8272     13.5975    134.7884   1.1956732604e+02   4.5272743403e+01     0.180769   0.09699223 -85.16 0.0007082445    1.655    0.396
       100 -11.5782     57.7168    133.0768   1.0735547556e+02   4.1311882162e+01    0.7675521    0.5397619   6.06  0.003868664    2.089    0.521
       101 -10.4569      2.4992    125.7843   1.2151627430e+02   4.8170146788e+01    0.4425573    0.2175954 -66.06  0.002441127    1.548    0.354
       102  -9.4500     38.2201    129.1543   1.1217620873e+02   4.4468158035e+01    0.3000626    0.2053993  25.32  0.001075873    1.791    0.442
       103  -9.8747     31.9811    129.6989   1.1399204863e+02   4.4942616746e+01    0.4289893    0.1898464  37.99  0.002024074    2.450    0.592
       104  -7.4413    115.9897    129.2223   9.0433289490e+01   3.2981217039e+01    0.2062318    0.1269438  41.45 0.0008783625    1.684    0.406
       105  -9.4442     49.1281    125.8968   1.0855632101e+02   4.4098075163e+01    0.2656805    0.1660173 -60.28  0.001369416    1.364    0.267
       106  -7.9855    103.8948    124.8837   9.2706605752e+01   3.6260186944e+01    0.2271868    0.1996378 -23.86 0.0006865743    1.269    0.212
       107  -9.0057     72.0432    125.5064   1.0187595886e+02   4.1265475797e+01    0.2998489    0.1283705  40.92  0.001192035    2.487    0.598
       108  -9.6074    201.2813    121.9728   6.8866029662e+01   1.6209685060e+01    0.2697414    0.2426546 -26.65 0.0002291919    1.053    0.050
       109  -8.6169    144.9758    123.7661   8.1650954014e+01   2.8299966967e+01    0.2483628    0.2184278 -44.61 0.0003171679    1.110    0.099
       110 -10.3195     42.9606    130.7611   1.1109790179e+02   4.3583558972e+01    0.4399123    0.2369199  36.25 0.0008411641    2.052    0.513
       111  -8.3505    206.2969    118.4804   6.7055111496e+01   1.5769386977e+01     0.309009    0.2235693  13.97 0.0008643306    1.830    0.454
       112  -7.8016    132.7121    118.3207   8.3351954321e+01   3.2125901967e+01    0.1567816    0.1247986 -84.14  0.000347536    1.599    0.375
       113  -7.5617    107.4299    118.2250   9.0129127583e+01   3.7187250230e+01    0.2014657    0.1435763 -60.49 0.0004320754    1.441    0.306
       114  -9.7642     43.7888    115.9192   1.0837279223e+02   4.7127173768e+01    0.3323054    0.2295098  -6.68  0.001712332    2.100    0.524
       115  -8.6155    133.2724    148.0222   9.0239000757e+01   2.5266799730e+01    0.4651274    0.1988094 -38.40  0.001549873    2.939    0.660
       116  -8.6257     60.3073    110.8466   1.0233812700e+02   4.6432404336e+01    0.2936545    0.1222977 -65.84   0.00108983    2.582    0.613
       117  -8.0434     36.7252    103.0023   1.0815690285e+02   5.0968708132e+01    0.1919396    0.1486702 -61.96 0.0005330718    1.073    0.068
       118  -7.5883    148.0365     97.6951   7.3891381399e+01   3.3195147857e+01      0.20888    0.1930828  41.57 0.0002590172    1.110    0.099
       119  -8.5994     90.9509     98.0191   8.9715569066e+01   4.4864365106e+01    0.2168746    0.2028177 -36.64 0.0002996743    1.027    0.026
       120  -7.7819    123.0039     84.0531   7.6279308720e+01   4.1608160707e+01    0.1860535    0.1698936 -34.55 0.0003711163    1.059    0.056
       121 -10.3363    106.8869     77.8717   7.8917204387e+01   4.6244705780e+01    0.2441195    0.2267016 -23.32  0.001324273    1.021    0.021
       122  -8.9539    203.0773     74.3926   5.6217638859e+01   2.4337994308e+01    0.3886572    0.2300554 -25.87 0.0009783587    1.867    0.464
       123  -7.2570    118.4703     76.4194   7.5133280799e+01   4.4114819819e+01    0.1524554    0.1431385  -2.67 0.0001739927    1.058    0.055
       124  -7.0961     70.6948     73.7145   8.9245622022e+01   5.3541620109e+01    0.1416055    0.1024527 -17.34 0.0003376189    1.563    0.360
       125  -7.5959    246.3347    249.6823   8.6203756365e+01  -1.1397367503e+01    0.0951652    0.0853203  33.28 0.0003379245    1.696    0.410
       126  -9.8317    171.1813     55.9323   5.6496113027e+01   3.5136337991e+01    0.3614238     0.319046 -30.57  0.001039255    1.158    0.136
       127  -7.3342    107.2716     55.0027   7.1064294944e+01   5.0447457018e+01    0.1781738    0.1242529 -33.21 0.0002804941    1.405    0.288
       128  -7.7076    152.5810     51.5357   5.8744315312e+01   4.0447762901e+01    0.1455173     0.142416 -75.13 -1.714123e-05    1.043    0.041
       129  -8.5656    132.6175    248.6835   1.0663721599e+02   5.4985014433e+00    0.1719588      0.13632   8.47 0.0009936573    1.669    0.401
       130 -10.1190    191.2578     35.1159   4.7235633335e+01   3.3051957626e+01    0.4581517    0.3690126  15.79  0.001268939    1.601    0.375
       131  -9.1773     20.0487     48.5079   1.0110585186e+02   6.4579385058e+01    0.1647701    0.1164887  10.58 0.0008826549    1.596    0.373
       132  -7.3571    133.9713     30.9885   5.5726269260e+01   4.7861298194e+01    0.1629485     0.155336  -0.54            0    1.079    0.073
       133  -7.8344    133.6722     64.9903   6.7416652880e+01   4.2816291140e+01    0.3024907    0.1985411  84.62  0.001154817    2.668    0.625
       134  -8.1138    164.7774     21.9201   4.7186782725e+01   4.1275491172e+01    0.1993236    0.1735749  44.16 0.0003789338    1.183    0.155
       135  -9.5948     90.8197    246.9281   1.1421827228e+02   1.1963422111e+01    0.3667524    0.2025596  64.32  0.001725067    1.853    0.460
       136  -8.3759     88.6056    242.4981   1.1421078874e+02   1.3051945208e+01    0.1857758    0.1470377  65.06 0.0005857287    1.069    0.064
       137  -8.7111    132.0292     18.5867   5.1729016706e+01   4.9755411281e+01    0.2290582    0.1901526  -1.10 0.0005273476    1.305    0.234
       138 -10.6993    126.6798    237.2171   1.0639799508e+02   8.3017062171e+00    0.4542272    0.2965956 -86.71  0.002459629    2.259    0.557
       139  -7.4339    233.7080    240.3125   8.6851734350e+01  -8.6264725749e+00    0.0975491   0.09032836  34.20  0.000354319    1.590    0.371
