#   1 NUMBER                 Running object number                                     
#   2 MAG_AUTO               Kron-like elliptical aperture magnitude                    [mag]
#   3 X_IMAGE                Object position along x                                    [pixel]
#   4 Y_IMAGE                Object position along y                                    [pixel]
#   5 X_WORLD                Barycenter position along world x axis                     [deg]
#   6 Y_WORLD                Barycenter position along world y axis                     [deg]
#   7 A_WORLD                Profile RMS along major axis (world units)                 [deg]
#   8 B_WORLD                Profile RMS along minor axis (world units)                 [deg]
#   9 THETA_WORLD            Position angle (CCW/world-x)                               [deg]
#  10 FWHM_WORLD             FWHM assuming a gaussian core                              [deg]
#  11 ELONGATION             A_IMAGE/B_IMAGE                                           
#  12 ELLIPTICITY            1 - B_IMAGE/A_IMAGE                                       
         1 -18.4358    240.3448    159.6539   9.7973337093e+01   2.8790333055e+00     5.416371     1.703308 -37.60   0.02015998    3.174    0.685
         2 -18.7823    128.5546    141.1335   1.1684340201e+02   2.8310542797e+01     3.920295     3.779891   5.18   0.01675086    1.108    0.098
         3 -14.3819    153.4657     39.7139   8.2448113122e+01   4.1691670918e+01     1.721719    0.6420295 -40.67  0.006034531    2.870    0.652
         4 -14.4490    172.1800     41.8831   7.9585175336e+01   3.6707283648e+01     1.467658    0.8018267  71.31  0.004816166    2.184    0.542
         5 -13.6043    170.3831     33.6044   7.7293057482e+01   3.8232500169e+01    0.7752193    0.6648827  74.24  0.002453037    1.207    0.171
         6 -14.0444    247.8829      3.8767   6.0001109709e+01   2.2511871524e+01     0.808948    0.6430428 -61.66  0.003938712    1.121    0.108
         7 -15.5213    239.4552     15.4572   6.3431405171e+01   2.3222872529e+01     2.116779    0.8723126 -49.88  0.009052357    2.427    0.588
         8 -14.2778    231.6236     24.1619   6.6341756662e+01   2.4087631979e+01     1.320048     0.273239 -37.33  0.004395399    3.625    0.724
         9 -16.0612    221.9423     17.3869   6.5620200652e+01   2.7149297347e+01      2.05404     1.288628 -71.60  0.006314692    1.789    0.441
        10 -12.2744    121.9956      9.1796   7.8040397746e+01   5.2832346739e+01    0.3966638     0.297314   6.26  0.001885722    1.364    0.267
        11 -12.8639    127.5232      5.8663   7.5625066159e+01   5.1839678501e+01    0.7541988    0.4372633  24.68    0.0035125    1.905    0.475
        12 -12.3732    188.1903      2.6038   6.5281731907e+01   3.6986151686e+01    0.5972256    0.2306982  54.71  0.002446511    2.315    0.568
        13 -11.9507    184.0128      2.0000   6.5594440358e+01   3.8095121396e+01    0.4154777    0.1757969  64.68   0.00176782    2.061    0.515
        14 -10.1162     85.6905    194.6745   1.3485798631e+02   2.4381569491e+01    0.1795222    0.1628138 -61.73 0.0006340567    1.308    0.236
        15 -15.4931    193.5182    205.3589   1.1526910208e+02   4.7138127015e+00     6.041812     2.322402 -28.67   0.02219531    4.297    0.767
        16 -14.5703    235.7354    223.7443   1.1087287886e+02  -4.5868625090e+00     1.571338    0.9096806  59.39  0.006805593    4.275    0.766
        17 -17.6499    237.9689    243.4630   1.1364191074e+02  -7.0283816835e+00     3.807061     1.160517  42.61   0.01591905    2.883    0.653
        18 -15.6501    217.4428    229.6245   1.1493960264e+02  -2.4186947957e+00    0.6849097    0.5768355  43.97  0.003216668    1.410    0.291
        19  99.0000     10.2171     90.6286   1.3926129656e+02   5.4868304945e+01     5.953865     1.945219 -54.65   0.02874781    2.256    0.557
        20 -17.5028     86.0300    228.7430   1.3833240038e+02   1.8188343185e+01     4.782296     2.184195  41.19   0.01935013    1.907    0.476
        21 -18.5141     53.3598     85.5216   1.2497983743e+02   5.2239210200e+01     14.66555    0.6420218 -56.81   0.02242591   17.348    0.942
        22 -11.1873     88.4335    190.9545   1.3386443333e+02   2.4711750476e+01    0.3554298    0.1761866 -62.06  0.001737998    2.063    0.515
        23 -16.3072    150.6275    173.0273   1.1810646536e+02   1.7845817709e+01     1.754362    0.8416813 -46.19  0.006544108    2.252    0.556
        24 -10.9798     12.5611    245.3294   1.5130804710e+02   2.3938456283e+01    0.1500793   0.06549261 -67.25  0.001007562    2.467    0.595
        25 -12.2046     98.7823    170.3103   1.2888675940e+02   2.7308034345e+01    0.3373514    0.2319172 -53.32 0.0009500206    1.522    0.343
        26 -11.1208     67.8439    182.4998   1.3707457890e+02   2.9197271331e+01    0.1136099   0.07788504 -72.77 -4.431963e-05    1.378    0.274
        27 -12.3030    206.0529    143.3140   1.0061164759e+02   1.2101492004e+01    0.6426806     0.312177 -36.07  0.002134235    2.057    0.514
        28 -12.2076     69.2398    144.3672   1.3175234999e+02   3.7116753534e+01    0.5992912    0.3269407  74.41  0.002574276    2.820    0.645
        29  99.0000     35.8855    144.3397   1.3966949611e+02   4.0934026911e+01    0.6269346    0.2838776  36.69  0.003299011    2.347    0.574
        30 -11.3635     19.1309    140.2930   1.4309705312e+02   4.3326157754e+01    0.4365805    0.4124899  22.87  0.002289582    1.422    0.297
        31 -11.4436     11.2370    136.4365   1.4452727864e+02   4.4778616084e+01    0.2674302    0.1405803  47.75  0.001259392    2.004    0.501
        32 -11.9862     30.8893    136.0509   1.3986670060e+02   4.3227678214e+01    0.3617427    0.2159753 -60.13  0.001814306    1.476    0.323
        33 -16.7526    175.8392    183.0441   1.1475760494e+02   1.1371821788e+01     2.953728     1.595358 -34.23  0.005494469    2.153    0.535
        34 -10.6525      4.1861    127.5788   1.4531908821e+02   4.7184545906e+01    0.2182851    0.1661102 -71.87  0.001081202    1.119    0.106
        35 -10.8253      5.5134    123.4759   1.4459684221e+02   4.7983429165e+01     0.217846    0.1540127 -66.53  0.001035192    1.192    0.161
        36 -10.6304    170.2978    116.1595   1.0141710865e+02   2.4689991936e+01    0.3433217    0.2335463 -72.03 0.0009485018    2.441    0.590
        37 -10.4288    205.3630    110.0429   9.2752848902e+01   1.7873782537e+01    0.2121782    0.1860071 -25.90 0.0006489851    1.101    0.091
        38 -12.0638    243.3017     92.2354   8.1957017716e+01   1.2301196724e+01    0.3372766    0.2146547  65.09  0.001612315    1.933    0.483
        39 -13.4289    248.8078     98.2507   8.2606946482e+01   1.0256739583e+01    0.8621444    0.4394189 -29.83  0.002773634    1.792    0.442
        40 -13.7625    248.9426     83.2188   7.8956860695e+01   1.2409210327e+01    0.9109309    0.5657328 -22.85  0.003022961    1.587    0.370
        41 -12.4858    243.8453     78.3490   7.8465254261e+01   1.4207094640e+01     0.367774    0.2686887 -36.02  0.001200036    1.251    0.201
        42 -14.2840    178.1068     92.5178   9.3469827227e+01   2.7235602278e+01    0.9651562     0.786688 -47.74  0.002606096    1.293    0.226
        43 -14.6264    185.7759     82.1144   8.9025005811e+01   2.7190681457e+01     1.277644    0.6696006 -37.41  0.003152959    1.859    0.462
        44 -12.8396    220.5605     82.1354   8.2890812522e+01   1.8898599650e+01    0.7091134    0.5962116  66.96  0.003175175    1.316    0.240
        45 -12.2066    213.8571     81.7334   8.3876577933e+01   2.0526702598e+01    0.4504953    0.3935731  81.99  0.001666946    1.317    0.241
        46  -9.8552     96.5729    175.2591   1.3009157966e+02   2.6634858601e+01    0.3710677    0.1922216 -45.04  0.001232879    2.399    0.583
        47 -13.5920    241.9502     70.6394   7.6810805797e+01   1.5721618463e+01    0.5797703    0.4461529 -32.31  0.002203206    1.194    0.162
        48 -13.8873    169.8424     66.0859   8.7506846065e+01   3.3718013409e+01    0.7839206    0.6156943  71.30  0.003810861    1.454    0.312
        49 -13.8070    186.3428     57.7351   8.1878409531e+01   3.0901416775e+01     0.993701    0.6534865 -34.85  0.002861421    1.499    0.333
        50 -13.8999    175.6777     55.5817   8.3175577715e+01   3.3891029862e+01    0.7504049    0.5488307 -36.00  0.002299816    1.368    0.269
        51 -13.8096    246.7814     58.6012   7.3212468864e+01   1.6305599312e+01     1.022433    0.4582587 -48.88  0.004181639    2.411    0.585
        52 -13.0005    250.0831     54.0674   7.1712660981e+01   1.6177956231e+01    0.7115598    0.2847735 -29.03  0.002900142    2.338    0.572
        53 -14.4824    157.6405     48.5976   8.4517824067e+01   3.9413068436e+01    0.8851225    0.8386608  65.13  0.002153202    1.109    0.098
        54  99.0000     17.1118    235.4775   1.5017896415e+02   2.5100530568e+01     0.295615    0.1130725 -81.93  0.001815302    2.386    0.581
        55 -13.0354    154.2270    210.9159   1.2357022571e+02   1.0648546580e+01    0.5252424    0.3265869 -51.67  0.002012466    1.925    0.481
        56 -12.6523    174.1612     26.6137   7.4462803114e+01   3.8109641662e+01    0.5230026    0.3573474  10.16  0.001479713    1.838    0.456
        57 -10.7552     17.4694    249.4273   1.5077118315e+02   2.2808840916e+01   0.09321754   0.06706654  69.32 0.0007155549    1.092    0.084
        58 -10.6887    205.4792     42.4933   7.4432270484e+01   2.8223358837e+01    0.2703731    0.1118512 -39.72  0.001033881    2.323    0.570
        59 -15.8416    234.7967    109.6637   8.7523771189e+01   1.1480071889e+01     1.330748      1.01147  83.72  0.005035412    1.956    0.489
        60  99.0000     16.6046    159.6525   1.4544061385e+02   3.9423043613e+01     2.088291    0.8048712  87.73  0.009392689    3.075    0.675
        61 -13.2776     26.7912    150.3751   1.4239397235e+02   4.0488007183e+01     0.488916    0.2750818 -89.98  0.002235566    1.662    0.398
        62  99.0000     39.5153    179.0903   1.4247298685e+02   3.3219809602e+01     1.798183     1.291084 -50.55   0.00865118    1.756    0.431
        63 -10.9894    134.8617     30.1090   8.3056030513e+01   4.7472228422e+01    0.2112427     0.197223 -77.04 0.0007588708    1.266    0.210
        64 -11.3930    124.5179     23.9856   8.3143648338e+01   5.0653216685e+01    0.3512482    0.2248133 -41.57  0.001694244    1.772    0.436
        65  99.0000     34.9498    162.4973   1.4183691562e+02   3.7126003097e+01     1.400845    0.7452242  74.86  0.007636162    2.016    0.504
        66 -11.7300    102.7118    199.3078   1.3203438383e+02   2.1014776939e+01    0.3338917    0.2376655  33.91  0.002002163    1.521    0.342
        67 -10.5819     90.3685    197.3458   1.3424146144e+02   2.3204787788e+01      0.14576    0.1114652  77.89  0.000244915    1.247    0.198
