#   1 NUMBER                 Running object number                                     
#   2 MAG_AUTO               Kron-like elliptical aperture magnitude                    [mag]
#   3 X_IMAGE                Object position along x                                    [pixel]
#   4 Y_IMAGE                Object position along y                                    [pixel]
#   5 X_WORLD                Barycenter position along world x axis                     [deg]
#   6 Y_WORLD                Barycenter position along world y axis                     [deg]
#   7 A_WORLD                Profile RMS along major axis (world units)                 [deg]
#   8 B_WORLD                Profile RMS along minor axis (world units)                 [deg]
#   9 THETA_WORLD            Position angle (CCW/world-x)                               [deg]
#  10 FWHM_WORLD             FWHM assuming a gaussian core                              [deg]
#  11 ELONGATION             A_IMAGE/B_IMAGE                                           
#  12 ELLIPTICITY            1 - B_IMAGE/A_IMAGE                                       
         1 -13.8232    177.1346     42.8365   6.7813224628e+01   3.5816400316e+01    0.9733313    0.8310552 -47.53  0.001908871    1.256    0.204
         2 -15.0812    195.3705     23.2469   6.0678960006e+01   3.3983334309e+01     2.282136     1.733891  27.08  0.001326361    2.049    0.512
         3 -14.1627    187.7979     33.5191   6.4006733349e+01   3.4503606419e+01      1.22846    0.9665815 -42.89  0.004044376    1.383    0.277
         4 -12.7820     42.4618     15.3266   9.2504223583e+01   6.6493860455e+01    0.6263852    0.2761908  15.97  0.002573259    3.902    0.744
         5 -10.3831     82.3799      5.9347   7.5593700241e+01   6.0734513161e+01    0.2145887    0.1390056  44.68 0.0003982511    1.246    0.197
         6 -11.3347     93.0644    236.8395   1.2916868495e+02   1.2326812081e+01    0.2913224    0.2316307  52.79 0.0006357859    1.112    0.100
         7 -14.8546     50.7698    226.1297   1.3679263164e+02   2.0786117242e+01     2.869255     1.063406 -52.17   0.01146718    3.508    0.715
         8 -16.0189    113.3160    239.1301   1.2518801231e+02   8.5833079924e+00     7.546871     3.463099  36.55   0.03312044    2.090    0.522
         9  -9.4025     60.6136    228.3863   1.3499348393e+02   1.8962750710e+01    0.3326087    0.1480111 -66.22  0.001054771    2.160    0.537
        10 -12.3463    106.9327    209.2971   1.2237922580e+02   1.6099884028e+01    0.6041627    0.5014503  48.91  0.003339334    1.142    0.124
        11 -11.4293     85.1653    235.7969   1.3069934426e+02   1.3773093433e+01    0.4061826     0.199468 -69.16 0.0009297036    2.190    0.543
        12  -9.3516     37.4687    206.7535   1.3767467132e+02   2.6841751700e+01    0.1916664    0.1194253  53.58 0.0004965375    1.504    0.335
        13 -12.4690    194.1181    194.3997   1.0010324183e+02   3.2060095977e+00     1.180261    0.7077504 -63.79  0.004792121    2.614    0.617
        14 -16.1280     72.7343    149.1408   1.2087837036e+02   3.6326484050e+01     5.975317     3.427377  87.62   0.01476707    3.016    0.668
        15 -10.7357     70.8030    228.5243   1.3288478504e+02   1.7488580238e+01    0.2290992    0.1678266  82.38 0.0008837029    1.269    0.212
        16  -9.3813     75.3548    201.0149   1.2851070901e+02   2.3120844501e+01    0.1962883    0.1602923 -85.52 0.0006077366    1.125    0.111
        17 -12.3766     37.8859    200.5897   1.3695856366e+02   2.8230414712e+01    0.2278785    0.1885016  74.37 0.0005586099    1.085    0.078
        18 -10.1568     87.1700    202.3196   1.2593717342e+02   2.0987700167e+01    0.4770938    0.2683307  69.24  0.001985904    2.315    0.568
        19 -13.3632     68.7675    193.7639   1.2907289383e+02   2.5828510835e+01    0.8038681    0.6478962 -66.33   0.00292668    1.202    0.168
        20  -9.6618    180.1479    192.8586   1.0276858900e+02   6.1408864950e+00    0.2262448    0.2014834  80.86 0.0009302282    1.347    0.258
        21  -9.6531     99.1798    191.8769   1.2147908956e+02   2.1506958398e+01    0.2320415     0.183056  74.92 0.0006543263    1.306    0.235
        22 -12.3200    110.4646    182.5644   1.1711812663e+02   2.1783530425e+01    0.4986953    0.2923441 -51.96  0.002169957    1.707    0.414
        23 -10.3963     81.7104    195.3215   1.2621458116e+02   2.3515318845e+01    0.3975378    0.2964765 -28.52  0.001960096    1.960    0.490
        24 -11.4128    207.6985    183.9898   9.5240794742e+01   2.7541004189e+00    0.4563371    0.2724908 -48.63  0.001290695    1.713    0.416
        25 -11.3264    211.1128    179.9109   9.3730903130e+01   2.9237665876e+00     0.494711    0.3006402 -33.04  0.001842029    1.667    0.400
        26 -11.2724     99.4382    180.6316   1.1952622006e+02   2.4192725566e+01    0.2983922    0.2767437  51.05 0.0005993128    1.113    0.102
        27  -8.9884     53.2612    181.2153   1.3110500939e+02   3.1005846091e+01    0.1157243    0.1008975 -41.66 0.0006628722    1.390    0.281
        28 -10.2871    193.9404    165.3812   9.4147076748e+01   9.1782405399e+00    0.3594897    0.2399085 -55.76  0.001389793    1.629    0.386
        29 -10.4864    198.1866    176.5656   9.5638468435e+01   6.0308601656e+00    0.3416094    0.2870978  44.20  0.001159743    1.246    0.197
        30 -11.2502    196.2969    171.1898   9.4898877214e+01   7.5023817456e+00    0.4428216    0.3690208 -45.05  0.001186959    1.167    0.143
        31 -12.0551    143.6413    172.1410   1.0693994308e+02   1.7927187033e+01    0.5525707    0.3992469 -69.61  0.002484186    1.619    0.382
        32 -10.8604    145.8652    168.3689   1.0561843629e+02   1.8357990664e+01    0.2958309    0.2341604 -62.59 0.0005515194    1.323    0.244
        33 -13.3552    113.5049    197.6022   1.1897968990e+02   1.7659342394e+01    0.6661992    0.4758848 -64.12  0.002755205    1.433    0.302
        34 -19.3850     13.4506    134.0517   1.3502730139e+02   4.6607761853e+01      19.3849     2.051743 -69.10   0.03982287   10.148    0.901
        35 -10.0405    177.4973    169.4754   9.8545127508e+01   1.1635895707e+01    0.1505146    0.1480945 -36.02 -1.237575e-06    1.006    0.006
        36  -9.8069    224.6910    165.3447   8.8127379374e+01   3.2522199600e+00    0.1413434    0.1103718 -72.75 0.0007044473    1.700    0.412
        37 -10.5705    164.0475    215.9661   1.1059449352e+02   4.4146526971e+00    0.2211468    0.2079009  18.61 0.0009354497    1.044    0.042
        38 -10.2492    140.4441    157.0261   1.0450766369e+02   2.2128407823e+01    0.2656457    0.2125297  63.23 0.0001207466    1.358    0.264
        39 -10.6992    167.4383    155.2021   9.7676553125e+01   1.6880447441e+01     0.271713    0.2011266 -67.05 0.0008152645    1.578    0.366
        40 -11.5168    148.1996    149.3062   1.0087541941e+02   2.2314480420e+01    0.6606221    0.3780936  67.48  0.002238247    2.950    0.661
        41 -11.5696    133.7756    144.3140   1.0332658878e+02   2.6510852570e+01     1.112513     0.305295 -53.88  0.002819051    4.497    0.778
        42 -10.6657    174.4128    148.3963   9.4570135531e+01   1.6899771548e+01    0.3957556    0.2973331 -61.20  0.001251778    1.438    0.304
        43 -11.8393    107.5764    141.2850   1.0957286248e+02   3.2426158974e+01    0.6020056    0.3638803 -33.86  0.002409036    2.085    0.520
        44 -12.4243     95.7688    141.7166   1.1293276016e+02   3.4457731178e+01    0.3076839    0.2817656 -29.07 0.0005965863    1.182    0.154
        45 -11.0466    141.8599    138.7368   9.9981928437e+01   2.6113059510e+01    0.3519875    0.2177191 -48.83 0.0009981811    1.593    0.372
        46 -11.0949    114.9592    131.2519   1.0522653816e+02   3.3413894998e+01    0.3592062     0.313062  -7.30 0.0008983825    1.353    0.261
        47 -11.7627    119.3968    127.6043   1.0313717437e+02   3.3384553262e+01    0.6346205     0.362464 -46.88  0.002258839    1.715    0.417
        48 -11.3174    102.7557    127.5990   1.0774827268e+02   3.6610271129e+01    0.3128961    0.2813801 -13.14 0.0007162717    1.239    0.193
        49 -11.1317    135.8662    122.7874   9.7602742343e+01   3.1040708773e+01    0.5783222    0.2298006 -46.83  0.001915501    2.488    0.598
        50 -10.4700    160.4888    127.4735   9.2778381025e+01   2.4564597508e+01    0.3547413    0.2542393 -71.47  0.001167558    1.745    0.427
        51 -10.8233    105.9895    130.9916   1.0764368668e+02   3.5201322802e+01    0.3602709    0.3194624 -79.75  0.001238446    1.199    0.166
        52 -10.3458    110.3103    119.9249   1.0373426204e+02   3.6964152654e+01    0.2615911     0.218713  31.69 0.0002217157    1.265    0.210
        53 -10.2579    168.0169    112.8657   8.7465060256e+01   2.5962405236e+01    0.3524733    0.2557381 -73.04  0.001257079    1.701    0.412
        54 -11.0530    119.9605    110.9342   9.8747739019e+01   3.7041082264e+01    0.4823625    0.2416771  61.34  0.001548837    3.369    0.703
        55 -10.2276    205.4868    110.1639   7.9431091183e+01   1.7989421804e+01    0.3090613    0.2124802  45.95 0.0009005412    1.614    0.380
        56  -9.7836    134.5512    103.6483   9.2960174486e+01   3.5473335813e+01    0.3820505    0.1491136 -45.72  0.001300343    2.579    0.612
        57 -12.3313     36.0152    230.0632   1.4010212864e+02   2.1783148560e+01    0.3855005     0.210401 -78.89 0.0004235648    1.644    0.392
        58 -11.9756     37.8327    226.2266   1.3941431623e+02   2.2400132220e+01    0.2570098    0.1755474  68.80 0.0004748675    1.240    0.194
        59  -9.5497     70.2128     72.2186   1.0281786283e+02   5.4015555216e+01    0.1627874    0.1588754  78.04 0.0003448837    1.304    0.233
        60 -10.8415    168.2099     68.1179   7.5861007567e+01   3.4220815347e+01    0.5775666    0.3233004 -85.99  0.001976395    3.576    0.720
        61 -12.3177     40.2760    213.3757   1.3772919578e+02   2.4981906979e+01    0.2552063    0.1714093  62.40  0.001036721    1.337    0.252
        62 -10.4420     43.9955    210.0349   1.3660640194e+02   2.5291449203e+01    0.3644401    0.1533982  57.00  0.001348606    2.499    0.600
        63 -12.5940    116.4026    211.4683   1.2053815730e+02   1.3971323538e+01    0.6609578    0.4016314 -82.75  0.002645454    2.359    0.576
        64 -12.5659    105.7096    200.3540   1.2127674849e+02   1.8378417376e+01    0.7474694    0.4946808  63.23  0.003503828    1.652    0.395
        65  -9.0350    114.4176     49.4730   8.2229777625e+01   4.9426908456e+01    0.1340587    0.1240408  37.60  0.000121123    1.022    0.021
        66 -10.4107    177.6028    237.2396   1.1133466943e+02  -1.9769504173e+00    0.2326096     0.197797  61.85 0.0008754556    1.420    0.296
