#   1 NUMBER                 Running object number                                     
#   2 MAG_AUTO               Kron-like elliptical aperture magnitude                    [mag]
#   3 X_IMAGE                Object position along x                                    [pixel]
#   4 Y_IMAGE                Object position along y                                    [pixel]
#   5 X_WORLD                Barycenter position along world x axis                     [deg]
#   6 Y_WORLD                Barycenter position along world y axis                     [deg]
#   7 A_WORLD                Profile RMS along major axis (world units)                 [deg]
#   8 B_WORLD                Profile RMS along minor axis (world units)                 [deg]
#   9 THETA_WORLD            Position angle (CCW/world-x)                               [deg]
#  10 FWHM_WORLD             FWHM assuming a gaussian core                              [deg]
#  11 ELONGATION             A_IMAGE/B_IMAGE                                           
#  12 ELLIPTICITY            1 - B_IMAGE/A_IMAGE                                       
         1 -12.6843    241.4643    107.8502   2.8959905522e+02   5.1351677821e+00    0.1580437   0.03398894 -62.52  0.009446421    4.562    0.781
         2 -10.4986    204.1026     17.6533   2.8949146199e+02   6.3985472655e+00   0.05257276   0.02149777  55.25  0.003290553    4.705    0.787
         3 -13.0588    220.0717     35.5063   2.8941300837e+02   6.0986693856e+00    0.1841193   0.09644722  85.46   0.01292277    4.012    0.751
         4 -11.1908    229.4312     23.6009   2.8923246809e+02   6.1821367336e+00   0.02958526   0.01870804 -27.95  0.001535531    1.958    0.489
         5 -11.3833    165.8208     54.6364   2.9015968817e+02   6.1922814356e+00   0.08749133    0.0395752  61.12  0.005420759    4.981    0.799
         6 -10.0082    221.5340     13.6958   2.8926473613e+02   6.3429055445e+00   0.03272956    0.0165487  62.81  0.002419916    3.487    0.713
         7 -10.3795    212.5410      4.6126   2.8931472546e+02   6.5005140029e+00   0.02662456   0.01543683  75.72  0.001501272    2.861    0.650
         8 -11.0554    238.0761     11.3970   2.8905843241e+02   6.2731461901e+00   0.02835441   0.01662427  69.32  0.001845769    2.623    0.619
         9  -9.1167    235.9808      2.1439   2.8902708253e+02   6.3925293013e+00   0.01278749   0.01035688 -50.70  0.001182241    1.215    0.177
        10  -8.6905    125.5866     14.7957   2.9038933515e+02   6.8878843933e+00   0.01317994   0.01034554  89.34 0.0008112598    1.468    0.319
        11 -11.9161    119.5830      9.5260   2.9042770120e+02   6.9837987435e+00   0.03678889   0.02700501  11.69  0.002854399    1.488    0.328
        12  -9.4962     97.1532     11.8705   2.9070353450e+02   7.0865800204e+00   0.01061053  0.009009455  61.53 0.0008643643    1.279    0.218
        13 -10.6155      6.9692      8.6775   2.9173777684e+02   7.6444005224e+00   0.02724859   0.01225397  26.37  0.002340144    2.236    0.553
        14  -8.1395    249.7198      3.0709   2.8887286824e+02   6.3016824263e+00   0.01205644  0.008545866  37.82   0.00129005    1.411    0.291
        15  -9.3124    183.2762      2.6243   2.8964357495e+02   6.6938847537e+00   0.02205014  0.009066726  40.87  0.001798988    2.472    0.595
        16  -8.9505    172.1099      2.6613   2.8977391099e+02   6.7583929418e+00   0.01788963    0.0118785  73.12  0.001403567    2.029    0.507
        17  -8.5894     98.3310      3.6783   2.9064056961e+02   7.1747508744e+00  0.007034753  0.004952876  61.80 0.0007049417    1.697    0.411
        18  -9.2574    143.9597      6.5770   2.9012563533e+02   6.8765571185e+00   0.01360477  0.008580707 -45.53  0.001040021    1.604    0.376
        19  -8.4623    227.6860     11.6320   2.8918072429e+02   6.3309743535e+00    0.0122773   0.00825198  61.91 0.0006193197    1.831    0.454
        20  -9.2129    208.4828     11.5254   2.8940358551e+02   6.4440574270e+00   0.01834684   0.01269713  74.14  0.001252201    1.873    0.466
        21  -8.1775    169.4669    246.5372   2.9126650626e+02   3.9424457432e+00  0.006512735   0.00646224 -38.48 0.0001150153    1.007    0.007
        22  -8.1392    224.2625    121.3943   2.8988034107e+02   5.0780188568e+00  0.009518921  0.005854339  38.43 0.0009393295    1.623    0.384
        23  -9.6179    186.1462    119.7260   2.9031371188e+02   5.3187979351e+00   0.01168495  0.009331564 -78.74  0.001131386    1.352    0.261
        24  -8.0551    213.9721    115.4992   2.8996462750e+02   5.2062459123e+00   0.01012855  0.004676342  48.24 0.0008099949    2.577    0.612
        25  -9.9743    167.6365    113.2960   2.9049060476e+02   5.5008806907e+00   0.01565907   0.01280862  68.37 0.0007388592    1.378    0.274
        26  -8.3218     46.4535    114.4837   2.9191000200e+02   6.1882913431e+00   0.01284476  0.006575884  25.20  0.001158382    1.991    0.498
        27  -8.9457    205.3656    110.2469   2.9003321738e+02   5.3172186501e+00   0.01894483  0.008927031  15.41  0.001517198    2.723    0.633
        28 -10.9585    188.4998    103.7776   2.9019064712e+02   5.4902825784e+00   0.04439715   0.00973617 -53.70  0.002885648    3.762    0.734
        29 -10.1107    186.2641     98.7665   2.9018659640e+02   5.5614350924e+00   0.01752831   0.01160795 -61.44  0.001820096    1.491    0.330
        30  -8.3322    179.1927    105.4147   2.9030880045e+02   5.5253187043e+00  0.009661037  0.005799123  39.60 0.0009405076    1.674    0.403
        31  -8.0936    139.8084    103.3678   2.9075517584e+02   5.7775510290e+00  0.008930363  0.006323391   9.72 0.0001192279    1.587    0.370
        32  -8.2822    230.4875     98.5159   2.8967060588e+02   5.3073160519e+00   0.01172764  0.005509697  38.52 0.0006998012    2.102    0.524
        33  -9.1717    149.7299     94.1358   2.9058423954e+02   5.8272260100e+00   0.01606963   0.01170701 -34.00 0.0009264909    1.487    0.328
        34  -8.3443    135.6287     92.2802   2.9073740173e+02   5.9305280687e+00     0.011327   0.00952511  63.46 0.0004885446    1.303    0.233
        35  -9.9584    186.3542     90.0612   2.9013329756e+02   5.6619529024e+00   0.02368156    0.0114378 -66.73  0.002056332    2.200    0.545
        36 -10.4222    160.7946     83.8292   2.9039351737e+02   5.8826856996e+00    0.0267874   0.01935755 -26.18   0.00262958    1.589    0.371
        37  -8.4805     84.2481    245.3541   2.9225045472e+02   4.4488326103e+00  0.009636277  0.005817411  35.98 0.0009450071    1.635    0.388
        38 -11.6749    177.4261     51.1017   2.9000326354e+02   6.1658723857e+00   0.02808608   0.01487005 -42.57  0.001242005    2.028    0.507
        39 -10.6585    150.3937     44.3024   2.9027737732e+02   6.4017332866e+00    0.0310924   0.01890154  57.58  0.002456688    2.058    0.514
        40 -10.9151    141.9920     41.1317   2.9035626411e+02   6.4872719670e+00   0.04384734   0.02076454  59.12   0.00313181    3.682    0.728
        41 -11.4788    133.2734     37.8192   2.9043801724e+02   6.5762769120e+00   0.03304805   0.02855383 -70.59   0.00392771    1.183    0.155
        42  -8.0990    126.5183    236.4589   2.9170573201e+02   4.3080310580e+00  0.006551593  0.006427469  63.44 8.802518e-05    1.044    0.042
        43 -10.8044    182.7145     80.4043   2.9011769333e+02   5.7951685428e+00   0.03707563   0.02626272 -76.21  0.003621188    1.561    0.359
        44 -11.2660    176.8763     69.9637   2.9012297841e+02   5.9502356105e+00   0.03951839     0.030923 -62.52  0.001329504    1.272    0.214
        45  -9.4587    143.4968     82.6753   2.9058811410e+02   5.9964278650e+00   0.01426921   0.01179691 -75.41 0.0008123911    1.272    0.214
        46  -9.2719     58.5371    130.1171   2.9186251907e+02   5.9368859115e+00   0.01806485   0.01098641  68.87  0.001471897    2.378    0.579
        47 -10.7420    158.8089     72.3969   2.9034803157e+02   6.0269012355e+00   0.01715093   0.01156537 -50.98 0.0007042519    1.451    0.311
        48 -10.0581    205.9665     59.0269   2.8971859633e+02   5.9080310175e+00    0.0527811   0.02328464  62.44  0.002813363    6.770    0.852
        49 -10.2902    194.7463     53.7986   2.8981777940e+02   6.0339186195e+00   0.01634175   0.01316522  -8.64 0.0008512798    1.390    0.281
        50 -10.3910    200.5295     48.9674   2.8972141065e+02   6.0563172850e+00   0.02232281   0.01457946 -18.54  0.001188805    1.997    0.499
        51  -8.9358    207.3690     66.0049   2.8974421258e+02   5.8189366440e+00   0.02257224   0.01001093  58.08  0.001472507    4.339    0.770
        52  -9.1481    165.3434     66.1909   2.9023464790e+02   6.0609899140e+00   0.01366141  0.007595168  51.61  0.001229384    2.137    0.532
        53  -8.3331    191.6277     63.9637   2.8991517314e+02   5.9341375136e+00   0.00895817  0.007813046 -56.46 0.0004266408    1.130    0.115
        54  -9.5858    184.5052     62.9232   2.8999185060e+02   5.9876016719e+00   0.01162686   0.01018226  12.32 0.0003536995    1.178    0.151
        55  -7.8310    153.9925     67.5024   2.9037476275e+02   6.1116570475e+00  0.009273092  0.006497356  27.33 -0.0002548821    1.430    0.301
        56  -8.9971    132.1391     52.5376   2.9053962654e+02   6.4120871619e+00   0.01119468  0.009070277 -57.28 5.446852e-05    1.213    0.176
        57  -9.4739    246.7059     50.6469   2.8919430051e+02   5.7680554684e+00   0.01198816    0.0106746 -24.13 0.0005761984    1.168    0.144
        58  -7.7352     78.1842     41.8797   2.9110506172e+02   6.8482104094e+00  0.008902534   0.00509994 -65.24 0.0007132349    1.782    0.439
        59  -7.8758    187.7831     37.4439   2.8980054001e+02   6.2640697974e+00  0.008619677  0.006448786   6.16  0.000329836    1.499    0.333
        60 -10.1218    122.5508     36.7746   2.9055678566e+02   6.6505687894e+00   0.01508103   0.01285847 -66.78  0.001773474    1.184    0.156
        61  -8.7744    239.0345     33.5220   2.8918046942e+02   6.0112252207e+00   0.01417157  0.008143663 -45.49  0.000559703    1.774    0.436
        62 -10.3655    141.9811     28.9090   2.9028295596e+02   6.6291091195e+00   0.01191012   0.01063803 -51.13  0.000271438    1.104    0.094
        63  -7.9052    177.6102     26.8277   2.8985519649e+02   6.4463034377e+00  0.009225936  0.006369457 -80.35 0.0009324474    1.683    0.406
        64  -9.1607    128.0376     22.4926   2.9040699989e+02   6.7844152914e+00   0.01026005  0.006550507  25.00 0.0007592835    1.589    0.371
        65  -9.1154    135.8569     19.6763   2.9029888039e+02   6.7717151935e+00   0.01344924   0.00641711  15.96  0.001087702    2.620    0.618
        66  -7.9989     65.1397     18.8292   2.9111905931e+02   7.1910709847e+00  0.009452729  0.007447203 -37.39 0.0005471293    1.314    0.239
        67  -8.5279    124.0430    128.3809   2.9108868981e+02   5.5783503442e+00   0.01022882  0.008538212 -43.81 0.0004141038    1.197    0.165
        68  -7.8549    132.0000    231.9713   2.9161520459e+02   4.3284878143e+00    0.0112616  0.003740937 -62.82 0.0008089765    2.988    0.665
        69 -11.9689      4.4751    224.7556   2.9305637940e+02   5.1480310446e+00   0.04756067   0.03011019 -63.07  0.004849174    1.571    0.364
        70  -8.4912     36.9921    226.9958   2.9269113884e+02   4.9347977233e+00  0.009968296  0.009433986 -44.05 0.0004146377    1.045    0.043
        71 -12.5496     30.0033    201.4508   2.9262050152e+02   5.2721041861e+00   0.04517759   0.04131168 -64.46  0.003108765    1.093    0.085
        72 -10.9604     38.5797    193.7879   2.9247497508e+02   5.3117953730e+00   0.02455078   0.01893055 -18.21  0.001116887    1.479    0.324
        73 -12.6595     46.1635    186.9405   2.9234583439e+02   5.3476988107e+00   0.06456977   0.05142183  -5.41  0.005282397    1.410    0.291
        74  -9.8978    181.0599    197.4386   2.9083833825e+02   4.4457102252e+00   0.01128206  0.009790136 -70.40 0.0001691884    1.176    0.149
        75  -8.1129      9.0856    153.4985   2.9257862083e+02   5.9501106989e+00  0.009928135  0.006556502  24.52 0.0009222392    1.539    0.350
        76 -10.1555     67.5620    144.2641   2.9184183820e+02   5.7203636852e+00   0.03145425   0.01720024  47.54  0.002350281    2.032    0.508
        77  -9.0290    126.3131    143.3567   2.9115188652e+02   5.3912141268e+00   0.01222038   0.01072784  87.43 0.0007649314    1.234    0.189
        78  -9.2029    191.2358    133.8688   2.9033929500e+02   5.1250379892e+00   0.01060495   0.01025425  46.93 0.0003627334    1.054    0.051
        79 -11.6917    239.6973    125.7630   2.8972713633e+02   4.9375915303e+00   0.04058376   0.03446459 -16.81  0.004753703    1.271    0.213
        80  -8.0022    237.5073    249.5028   2.9049385319e+02   3.5138368199e+00  0.006520836  0.006482272  80.18 0.0008105178    1.025    0.024
        81  -7.7293    155.3514     14.1571   2.9003839858e+02   6.7225372467e+00  0.009126749   0.00628289 -76.87 0.0005354122    1.634    0.388
        82  -9.2326     59.1863    248.7469   2.9256222711e+02   4.5539696290e+00   0.01172426   0.01019958 -34.54 0.0003300309    1.175    0.149
