#   1 NUMBER                 Running object number                                     
#   2 MAG_AUTO               Kron-like elliptical aperture magnitude                    [mag]
#   3 X_IMAGE                Object position along x                                    [pixel]
#   4 Y_IMAGE                Object position along y                                    [pixel]
#   5 X_WORLD                Barycenter position along world x axis                     [deg]
#   6 Y_WORLD                Barycenter position along world y axis                     [deg]
#   7 A_WORLD                Profile RMS along major axis (world units)                 [deg]
#   8 B_WORLD                Profile RMS along minor axis (world units)                 [deg]
#   9 THETA_WORLD            Position angle (CCW/world-x)                               [deg]
#  10 FWHM_WORLD             FWHM assuming a gaussian core                              [deg]
#  11 ELONGATION             A_IMAGE/B_IMAGE                                           
#  12 ELLIPTICITY            1 - B_IMAGE/A_IMAGE                                       
         1 -13.1761     58.9395    132.8306   2.9196392049e+02   5.8934576344e+00    0.1499124   0.05328927 -75.10  0.007022297    8.293    0.879
         2 -13.0871    205.1172      1.9564   2.8946390230e+02   6.5203181093e+00   0.07481918   0.03837727  30.12  0.002590983    1.916    0.478
         3 -14.2579    183.9325     24.4355   2.8984816701e+02   6.3899161707e+00   0.09213534   0.06270955 -52.33  0.005561636    1.437    0.304
         4 -13.9806    191.2915     17.3893   2.8971941754e+02   6.4264971293e+00   0.08021624   0.05860875 -83.23  0.005204246    1.603    0.376
         5 -12.7974    197.0394      9.6552   2.8960501347e+02   6.4806534148e+00   0.03229976   0.02751324 -26.50  0.001337902    1.244    0.196
         6 -10.4482     45.0042      2.2568   2.9131895528e+02   7.4789907549e+00  0.008942328  0.005693771  26.94 0.0008947564    1.580    0.367
         7 -10.5598    198.5859    245.7867   2.9104725494e+02   3.7558015103e+00  0.009365486  0.006479514 -76.97 0.0006420526    1.645    0.392
         8 -10.3256    248.9169    250.3353   2.9049539218e+02   3.4012163727e+00   0.01610147  0.008496541  18.87  0.001427649    2.168    0.539
         9 -12.2102    139.5011    248.0890   2.9174279318e+02   4.0836968677e+00   0.03022693   0.01834709 -64.17  0.002997064    1.675    0.403
        10 -16.4396     58.2273    212.4271   2.9246185414e+02   4.9809045059e+00    0.4306871     0.230628  45.63   0.03961633    2.015    0.504
        11 -10.8468    192.8147    194.4030   2.9079703160e+02   4.3817810017e+00   0.04465189   0.02119718 -87.79  0.002486245    6.295    0.841
        12 -11.9688     76.6871    192.8574   2.9212829430e+02   5.0959393810e+00   0.02360546   0.01254547 -40.87  0.002125128    2.089    0.521
        13 -11.9317     80.6135    186.3907   2.9204314237e+02   5.1469286837e+00   0.01633259   0.01220632 -39.76 0.0007961572    1.388    0.279
        14 -10.0554     65.6035    193.0712   2.9225767620e+02   5.1597755151e+00   0.01327144   0.01011391  18.10  0.001393538    1.374    0.272
        15 -10.3731     60.6738    190.7236   2.9230020688e+02   5.2162955088e+00    0.0182343   0.01440584 -79.74  0.001337386    1.390    0.280
        16  -8.8719    181.6111    192.1968   2.9091267373e+02   4.4744727564e+00  0.008930685   0.00591072 -49.84 0.0002218089    1.487    0.328
        17 -18.0388      2.2357    127.9755   2.9259013403e+02   6.2880287609e+00    0.9714046   0.03580654 -61.79   0.02876959   18.619    0.946
        18  -9.6764    221.6335    177.6790   2.9036141248e+02   4.4009786788e+00  0.007221383  0.004923325 -24.68 0.0007038268    1.788    0.441
        19 -11.5553     88.1572    174.7234   2.9188415467e+02   5.2361515257e+00   0.01397536   0.01214153 -33.18 0.0004333201    1.185    0.156
        20 -12.1421     56.9597    145.4308   2.9206443820e+02   5.7601958242e+00   0.02857239   0.01854804  29.61  0.002952609    1.531    0.347
        21 -11.4215    122.6471    240.2040   2.9188877011e+02   4.2754727408e+00   0.01318985   0.01141454  75.11 0.0008037796    1.275    0.216
        22 -11.3094    144.2267    242.6409   2.9165476468e+02   4.1180978424e+00   0.01308937   0.01142159  84.60 0.0004306558    1.256    0.204
        23 -13.5774     67.9137    144.5756   2.9193249055e+02   5.7045187433e+00   0.07261037   0.04200169 -86.46  0.006234395    2.586    0.613
        24  -9.7910    230.0000    165.9826   2.9019267807e+02   4.4851969639e+00   0.01087272  0.003745186 -61.75 0.0004556179    2.886    0.654
        25 -11.0446     39.8422    161.8766   2.9236361473e+02   5.6730939833e+00   0.01530047   0.01283563 -68.96    0.0017189    1.219    0.180
        26 -13.4878     76.3994    171.8147   2.9200213238e+02   5.3400329578e+00    0.0260025   0.01405958 -38.19  0.001568665    2.150    0.535
        27  -9.1712    194.2072    156.7862   2.9054873067e+02   4.8062858786e+00  0.009584316  0.007771024 -26.51 0.0005690074    1.338    0.253
        28 -10.8548     22.3171    155.1422   2.9252487674e+02   5.8553202700e+00   0.01408353   0.01078451  40.17 0.0004921029    1.318    0.241
        29 -10.4245     49.8475    151.9285   2.9218669682e+02   5.7278862217e+00   0.01002336  0.008672554 -32.24 0.0003098519    1.195    0.163
        30 -10.9104    104.9922    149.3161   2.9153303206e+02   5.4278818677e+00   0.01591532   0.01379866 -40.66  0.001078859    1.161    0.139
        31  -9.9194    107.3802    145.4124   2.9148135772e+02   5.4585149449e+00   0.01546482  0.009190603 -47.94  0.001514405    1.675    0.403
        32 -12.3764     94.0319    149.0477   2.9165806884e+02   5.4966469200e+00   0.01382184   0.01236396 -14.66 0.0004661192    1.177    0.150
        33 -10.2593    134.0000    143.9836   2.9116491147e+02   5.3153018702e+00   0.03109833   0.01089293 -72.67  0.001744373    5.594    0.821
        34 -11.4285     46.5178    145.4948   2.9218560119e+02   5.8218877337e+00   0.01679574   0.01266606 -86.54   0.00180993    1.551    0.355
        35 -10.1238    113.9108    135.3766   2.9134396022e+02   5.5348992059e+00   0.01614479   0.01005789 -32.04 0.0009983297    1.921    0.480
        36 -11.5016     70.0663    134.7265   2.9184690616e+02   5.8050535552e+00   0.02778457   0.01026804  37.43  0.002170946    2.588    0.614
        37 -10.9241    101.7699    132.4620   2.9146633026e+02   5.6412412339e+00   0.01508206   0.01112569 -31.45 0.0008718993    1.496    0.332
        38 -12.4591     45.0517    129.0549   2.9210132172e+02   6.0199778033e+00   0.03998611   0.02054957  53.75  0.003363578    2.549    0.608
        39  -9.9685    118.9656    128.0554   2.9124034574e+02   5.5888583676e+00   0.01104148  0.007626085 -28.78  0.001120509    1.689    0.408
        40  -9.9342    109.8643    122.9445   2.9131401220e+02   5.7022767082e+00  0.009466777  0.009314992 -24.54 0.0003906344    1.010    0.010
        41  -9.1378    135.0000    120.0246   2.9100542017e+02   5.5850668653e+00    0.0109911  0.003745397 -61.82  0.000798912    2.918    0.657
        42 -15.6409     18.1110    243.7628   2.9311741055e+02   4.8594206040e+00    0.1518722   0.08153728 -50.64     0.011872    1.815    0.449
        43 -10.8361    168.2584    113.0591   2.9057808342e+02   5.4654091123e+00   0.01686592   0.01223725  62.71  0.001077771    1.635    0.388
        44  -9.5260    161.2372    128.2381   2.9075301008e+02   5.3329612868e+00    0.0106554  0.005697748 -76.48 0.0008934041    2.457    0.593
        45 -11.4231    162.6962    248.3562   2.9147688783e+02   3.9415653962e+00   0.02462946   0.01600175 -80.88  0.002411264    1.892    0.472
        46  -9.5446    204.9202    110.6904   2.9014009123e+02   5.2721031036e+00   0.01713922    0.0100704  -3.99  0.001452482    2.641    0.621
        47  -9.6951     59.9236     97.4170   2.9173417790e+02   6.2952828890e+00   0.01015755  0.009131107  88.87 0.0003719268    1.192    0.161
        48 -11.0530     21.0910     92.8343   2.9215546475e+02   6.5801431567e+00   0.01563893   0.01075659  26.90 0.0008198064    1.463    0.316
        49  -9.1343    153.5008     75.4993   2.9051627541e+02   5.9861629324e+00  0.006570223  0.006438131 -29.52 0.0008106597    1.014    0.013
        50 -12.0231    173.0784    220.8094   2.9118751299e+02   4.1963672943e+00   0.02306631   0.02006392 -25.10  0.002381989    1.210    0.174
        51 -11.5369    183.0925    215.6907   2.9104045488e+02   4.1951711122e+00   0.01773783   0.01378623 -19.94   0.00195338    1.466    0.318
        52 -10.7887    230.0368    207.4930   2.9044861789e+02   4.0074641294e+00   0.01181564   0.01101929  78.28 0.0003912501    1.132    0.117
        53 -12.2948    125.4295    243.9594   2.9187975311e+02   4.2155605988e+00   0.02372482   0.01642689  63.65   0.00227265    1.778    0.437
        54 -10.5851    224.5333    245.5076   2.9074650308e+02   3.6032151112e+00   0.01209917   0.00663673  11.46  0.001038624    2.385    0.581
        55 -13.5250     91.5733    165.7978   2.9178970487e+02   5.3184879600e+00    0.2252726   0.01870918  36.54  0.001897334    6.340    0.842
        56 -10.1759     41.5017     17.5090   2.9145391330e+02   7.3246630950e+00  0.006531861  0.006460254 -30.79 0.0001595851    1.001    0.001
