#   1 NUMBER                 Running object number                                     
#   2 MAG_AUTO               Kron-like elliptical aperture magnitude                    [mag]
#   3 X_IMAGE                Object position along x                                    [pixel]
#   4 Y_IMAGE                Object position along y                                    [pixel]
#   5 X_WORLD                Barycenter position along world x axis                     [deg]
#   6 Y_WORLD                Barycenter position along world y axis                     [deg]
#   7 A_WORLD                Profile RMS along major axis (world units)                 [deg]
#   8 B_WORLD                Profile RMS along minor axis (world units)                 [deg]
#   9 THETA_WORLD            Position angle (CCW/world-x)                               [deg]
#  10 FWHM_WORLD             FWHM assuming a gaussian core                              [deg]
#  11 ELONGATION             A_IMAGE/B_IMAGE                                           
#  12 ELLIPTICITY            1 - B_IMAGE/A_IMAGE                                       
         1 -13.1486     59.2612    132.3525   8.1127405848e+01   4.1633284417e+01     2.487291    0.8715174 -70.83  0.008990722    3.214    0.689
         2 -13.0034    206.4908     48.3035   2.4832380597e+01   2.7050566014e+01     1.089609    0.9914571  75.70  0.003680227    1.091    0.083
         3 -13.3963    218.1819     38.9922   2.0834245780e+01   2.5427564227e+01     1.049641    0.8240206  45.07  0.002294527    1.519    0.342
         4 -10.6486      2.2130     24.1583   7.7713023675e+01   6.9689739603e+01    0.2921916    0.1049906 -59.52  0.001497375    2.408    0.585
         5 -12.5437    245.4093     15.2254   1.2288969984e+01   2.1928137264e+01     0.889671    0.7062297 -62.45  0.004642848    1.084    0.078
         6 -10.8857     11.6698     11.6159   6.8699447773e+01   7.1219349717e+01    0.3148474   0.09675522 -47.38  0.001577405    2.520    0.603
         7 -10.1183      2.3575      3.6264   7.0343374848e+01   7.3107966735e+01    0.2665041   0.06159043 -47.61  0.001263271    2.991    0.666
         8 -11.5665    134.3138    203.9632   7.4460677059e+01   1.3652829330e+01    0.5412248     0.184333  38.96  0.001976503    2.970    0.663
         9 -10.1208     75.5791    247.0706   9.0311533815e+01   1.5359974738e+01    0.4134885    0.1561811 -61.18  0.002134741    3.094    0.677
        10 -11.1785     71.8913    243.1657   9.0646687440e+01   1.6558398222e+01    0.5204489    0.2412079 -73.59  0.002951598    2.315    0.568
        11 -14.3877     47.3895    180.1565   8.9888181237e+01   3.2280828627e+01     7.835708      1.31229  52.14  0.003017272    7.650    0.869
        12 -10.1412     55.6111    191.1876   8.9238381853e+01   2.8872726353e+01    0.3977849    0.1942037  83.98  0.001531277    2.282    0.562
        13  -8.3265    185.3189    189.7075   6.1777608109e+01   6.4941158035e+00     0.135025    0.1050483  72.77  0.000408276    1.605    0.377
        14 -10.1171     99.1047    180.9716   7.8708253326e+01   2.4545962384e+01    0.2839455    0.2258907  48.37 0.0007394376    1.236    0.191
        15  -9.5798    120.6536    180.2762   7.3834784180e+01   2.0889524626e+01     0.245095    0.1908188  77.27 0.0006555847    1.269    0.212
        16  -9.5660    181.5736    179.3289   6.0640570401e+01   9.0761847542e+00    0.2509304     0.139386 -49.92  0.001122962    2.055    0.513
        17 -10.3303     69.7412    171.3834   8.4016138152e+01   3.1239987786e+01    0.3411829    0.2747682  28.15  0.002028712    1.649    0.394
        18 -12.8371     74.6072    166.3401   8.2252851428e+01   3.1662703269e+01     4.067532          nan  42.11  0.009680394    7.714    0.870
        19  -9.3540    140.6310    248.8606   7.8948804127e+01   4.9237581810e+00    0.1513348    0.1085047 -81.49 0.0009519573    1.813    0.448
        20 -11.4246     67.9513    162.7015   8.3319401809e+01   3.3446318851e+01    0.3522164    0.2694286 -48.05 0.0008603752    1.644    0.392
        21 -12.7203     65.0734    149.8348   8.2254846662e+01   3.6793420767e+01    0.4748414    0.3979088 -49.92  0.002244093    1.428    0.300
        22 -12.5718     69.7985    144.7868   8.0336007881e+01   3.7303119915e+01    0.7435039    0.4404629  76.18  0.003087587    2.015    0.504
        23  -9.6509    243.3273    171.3202   4.7467406589e+01  -1.5982893546e+00    0.1363208   0.09476656   8.40 0.0007047401    1.684    0.406
        24 -15.8844      6.2243    234.5551   1.0107367101e+02   2.6092859089e+01     1.967742    0.8657087  26.71  0.008672778    5.108    0.804
        25  -9.6230    110.7621    167.5807   7.4049707249e+01   2.5427947316e+01    0.2709201    0.2055968 -89.68 0.0007253487    1.353    0.261
        26 -11.4408    231.2740    165.8279   4.8470633014e+01   1.4902610415e+00    0.4728597    0.2530025  32.54  0.002125332    2.082    0.520
        27 -16.0477      7.1440    209.3375   9.9749643662e+01   3.0694887704e+01     2.479035     1.229061 -81.21   0.01603254    1.663    0.399
        28 -15.2963      4.4448    246.7975   1.0184321655e+02   2.4129558467e+01     1.916049    0.7117119  35.70   0.01081992    3.175    0.685
        29 -11.8314     32.6653    156.3389   9.0766010467e+01   3.9220107480e+01    0.6031854    0.3256298  64.30  0.003041339    1.811    0.448
        30  -9.1535     91.0726    197.4532   8.2563452967e+01   2.2390916125e+01     0.413978    0.1928586 -82.00  0.001679788    3.099    0.677
        31  -9.8464    246.2489    161.7383   4.5055229119e+01  -6.8070471214e-01    0.2115226     0.104216 -24.54 0.0008961707    2.420    0.587
        32 -10.6083    133.7978    145.4229   6.4567331458e+01   2.5875207277e+01     1.143999    0.2880622 -56.19  0.002765471    5.886    0.830
        33 -11.5538     84.8790    148.8900   7.7211251200e+01   3.4078697426e+01    0.6028498    0.4775075 -33.84  0.002711185    1.752    0.429
        34  -8.4232     39.6014    146.7208   8.8076920615e+01   4.0650295885e+01    0.1178785    0.0905497 -40.12 0.0001054998    1.761    0.432
        35  -9.5908     84.5035    200.5132   8.4274234515e+01   2.2793101102e+01    0.2200058    0.1325645  69.07 0.0005527044    1.579    0.367
        36 -10.1672     29.4781    142.9223   9.0096980635e+01   4.2565241666e+01    0.3508102    0.2647184  23.03  0.001949667    1.781    0.439
        37  -8.9861    174.7365    149.1993   5.6066625683e+01   1.6273640056e+01    0.2365426    0.1910719 -72.52 0.0008655777    1.438    0.305
        38 -10.1637    100.0867    136.1361   7.1095892726e+01   3.4481637280e+01    0.4485552    0.3325829 -11.12  0.002016116    2.407    0.585
        39 -11.5377     86.8347    135.2173   7.4360527806e+01   3.6945155173e+01    0.2838119    0.2426965 -67.60 0.0004023435    1.125    0.111
        40 -12.3583     76.8115    155.3871   8.0194775819e+01   3.3826868147e+01     1.347453    0.6331238  65.76 0.0006266529    3.023    0.669
        41  -9.7029    105.7889    130.5620   6.8512115977e+01   3.4739109711e+01    0.3139807    0.2740888 -79.02  0.001170473    1.093    0.085
        42  -9.2945    109.9392    128.0087   6.6900650406e+01   3.4549878122e+01    0.3201596    0.2444555  10.66  0.001234423    2.011    0.503
        43 -10.7204    192.7967    194.5254   6.1160909336e+01   4.2325916765e+00    0.7977498    0.4252666 -66.76  0.002539493    5.545    0.820
        44  -9.7519     44.1601    129.8586   8.4740263129e+01   4.4026202308e+01    0.2011767    0.1541091  81.59 0.0008434859    1.221    0.181
        45 -10.1509     96.7793    123.5908   6.9455269029e+01   3.7975660408e+01    0.3038316    0.2490508   4.61  0.001154409    1.743    0.426
        46  -9.5537    137.2066    118.6769   5.7833367637e+01   3.1059928312e+01    0.3741261    0.2230676  50.13 0.0009878046    1.643    0.392
        47  -9.2515    135.0224    114.9928   5.7490872238e+01   3.2345552822e+01    0.3286273    0.2361645 -73.10 0.0006927506    1.667    0.400
        48  -8.8806    106.6866    117.2830   6.5418789150e+01   3.7625120402e+01    0.1797417    0.1697206 -10.04 0.0003049806    1.273    0.214
        49  -9.3673    205.5120    110.3440   4.0879834754e+01   1.6718980730e+01    0.2683441    0.2310278  64.77 0.0006024265    1.176    0.150
        50 -11.5210     63.3401    166.8599   8.4913239141e+01   3.3147878078e+01    0.3770218    0.3153744 -21.43  0.002227476    1.942    0.485
        51 -16.1483     22.9911    168.8309   9.4052045004e+01   3.7454779194e+01      12.3457     4.593097  81.60   0.04940593    3.561    0.719
        52  -9.2564    134.3713    105.2996   5.5236768743e+01   3.4596670813e+01    0.4243109    0.1450149 -48.88  0.001337087    3.024    0.669
        53  -8.7369     67.3453    105.6562   7.4024141678e+01   4.6767822214e+01    0.1435178   0.09960707  77.84 0.0007045613    1.794    0.442
        54  -8.6136    161.1853     85.6127   4.3506784421e+01   3.2301364673e+01    0.2261704    0.1413304  44.26 0.0008429925    1.660    0.397
        55  -8.9715     89.7528     84.7203   6.2228081935e+01   4.7964335670e+01     0.187226    0.1600927  85.06 0.0006171812    1.345    0.256
        56 -11.6951     13.2316     60.9056   8.2447401678e+01   6.2000292355e+01    0.4749437    0.1671323 -58.63  0.001133231    2.085    0.520
        57 -12.2976    195.9709     55.4600   2.8374196239e+01   2.8667164583e+01     0.839367    0.6636925  51.43 0.0009685792    1.316    0.240
        58  -9.3514    128.3249    196.3075   7.4598932316e+01   1.6220179810e+01    0.1266232    0.1084773  11.92 0.0003339564    1.649    0.394
        59 -15.3160     12.2224    243.9161   1.0053601605e+02   2.3815382317e+01    0.8986979    0.3168558 -81.48  0.005221341    2.503    0.601
        60  -9.6110     78.0441     57.7256   5.7997252183e+01   5.5409181847e+01    0.4378636    0.2744986  72.57  0.001700643    3.682    0.728
        61  -9.8158    163.6480    193.7575   6.6855256768e+01   1.0008864895e+01    0.1807248    0.1305153 -62.86 0.0006427343    1.666    0.400
        62 -10.1320    148.7491    228.8470   7.5009847293e+01   6.6895576386e+00    0.2474567    0.1595809 -71.48  0.001351369    2.129    0.530
        63  -9.0036     60.4994     21.0975   5.0858055819e+01   6.4295180776e+01    0.1770689    0.1484645  18.11 0.0003649482    1.134    0.119
        64  -9.7492    110.0198    223.4813   8.1784226492e+01   1.4248365968e+01    0.1958208    0.1038785  45.08 0.0008441329    1.568    0.362
        65  -9.3234    189.1559     15.1177   1.8260316918e+01   3.5968716459e+01    0.2168923    0.1796815  52.04 0.0007938689    1.290    0.225
        66  -8.6040    196.5466     14.5444   1.7171405759e+01   3.4117095201e+01    0.1410856    0.1216943  89.08 7.131347e-05    1.004    0.004
        67  -9.7538    143.1813    221.1594   7.5064329973e+01   8.9586558498e+00    0.1832301     0.135747  67.14  0.001075391    1.353    0.261
