#   1 NUMBER                 Running object number                                     
#   2 MAG_AUTO               Kron-like elliptical aperture magnitude                    [mag]
#   3 X_IMAGE                Object position along x                                    [pixel]
#   4 Y_IMAGE                Object position along y                                    [pixel]
#   5 X_WORLD                Barycenter position along world x axis                     [deg]
#   6 Y_WORLD                Barycenter position along world y axis                     [deg]
#   7 A_WORLD                Profile RMS along major axis (world units)                 [deg]
#   8 B_WORLD                Profile RMS along minor axis (world units)                 [deg]
#   9 THETA_WORLD            Position angle (CCW/world-x)                               [deg]
#  10 FWHM_WORLD             FWHM assuming a gaussian core                              [deg]
#  11 ELONGATION             A_IMAGE/B_IMAGE                                           
#  12 ELLIPTICITY            1 - B_IMAGE/A_IMAGE                                       
         1 -12.3725    215.4711     23.1853   4.0362834023e+01   2.8757274531e+01     1.159063    0.8173097  33.02  0.006149573    1.952    0.488
         2 -12.4599    202.1629     36.7120   4.5396329831e+01   3.0292512066e+01     1.036996     0.929302  20.88   0.00496646    1.344    0.256
         3  -9.6017     57.0918      6.1357   6.6940030825e+01   6.6986752228e+01    0.1995818    0.1385764  13.69 0.0007126243    1.254    0.202
         4  -9.8361    240.0638      1.8635   3.3322797639e+01   2.5523295802e+01    0.5742034    0.1769733  74.92    0.0024172    3.083    0.676
         5  -9.2750     12.9899      2.7005   8.6615549867e+01   7.3229163306e+01    0.1630455    0.1195866 -11.26  0.001173967    1.047    0.045
         6  -9.7616     41.4616    180.0136   1.1774156504e+02   3.2021969499e+01    0.2355804    0.1869814 -34.16  0.001324296    1.770    0.435
         7 -13.4029     47.9738    221.4534   1.2003433240e+02   2.2413592087e+01     2.099073     1.781538 -72.53   0.01519949    1.352    0.260
         8 -13.0071     85.4790    229.3441   1.1340500413e+02   1.6017149507e+01     1.770817      1.10265  51.41  0.006854561    1.356    0.262
         9 -10.4874     70.9957    172.6935   1.0995757874e+02   3.0101623220e+01    0.3664862    0.3196788 -29.96 0.0009918767    1.465    0.317
        10 -13.4269      8.9412    207.5529   1.2650898942e+02   2.9295639446e+01      1.71412     1.156113 -34.83  0.003961408    2.752    0.637
        11 -10.2317     65.7837    178.2410   1.1192712867e+02   2.9508824924e+01    0.4257967    0.2767338 -37.20  0.002121237    2.194    0.544
        12 -10.2022    102.4947    171.8232   1.0212259258e+02   2.5576960959e+01    0.5768321    0.2402415  50.86  0.002119974    2.752    0.637
        13  -8.5491     34.0449    171.5150   1.1859022111e+02   3.4752820354e+01    0.1750889    0.1182539  37.47  0.001035593    1.601    0.375
        14 -11.8143     67.4801    159.1859   1.0892143222e+02   3.3777192921e+01    0.5078557    0.3794118 -45.86   0.00113656    1.479    0.324
        15 -12.3221     68.9501    145.1950   1.0633820560e+02   3.6978766283e+01     1.381419    0.7428557 -86.34  0.004597934    2.744    0.636
        16 -10.5095     86.2649    156.7246   1.0368130762e+02   3.1695168621e+01    0.5559517    0.4045057 -22.28  0.001556427    1.978    0.494
        17  -9.9546     32.4023    155.4415   1.1729887488e+02   3.8685925058e+01    0.3591999    0.1999022 -72.45  0.001908014    1.516    0.340
        18  -9.2307    133.7674    142.4151   8.8449651503e+01   2.6687598131e+01    0.5473253    0.1294068 -49.34  0.001437361    4.303    0.768
        19  -9.3294    101.6003    140.7073   9.6575611634e+01   3.3072413870e+01     0.532751    0.3198717 -23.18  0.001954684    2.976    0.664
        20 -10.4596     88.4166    141.0757   1.0026037673e+02   3.5149684105e+01    0.2950437    0.2573786 -36.05 0.0005503806    1.243    0.195
        21  -8.9640     82.1058    141.8257   1.0214103039e+02   3.5934814719e+01    0.2220482    0.1832422  72.78 0.0005913535    1.298    0.230
        22 -11.1819     80.3097    162.9775   1.0622988456e+02   3.1086077822e+01    0.7495421    0.4140601  43.21  0.000589103    1.801    0.445
        23 -10.8240     57.5002    129.7195   1.0689896731e+02   4.2249561287e+01    0.4887623     0.256479 -62.43   0.00224988    1.676    0.403
        24  -8.8974    110.6879    131.3247   9.2041991366e+01   3.3700849106e+01    0.2969474    0.2123383 -16.73 0.0009856636    1.957    0.489
        25  -8.3432    105.9282    131.1362   9.3316242031e+01   3.4609468382e+01    0.2426952    0.2089783  79.91  0.001235373    1.313    0.238
        26  -8.2603     45.6884    129.6629   1.1029630129e+02   4.3603316955e+01    0.1401675   0.09100738 -41.10 0.0007045257    1.687    0.407
        27  -9.1137     98.0174    127.2104   9.4659646229e+01   3.6937972112e+01    0.3087236    0.2055942 -41.73 0.0008752145    1.525    0.344
        28  -7.7515     91.9185    124.4607   9.5797093504e+01   3.8627475629e+01    0.2109196    0.1207699  59.36 0.0008070987    2.485    0.598
        29  -8.3953     32.6200    137.8485   1.1512437643e+02   4.2898168708e+01     0.189188    0.1067978 -82.18 0.0009324196    1.688    0.408
        30  -8.6713    120.3728    120.8081   8.6851630431e+01   3.4318302267e+01    0.2311559    0.1399398 -38.54 0.0006368507    1.715    0.417
        31  -8.1002    107.2606    119.7295   9.0259308096e+01   3.7078166299e+01    0.2008533    0.1740687 -12.47 0.0004758537    1.297    0.229
        32 -11.7392      9.5176    188.0190   1.2523032506e+02   3.3344526255e+01    0.4602822    0.3562029  49.75 0.0006277846    1.345    0.257
        33  -8.1525    168.4393    113.1997   7.2725593383e+01   2.5580600833e+01    0.2310129    0.1454641 -51.12 0.0009452851    1.722    0.419
        34 -11.8826     39.8935    205.7501   1.2038149210e+02   2.6555818433e+01    0.5785081    0.4653172  58.69  0.001138253    1.156    0.135
        35  -8.1280    205.5383    110.4474   6.4349318379e+01   1.7694812700e+01    0.1506954    0.1410822 -26.50 0.0008070562    1.004    0.004
        36  -8.4294    128.2975     95.6688   7.7840148885e+01   3.8272832384e+01    0.1568907    0.1266295 -80.07  0.000702903    1.642    0.391
        37  -8.1279     41.4103     91.7952   1.0450448306e+02   5.3228908703e+01    0.1960616    0.1018357 -50.48 0.0003595142    1.592    0.372
        38 -13.2271     49.5566    194.9321   1.1741816962e+02   2.7769770819e+01     1.506075     1.184593  51.72  0.008073163    1.222    0.182
        39  -8.4616     74.5120     85.0001   9.1262856520e+01   5.0664893395e+01    0.2193237    0.1319335 -49.23  0.000498305    1.522    0.343
        40 -10.6175     13.1141     60.3626   1.0785910056e+02   6.2586980459e+01    0.3502473    0.1772733 -48.60  0.001061499    1.483    0.326
        41  -8.2348    113.5415    207.7399   1.0500592414e+02   1.6031824045e+01    0.1733653    0.1264298 -79.52 0.0009425934    1.601    0.376
        42  -9.3306    141.2359     46.5631   5.8870296063e+01   4.4148456235e+01    0.3467154    0.2571767  89.74 0.0009853119    1.807    0.447
        43 -14.7698      4.7200    173.0069   1.2523139291e+02   3.7025618998e+01     14.81524     1.012006 -76.08   0.03312114   10.659    0.906
        44 -11.3312    193.6380     42.4465   4.8123291711e+01   3.1630420257e+01    0.4056666    0.3750838 -58.14  0.001055721    1.054    0.051
        45 -11.8831     27.8648    215.7938   1.2346162878e+02   2.5783715357e+01     1.107145    0.4384807  83.78  0.004606194    2.895    0.655
        46  -8.1645    209.8049    199.3765   8.3322751513e+01   1.0191458903e+00    0.1842619    0.1129169  27.53  0.000226452    1.548    0.354
        47  -8.2126    144.0643     41.2883   5.6479996232e+01   4.4197877501e+01    0.2057352    0.1837605  56.49  0.000475549    1.085    0.078
        48 -14.7224      8.9247    240.0613   1.2811941715e+02   2.3024165542e+01     2.976315     1.788807 -76.49    0.0215697    1.610    0.379
        49  -9.0149    192.6926    193.8992   8.5696843902e+01   4.8891934872e+00     0.485485    0.2659268 -64.21  0.001416406    6.357    0.843
        50  -8.2615     99.4866    181.0343   1.0431884994e+02   2.3970915687e+01    0.2030846    0.1328975 -58.50 0.0007140088    1.545    0.353
        51  -8.7971     93.4975    219.7667   1.1076186940e+02   1.6715693922e+01    0.2270966    0.1573298  43.78 0.0007919804    1.278    0.217
        52 -14.0109     64.5580    247.5269   1.1895598050e+02   1.5465323146e+01     7.442513     2.313996  28.85  0.005332769    8.911    0.888
