#   1 NUMBER                 Running object number                                     
#   2 MAG_AUTO               Kron-like elliptical aperture magnitude                    [mag]
#   3 X_IMAGE                Object position along x                                    [pixel]
#   4 Y_IMAGE                Object position along y                                    [pixel]
#   5 X_WORLD                Barycenter position along world x axis                     [deg]
#   6 Y_WORLD                Barycenter position along world y axis                     [deg]
#   7 A_WORLD                Profile RMS along major axis (world units)                 [deg]
#   8 B_WORLD                Profile RMS along minor axis (world units)                 [deg]
#   9 THETA_WORLD            Position angle (CCW/world-x)                               [deg]
#  10 FWHM_WORLD             FWHM assuming a gaussian core                              [deg]
#  11 ELONGATION             A_IMAGE/B_IMAGE                                           
#  12 ELLIPTICITY            1 - B_IMAGE/A_IMAGE                                       
         1 -13.4034     68.2323    143.8093   8.3787097364e+01   3.7684600599e+01     4.116644     2.193687  84.25  0.002978334    5.746    0.826
         2 -13.0224    216.7001     53.8622   2.8912008085e+01   2.6450911129e+01     1.016258     0.887064 -88.85   0.00706925    1.172    0.147
         3 -13.4085    234.7535     40.8197   2.4832673508e+01   2.4872102610e+01    0.9685351    0.7664325  51.48  0.007145545    1.779    0.438
         4 -12.3852      2.9616      7.5841   7.4321051760e+01   7.4778866135e+01     1.005985    0.4619986 -33.03  0.005479696    2.069    0.517
         5 -10.8369    108.3513     16.2650   3.4457826368e+01   5.4248971484e+01    0.4554248    0.2616274 -68.45  0.001495567    2.601    0.616
         6 -10.1228     58.8485      4.6473   4.2853071982e+01   6.6184502968e+01    0.3092047    0.2059687 -84.03  0.001492896    3.117    0.679
         7 -13.7398      9.3452    207.0073   1.0923256243e+02   2.7461746286e+01     1.483547     1.169146 -14.06  0.004205676    1.560    0.359
         8 -12.2000     40.9815    172.2724   9.7131549902e+01   3.3435277415e+01    0.8795978    0.5328955 -20.16 0.0008244082    2.165    0.538
         9 -11.6299     48.6590    166.6894   9.3991976483e+01   3.4085675432e+01    0.3841248      0.30818 -12.86 0.0005273769    1.378    0.274
        10 -15.1354     14.3059    237.6430   1.0981585752e+02   2.0039490083e+01     7.845778     2.885626  10.66   0.02821913    4.445    0.775
        11 -15.3950     21.3752    175.5628   1.0346315347e+02   3.4392630996e+01     8.903542     3.082095  89.82   0.02572451    4.844    0.794
        12  -8.0435    180.0000    209.0031   6.5894496811e+01   5.6832226623e+00    0.2046314   0.07005294 -45.60 0.0004793911    2.810    0.644
        13 -12.8873      6.0588    196.2881   1.0940865534e+02   3.0317795377e+01    0.4494918    0.3926911  -6.19 0.0008452405    1.335    0.251
        14 -10.3802    230.8054    168.1328   4.9127892502e+01   6.1940888375e+00    0.2765136    0.1484529 -48.21  0.001458403    1.825    0.452
        15 -11.9503     75.3585    137.5990   8.0145556036e+01   3.8258656269e+01    0.4944813    0.3443303 -63.40 0.0004158012    1.542    0.352
        16  -9.6444    140.2350    249.7611   8.1055821479e+01   3.2915449251e+00    0.2160772   0.09505464  16.07  0.000894148    2.464    0.594
        17 -10.8219     61.7506    157.8450   8.8435045314e+01   3.4858365091e+01    0.2964239    0.2660963 -24.62 0.0003946412    1.129    0.114
        18 -14.2449     14.4776    190.2625   1.0670728999e+02   3.1178544298e+01     1.744139     1.007866  56.17  0.004279128    1.746    0.427
        19 -13.1941     47.0374    153.4283   9.2588940315e+01   3.7798882393e+01    0.7450945    0.4435984 -19.35  0.002100941    2.203    0.546
        20  -9.5461     85.5332    152.5166   7.9826897991e+01   3.2877799101e+01    0.2518204    0.2488995   1.95 0.0003195657    1.051    0.048
        21 -11.0447    116.7116    230.8985   8.4006155923e+01   9.8889548098e+00    0.3830693    0.1869166  21.13  0.001660867    1.982    0.495
        22 -10.3304     88.2401    140.0295   7.6414867855e+01   3.5616626255e+01    0.3561898    0.3183867 -36.23 0.0009184722    1.104    0.094
        23  -9.3403     92.2849    137.0180   7.4468132684e+01   3.5698928266e+01    0.4123108    0.2618767   2.66  0.001199056    2.257    0.557
        24  -9.4739    248.9853    140.4860   4.1534720355e+01   8.3025110802e+00    0.1391049    0.1010011  87.63 0.0008100176    2.506    0.601
        25 -10.6116    242.8777    132.1531   4.0829028825e+01   1.0450540882e+01    0.1843756    0.1423749 -52.60  0.000980227    1.249    0.199
        26 -10.3634    104.7640    130.0649   6.9002002757e+01   3.5200868043e+01     0.522801    0.3657501  43.66  0.001430748    1.471    0.320
        27 -12.1175     70.3577    152.2587   8.4656261967e+01   3.5176974031e+01    0.7237061    0.5602016  52.98  0.001195431    1.441    0.306
        28 -10.7636     66.8038    126.8332   8.0834648609e+01   4.2284240338e+01    0.4136768    0.3063706 -45.34  0.001966511    1.315    0.239
        29 -10.2485     89.9157    125.1967   7.2541617748e+01   3.9009706180e+01     0.374736    0.2760333  -4.02  0.001064981    1.659    0.397
        30  -8.3279    111.4806    124.4517   6.5659028298e+01   3.5265809670e+01    0.1565355    0.1467739  -2.88 0.0008077776    1.054    0.051
        31 -10.1036    244.5228    123.4978   3.9041848257e+01   1.1583878570e+01    0.1187819   0.09341402 -43.39 5.991447e-05    1.016    0.016
        32  -9.4830    245.6555    167.6840   4.6807115372e+01   4.4073592183e+00    0.1210879   0.07755741 -16.00 0.0007048211    1.716    0.417
        33  -9.3559    102.3427    118.1365   6.6864029488e+01   3.8444844438e+01    0.2330222    0.2047196  11.19 0.0003462751    1.162    0.140
        34  -9.7572    119.8874    236.3345   8.3979829525e+01   8.3806406057e+00    0.1911872    0.1523205  13.46 0.0003644209    1.094    0.086
        35 -11.8142     42.1828    212.3132   1.0107677847e+02   2.3183894270e+01    0.6384069     0.321631  52.92  0.002058521    2.094    0.522
        36  -9.3268    204.6706    110.8357   4.2091609580e+01   2.0006788607e+01    0.2794968    0.1674967  40.05  0.001437931    2.066    0.516
        37  -8.7419     58.4263    107.2637   7.9482723000e+01   4.8393240581e+01    0.2036215    0.1483959 -70.62  0.000786368    1.657    0.396
        38 -11.0528    244.4508    105.5430   3.5772680032e+01   1.4361193602e+01    0.3092774    0.1301358 -33.60  0.001458325    2.513    0.602
        39  -8.8209    110.7595    167.1765   7.5139309528e+01   2.5193934783e+01    0.2194758    0.2093002  81.32 0.0007316671    1.209    0.173
        40 -11.1903    242.5152     93.9937   3.3871741080e+01   1.6384520321e+01    0.2153286    0.1834653 -48.00  0.001587036    1.106    0.096
        41 -10.5366     53.0559     90.7382   7.7416072891e+01   5.3089005964e+01    0.3840458    0.2352508 -45.51  0.001433291    1.582    0.368
        42  -9.1033     41.7031     91.9792   8.2550354275e+01   5.4270814350e+01    0.2042212    0.1792905 -29.27   0.00056725    1.053    0.050
        43 -10.2845    166.6221     86.8668   4.3098846288e+01   3.1469191138e+01    0.2356726    0.1852304  46.60 0.0007706516    1.358    0.263
        44 -10.7645    240.7331     83.9624   3.2214528276e+01   1.8128244728e+01    0.2873826   0.09550571 -49.54  0.001296054    2.636    0.621
        45  -8.8782     42.1547     81.7314   7.9643752388e+01   5.6595879191e+01    0.2294786    0.1475798  62.34 0.0009431128    2.733    0.634
        46  -9.2645    184.8352     76.9342   3.7755336497e+01   2.9332250737e+01    0.1863782      0.17714  -4.05 0.0005564225    1.297    0.229
        47 -10.3725    236.1574    158.7039   4.6601359863e+01   7.0580458885e+00    0.2797087    0.1144473 -28.10  0.001098452    3.385    0.705
        48 -10.6536     80.8183    247.8819   9.4819754483e+01   1.0908619857e+01    0.3233853    0.2486672 -70.36  0.001919708    1.556    0.357
        49  -8.6104     55.4975    248.4936   1.0092261156e+02   1.3662151063e+01    0.1289464    0.1089714  39.22 5.978097e-06    1.024    0.024
        50 -10.1705     13.3167     60.0163   8.7756160890e+01   6.4314698726e+01    0.2624067    0.2216581  31.57 0.0004194197    1.406    0.289
        51 -10.3843     11.7875     53.0353   8.6580464956e+01   6.5908737778e+01    0.2240092    0.1722346   0.82 0.0005683313    1.183    0.155
        52 -10.7404      2.2186     38.6260   8.7788507667e+01   6.9484345087e+01    0.4427781    0.1189203 -63.64  0.001403752    5.609    0.822
        53 -11.4897      8.8670     58.1317   8.9666772526e+01   6.5039901592e+01    0.3466069    0.2643971  -9.82  0.002087352    1.165    0.142
        54 -10.9278     78.9425    206.9799   9.0545006376e+01   2.0169056649e+01    0.3207068     0.257826 -81.05 0.0006102058    1.440    0.306
        55 -10.0912    173.0149    242.4813   7.2801290987e+01   6.2408550837e-01     0.231746    0.1657021 -63.37 0.0008611167    2.419    0.587
