#   1 NUMBER                 Running object number                                     
#   2 MAG_AUTO               Kron-like elliptical aperture magnitude                    [mag]
#   3 X_IMAGE                Object position along x                                    [pixel]
#   4 Y_IMAGE                Object position along y                                    [pixel]
#   5 X_WORLD                Barycenter position along world x axis                     [deg]
#   6 Y_WORLD                Barycenter position along world y axis                     [deg]
#   7 A_WORLD                Profile RMS along major axis (world units)                 [deg]
#   8 B_WORLD                Profile RMS along minor axis (world units)                 [deg]
#   9 THETA_WORLD            Position angle (CCW/world-x)                               [deg]
#  10 FWHM_WORLD             FWHM assuming a gaussian core                              [deg]
#  11 ELONGATION             A_IMAGE/B_IMAGE                                           
#  12 ELLIPTICITY            1 - B_IMAGE/A_IMAGE                                       
         1 -14.5391    218.9511      5.0576   4.0652556570e+01   2.9370736994e+01     3.070437     1.603186  53.49   0.01204994    2.078    0.519
         2 -13.7802    178.5012     48.4279   5.8110400798e+01   3.4333664948e+01     1.499263      1.22034  44.95  0.003885233    1.274    0.215
         3 -14.0011    191.2930     37.0446   5.2641984592e+01   3.2609179192e+01     1.111477    0.9268268 -71.62  0.003560213    1.213    0.175
         4 -14.0894    197.5266     29.8015   4.9674477524e+01   3.1937532940e+01     1.061365    0.9793844  27.89  0.001444944    1.246    0.198
         5 -11.7048     55.5193    212.1091   1.2146108291e+02   2.4154936754e+01    0.5014246    0.2349827  69.26  0.002438266    2.200    0.545
         6 -19.5316     16.9417    143.7298   1.2343238752e+02   4.3035297235e+01     18.66686     5.478458 -79.08   0.07315775    3.235    0.691
         7 -13.4470     56.8900    201.9454   1.2031648875e+02   2.6008091960e+01    0.4978219    0.3583809 -79.21  0.001777419    1.296    0.229
         8 -11.0273    175.7753    212.9098   9.8043918540e+01   4.8733749356e+00    0.2211324    0.1882732 -77.21  0.001051365    1.579    0.367
         9 -11.7024     49.8477    234.1738   1.2413632909e+02   2.0724158208e+01    0.2147516    0.1291428  69.19 0.0004723286    1.320    0.242
        10 -11.9702     38.5658    211.9012   1.2458226853e+02   2.6243476116e+01     0.388763    0.1652255  66.63  0.002008483    2.257    0.557
        11 -10.1547     32.7969    205.6744   1.2520245289e+02   2.8121769508e+01    0.1782964    0.1268753 -85.30 0.0007629652    1.231    0.187
        12  -9.9458     43.3383    209.6781   1.2354167557e+02   2.6123417888e+01    0.3196788    0.1145525  60.74  0.001460416    2.786    0.641
        13 -11.1035     43.8492    205.5137   1.2312575556e+02   2.6890317137e+01     0.207199    0.1883675 -72.59  0.001471128    1.467    0.318
        14 -10.0022     30.0655    210.4384   1.2602342029e+02   2.7481880979e+01    0.1867967   0.07768301  47.55   0.00104921    1.974    0.493
        15 -11.4710     97.0398    200.4297   1.1207672540e+02   2.0610752529e+01    0.3724573    0.2908297 -31.23  0.001097482    2.008    0.502
        16 -12.0638    195.6055    197.0362   9.1521853785e+01   3.8258170325e+00     1.241897    0.9159176  79.53  0.006142271    2.435    0.589
        17 -11.5020    207.8118    194.8436   8.8796732087e+01   1.9563286178e+00    0.4363261    0.2061053 -32.02  0.001500229    2.376    0.579
        18  -9.4949     87.4786    202.6584   1.1428976410e+02   2.1624523447e+01    0.1814664    0.1521799  22.77  0.001043704    1.651    0.394
        19 -11.7403    153.1064    198.9761   1.0031143708e+02   1.1298248059e+01    0.4899401    0.2276175 -55.85  0.002098511    2.700    0.630
        20 -10.7322     53.6572    231.3994   1.2328609225e+02   2.0752797275e+01    0.1945748    0.1303855  77.58 0.0008176693    1.222    0.182
        21 -10.5360     44.4771    198.9296   1.2247595456e+02   2.8149147466e+01    0.2302362    0.2050943 -55.93  0.001661611    1.583    0.368
        22 -10.7153     36.0618    197.7713   1.2400884554e+02   2.9354321931e+01    0.2001937    0.1266352  51.61 0.0005149553    1.409    0.290
        23 -12.2473     31.7473    198.0399   1.2485352008e+02   2.9775205630e+01    0.1936965    0.1433615  65.39 0.0005277414    1.132    0.116
        24 -10.2700    159.9003    196.9207   9.8590356133e+01   1.0422885289e+01    0.2038755    0.1940373 -54.75 0.0003721007    1.186    0.157
        25  -9.9884     82.4445    195.3248   1.1447895882e+02   2.3862358636e+01     0.282431    0.1810972  67.38  0.001574439    1.483    0.326
        26 -11.1268     96.7832    192.4189   1.1111939556e+02   2.2279057723e+01    0.3239689    0.2569024 -37.59  0.001019325    1.772    0.436
        27 -13.0987     66.7676    188.2277   1.1695067133e+02   2.7565809398e+01    0.7040475    0.6078714 -62.05  0.003615871    1.389    0.280
        28  -9.3999     73.5496    189.5864   1.1567757168e+02   2.6341860494e+01    0.1792617    0.1186544  66.54 9.820773e-05    1.381    0.276
        29 -10.4523     51.0016    225.6960   1.2334044960e+02   2.2129149400e+01    0.1754154    0.1096674  74.08 0.0005556695    1.315    0.239
        30  -9.8288     61.8380    219.9150   1.2093614993e+02   2.1837962578e+01    0.1527673    0.1235604  86.22 0.0005532914    1.175    0.149
        31 -16.0301     69.7826    145.8453   1.1072661187e+02   3.6712801121e+01     9.614548     4.417256  80.66   0.01746436    8.121    0.877
        32  -9.9481     36.0335    234.2315   1.2647199584e+02   2.2352166714e+01    0.1432827   0.09566057  63.54 0.0003729872    1.096    0.088
        33 -12.1013    147.1346    184.2409   9.9106244897e+01   1.5158964731e+01    0.5668177      0.34397  72.95  0.002163504    2.769    0.639
        34 -10.5291    153.9660    185.3586   9.7850851705e+01   1.3657033605e+01    0.2939537    0.2015024 -69.82  0.001295105    1.949    0.487
        35 -11.2463     99.4409    180.6812   1.0894488835e+02   2.4322440259e+01    0.2599461    0.2251232  46.22 0.0006315741    1.209    0.173
        36 -10.3623    204.4722    176.3863   8.5878364397e+01   5.5170820686e+00    0.3890916      0.24138 -51.46  0.001831333    2.065    0.516
        37  -9.8823     69.3890    177.0230   1.1510228087e+02   2.9635401823e+01     0.250511    0.1486634  58.07 0.0008416215    1.594    0.373
        38  -9.4951     73.2270    218.2700   1.1867385213e+02   2.0621825422e+01    0.1572588    0.1051835  69.07 0.0002215041    1.272    0.214
        39  -8.9388     50.0114    216.6185   1.2284121288e+02   2.3966870393e+01    0.2861461     0.215503   2.33  0.001658927    3.013    0.668
        40 -12.1876     70.0344    206.9410   1.1821364253e+02   2.3264445258e+01    0.6191072    0.3318129  25.45   0.00204594    3.177    0.685
        41  -9.9442    185.6969    170.4276   8.8408923931e+01   1.0230938199e+01    0.4041091     0.202402 -59.20  0.001385184    3.732    0.732
        42  -9.1755    177.3235    169.6573   8.9981841050e+01   1.2049828585e+01    0.1441938    0.1150958  85.46  0.000634617    1.731    0.422
        43 -11.0868    230.2190    166.6982   7.9086056801e+01   2.2008289735e+00    0.3284093    0.1714536 -47.49    0.0014193    2.441    0.590
        44  -9.8189    162.1024    167.0525   9.2698095930e+01   1.5610018656e+01    0.2137084    0.2047667  66.00 0.0004656593    1.072    0.067
        45 -12.5436     95.1246    153.5492   1.0570033882e+02   3.1073999988e+01    0.6420121      0.50463 -22.72  0.003303601    1.866    0.464
        46 -10.4842    187.8439    154.3336   8.4581646291e+01   1.2753813647e+01     0.442926    0.1933598  41.52  0.001679306    2.273    0.560
        47 -11.6543    133.8915    145.3447   9.4683583988e+01   2.5846420536e+01     1.236214    0.3172142 -54.77  0.003065139    5.458    0.817
        48  -9.8127    113.1276    151.1950   1.0088213767e+02   2.8500839733e+01    0.2880561    0.1860052 -86.36  0.001229534    2.156    0.536
        49 -10.7679    174.3934    148.7730   8.6190550096e+01   1.6670078109e+01    0.3907549    0.2905939 -56.80  0.001161993    1.527    0.345
        50 -11.0533    143.8149    146.0341   9.2477259253e+01   2.3682302638e+01      0.49718    0.2129695 -58.39   0.00162504    3.213    0.689
        51 -10.0752    112.4806    141.9807   9.9240954216e+01   3.0722914607e+01    0.3031309    0.2136919  84.62  0.001066707    1.818    0.450
        52  -9.7465    107.4708    145.5049   1.0118811903e+02   3.0817955625e+01    0.2123749    0.1307921  53.94 0.0005486727    1.691    0.409
        53 -11.7450    106.9102    139.2812   1.0010353624e+02   3.2357190140e+01    0.6029623    0.3884842 -36.40  0.002689644    1.962    0.490
        54 -12.4543     95.0052    139.1447   1.0312559640e+02   3.4448455808e+01    0.3248521    0.2930613  29.18 0.0004570642    1.293    0.227
        55 -11.2447    105.7047    131.0793   9.8716885893e+01   3.4483651034e+01    0.4828296     0.343101 -45.73  0.002347852    1.442    0.306
        56 -11.2122    135.8173    128.1060   9.0358077320e+01   2.9274431398e+01    0.7104549    0.1769743 -48.78  0.001927384    4.092    0.756
        57 -10.3949    161.7024    128.1700   8.4210509268e+01   2.3638934782e+01    0.4483921    0.3209496  82.02  0.001878541    2.053    0.513
        58 -11.1237    102.0494    125.8531   9.8557139985e+01   3.6360820770e+01    0.3023313    0.2524562 -21.01 0.0007340351    1.510    0.338
        59 -11.2965    120.1870    123.1462   9.3151821720e+01   3.3579369525e+01    0.5707422    0.3531025 -18.73  0.001987778    3.285    0.696
        60 -10.1586    109.8888    118.9463   9.4884326635e+01   3.6536157193e+01    0.2192355    0.2066393 -69.77 0.0003585914    1.008    0.008
        61 -10.4317    167.7092    112.4211   7.8859105171e+01   2.5511270315e+01    0.4091275    0.3028408 -81.53  0.001438911    1.905    0.475
        62 -11.0906    114.4864    129.8848   9.6172135797e+01   3.3136302766e+01    0.3490108    0.2914982 -28.62 0.0006640225    1.412    0.292
        63 -11.7021    118.4747    110.4608   9.0487109808e+01   3.6806568374e+01    0.5667823    0.4190022  66.28  0.002623443    1.612    0.380
        64 -10.2164    205.4150    110.1086   7.0522455479e+01   1.7107764944e+01    0.3192357    0.2279831  45.74 0.0008272939    1.450    0.310
        65  -9.8064    134.5767    105.2834   8.4893144878e+01   3.4569425480e+01    0.3120523    0.1481452 -48.75  0.001139474    2.122    0.529
        66  -9.6603    183.3108     83.0207   6.7459126153e+01   2.7384204613e+01    0.2305317    0.2053412 -38.24  0.001164012    1.101    0.091
        67  -9.0645    155.0115     80.9571   7.2884620241e+01   3.4794533318e+01    0.1878458    0.1826654 -38.85 0.0003942592    1.018    0.018
        68  -9.9623     62.9330    205.0856   1.1942389295e+02   2.4589655296e+01    0.2124721     0.141451  62.61 0.0009483026    1.250    0.200
        69 -11.6957    160.9337     62.2218   6.5788369801e+01   3.6680754509e+01    0.7583227    0.4495951 -86.42  0.001440372    3.443    0.710
        70 -12.6219    165.8488     57.7060   6.3357988727e+01   3.6170909575e+01     1.422978    0.9377976  85.66  0.002729457    2.090    0.522
        71 -10.5249    249.9968    248.1631   9.0446728789e+01  -1.1355306075e+01    0.2739809   0.09930284 -23.45  0.001310761    3.451    0.710
        72  -9.9867    169.0779    236.3515   1.0276654818e+02   2.4809864312e+00    0.1780078    0.1734198 -82.25  0.000479291    1.290    0.225
        73 -10.2558     43.3521    236.4806   1.2538650047e+02   2.1096454803e+01    0.1358178   0.09991265  82.10  0.001022008    1.164    0.141
        74 -11.8031     61.6489    235.0867   1.2216699878e+02   1.9073722945e+01    0.1942363    0.1432002  78.43  0.000412004    1.141    0.124
