#   1 NUMBER                 Running object number                                     
#   2 MAG_AUTO               Kron-like elliptical aperture magnitude                    [mag]
#   3 X_IMAGE                Object position along x                                    [pixel]
#   4 Y_IMAGE                Object position along y                                    [pixel]
#   5 X_WORLD                Barycenter position along world x axis                     [deg]
#   6 Y_WORLD                Barycenter position along world y axis                     [deg]
#   7 A_WORLD                Profile RMS along major axis (world units)                 [deg]
#   8 B_WORLD                Profile RMS along minor axis (world units)                 [deg]
#   9 THETA_WORLD            Position angle (CCW/world-x)                               [deg]
#  10 FWHM_WORLD             FWHM assuming a gaussian core                              [deg]
#  11 ELONGATION             A_IMAGE/B_IMAGE                                           
#  12 ELLIPTICITY            1 - B_IMAGE/A_IMAGE                                       
         1 -15.8335    220.2928     82.9161   4.8950691829e+01   1.9504665744e+01     8.707174     5.531366 -73.06   0.03568278    2.072    0.517
         2 -13.4602    215.3110     25.2352   3.6126235484e+01   2.8734965209e+01      2.09758     1.466402  43.15   0.01194414    1.913    0.477
         3 -12.7992    248.2767      4.9503   2.9333864165e+01   2.4074424117e+01    0.9607066    0.4927981 -58.63  0.005726181    1.605    0.377
         4 -14.4762    242.8858     18.4738   3.2352224354e+01   2.3659463748e+01     1.637838    0.8557091 -19.46  0.002606484    3.168    0.684
         5 -15.1970    247.2124     58.4286   4.0226924899e+01   1.7661265215e+01     1.689953    0.8465406 -48.41  0.003982257    1.690    0.408
         6 -14.8012    220.8859     33.1595   3.7373073691e+01   2.6545129055e+01      9.66082     4.049616 -18.52   0.03013145    6.107    0.836
         7 -14.6454    227.2425     71.4026   4.5351826004e+01   1.9841780649e+01     1.921017      1.03798 -35.31  0.007906295    1.752    0.429
         8 -13.9925    247.5968     82.1362   4.5231430491e+01   1.4084744694e+01     1.794438    0.7848223 -53.95  0.005023489    2.470    0.595
         9 -11.0067    144.8376     29.4955   4.6538804960e+01   4.4976569378e+01    0.5181993     0.245908 -18.30  0.002113815    2.844    0.648
        10  -9.3951     78.4629     29.4920   6.2837150823e+01   5.9928197843e+01    0.2597412    0.1262152 -28.92  0.001201053    2.138    0.532
        11 -11.3602    133.5720     27.8752   4.8115170069e+01   4.7887628925e+01     0.721997    0.2473705 -27.73  0.001798037    3.188    0.686
        12 -11.5679    135.6911     15.0715   4.3569402618e+01   4.8707445725e+01     0.584776    0.3789989  10.15  0.002961058    2.107    0.525
        13 -11.2341    128.5119     15.2693   4.4902625124e+01   5.0407846444e+01    0.5799761    0.2430766 -30.68  0.001548941    2.543    0.607
        14 -14.5502    249.4918     38.9104   3.5964682528e+01   1.9843968595e+01     1.898307    0.4894077 -33.94  0.007161432    3.684    0.729
        15  -9.4486     79.1062     14.2899   5.6240446517e+01   6.1534267332e+01      0.21403    0.1579092   5.39 0.0006130958    1.369    0.270
        16  -9.2061     90.3065     13.6352   5.2776810664e+01   5.9267843973e+01       0.2029    0.1160637 -19.39 0.0007621887    1.921    0.480
        17 -10.0417    115.9740     12.5036   4.6362786381e+01   5.3619020847e+01    0.3290501    0.1979161  64.71  0.001458698    1.524    0.344
        18 -11.5126    120.3198      8.8992   4.4252249794e+01   5.2919787511e+01    0.4546436     0.348705  58.07  0.001379316    1.117    0.104
        19 -10.1161    157.6467      7.2831   3.7953290468e+01   4.4123262625e+01    0.4146896    0.2750417   4.89  0.002114975    2.162    0.538
        20  -9.0704    222.0134      9.0596   3.1976380919e+01   2.9067191809e+01    0.4067681    0.1724409  81.60  0.001958096    2.308    0.567
        21 -10.2376    204.4998      8.0091   3.3181678607e+01   3.3042848913e+01    0.1927174    0.1744421  63.50 0.0005442671    1.292    0.226
        22 -10.6322    136.2504      6.3744   4.0698532468e+01   4.9350194651e+01    0.6011156    0.2710927  -7.83  0.002162899    3.438    0.709
        23  -9.9223    210.2778      3.6697   3.1721018515e+01   3.2183284090e+01     0.186519    0.1814435  16.92  0.000529622    1.403    0.287
        24  -8.9137    187.0576     11.9530   3.5794794717e+01   3.6663594279e+01    0.1843657    0.1596971 -81.75 0.0005133178    1.036    0.035
        25 -12.0955     38.0532    151.2978   1.0978618732e+02   3.9521863167e+01     0.512702    0.4142334  -9.84  0.001426099    1.618    0.382
        26  -8.0396     44.6017    177.5472   1.1134201516e+02   3.2339512816e+01     0.131243    0.1150046 -79.86 0.0002461352    1.077    0.072
        27  -9.7709    201.1220    173.8190   7.2992318212e+01   6.8711229136e+00    0.4036982    0.2623862 -19.36  0.001902194    1.739    0.425
        28 -13.0266      6.3943    164.3108   1.1947279777e+02   3.9169681737e+01    0.9088007    0.6457223 -80.68   0.00402525    1.144    0.126
        29 -10.5763    242.6290    165.7567   6.3727510954e+01   1.2156932550e+00    0.3248876    0.2207472 -47.72  0.001584398    1.624    0.384
        30 -14.0634    174.2189     80.8158   5.6026024013e+01   3.0317570124e+01     2.490849     1.497692  55.03  0.008948735    1.674    0.403
        31  -8.4866    202.3201    245.1141   8.5769869580e+01  -5.1179260088e+00    0.1613212    0.1350891   3.13 0.0003644991    1.098    0.089
        32 -12.6194     45.6434    147.6041   1.0712849646e+02   3.9624118694e+01    0.9067346    0.6772809 -78.55  0.002696452    1.249    0.199
        33  -9.8207    214.3226    169.0422   6.9431092153e+01   5.3961748695e+00    0.3774885    0.2333683  45.94  0.001838719    1.827    0.453
        34  -8.9960    173.4986    150.4641   7.3735684044e+01   1.6774480356e+01    0.1522563    0.1438834 -10.85 0.0001498352    1.020    0.020
        35 -10.1620    133.7567    146.8239   8.2412884152e+01   2.5646251811e+01    0.8803371    0.2674519 -51.00  0.002570916    3.479    0.713
        36  -9.1575    131.5207    138.3792   8.1045556448e+01   2.8041240772e+01    0.3828382    0.2697859  65.34  0.001632098    1.849    0.459
        37  -8.4600    217.5198    148.0239   6.4337570432e+01   8.6199241731e+00    0.2122676    0.1276066 -40.86  0.000530833    1.527    0.345
        38  -9.2158    222.4696    145.3636   6.2872645989e+01   8.1853292008e+00    0.1944969    0.1677181  80.43 0.0003623547    1.573    0.364
        39 -10.8023    179.4192    143.2404   7.0785765458e+01   1.7050732820e+01    0.5032971    0.3151235 -68.43  0.001884034    2.779    0.640
        40  -9.8435     26.1257    143.8673   1.1214705031e+02   4.2531171856e+01    0.2114203    0.1638434  80.03  0.001165153    1.273    0.214
        41  -9.3360    159.3974    142.9695   7.5220689005e+01   2.1264826809e+01    0.2958467    0.2246611  61.39  0.001364589    1.566    0.362
        42 -11.3966    141.4714    134.2609   7.7506931079e+01   2.6932177762e+01    0.9940865    0.4936199 -65.83  0.002678281    4.761    0.790
        43  -9.0074    136.2071    242.4174   9.8638789852e+01   5.2375164009e+00    0.1992266   0.09960901  44.95 0.0009597736    1.820    0.451
        44  -9.8005    210.6968    136.9863   6.3119668649e+01   1.1951963197e+01    0.3669843    0.2297018 -15.04  0.001470956    2.214    0.548
        45  -9.3232    192.1989    144.0450   6.8301207464e+01   1.4283780386e+01     0.231765    0.2134305  44.34 0.0003859345    1.171    0.146
        46  -9.3899    207.1430    134.0269   6.3099261857e+01   1.3207568683e+01    0.2267324     0.210184  35.23 0.0003128967    1.161    0.139
        47  -8.6812    167.0146    134.5059   7.1454940480e+01   2.1464454516e+01    0.2278656    0.1536777  45.93 0.0009055198    1.529    0.346
        48 -11.3278    159.9055    129.5381   7.1875102918e+01   2.4041475146e+01    0.7029589    0.4048938 -34.57  0.002831501    1.851    0.460
        49 -10.2292    222.9331    129.5190   5.9282044223e+01   1.0936656748e+01    0.3256121    0.2602277  12.84  0.001059129    1.494    0.331
        50  -8.8644    201.5869    227.9259   8.3096912020e+01  -2.4651817915e+00    0.2068672    0.1719635  51.77  0.001264168    1.668    0.400
        51 -10.4936    135.9131    128.0294   7.7398401278e+01   2.9497877732e+01    0.7266696    0.2201233 -50.64  0.002026569    3.716    0.731
        52  -8.6181     93.7127    128.3621   8.9252883292e+01   3.7593731262e+01    0.2878361    0.1738483 -36.80  0.001191402    1.859    0.462
        53 -10.7386    171.8607    124.8690   6.8020555203e+01   2.2421597518e+01     0.524412    0.2403088 -37.32  0.001915466    2.225    0.551
        54  -8.6652    238.3150    223.3233   7.5450881723e+01  -7.0085358427e+00    0.1282521   0.07874253  -2.27 0.0005559974    1.663    0.399
        55  -9.5336    143.2827    123.5938   7.4405113976e+01   2.8918626822e+01     0.351271    0.2701403  67.19  0.001130366    1.587    0.370
        56 -10.2174    221.3422    221.4371   7.8202150355e+01  -4.3812085665e+00    0.2240562    0.1862152  -1.87  0.000224372    1.061    0.058
        57  -9.8136    135.1726    120.0546   7.5570241399e+01   3.1438898740e+01       0.3627     0.205175 -51.37  0.001002739    1.845    0.458
        58 -10.6561    164.6599    118.1171   6.7919499555e+01   2.5394130098e+01    0.4447495    0.3204375 -42.88  0.001248432    1.351    0.260
        59 -10.3531    168.3580    115.4915   6.6426901401e+01   2.5106699113e+01     0.348638    0.2669864 -35.89  0.001663369    1.289    0.224
        60 -10.6807    134.8282    111.1322   7.3310616633e+01   3.3469991283e+01    0.7517074    0.2558176 -42.13  0.002341481    2.944    0.660
        61 -11.4341    134.9429    101.3312   7.0594365069e+01   3.5527950557e+01    0.9195651     0.369818 -47.28  0.003108493    2.585    0.613
        62  -9.2543    222.5977    117.8048   5.6687386401e+01   1.3084267485e+01    0.2091136    0.1929268  56.38 0.0002988426    1.220    0.180
        63 -12.8082    122.8611    100.5266   7.3590612366e+01   3.8334590066e+01     2.069407      1.11647 -57.62  0.007614828    2.423    0.587
        64 -11.4596    113.9623     94.3997   7.4335135345e+01   4.1515339075e+01    0.8929073    0.5539967  -5.73   0.00305233    3.254    0.693
        65 -10.1593    120.7869    111.9325   7.7302762253e+01   3.6279465197e+01    0.4338812     0.269893 -67.38  0.001641838    2.383    0.580
        66  -9.6231    162.0880    112.4838   6.7046769190e+01   2.7123840943e+01    0.2418523    0.1542076  47.66  0.001037605    1.606    0.377
        67  -9.3733    110.4498    109.6823   7.9637594323e+01   3.8885347628e+01    0.3923999    0.2525679  -6.08  0.001409578    2.847    0.649
        68  -8.5638     77.7188    108.0681   8.9330152211e+01   4.5145565334e+01    0.2049241     0.175738 -45.81 0.0002111011    1.091    0.083
        69  -9.3410    142.1466    107.0999   7.0354152141e+01   3.2717576450e+01    0.2368603    0.2140968  -1.99 0.0004776173    1.200    0.166
        70  -9.8882    148.8856    103.9680   6.7851049101e+01   3.1850172434e+01    0.4014135    0.3066404  19.26  0.001458551    1.620    0.383
        71  -9.7520    206.9231    103.1247   5.5848092169e+01   1.8934941066e+01    0.2875015    0.1973225 -44.10   0.00044781    1.345    0.257
        72 -10.8492    158.9975     99.8771   6.4389402483e+01   3.0355464684e+01    0.8390967    0.4291776  37.45   0.00297076    2.358    0.576
        73  -8.7637    173.6212    101.7493   6.1739868189e+01   2.6625963647e+01    0.3310134    0.2061846 -58.58 0.0007233968    1.949    0.487
        74 -11.8625    174.6330     93.5160   5.9358797090e+01   2.7942284415e+01     1.089481    0.6574168  34.96  0.004276084    2.089    0.521
        75  -9.4829    209.7805     97.4160   5.3998422755e+01   1.9324938167e+01    0.4705298    0.2300759 -56.72  0.001765742    2.704    0.630
        76 -13.9616    235.5815     55.1978   4.0747900972e+01   2.0473298681e+01    0.8158948    0.3556856 -43.80  0.001510388    1.944    0.486
        77 -10.5163    142.2654     94.8626   6.6925827363e+01   3.5195718550e+01     0.358485    0.3218831  80.04  0.001144543    1.239    0.193
        78 -11.4218    157.4348     91.2428   6.2364048116e+01   3.2385203155e+01    0.3695666    0.2681228 -36.06 0.0005544599    1.387    0.279
        79  -8.8988    189.4846    221.9836   8.4485947300e+01   3.3785071029e-01    0.1961352    0.1557236  23.65 0.0003576783    1.116    0.104
        80  -8.7061    200.1545     90.6726   5.3939709419e+01   2.2612101037e+01    0.2419062    0.1762445 -49.20 0.0003199252    1.307    0.235
        81 -10.6879    139.2142     89.0119   6.5998146907e+01   3.7045356449e+01    0.4333636    0.2859157 -16.52  0.001768709    2.105    0.525
        82 -10.1436     95.1839     89.3784   7.8522367329e+01   4.6327847034e+01    0.2538398    0.2323147 -30.09 0.0002960654    1.050    0.048
        83 -10.7742    126.8224     76.0997   6.5268392617e+01   4.2319279523e+01    0.4608616    0.3296255 -52.16   0.00149268    1.553    0.356
        84  -8.8021    159.7994    158.8250   7.8714472543e+01   1.7763876920e+01     0.205792    0.1843801 -83.63 0.0006097975    1.339    0.253
        85 -11.2644    143.3186     66.9342   5.8443333289e+01   4.0071091003e+01    0.6043817    0.4028612 -77.93  0.002489932    2.370    0.578
        86 -11.0543    154.4404     63.8467   5.5133760034e+01   3.7900960364e+01    0.7141824    0.2744114 -31.18  0.002478351    2.945    0.660
        87 -10.9496    144.3595     59.3841   5.5906503599e+01   4.1038615240e+01    0.3886446    0.3518502 -71.73  0.001142992    1.184    0.155
        88 -10.5471    140.3215     57.3272   5.6150584191e+01   4.2327245019e+01     0.337378    0.2580126  -5.12  0.001664299    1.627    0.385
        89 -10.2575    204.5250    153.4032   6.7955398490e+01   1.0066544507e+01    0.4832366    0.3478175 -70.87  0.002198056    2.212    0.548
        90 -10.2291    191.7642    152.7771   7.0362229652e+01   1.2654097538e+01     0.517311    0.3206896 -46.58  0.002346145    1.625    0.385
        91  -8.2600     72.5738     58.4795   7.6112679153e+01   5.6518978628e+01    0.1388467    0.1245026  -7.42 6.697517e-05    1.020    0.019
        92 -10.1133    152.0936     55.3226   5.3071026802e+01   3.9787774585e+01    0.2816196    0.2060341 -44.39 0.0007619225    1.413    0.293
        93  -7.8349    176.2853    154.6322   7.4059754775e+01   1.5352284341e+01    0.1503534    0.1211963 -77.84 0.0007019453    1.699    0.411
        94 -10.6340    143.9490     50.2525   5.3173323880e+01   4.2506571496e+01    0.3675258    0.1937837  60.72  0.001574205    1.856    0.461
        95  -8.6681    228.4890    220.9611   7.6800162487e+01  -5.3252237577e+00    0.1427213    0.1090804 -56.88 0.0005835529    2.252    0.556
        96  -8.9384    190.9420    217.4611   8.3409709712e+01   8.5689629521e-01    0.1876038    0.1624317  -4.64 0.0003155614    1.075    0.070
        97 -12.2558     67.0053    141.9224   9.9993621167e+01   3.8379816727e+01     1.643262     1.115242  49.88  0.007386022    1.595    0.373
        98  -9.7871    167.5011     29.0470   4.2760554506e+01   3.9501007486e+01    0.2562674    0.2464465  63.37  0.001086035    1.123    0.109
        99  -8.8885    164.3835     28.7908   4.3147063351e+01   4.0289549539e+01    0.2775661    0.2209482  -5.45  0.001557854    1.592    0.372
       100 -10.0054    163.9548     39.8165   4.6365063622e+01   3.9046852502e+01    0.3291584    0.2104327  42.32  0.001030364    1.738    0.425
       101 -10.6184    164.6537     34.6202   4.4766426822e+01   3.9529619657e+01    0.4071109    0.3625128 -31.68  0.001900215    1.235    0.190
       102 -10.4412    110.0084     39.2109   5.7336532721e+01   5.2012119188e+01    0.3107026     0.214676 -12.22  0.001563281    1.682    0.405
       103 -10.7670    122.9244     38.6147   5.3969258598e+01   4.9119450187e+01    0.3201075    0.2303799 -19.20  0.001661259    1.555    0.357
       104 -10.9529    124.4935     32.1574   5.1415610132e+01   4.9555136321e+01    0.3141123    0.2745437  16.35 0.0004162575    1.215    0.177
       105 -10.1859    157.0354     37.9836   4.6986634598e+01   4.0972299804e+01    0.2072486    0.1917274  68.99  0.001233383    1.023    0.022
       106  -8.9341    171.7340     34.6902   4.3713272155e+01   3.7797298452e+01    0.2236247    0.1969493 -53.03  0.001334303    1.155    0.134
       107  -8.2611    191.5984    212.8145   8.2456536782e+01   1.5337207905e+00      0.16274    0.1264847 -46.83 0.0004089304    1.525    0.344
       108  -8.5576     78.4583     33.4994   6.4473780361e+01   5.9402173247e+01    0.2223445    0.1266889 -28.87 0.0007530855    1.800    0.444
       109  -8.4229    238.6648    212.3075   7.3415926206e+01  -5.4794126581e+00    0.1045492    0.1025105 -67.13 0.0007041511    1.673    0.402
       110  -9.0700    247.8672    211.3099   7.1633206881e+01  -6.5872846512e+00     0.170436    0.1318928   5.76 0.0005354414    1.124    0.111
       111 -10.0426    158.4686    207.0788   8.8450965813e+01   8.1056893698e+00    0.2443133    0.2260364  21.02 0.0004005259    1.032    0.031
       112 -10.0539    159.5730     29.0875   4.3964836966e+01   4.1428440607e+01    0.2528449    0.2333737 -83.38 0.0006080398    1.066    0.062
       113 -10.4250    178.4694     23.7658   3.9830628468e+01   3.7450690507e+01     0.568842     0.353052  77.81   0.00296755    1.527    0.345
       114  -8.5166    187.8324     30.6411   4.0449111989e+01   3.4419753855e+01    0.1989062    0.1409718 -44.66 0.0006298758    1.392    0.282
       115 -10.2456     92.0723     31.0889   5.9241209320e+01   5.6969197701e+01    0.4917511    0.1935077 -27.77  0.001987422    2.766    0.639
       116  -7.9954    227.3143    206.6593   7.4420629806e+01  -3.0057396007e+00    0.1125564    0.1052681 -69.89 0.0007047465    1.703    0.413
       117  -8.6167    172.7191    205.2785   8.5041782933e+01   6.0064819095e+00    0.2721673    0.1506384  60.71 0.0009513419    3.898    0.743
       118 -10.5439    192.9797    194.8344   7.8845188617e+01   4.4513548795e+00    0.9691181    0.5145301 -63.38  0.002824429    6.176    0.838
       119  -9.0045    180.9174    192.5635   8.0927355124e+01   6.9616154324e+00    0.2280318    0.1781429 -25.17  0.001223119    1.282    0.220
       120  -8.9857     42.9697    193.1531   1.1342272920e+02   2.8827929694e+01    0.1839479    0.1576963  78.20 0.0002510075    1.016    0.016
       121 -11.2935    210.3215    186.5939   7.3773307174e+01   2.9754338546e+00    0.5852204    0.5634531  77.86  0.003613595    1.424    0.298
       122 -10.4556    220.0659    184.0492   7.1413167180e+01   1.7991221510e+00    0.2698273    0.2208291  38.89 0.0009053543    1.384    0.277
       123 -12.0864     52.6360    145.3068   1.0476634723e+02   3.9386604593e+01    0.7123654    0.4814278 -80.94  0.001761353    1.522    0.343
       124 -10.3754    216.5739    181.7792   7.1614926600e+01   2.7659945616e+00    0.3173313    0.1840012 -40.29  0.001031696    1.660    0.398
       125  -9.3623    235.6529    186.4804   6.9066643222e+01  -1.0718447221e+00    0.4385816    0.1369294 -40.27  0.001675838    2.971    0.663
       126 -11.7957    226.2200    175.6035   6.8581900518e+01   2.2259784900e+00    0.7889156    0.5096231  13.05  0.003671225    1.872    0.466
       127 -10.9023    236.1727    174.5861   6.6612642339e+01   7.8614956529e-01    0.4758264    0.3538682  58.85   0.00188663    2.044    0.511
       128 -10.9494    230.8532    167.9947   6.6199371410e+01   2.7553649729e+00    0.5073165     0.274271 -43.80   0.00241443    1.823    0.452
