#   1 NUMBER                 Running object number                                     
#   2 MAG_AUTO               Kron-like elliptical aperture magnitude                    [mag]
#   3 X_IMAGE                Object position along x                                    [pixel]
#   4 Y_IMAGE                Object position along y                                    [pixel]
#   5 X_WORLD                Barycenter position along world x axis                     [deg]
#   6 Y_WORLD                Barycenter position along world y axis                     [deg]
#   7 A_WORLD                Profile RMS along major axis (world units)                 [deg]
#   8 B_WORLD                Profile RMS along minor axis (world units)                 [deg]
#   9 THETA_WORLD            Position angle (CCW/world-x)                               [deg]
#  10 FWHM_WORLD             FWHM assuming a gaussian core                              [deg]
#  11 ELONGATION             A_IMAGE/B_IMAGE                                           
#  12 ELLIPTICITY            1 - B_IMAGE/A_IMAGE                                       
         1 -13.0018    147.0138     34.6216   2.9033815444e+02   6.4951077116e+00   0.07182293   0.04819658 -64.21  0.007515972    1.511    0.338
         2 -10.4996    153.6749     19.0497   2.9016459852e+02   6.6339567791e+00   0.02022457  0.009814375  20.89 0.0005277074    2.324    0.570
         3 -10.7471    120.1165      9.1748   2.9049168551e+02   6.9491686153e+00    0.0215938   0.01777675 -85.41  0.001676454    1.347    0.258
         4 -11.1411    157.2790      2.5482   2.9002057774e+02   6.8017911010e+00   0.02586227   0.01791047  36.59  0.002478284    1.435    0.303
         5  -9.0691     11.0188    225.9620   2.9309024402e+02   5.1068117532e+00   0.01379459  0.009384514 -61.04  0.001205314    1.456    0.313
         6 -12.2000    246.4568    228.8662   2.9039131301e+02   3.6629123605e+00   0.08827672   0.03770049 -55.67  0.007529659    2.203    0.546
         7  -9.9149    245.8626    239.7224   2.9046512290e+02   3.5416229404e+00   0.02404361  0.009187207 -49.65  0.001910281    2.544    0.607
         8 -18.2277    107.0474    202.8092   2.9183882118e+02   4.7995589498e+00    0.2769572    0.2593466  -3.15   0.01125437    1.096    0.087
         9  -8.3952     12.0239    146.4833   2.9259070000e+02   6.0164830887e+00   0.00978804  0.006517963  26.90 0.0003743045    1.511    0.338
        10  -9.1844    138.8190    249.2295   2.9175767546e+02   4.0746537302e+00   0.01532424   0.01310484  71.05  0.001226733    1.294    0.227
        11  -7.2386     15.3363    152.2619   2.9258791348e+02   5.9301582507e+00  0.006746385  0.005000454 -20.60 0.0006204102    1.582    0.368
        12  -7.6364    178.2112    204.6266   2.9102855708e+02   4.3518254913e+00  0.006542539  0.004995912  81.93 0.0004700168    1.580    0.367
        13  -8.4859    173.6166    202.1355   2.9106620795e+02   4.4080852245e+00   0.01511664   0.01095176 -42.42  0.001079046    1.413    0.292
        14 -10.7999    173.0299    136.2167   2.9066611201e+02   5.1702809856e+00   0.01790654   0.01469517  88.11  0.002037252    1.380    0.276
        15  -9.7102     34.9608    134.6445   2.9225249179e+02   6.0159066374e+00   0.02062689   0.01283299  58.90  0.001425404    2.028    0.507
        16 -10.0968     30.8128    130.2083   2.9227317318e+02   6.0917721543e+00   0.03066226   0.01341584  58.05  0.001929034    4.714    0.788
        17 -10.9389     24.6458    201.3233   2.9278167664e+02   5.3093995241e+00    0.0262579   0.02007348 -37.17  0.002915255    1.372    0.271
        18  -8.6204    173.8779    235.3759   2.9126801952e+02   4.0239017933e+00   0.02253493    0.0062862 -48.83  0.001518317    3.530    0.717
        19  -8.8308     12.4526    220.0090   2.9303719054e+02   5.1668517392e+00   0.01450695   0.01116358 -55.82  0.001099747    1.275    0.216
        20  -9.5469     53.2241    127.5722   2.9199763680e+02   5.9881910377e+00     0.015824  0.008576013 -61.07 0.0007554925    1.822    0.451
        21  -7.9681    196.5790    128.0061   2.9034348077e+02   5.1231358902e+00   0.00982886  0.008475251  25.74 0.0001965743    1.166    0.143
        22  -9.5299     49.2224    123.9123   2.9202138304e+02   6.0542612241e+00   0.01893615   0.01105649   6.68   0.00168721    2.309    0.567
        23 -10.6414    117.3954    109.9950   2.9114697846e+02   5.8061492944e+00   0.03520559  0.009835566  29.78  0.002449869    3.355    0.702
        24  -9.9604    115.4043    119.7128   2.9123001145e+02   5.7062478479e+00   0.01803026   0.01190524 -69.46 0.0008796834    1.614    0.380
        25 -10.4893    118.7024    114.5081   2.9115974107e+02   5.7463659955e+00   0.02326843   0.01542196  -1.92  0.001746298    1.965    0.491
        26  -9.3564      9.8200    216.0714   2.9304346384e+02   5.2279200005e+00   0.01182868  0.009272442 -80.24  0.001113561    1.407    0.289
        27 -10.1565    242.3713    119.2028   2.8976069669e+02   4.9486720320e+00   0.01330931   0.01094186  28.67 0.0002871674    1.218    0.179
        28  -9.4352     95.3662    118.3520   2.9145331463e+02   5.8420556406e+00   0.02161276   0.01343095   4.85  0.002023168    2.099    0.524
        29 -10.8501     33.7776    192.7140   2.9262327586e+02   5.3540743324e+00   0.02519422   0.01754618   9.40  0.002614899    1.650    0.394
        30  -8.8261    176.4223    214.7037   2.9111131331e+02   4.2465753819e+00   0.01463228   0.01061809 -39.37 0.0008259052    1.442    0.306
        31  -9.5221     20.6131    183.9686   2.9272172981e+02   5.5334111081e+00   0.01672169   0.01047234 -32.17  0.001487859    1.901    0.474
        32  -9.0330    171.8972    112.6531   2.9053354103e+02   5.4482022383e+00  0.009566272  0.008327718  34.61  0.001127512    1.151    0.131
        33  -9.4633     90.3431    109.2605   2.9145529896e+02   5.9768087561e+00   0.01620289   0.01319718  82.32   0.00125541    1.411    0.292
        34  -9.4918      5.5443    214.4509   2.9308292941e+02   5.2720849726e+00   0.01460452   0.01120076 -27.25 0.0006109015    1.450    0.310
        35  -9.8509     64.5739    107.7249   2.9174395546e+02   6.1488013186e+00   0.02105488   0.01271853 -36.47  0.001868155    1.888    0.470
        36  -7.4995     31.2965    108.3141   2.9213271640e+02   6.3409882434e+00  0.006897267  0.004926563 -28.56 0.0004767811    1.603    0.376
        37  -8.2094    188.5764    105.7297   2.9029808847e+02   5.4275179255e+00  0.008688465  0.006483297 -76.36 0.0003627133    1.474    0.322
        38 -10.1586    203.0836    173.2222   2.9054783216e+02   4.5638006691e+00   0.01993092   0.01257415  75.73  0.001806987    2.339    0.572
        39  -8.7881     93.8694    103.9642   2.9138181308e+02   6.0166358816e+00   0.01491273  0.009441647  22.73  0.000785223    1.644    0.392
        40  -9.2279     83.2870    104.1399   2.9150531854e+02   6.0780237466e+00    0.0178171  0.009734192  19.38  0.001066411    2.047    0.512
        41  -9.7996    124.4114    101.8852   2.9101575342e+02   5.8573723248e+00   0.01244439   0.01054781  33.47 0.0004032789    1.180    0.153
        42  -9.9102    229.1312    171.5319   2.9023698616e+02   4.4265922243e+00   0.01435904    0.0103156 -31.71  0.001514558    1.553    0.356
        43  -8.2442    245.5556    100.7245   2.8960956581e+02   5.1418962524e+00  0.009460323  0.006496169 -79.43 0.0009513432    1.708    0.415
        44  -9.4095     33.2817    170.6867   2.9249365090e+02   5.6107956642e+00   0.01690852  0.009785231 -42.46 0.0007981369    1.831    0.454
        45  -9.2321      2.5972    212.7481   2.9310654186e+02   5.3092727838e+00   0.01490055   0.01155362 -67.67  0.001150454    1.321    0.243
        46  -9.7024      6.0133    208.4787   2.9304089279e+02   5.3381002160e+00    0.0285969   0.01123334  44.83  0.002195063    2.869    0.651
        47 -10.3157     11.1942    206.6504   2.9296981122e+02   5.3282733518e+00   0.02700223   0.02273101   6.25  0.002749915    1.269    0.212
        48  -8.3665     65.1454     97.1149   2.9167187962e+02   6.2675111686e+00   0.01048614  0.008742225 -21.57 0.0007293614    1.301    0.232
        49  -9.1047    101.3059     91.9560   2.9122162475e+02   6.1102467096e+00   0.01627973  0.009237757  29.19   0.00147459    1.748    0.428
        50  -9.2268    171.6612    230.4021   2.9126295490e+02   4.0944533210e+00   0.01256961  0.009585382 -39.53 0.0007285915    1.357    0.263
        51  -7.7534     83.0075     81.7267   2.9137015207e+02   6.3376355841e+00  0.008992012   0.00844893  21.68 0.0002997075    1.070    0.066
        52  -7.4915    212.6674     79.2666   2.8985611615e+02   5.5867451685e+00  0.006801665  0.004921174  57.88 0.0006636771    1.583    0.368
        53  -8.1482     97.6091     78.8805   2.9118359820e+02   6.2828610600e+00   0.01437404  0.007386546  26.10  0.001300973    1.984    0.496
        54  -8.4441     27.7159     78.1134   2.9198797337e+02   6.7100123400e+00   0.01189935  0.009444758   9.95 0.0003977733    1.359    0.264
        55 -10.8382    134.4911     72.6652   2.9071852754e+02   6.1329976143e+00    0.0253946   0.01784397   8.84  0.001448452    1.638    0.389
        56 -11.3036    248.8198    248.4567   2.9048492737e+02   3.4234038715e+00   0.05016264   0.04430876  26.07  0.006041712    1.137    0.121
        57 -10.5643    144.4696     23.7841   2.9030042413e+02   6.6349400207e+00    0.0133096   0.01261375   4.04 0.0002954268    1.072    0.067
        58 -12.4269    142.6852     59.1591   2.9054018354e+02   6.2390744027e+00   0.05962203   0.03782519 -57.30  0.004806445    1.537    0.349
        59  -7.9877    157.9910     62.0043   2.9038083119e+02   6.1143357985e+00   0.01015782  0.007477509 -28.23  0.001074815    1.536    0.349
        60  -8.4587    195.0936     57.6564   2.8992515752e+02   5.9409922922e+00  0.009816265  0.008885781 -75.68 0.0003118893    1.142    0.124
        61 -11.0369    144.5010     50.9791   2.9046853767e+02   6.3222038561e+00   0.02502315   0.02199866 -44.22 0.0006351956    1.134    0.118
        62  -9.2930    135.4611     47.8347   2.9055362209e+02   6.4126872230e+00   0.01113272  0.009137703  27.43 0.0002547955    1.222    0.182
        63  -9.7096    250.0769     43.2656   2.8920125440e+02   5.7747502626e+00   0.01153204  0.009558287 -57.80 0.0003959834    1.192    0.161
        64  -7.7224    190.8537     31.1805   2.8981001629e+02   6.2707391160e+00   0.00905225   0.00744385 -27.86 0.0003915779    1.304    0.233
        65 -10.3451    162.9606     24.0468   2.9008819458e+02   6.5206699184e+00   0.01833328   0.01008003 -39.24  0.001481647    2.059    0.514
        66  -8.8797    195.5871    157.7929   2.9053902628e+02   4.7864069221e+00   0.01382004  0.006564895 -62.63  0.001073021    2.121    0.529
        67 -11.6909    189.1643    154.8660   2.9059506814e+02   4.8586989077e+00   0.03139612   0.02750181 -34.29  0.002927759    1.169    0.144
