#   1 NUMBER                 Running object number                                     
#   2 MAG_AUTO               Kron-like elliptical aperture magnitude                    [mag]
#   3 X_IMAGE                Object position along x                                    [pixel]
#   4 Y_IMAGE                Object position along y                                    [pixel]
#   5 X_WORLD                Barycenter position along world x axis                     [deg]
#   6 Y_WORLD                Barycenter position along world y axis                     [deg]
#   7 A_WORLD                Profile RMS along major axis (world units)                 [deg]
#   8 B_WORLD                Profile RMS along minor axis (world units)                 [deg]
#   9 THETA_WORLD            Position angle (CCW/world-x)                               [deg]
#  10 FWHM_WORLD             FWHM assuming a gaussian core                              [deg]
#  11 ELONGATION             A_IMAGE/B_IMAGE                                           
#  12 ELLIPTICITY            1 - B_IMAGE/A_IMAGE                                       
         1 -13.3971    248.0026    115.4143   8.2692063470e+01   7.4457657331e+00     1.909584    0.7630578 -26.59  0.006957059    2.921    0.658
         2 -14.2276    200.8934     17.2850   6.4196798798e+01   3.2720427088e+01     2.170981     1.258973  45.27  0.008236525    2.015    0.504
         3 -13.9389    206.0308     10.3051   6.1785231198e+01   3.2169162770e+01     3.113213     1.621252  26.09  0.001669391    4.003    0.750
         4 -12.6614      2.2118     12.4046   1.2144161787e+02   7.2924822947e+01     1.499596    0.2254228 -55.07  0.004869773    6.066    0.835
         5 -13.2082      2.1744      3.9599   1.1771569103e+02   7.4317552778e+01     1.066312    0.7914523  37.39  0.007759653    2.035    0.509
         6  -8.8264    193.7007    245.3088   1.1740298026e+02  -2.0754740409e+00    0.1088893   0.08489835  56.88 0.0002145293    1.597    0.374
         7  -9.0937    205.2890    250.3451   1.1606997167e+02  -4.4903161412e+00    0.1165898   0.07544366  13.40  0.000702417    1.654    0.395
         8  -9.3629    184.0050    250.5049   1.1985020732e+02  -1.2095189659e+00    0.1618728   0.08366015  24.36 0.0003603417    2.287    0.563
         9 -10.8779    136.1429    227.7953   1.2578485517e+02   9.9497148879e+00    0.3916416    0.1802004 -48.68  0.001914026    2.681    0.627
        10 -12.4593    131.8919    223.8439   1.2610989032e+02   1.1324164797e+01    0.6342881    0.4296237 -75.84  0.003605522    1.927    0.481
        11 -11.8320    150.0288    248.7151   1.2575918001e+02   4.4362252038e+00    0.7314901    0.2732769  51.48   0.00320289    2.748    0.636
        12 -11.1118    143.5264    249.2549   1.2700770353e+02   5.3910138003e+00    0.2744504    0.2110224  82.28   0.00110381    1.662    0.398
        13 -11.8188    135.8757    241.0291   1.2745644979e+02   7.8580950861e+00    0.3301182     0.237833  54.08 0.0004810419    1.193    0.162
        14 -12.0818    135.1014    236.9290   1.2711445421e+02   8.6307821382e+00     0.389144    0.3385335  27.82  0.001270319    1.297    0.229
        15 -10.2334    135.9769    250.5460   1.2852685930e+02   6.3900598595e+00    0.1945633    0.1649225 -84.15  0.000454205    1.444    0.307
        16 -10.9019    132.2249    248.8433   1.2902025083e+02   7.2340115466e+00    0.3248616    0.1872401  58.08  0.001508843    1.702    0.412
        17 -11.5496     98.5572    231.5506   1.3344958040e+02   1.5281671086e+01    0.5276833    0.3453397  41.43   0.00321717    1.380    0.275
        18 -12.3150    110.4131    230.2697   1.3105061776e+02   1.3685314625e+01    0.8244069    0.3055262  44.38  0.002955077    2.140    0.533
        19 -12.8117    125.6226    242.7634   1.2956149922e+02   9.2151877377e+00    0.8278595    0.6401637 -35.19  0.005418514    1.898    0.473
        20 -11.5452    103.4090    241.2250   1.3350979037e+02   1.2888919306e+01    0.6438172    0.3774128 -64.40  0.003900758    2.013    0.503
        21 -11.1655     96.9273    239.9759   1.3458329424e+02   1.4065519506e+01    0.3915503    0.2852187  83.53  0.002093286    1.407    0.289
        22 -10.6077    115.3527    250.1630   1.3221949933e+02   9.6351444209e+00    0.5551531    0.1422926  42.26  0.002291453    2.930    0.659
        23 -11.6856    109.3488    246.9882   1.3299081189e+02   1.1048208029e+01    0.4893523    0.4007923 -75.48  0.003497223    1.440    0.306
        24 -10.2424     87.9273    250.5670   1.3715254737e+02   1.3596818955e+01    0.4861613     0.133663  37.28  0.001495483    3.698    0.730
        25 -10.7770     88.3049    247.3331   1.3681150718e+02   1.4077335187e+01    0.4108077    0.1937503  42.04   0.00231589    1.732    0.423
        26 -10.9506     80.8076    245.9294   1.3802803903e+02   1.5366204994e+01    0.5177553    0.2471509  83.77  0.002546465    3.029    0.670
        27  -9.1806     74.7834    250.5721   1.3945220095e+02   1.5412975241e+01    0.2175085   0.09189578  38.67   0.00115814    2.152    0.535
        28 -12.3912     61.7950    246.0171   1.4137091304e+02   1.7900004298e+01    0.9552665    0.4335541  45.41  0.004407767    1.706    0.414
        29 -14.9480     16.7406    169.9194   1.4448043811e+02   3.8053322935e+01     3.229927     1.127714 -59.84   0.01534709    2.771    0.639
        30 -10.7136    115.8002    239.9742   1.3108394491e+02   1.1202792486e+01    0.2222439    0.1752907  55.45 0.0007451592    1.027    0.026
        31 -11.0778     89.9975    236.7297   1.3555787898e+02   1.5639906698e+01    0.4602244    0.2369226  57.31  0.002580712    1.674    0.403
        32 -10.0796     83.5097    238.4335   1.3690561514e+02   1.6273507647e+01    0.3898275    0.1287875  40.20  0.001794828    2.539    0.606
        33  -9.4317     86.2945    237.3142   1.3629508498e+02   1.6072080819e+01    0.2033179    0.1433126  61.22 0.0006867808    1.122    0.109
        34 -14.2990      8.9959    207.2340   1.4835045442e+02   3.1057997895e+01     1.517596    0.9140355 -75.00   0.01052868    1.556    0.357
        35 -10.3679    165.5848    235.2184   1.2114641910e+02   3.8738899682e+00    0.2228605    0.2162805  24.28  0.001622979    1.218    0.179
        36 -10.2959    162.0251    232.8083   1.2148639754e+02   4.8266779846e+00    0.2673065    0.1714005  63.70  0.000959143    2.039    0.510
        37 -11.4029     98.4110    247.3140   1.3499947824e+02   1.2621708228e+01    0.8118218    0.3036918  54.41   0.00385022    2.445    0.591
        38 -11.8958    122.3748    232.7627   1.2904105625e+02   1.1364970090e+01    0.4074205    0.3229572  48.46  0.002001093    1.059    0.055
        39 -10.2379     71.4568    233.6120   1.3870287628e+02   1.8800553073e+01    0.2903379    0.1590086 -53.23  0.001644951    2.526    0.604
        40  -9.6572     77.6577    232.8907   1.3749853552e+02   1.8076808873e+01    0.3519236    0.1738498  82.05  0.001739103    2.674    0.626
        41 -14.5020      4.4003    246.1041   1.5081368278e+02   2.4387157581e+01     1.725385    0.4782321 -81.49  0.009131334    3.230    0.690
        42 -10.9506    156.6699    231.6601   1.2234616154e+02   5.8985456937e+00    0.2237681    0.1951143  33.35 0.0004993676    1.123    0.110
        43 -10.2909    222.9570    244.5181   1.1215263032e+02  -6.4799141226e+00    0.1814859   0.09128073  37.00 0.0005624866    1.592    0.372
        44 -10.5842    141.7126    230.8640   1.2510218998e+02   8.5213223136e+00    0.2751275    0.2206173  -2.82  0.000896178    1.807    0.447
        45 -10.3805     84.7946    229.5645   1.3586241147e+02   1.7665274388e+01    0.2881271    0.2245197  18.57  0.000943204    1.990    0.498
        46 -10.6343     80.1552    227.8201   1.3657776125e+02   1.8645467288e+01    0.3041814    0.2660489 -17.28   0.00081642    1.955    0.488
        47 -10.1792     78.9467    224.5596   1.3650660605e+02   1.9418138905e+01    0.2656544    0.2150499  -2.42  0.001617413    2.336    0.572
        48 -10.7972     77.6686    221.0617   1.3642507384e+02   2.0254044695e+01    0.2570917    0.1681043  63.32 0.0003925327    1.288    0.223
        49  -9.2454    179.9120    228.4120   1.1748121833e+02   2.4708767690e+00    0.2214178     0.150117  81.91 0.0009828577    3.318    0.699
        50 -10.3065    165.6511    227.4126   1.2004030083e+02   5.0353992349e+00     0.358011    0.2230251 -71.77  0.001731059    3.017    0.669
        51 -11.1016    161.1068    223.3107   1.2032579601e+02   6.4509882115e+00    0.5744596    0.2501072  34.37  0.002025994    2.277    0.561
        52  -9.5779    190.7154    228.0366   1.1540571125e+02   7.1166881753e-01    0.1620184    0.1414553  21.40 0.0003105435    1.099    0.090
        53  -9.9280     93.8456    217.2501   1.3286499812e+02   1.8605588903e+01    0.3022708    0.1826584  83.47  0.001619501    1.957    0.489
        54 -10.8111     92.6543    226.0080   1.3401583500e+02   1.7159941440e+01    0.2908259    0.1869695  59.13 0.0004003168    1.309    0.236
        55 -11.8744     98.5269    223.6040   1.3262696788e+02   1.6712830939e+01     0.492387    0.2700703  41.61  0.001272112    1.588    0.370
        56 -10.6814    149.4532    222.8984   1.2253807664e+02   8.5161285657e+00    0.3334568    0.2432241   7.40  0.001668717    2.024    0.506
        57 -10.9082    117.2761    224.3425   1.2904119759e+02   1.3634303317e+01    0.2484433     0.188245  44.05  0.000361281    1.168    0.144
        58 -10.3714    152.7194    243.9690   1.2468600900e+02   4.6956397162e+00     0.159811    0.1433703  46.65  0.001094986    1.149    0.130
        59  -8.9169    220.0173    223.4885   1.0934631234e+02  -3.4822654487e+00    0.1736995    0.1021034  37.91 0.0003360253    1.456    0.313
        60 -11.8060    142.1533    221.5307   1.2378447857e+02   9.9893262348e+00    0.3716375    0.3088412  47.34 -2.461974e-05    1.007    0.007
        61 -11.2569    137.7009    214.3558   1.2368574258e+02   1.1989801790e+01    0.5880061    0.2940512  34.21  0.001341451    2.053    0.513
        62 -12.4131     13.7183    248.9353   1.4947367476e+02   2.2972081420e+01    0.2617327    0.1767036  52.96 0.0008888025    1.288    0.224
        63 -12.4983    248.3100    240.2014   1.0721040006e+02  -9.6700896519e+00    0.5378827    0.3718116  11.72  0.003759764    1.178    0.151
        64  -9.3275    177.4806    220.4785   1.1674336649e+02   4.0651915179e+00    0.2428228    0.1020968  49.59  0.001034065    2.427    0.588
        65 -10.5321    246.2579    218.8319   1.0401409741e+02  -6.9769454189e+00    0.2405623    0.1272727  17.79  0.001249515    2.069    0.517
        66 -10.0050    110.5786    222.1774   1.3010388457e+02   1.5093169737e+01    0.2952101    0.1956678 -49.72  0.001383355    1.913    0.477
        67  -9.8781    165.4406    241.8949   1.2207179752e+02   2.9298493953e+00    0.2831855    0.1466876  33.72 0.0006494496    1.738    0.425
        68 -11.2660     70.5813    219.2432   1.3762694450e+02   2.1584931212e+01    0.4805057    0.3088362 -83.85  0.002601724    1.541    0.351
        69  -8.7963    198.0000    227.8971   1.1403870847e+02  -4.7909368840e-01    0.1723494   0.07067136 -39.83 0.0007946438    2.889    0.654
        70 -10.1752     88.1889    213.0223   1.3354024333e+02   2.0264069974e+01    0.2168394    0.1657692 -87.15 0.0006660416    1.296    0.228
        71  -9.1367     83.9068    242.3075   1.3716942505e+02   1.5548310520e+01    0.1663371    0.1166658  52.47 0.0009015419    1.119    0.106
        72 -10.2969    102.2745    212.1670   1.3059456282e+02   1.8267191284e+01    0.3492786    0.1711336  57.61  0.001419522    2.043    0.511
        73  -9.1439    152.1517    211.8867   1.2041723496e+02   9.8963304648e+00     0.198058    0.1608975  60.38 0.0006289668    1.244    0.196
        74 -10.9076    105.3535    219.3473   1.3081136067e+02   1.6435784209e+01     0.381723    0.2200652  72.35 0.0007407277    2.135    0.532
        75  -9.7633     33.4937    211.4662   1.4408649569e+02   2.7712665678e+01    0.1724882    0.1336252  47.99 0.0002381382    1.361    0.265
        76 -10.3861    173.2089    239.8353   1.2036144827e+02   1.9527451829e+00    0.2340279    0.1925959 -53.66 0.0007825305    1.596    0.374
        77 -10.8139     72.6241    209.9855   1.3635435973e+02   2.3103063168e+01    0.3650895    0.2295285  53.48 0.0009959695    1.324    0.245
        78  -9.9416    135.5071    208.1326   1.2325328617e+02   1.3485223994e+01    0.2846071    0.1970168  30.73  0.001445548    1.541    0.351
        79  -9.3563    119.7847    208.7959   1.2658351948e+02   1.6054394389e+01    0.1797298    0.1328529  65.19 0.0003274445    1.309    0.236
        80 -10.2909    108.9934    207.5881   1.2865616822e+02   1.8068262842e+01    0.2732452    0.1800621 -70.67  0.001082139    1.693    0.409
        81 -11.4266    248.0022    205.2474   1.0132077861e+02  -5.5849117400e+00    0.3561345    0.2198751  38.60   0.00209373    1.559    0.359
        82 -10.6239    175.0350    205.6209   1.1484944813e+02   6.8465573320e+00     0.301527    0.2184475  -1.00  0.001594361    1.869    0.465
        83 -11.6460     92.7064    204.2941   1.3163563673e+02   2.1293219389e+01    0.5569729    0.4126449  48.36  0.001706467    1.207    0.171
        84  -9.5694    125.9233    205.7356   1.2489572549e+02   1.5587535834e+01     0.190896      0.14818  51.06 0.0004473529    1.101    0.092
        85  -9.2801    149.2716    204.7460   1.1991902331e+02   1.1657909704e+01     0.259783    0.1653446 -23.16  0.001187407    2.673    0.626
        86 -10.9573    102.3231    202.4739   1.2940149615e+02   2.0145047858e+01    0.4282326     0.231492  54.86  0.001151749    1.711    0.416
        87 -10.4984     98.6094    196.8447   1.2947385178e+02   2.1869148053e+01    0.4743205    0.2480376  55.80  0.001385778    1.837    0.456
        88 -10.8549    145.5197    240.7915   1.2562856394e+02   6.3375191769e+00    0.2959643    0.1266086  52.77  0.001158011    2.374    0.579
        89  -9.9843    166.9733    203.2354   1.1607035338e+02   8.7111474989e+00    0.2514036    0.1709853  24.26   0.00130324    1.635    0.388
        90 -10.4662    169.7324    200.1723   1.1500343066e+02   8.7272610739e+00    0.2373814    0.1888405  41.96 0.0003605916    1.104    0.094
        91  -9.6060    133.0939    202.8471   1.2298727394e+02   1.4883498048e+01    0.1998388    0.1625639  64.99 0.0003568729    1.199    0.166
        92 -10.1732    138.0986    201.6483   1.2176257435e+02   1.4221623702e+01    0.2056735    0.1936567 -55.19  0.000307865    1.229    0.186
        93  -9.9944     64.1153    202.1162   1.3731135067e+02   2.5845922356e+01    0.2530902    0.1669057  32.18 0.0008251803    1.803    0.445
        94 -10.1466    197.2827    200.7605   1.0966459257e+02   3.5957401346e+00    0.2767744    0.1610616  33.58   0.00109356    1.578    0.366
        95 -10.9977    115.2737    200.2305   1.2636963365e+02   1.8457545264e+01    0.2338447    0.1995381  62.64 0.0002279894    1.028    0.027
        96 -10.6224    120.2579    199.3898   1.2519441337e+02   1.7774594171e+01    0.3866324     0.209664  58.30  0.001126336    1.955    0.489
        97 -11.2518     53.3949    198.0009   1.3912056592e+02   2.8079501184e+01     0.597977    0.2142788  45.14  0.002828403    2.335    0.572
        98 -10.2588     56.5331    194.1273   1.3810891167e+02   2.8489980340e+01    0.2881288    0.1886069 -87.68  0.001237266    1.396    0.284
        99  -9.9236     44.2977    199.3228   1.4108116745e+02   2.8914059758e+01    0.2700825    0.1867315  51.27 0.0009593786    1.301    0.231
       100  -8.6889    158.5541    199.4988   1.1717450422e+02   1.0903282982e+01    0.1358006    0.1194406  40.64 9.108345e-05    1.020    0.019
       101  -9.0515     86.2604    199.2889   1.3240140254e+02   2.3282132242e+01     0.179506    0.1624027  87.85 0.0002006792    1.175    0.149
       102  -9.5529     85.7712    195.9801   1.3211565830e+02   2.4035029237e+01    0.2026845    0.1616351  64.37 0.0002344329    1.060    0.056
       103 -10.2746    133.8890    197.5250   1.2202486897e+02   1.5748488435e+01    0.2921736    0.2084402 -80.85   0.00121099    1.786    0.440
       104 -11.8945     68.8575    194.8026   1.3558333566e+02   2.6715100832e+01    0.4611847    0.3758999  -2.97  0.002534255    2.126    0.530
       105 -10.4972    112.8120    193.7423   1.2599222675e+02   2.0163668722e+01    0.4422264    0.2778428 -67.00  0.001380144    1.764    0.433
       106  -8.9217    107.4061    196.2261   1.2750355150e+02   2.0566939140e+01    0.1705458    0.1210393 -81.26 0.0004458735    1.552    0.356
       107 -10.5961    248.4184    194.1464   9.9201850210e+01  -4.2260471686e+00    0.3085896    0.1834495   6.06  0.001454402    2.003    0.501
       108 -10.5709    120.5517    192.1746   1.2408458321e+02   1.9148947480e+01    0.4006221    0.3417274 -57.81  0.001489491    1.310    0.236
       109  -9.9476    118.0000    190.0210   1.2432078578e+02   2.0026408674e+01    0.1918645    0.1707895 -56.55 0.0003321513    1.276    0.216
       110 -10.4883     38.7103    192.6313   1.4166345193e+02   3.0949184030e+01    0.2917503    0.1647972 -63.87  0.001707011    1.800    0.444
       111  -9.1855     42.2126    189.1962   1.4064942532e+02   3.1272083621e+01    0.1670703    0.1099324  68.37 0.0006315918    1.288    0.224
       112  -9.1980     30.6875    194.9424   1.4346377172e+02   3.1352264593e+01    0.1613599    0.1189119  75.96 0.0003902687    1.038    0.037
       113 -10.0116    159.6298    194.0180   1.1603849743e+02   1.1684567232e+01    0.2996131    0.1839529  51.32 0.0009801808    1.571    0.363
       114  -9.0392     84.6943    192.3285   1.3190877812e+02   2.4956176058e+01    0.1887498    0.1321765  28.64 0.0003621819    1.781    0.438
       115 -10.3291     26.1250    192.9569   1.4422936663e+02   3.2243690612e+01    0.2261017    0.1438386  86.99 0.0009187485    1.280    0.219
       116  -9.5332     47.5333    192.9556   1.3987435491e+02   2.9851389038e+01    0.1732621    0.1449915 -74.26  0.001189865    1.310    0.237
       117 -13.5295     14.0078    238.9200   1.4900014705e+02   2.4674745415e+01    0.6966186    0.3307672  66.68  0.004623144    1.575    0.365
       118 -10.1698    191.4305    191.5014   1.0913444628e+02   6.1454322510e+00    0.2498084    0.2122798  18.00 0.0006271965    1.124    0.110
       119  -9.6870    172.8338    192.2153   1.1299978334e+02   9.5224720822e+00    0.2247183     0.154839   5.14  0.001056565    2.137    0.532
       120  -9.3643    135.3152    190.1162   1.2056218797e+02   1.6922311726e+01    0.1830069    0.1678495  75.19 0.0005064169    1.100    0.091
       121 -10.1282     31.6124    189.7789   1.4288634959e+02   3.2329189188e+01     0.353924    0.2322069  47.86  0.001823789    1.433    0.302
       122 -10.8731     25.7872    184.5262   1.4367967812e+02   3.4045465725e+01    0.3077534     0.169659  68.73  0.001099969    1.590    0.371
       123 -10.5797     30.0357    183.5312   1.4271979862e+02   3.3819080774e+01    0.3724312    0.2032441  68.31  0.001630082    1.646    0.393
       124 -11.3703    249.6045    187.6180   9.7761773395e+01  -3.5514910081e+00     0.355691    0.2534579  -9.53  0.002139678    1.314    0.239
       125 -11.9041     73.3599    187.5823   1.3381363469e+02   2.7614276413e+01    0.3312707    0.2571428 -59.35 0.0005767177    1.451    0.311
       126  -9.5876    175.3922    186.5618   1.1145768319e+02   1.0027912035e+01    0.2365333    0.1692766 -77.67  0.001109487    2.288    0.563
       127  -9.8962     77.3103    188.7272   1.3308388160e+02   2.6804821502e+01    0.2034771    0.1538877 -71.84 0.0002191758    1.315    0.240
       128  -8.3863     45.2847    187.6144   1.3986345035e+02   3.1249609640e+01    0.1325622   0.07293691  71.64 0.0007008694    1.741    0.426
       129  -9.1202     81.8823    194.3619   1.3275735698e+02   2.4950171115e+01    0.1752796    0.1394146  53.66 0.0001285703    1.147    0.128
       130 -10.2497    143.2581    185.0055   1.1799323570e+02   1.6451194237e+01    0.4164896    0.1783969 -47.46  0.001690301    2.593    0.614
       131 -10.2628    140.0725    183.0366   1.1835435742e+02   1.7435972105e+01    0.3848432    0.2590353  16.63  0.000407262    2.262    0.558
       132  -9.4887     36.9098    184.1702   1.4132804609e+02   3.2942653202e+01     0.255138    0.1275576  44.32 0.0006958423    1.835    0.455
       133 -10.5851     54.3168    182.0081   1.3737495654e+02   3.1359202488e+01     0.226147    0.1903308  34.75 0.0008007373    1.459    0.314
       134 -12.6285    248.0419    101.6429   7.9499865630e+01   9.5872707967e+00    0.9151547     0.490019 -32.54  0.004217715    1.708    0.415
       135 -12.5540    248.5813    171.7506   9.4807376551e+01  -1.1892100500e+00    0.7832724     0.478988 -25.23  0.004211523    1.549    0.354
       136 -13.7244    244.5816    157.5142   9.2537768630e+01   1.5962732816e+00      2.15687    0.9241624 -41.11  0.009202342    2.401    0.583
       137  -9.6584     65.9469    182.0119   1.3480773797e+02   2.9843070984e+01    0.1868694    0.1618755  77.05 0.0003139112    1.077    0.072
       138  -9.7448    175.0314    179.8425   1.1028058396e+02   1.1299031060e+01    0.3068548    0.1561332  42.28  0.001335182    1.799    0.444
       139  -9.5420    170.0299    180.0128   1.1135863713e+02   1.2247430348e+01    0.2058593     0.189297  30.58  0.001198625    1.037    0.036
       140  -9.2955     48.0260    179.7133   1.3852176604e+02   3.2628794515e+01    0.1655671    0.1301428  57.82  0.000409076    1.188    0.158
       141  -9.3885    192.7417    249.3960   1.1814514356e+02  -2.4385528334e+00    0.1043374   0.08659398  66.15 0.0006965037    1.704    0.413
       142  -9.8148    134.8081    179.0262   1.1883451742e+02   1.9226427425e+01     0.229986    0.1671589 -21.28  0.001083365    2.081    0.519
       143  -8.7497    128.7200    179.3778   1.2025784399e+02   2.0283779384e+01    0.1450879    0.1043226  79.69 0.0003766259    1.710    0.415
       144 -11.4563     82.8004    175.6778   1.3019831070e+02   2.8822271568e+01    0.3497414    0.3356735  56.35  0.001059166    1.238    0.192
       145 -10.3330     95.6211    172.8626   1.2681918886e+02   2.7435680902e+01    0.2898777    0.2211319 -78.20  0.001288685    1.307    0.235
       146  -9.5535     91.1477    172.7654   1.2785008461e+02   2.8174830764e+01    0.2552463    0.2016978 -31.19 0.0009472404    1.808    0.447
       147 -12.5074     88.3711    167.0762   1.2766500095e+02   2.9880436100e+01    0.7670131    0.6405044 -64.86  0.004165294    1.225    0.183
       148 -10.9936     89.9331    160.4951   1.2627208117e+02   3.1121367318e+01    0.3822209     0.234845 -77.34  0.001814204    1.804    0.446
       149  -9.2191    108.9929    176.7260   1.2431228596e+02   2.4358112614e+01    0.2493797    0.1377005  81.54 0.0008959258    3.434    0.709
       150 -11.7961     68.8366    174.1140   1.3321424768e+02   3.1186014144e+01     0.488534    0.3075274 -50.28   0.00258357    1.885    0.469
       151 -10.8926     68.9789    166.8882   1.3225809197e+02   3.2787612376e+01     0.258404    0.2111163 -82.52  0.000325764    1.111    0.100
       152 -14.3212     22.4407    154.7835   1.4192257931e+02   4.0886028215e+01     1.470503     1.170712  31.36   0.01005442    1.562    0.360
       153  -9.4492    114.8653    176.3597   1.2290660407e+02   2.3413109108e+01    0.1926589    0.1626241  86.27  0.000323751    1.191    0.160
       154 -10.1879     76.6586    175.2693   1.3155988931e+02   2.9821372760e+01    0.3822835    0.1942341  64.57  0.001428192    2.336    0.572
       155 -11.4522     28.6820    171.3770   1.4199640419e+02   3.6590656157e+01     0.367382    0.2505111 -72.32  0.001294338    1.329    0.248
       156  -9.7900     86.0917    183.4092   1.3047811774e+02   2.6638484776e+01    0.3341621    0.2087614  31.84  0.001203249    1.859    0.462
       157  -9.0440    100.6138    170.7349   1.2532339725e+02   2.7081725254e+01    0.1854193    0.1266616 -75.26 0.0008852714    1.557    0.358
       158  -8.9709    104.2355    180.6154   1.2599103325e+02   2.4333862326e+01    0.1708588    0.1245069  36.26 0.0002819731    1.444    0.308
       159  -8.6026     76.6637    170.2520   1.3089241118e+02   3.0938378803e+01    0.1371162   0.08832955  66.01 0.0005144096    1.565    0.361
       160 -10.5711     43.6655    168.8235   1.3839091374e+02   3.5545193909e+01     0.333219    0.2911515 -29.38  0.001533866    1.669    0.401
       161  -9.8811     48.8536    168.7815   1.3719596314e+02   3.4949617716e+01    0.2536338    0.1665555  49.78  0.001483136    1.447    0.309
       162  -9.4848    107.3177    168.2061   1.2333629441e+02   2.6497197900e+01    0.2225581    0.1810061  39.39 0.0003842718    1.273    0.215
       163  -9.3237     58.2980    167.4413   1.3484704419e+02   3.4084933608e+01    0.1712267    0.1070315  52.27 0.0008953527    1.506    0.336
       164  -9.0190    136.2328    165.4200   1.1606710168e+02   2.1767316055e+01    0.1940737    0.1295591  53.62 0.0001983071    1.471    0.320
       165  -9.1579     53.9934    164.7765   1.3554158173e+02   3.5229528774e+01    0.1718565    0.1463196  81.27 0.0002556546    1.040    0.038
       166 -10.2655     80.8044    163.8889   1.2900996395e+02   3.1762436605e+01    0.2173489      0.18418  55.68  0.001290822    1.146    0.127
       167 -10.4551     47.0126    163.1489   1.3699981742e+02   3.6437095950e+01    0.2169036    0.1550781 -87.52 0.0003197774    1.214    0.176
       168 -12.2998     46.4807    248.7518   1.4415560487e+02   1.9344113885e+01    0.6713106    0.4052549  42.51  0.004635098    1.544    0.352
       169 -11.2945     95.9372    157.1894   1.2425366405e+02   3.0897522513e+01    0.3864802    0.2295308 -63.65  0.001101409    1.688    0.408
       170  -9.6747     78.9891    158.9354   1.2871797438e+02   3.3165093572e+01    0.2054052    0.1806617  83.21 0.0004709837    1.003    0.003
       171  -9.0407     52.4923    158.4952   1.3514232035e+02   3.6846781870e+01    0.1297622    0.1087315  87.13 0.0008106231    1.005    0.005
       172  -9.4964     47.8424    157.8565   1.3619011031e+02   3.7547151487e+01    0.1835821     0.156806 -73.53  0.000282052    1.172    0.147
       173  -9.3871    228.2768    155.3000   9.4873333827e+01   4.9946511634e+00    0.2327801     0.156606 -30.48 0.0005310477    1.437    0.304
       174  -9.5740    134.3674    155.7659   1.1463911403e+02   2.4186202513e+01    0.2665733    0.2157805 -62.09 0.0006989329    1.297    0.229
       175  -9.4650    132.1259    152.3219   1.1448501305e+02   2.5374367125e+01    0.2307433    0.1941265  88.62 0.0003990089    1.303    0.233
       176  -8.8711    124.6966    154.3302   1.1667519099e+02   2.6382247241e+01    0.1517359    0.1118763  80.05 0.0003149001    1.652    0.395
       177 -11.2770    113.9573    150.8585   1.1863915508e+02   2.9176214087e+01    0.3644248    0.3265753 -37.02  0.001285654    1.285    0.222
       178 -10.9028    101.3185    150.7997   1.2179196018e+02   3.1446861231e+01    0.3918434    0.3295754 -87.01  0.001737401    1.176    0.150
       179  -9.3553    104.1566    145.9967   1.2017841214e+02   3.2052823532e+01    0.3125933    0.2091976 -36.71  0.001437085    1.907    0.476
       180  -9.2387    104.2995    142.3016   1.1942756752e+02   3.2877633587e+01    0.2693425    0.2042479 -39.14 0.0009837073    1.532    0.347
       181  -9.6935     53.2048    146.3855   1.3338987732e+02   3.9568087532e+01    0.2064474      0.17862  61.19 0.0006373723    1.170    0.145
       182 -10.4354     60.0041    150.9753   1.3229699168e+02   3.7646682041e+01    0.3281503     0.195251  61.01  0.001115255    1.766    0.434
       183 -11.1365     55.9518    150.3580   1.3323432512e+02   3.8303515039e+01    0.4346701    0.3561944 -54.56  0.002141815    1.338    0.253
       184 -11.2361     73.6718    157.5676   1.2982671088e+02   3.4256466343e+01    0.4319402    0.3491923  89.19  0.001933361    1.132    0.116
       185 -10.1600     90.2199    149.8123   1.2442967315e+02   3.3529457228e+01    0.2321229    0.2158709  57.82 0.0003867812    1.122    0.108
       186 -10.7671    134.0000    144.9842   1.1251301853e+02   2.6599701902e+01    0.6497266    0.1979994 -51.91  0.001982004    3.562    0.719
       187 -10.7454    133.1228    140.3853   1.1173800970e+02   2.7786392708e+01    0.4209446    0.3756926 -60.20  0.001764051    1.137    0.121
       188 -13.2012     67.5083    144.2480   1.2937409417e+02   3.8225492816e+01    0.9938633    0.5871341  76.29  0.004067226    2.143    0.533
       189 -11.9254     73.9296    139.2865   1.2686751338e+02   3.8491720341e+01    0.6728092    0.4368067  59.64  0.002680722    1.652    0.395
       190 -12.3242      2.1024    144.9361   1.4585778586e+02   4.4732732444e+01    0.4111206    0.3487225 -70.22  0.003101728    1.271    0.213
       191 -11.7188      2.7873    138.7055   1.4519798531e+02   4.6073588911e+01     0.278204    0.1851344 -87.92   0.00184102    1.171    0.146
       192  -8.8100    121.9965    148.0479   1.1609352853e+02   2.8292531779e+01    0.1727556    0.1634641  82.70 0.0009559228    1.018    0.017
       193 -10.5850     41.1455    146.9691   1.3653047897e+02   4.0813284084e+01    0.2839213    0.1748361  14.22  0.001447556    2.538    0.606
       194 -12.4073    248.4171    134.3823   8.6907463462e+01   4.4113381039e+00    0.9587048    0.5391481 -25.89  0.004547074    1.752    0.429
       195  -8.4401    158.7486    145.3008   1.0674562491e+02   2.1356036568e+01    0.1445025    0.1185219 -86.65            0    1.498    0.333
       196  -8.4736     93.3375    145.6545   1.2289351458e+02   3.3984240250e+01    0.1535915    0.1041518  76.12 0.0007048511    1.776    0.437
       197 -11.5349     37.3264    143.1234   1.3702919786e+02   4.2110716658e+01    0.3595895    0.1893409 -79.25  0.001151179    1.733    0.423
       198 -14.5553     29.9478    246.1721   1.4674796850e+02   2.1706564764e+01      2.04971     1.126562  49.89   0.01437184    1.406    0.289
       199 -11.7378     42.7588    237.1984   1.4408351497e+02   2.1809131245e+01    0.3485626     0.212651  52.19 0.0002791211    1.285    0.222
       200 -11.9421     18.3447    140.1247   1.4149479155e+02   4.4572508102e+01    0.3211029    0.2058029  74.75   0.00194207    1.465    0.317
       201 -10.4570     41.7352    140.2777   1.3553364702e+02   4.2309584677e+01    0.1688015    0.1342794 -54.97 0.0007704946    1.332    0.249
       202 -13.1445     43.6299    228.3834   1.4336249195e+02   2.3310786711e+01    0.4416054    0.3604383  60.68 0.0008030069    1.231    0.187
       203 -11.2472     13.1399    137.3641   1.4252497374e+02   4.5620791647e+01    0.2155626    0.1270151 -69.21  0.001093543    1.389    0.280
       204 -10.5896    111.9335    136.1838   1.1620239648e+02   3.2889163290e+01    0.4174208    0.3041342  25.07  0.001481571    1.707    0.414
       205 -10.7551     61.0278    137.6680   1.3005296132e+02   4.0641484969e+01    0.2510435    0.1895498  36.09 0.0007655786    1.475    0.322
       206 -12.7805     45.5579    131.3024   1.3326943421e+02   4.4003944080e+01    0.6934883    0.4313318  68.75  0.003352571    1.802    0.445
       207 -11.4749      1.9972    124.9931   1.4419551352e+02   4.9209382048e+01     0.379476     0.128746 -84.51  0.001634234    2.814    0.645
       208 -11.0622     20.9561    133.9766   1.4018018232e+02   4.5765554175e+01    0.1866702    0.1485506 -80.85 0.0003492645    1.028    0.027
       209 -14.7767     50.4197    218.0122   1.4137376559e+02   2.4447694708e+01     2.388942     1.430614  36.86   0.01466966    1.776    0.437
       210 -11.9242     68.0241    128.4569   1.2658121053e+02   4.1892949346e+01    0.4679135    0.3653017  69.11  0.002612095    1.338    0.253
       211  -9.8266    117.1803    128.7411   1.1320478311e+02   3.3583426591e+01    0.2841464    0.1962818 -25.58  0.001144939    2.046    0.511
       212  -9.6393    106.1500    127.7051   1.1590750599e+02   3.5915093445e+01    0.3653309    0.1935334 -55.41 0.0009552735    1.870    0.465
       213 -10.4510    209.7912    125.7623   9.1534226157e+01   1.3824353213e+01     0.287351    0.2492727 -26.82 0.0005170672    1.126    0.112
       214 -12.1837     31.4000    126.7579   1.3651163430e+02   4.6517789525e+01    0.3609858    0.2299787  36.20  0.001729899    1.759    0.432
       215 -12.6504      9.6206    119.0012   1.4154950216e+02   5.0073060313e+01     0.413491    0.3753324  24.38  0.003077824    1.426    0.299
       216 -11.5080      8.6809    127.0904   1.4265382556e+02   4.8289967871e+01    0.1945435    0.1857096   8.00  0.001483432    1.411    0.291
       217  -8.6900     85.3328    126.7266   1.2141262109e+02   3.9727994593e+01    0.1449354    0.1055634  73.45 0.0006262579    1.596    0.373
       218  -8.9167    161.9840    129.9558   1.0245888492e+02   2.3802925628e+01    0.1803466    0.1793833  55.68 0.0003102467    1.014    0.014
       219 -11.9812     38.4507    122.7267   1.3397591212e+02   4.6780375833e+01    0.3555601    0.2909243 -43.61  0.002234332    1.372    0.271
       220  -9.5163     50.4752    122.9557   1.3059063647e+02   4.5425000238e+01    0.1879995    0.1039856  87.54 0.0008082234    2.424    0.587
       221 -10.1111    238.9290    121.5994   8.5521314416e+01   8.3059692849e+00    0.2805304     0.188178 -15.52   0.00135248    1.688    0.408
       222 -11.7677     30.5584    117.7545   1.3549801416e+02   4.8705568936e+01    0.2938839    0.2668009 -81.35 0.0009424248    1.111    0.100
       223 -11.4345     15.3491    114.5183   1.3942019890e+02   5.0699984215e+01    0.2898855    0.2013709 -77.72 0.0002160017    1.165    0.141
       224 -11.3173    168.1700    113.3277   9.6900788097e+01   2.5750993231e+01    0.3847739    0.3201986 -87.63 0.0006726832    1.442    0.307
       225 -10.8878     64.9922    112.0080   1.2430220681e+02   4.6208436357e+01     0.208743    0.1877354 -70.98 0.0003282116    1.014    0.013
       226 -10.3385     55.0851    120.8838   1.2891197314e+02   4.5370718357e+01    0.2689653    0.2024803  22.59  0.001512578    1.640    0.390
       227  -9.5676    203.7469    111.4351   8.9146868886e+01   1.7745295091e+01    0.2128858    0.1396771  40.36  0.000944588    1.628    0.386
       228  -8.7649     83.6955    111.3069   1.1856684650e+02   4.3614816873e+01    0.1442793    0.1093109  81.47 0.0003010985    1.604    0.377
       229 -10.5414     69.8976    111.0465   1.2262608806e+02   4.5758280582e+01    0.2074248    0.1984954  66.55  0.001259885    1.115    0.103
       230 -11.3205     56.3047    110.6084   1.2664724153e+02   4.7656874612e+01    0.4708811    0.2532396  18.51   0.00176584    2.727    0.633
       231 -10.8395     31.3911    110.5068   1.3416222504e+02   5.0328299273e+01    0.2533507     0.145255  62.35 0.0009518297    2.148    0.534
       232 -13.1128     20.5769    121.5371   1.3882514705e+02   4.8675674066e+01    0.5611335    0.4049959 -21.81  0.003422426    1.957    0.489
       233 -10.4422     13.5106    108.0169   1.3912275156e+02   5.2327849606e+01    0.1878042   0.09595908 -70.86 0.0005448918    1.543    0.352
       234  -9.7278    114.3715    107.0589   1.0870224004e+02   3.9033120924e+01    0.2120139     0.187047 -55.12 0.0005323747    1.113    0.101
       235 -10.1319     62.3172    107.0706   1.2409127230e+02   4.7727313715e+01    0.2024251     0.166072 -66.51  0.001161163    1.106    0.096
       236  -9.9579    135.0000    105.4564   1.0275998478e+02   3.5013214677e+01    0.3509055   0.08830927 -44.13 0.0009388326    3.968    0.748
       237 -11.3207     27.6512    106.4662   1.3465753172e+02   5.1599822421e+01    0.2602572    0.2242588 -44.26  0.001743386    1.256    0.204
       238  -9.1931     21.8319     98.1537   1.3514351289e+02   5.3995395986e+01    0.1643845    0.1196731 -51.49 0.0002676589    1.261    0.207
       239  -8.6944     44.6782     90.2538   1.2615309893e+02   5.3735070141e+01    0.1225223   0.09575301  72.66  0.000220675    1.540    0.351
       240 -12.0711    248.1903    142.1706   8.8655540554e+01   3.2573885407e+00    0.6601178    0.5092289 -14.33  0.003460073    1.240    0.194
       241  -8.9938    123.9942     51.0518   8.8734165028e+01   4.7932617058e+01    0.1741056    0.1676135  20.53 0.0009685984    1.007    0.007
       242  -9.9927    169.3849    248.9210   1.2226832892e+02   1.3165234752e+00      0.24388    0.1568882  17.90 0.0008714119    1.952    0.488
       243  -9.6633    209.7752    247.0093   1.1480691573e+02  -4.7802240673e+00    0.1267925   0.09349756 -27.19            0    1.598    0.374
       244  -9.6684    199.9477    245.9079   1.1637661842e+02  -3.1305427883e+00    0.1663689    0.1313183  56.83 0.0005097556    1.641    0.391
