#   1 NUMBER                 Running object number                                     
#   2 MAG_AUTO               Kron-like elliptical aperture magnitude                    [mag]
#   3 X_IMAGE                Object position along x                                    [pixel]
#   4 Y_IMAGE                Object position along y                                    [pixel]
#   5 X_WORLD                Barycenter position along world x axis                     [deg]
#   6 Y_WORLD                Barycenter position along world y axis                     [deg]
#   7 A_WORLD                Profile RMS along major axis (world units)                 [deg]
#   8 B_WORLD                Profile RMS along minor axis (world units)                 [deg]
#   9 THETA_WORLD            Position angle (CCW/world-x)                               [deg]
#  10 FWHM_WORLD             FWHM assuming a gaussian core                              [deg]
#  11 ELONGATION             A_IMAGE/B_IMAGE                                           
#  12 ELLIPTICITY            1 - B_IMAGE/A_IMAGE                                       
         1 -11.8857    204.4178     36.1826   4.0167204066e+01   3.0200507516e+01    0.6039304    0.5680149 -59.53  0.001521783    1.220    0.180
         2 -11.5488    231.0815     12.0648   3.2407353167e+01   2.7329673559e+01    0.6391446    0.4247826  58.39  0.003967713    1.801    0.445
         3 -11.5775    227.6429      6.9616   3.1622014766e+01   2.8618314822e+01     0.718688    0.4597428  58.15  0.004402863    1.855    0.461
         4 -10.8386     58.8517      3.7103   5.8467161273e+01   6.6532599991e+01    0.3061857    0.2162296  26.47  0.001968602    1.230    0.187
         5 -10.6328     93.5081    235.9120   1.0555150905e+02   1.2415594625e+01    0.3465506     0.224001 -84.97  0.001565202    1.856    0.461
         6  -9.5687    141.3738    250.2611   9.7304993615e+01   2.5561488740e+00    0.2931817    0.1330231  33.56  0.001388756    1.939    0.484
         7 -10.2001    139.0326    247.1962   9.7386224370e+01   3.4345400605e+00     0.206893    0.1814796  64.50   0.00135607    1.274    0.215
         8 -17.9681     14.0295    199.2091   1.1945009966e+02   3.0383911513e+01      15.7667     4.040052 -78.09   0.05859701    3.618    0.724
         9  -9.7975     60.1957    218.8959   1.1097591581e+02   2.0661288586e+01    0.3881032    0.2112524  73.72 0.0009645579    2.073    0.518
        10  -8.8910    185.8432    172.8027   7.5023709101e+01   9.6293090755e+00    0.1921709    0.1758668  80.13  0.001072067    1.325    0.245
        11 -11.2328     73.1566    169.6698   1.0181860948e+02   3.0462062409e+01    0.4806443    0.3649472 -34.13  0.001811068    1.670    0.401
        12 -10.8638     76.7706    165.2878   1.0017197177e+02   3.1019939501e+01    0.4310327    0.3566924  35.19  0.001701868    1.287    0.223
        13  -9.6605     76.2117    210.3492   1.0646934126e+02   2.0352541265e+01    0.3066914    0.1804412 -86.04  0.001285461    1.974    0.493
        14  -8.4622    114.6535    170.3226   9.1093798191e+01   2.3512880875e+01    0.1595732    0.1139044  72.61 0.0003830683    1.738    0.425
        15  -9.4902     45.7818    210.9876   1.1340813843e+02   2.4248171756e+01    0.2605704    0.1766545 -64.87  0.001266547    1.515    0.340
        16 -10.5942     41.7943    207.8711   1.1401308865e+02   2.5431765172e+01    0.5168151    0.3023898  51.87  0.002792088    1.518    0.341
        17 -13.3647     44.5101    113.2705   1.0061502815e+02   4.8405837177e+01     1.350727    0.9094304  69.87  0.006571831    1.940    0.485
        18 -12.0247     73.1388    152.1235   9.8986663672e+01   3.4870020048e+01    0.5707785    0.4499464 -72.95  0.001000761    1.214    0.177
        19 -12.5245     69.2104    143.9510   9.8676133616e+01   3.7511810856e+01     1.087897    0.6715949  68.75  0.003284531    2.130    0.530
        20 -11.7237     53.7619    148.4335   1.0390061559e+02   3.8455130218e+01    0.6075773    0.3524785 -72.43  0.002817418    1.662    0.398
        21  -9.7378    134.2014    148.0914   8.1644939793e+01   2.5066121746e+01     0.545162    0.2031939 -51.75  0.001798656    2.733    0.634
        22  -9.5724    133.0034    140.8457   8.0342808486e+01   2.6993319143e+01    0.4574188    0.2107886 -48.56  0.001548711    2.141    0.533
        23  -8.4900     88.2865    209.4870   1.0358448026e+02   1.8768251193e+01    0.2356684    0.1188688 -63.44 0.0009323279    2.064    0.516
        24  -9.5300    103.7001    138.4675   8.7669051155e+01   3.3231266338e+01    0.4046995    0.2929169 -28.50  0.001814769    1.740    0.425
        25  -9.7446    106.0878    131.1021   8.5361565746e+01   3.4582986517e+01    0.4637121    0.3380208 -57.88  0.002169324    1.361    0.265
        26  -9.3407     64.8321    206.0253   1.0859784015e+02   2.2920410360e+01    0.4434767    0.2043617 -79.50  0.001762837    2.563    0.610
        27 -10.6574     92.0185    136.7553   9.0628962790e+01   3.5721769419e+01    0.2944791    0.2751452 -30.85 0.0003963452    1.159    0.137
        28 -11.1787     71.7584    135.2152   9.6290814983e+01   3.9348578161e+01    0.5261392    0.3309245  62.91  0.002292018    2.010    0.502
        29 -12.3970     43.4492    126.9809   1.0348096837e+02   4.5110803906e+01    0.8276006    0.5052656  80.33  0.003716822    2.173    0.540
        30 -10.2694    112.9784    128.6670   8.2868819447e+01   3.3852036310e+01    0.3830016    0.2668784  22.69  0.001072753    1.810    0.448
        31 -10.3747     91.3000    150.7800   9.3646033751e+01   3.2349373897e+01    0.6257138    0.4275584 -20.89  0.002297643    2.265    0.558
        32  -9.4198    100.1764    124.4408   8.5518576493e+01   3.7290590426e+01    0.2940086    0.2339969 -16.51 0.0007209938    1.588    0.370
        33  -8.4951    108.6978    117.9969   8.1504514985e+01   3.7210559853e+01    0.2136185    0.1966843 -56.34 0.0004327587    1.062    0.059
        34  -8.5050    231.0340    113.9968   5.4269343122e+01   1.2175413575e+01    0.2104942    0.1814973 -43.66 0.0007853564    1.035    0.034
        35  -8.1695    205.5344    110.4655   5.7557363679e+01   1.7931878312e+01    0.1443884    0.1312858 -53.98 0.0002764769    1.007    0.007
        36  -9.9938    115.0947    109.3749   7.7497058909e+01   3.7920754773e+01    0.2809132    0.2111896 -38.45 0.0009076642    1.375    0.273
        37 -10.2585     53.3700    109.8978   9.6951665639e+01   4.8174162385e+01     0.248583    0.2139949   5.31 0.0006602957    1.319    0.242
        38 -11.3208     84.2375    158.2954   9.6972730984e+01   3.1618610641e+01    0.7573968    0.6322814 -53.11  0.004019732    1.213    0.176
        39 -12.3724     59.0859    132.2080   9.9563230771e+01   4.1884779520e+01     1.373789    0.4562809 -68.29  0.004195147    3.777    0.735
        40  -8.4052     73.4351    236.4751   1.0984395937e+02   1.5161466161e+01    0.1628717    0.1113875 -89.23 0.0001345211    1.531    0.347
        41  -8.9356    156.4808     88.7804   6.1580919415e+01   3.3053479870e+01    0.3048126    0.2329629 -80.52  0.001041539    1.575    0.365
        42 -10.2786    111.1489    204.0384   9.7514944592e+01   1.6367122547e+01    0.2897004    0.2045011  26.62 0.0006449051    1.551    0.355
        43 -10.3849    107.4892    203.5256   9.8296594457e+01   1.7078430508e+01    0.3566032    0.1949103  57.28   0.00147618    2.102    0.524
        44 -11.2728    183.6937     53.9323   4.7275309532e+01   3.2527301799e+01    0.4038644    0.3667326  -9.70 0.0009369162    1.397    0.284
        45 -12.1393    196.3280     43.6338   4.2928040165e+01   3.1049716314e+01    0.8291839    0.7753022  88.72  0.003436026    1.151    0.131
        46 -10.4541    101.3723    246.2225   1.0503568118e+02   9.2659594805e+00     0.263839    0.1571075 -69.33 0.0009729716    1.992    0.498
        47 -10.6762    122.8448    199.5431   9.4089157494e+01   1.5394842578e+01    0.3770957    0.2684347 -78.98  0.001847014    1.749    0.428
        48  -9.5573     60.1039    197.8465   1.0879241807e+02   2.5448381854e+01    0.2306676    0.1834643  77.43 0.0003304261    1.137    0.121
        49  -9.3091     75.6153    248.0766   1.1048168897e+02   1.2568229829e+01    0.3976966    0.1786403 -55.35  0.001955687    2.643    0.622
        50  -7.8853     72.3032    188.6838   1.0472098570e+02   2.5939114944e+01    0.1469535   0.09660547  68.85 0.0006142445    1.621    0.383
        51 -10.2008     72.0345    244.7376   1.1090323914e+02   1.3704555874e+01    0.5180444    0.2377033 -58.92   0.00180851    2.439    0.590
        52  -9.2098     99.3847    180.9164   9.6798615806e+01   2.3616986535e+01    0.2471369    0.1896704  52.25 0.0005940896    1.262    0.208
