#   1 NUMBER                 Running object number                                     
#   2 MAG_AUTO               Kron-like elliptical aperture magnitude                    [mag]
#   3 X_IMAGE                Object position along x                                    [pixel]
#   4 Y_IMAGE                Object position along y                                    [pixel]
#   5 X_WORLD                Barycenter position along world x axis                     [deg]
#   6 Y_WORLD                Barycenter position along world y axis                     [deg]
#   7 A_WORLD                Profile RMS along major axis (world units)                 [deg]
#   8 B_WORLD                Profile RMS along minor axis (world units)                 [deg]
#   9 THETA_WORLD            Position angle (CCW/world-x)                               [deg]
#  10 FWHM_WORLD             FWHM assuming a gaussian core                              [deg]
#  11 ELONGATION             A_IMAGE/B_IMAGE                                           
#  12 ELLIPTICITY            1 - B_IMAGE/A_IMAGE                                       
         1 -14.4705     68.7452    144.3511   1.0014605124e+02   3.7372046265e+01     5.148297     2.546826  66.61  0.003219328    4.367    0.771
         2 -13.4251    199.7465     42.1126   4.2137594674e+01   3.0339553421e+01     1.208754     1.053908 -29.57  0.003379734    1.300    0.231
         3 -13.6624    209.6824     32.2790   3.8611694886e+01   2.9339237143e+01     1.077293    0.8553877 -12.83  0.001682024    1.693    0.409
         4 -12.8657    235.0913      6.2341   3.0726821944e+01   2.6848186606e+01    0.8064027    0.6030625 -82.90  0.004883019    1.130    0.115
         5  -9.6976     60.7673      7.6318   5.9545658458e+01   6.5714213473e+01    0.1625594    0.1073264  52.71  0.000573906    1.624    0.384
         6  -9.8593    184.4908    213.4914   8.4265199556e+01   2.4641648474e+00    0.1357668    0.1179559   8.15  0.000810543    1.010    0.010
         7 -10.8443    139.6616    248.8064   9.8992998844e+01   3.4001882736e+00    0.3500504     0.245837 -66.04  0.002040327    1.916    0.478
         8 -10.7487    128.9506    249.2215   1.0122854543e+02   4.9312508406e+00    0.3125915    0.1978825  36.67   0.00122232    1.327    0.246
         9 -10.9008    124.7674    246.3113   1.0172382864e+02   6.0632076577e+00    0.5268613    0.1976147 -51.27  0.002322037    3.060    0.673
        10 -11.5275    115.4425    246.2233   1.0363017889e+02   7.4657420857e+00    0.4978768    0.3017203 -47.82   0.00275731    1.974    0.493
        11 -13.5380     55.2410    185.9019   1.0991018723e+02   2.8830439303e+01     4.931764     2.212202  78.22   0.01593241    4.423    0.774
        12 -14.7954     45.4392    199.2705   1.1367589427e+02   2.6876879761e+01      8.97622     3.328788  68.40    0.0180773    6.367    0.843
        13 -13.0821     21.1748    221.7132   1.2066974347e+02   2.4572326067e+01    0.5189639    0.4339371  81.82  0.001359492    1.122    0.109
        14 -17.1715     14.9318    242.8282   1.2308976560e+02   2.0924120729e+01     7.527599     5.488548  84.93   0.02616164    1.176    0.150
        15 -10.8768    121.5111    197.2212   9.5450707596e+01   1.6294555331e+01    0.4232056     0.258247 -70.74    0.0015176    2.155    0.536
        16 -10.0551    111.8754    197.6610   9.7804920837e+01   1.7799044407e+01    0.2888762    0.1320104  29.04  0.001102074    2.533    0.605
        17 -15.3026      2.6960    198.2250   1.2294112300e+02   3.1397600143e+01     13.08787          nan -73.24    0.0284818   11.375    0.912
        18  -9.9686     59.9236    197.5268   1.1014157000e+02   2.5499497833e+01    0.2290793     0.184496  88.03  0.000344384    1.146    0.127
        19 -14.4603     10.4327    206.3940   1.2185085219e+02   2.8913643541e+01    0.9086056    0.7567105  14.29  0.002975348    1.692    0.409
        20  -9.9569    147.4084    187.3881   8.7640820736e+01   1.3891014131e+01    0.3217589    0.2283373 -50.35  0.001292944    1.477    0.323
        21  -9.2467     89.2393    211.3567   1.0502568290e+02   1.8312342066e+01    0.2152938    0.1773551 -73.89 0.0004458969    1.249    0.200
        22  -8.8177     38.6098    211.3699   1.1629524543e+02   2.4934749762e+01    0.1927289    0.1132666  67.49 0.0006526366    1.611    0.379
        23  -9.2005     79.3401    182.8376   1.0352630758e+02   2.6305539683e+01    0.2655814    0.1930471  85.80 0.0009030686    1.507    0.336
        24 -11.2991    192.0146    205.4915   8.1283833796e+01   2.6425737961e+00    0.4956994    0.2027322  25.51  0.001730159    3.487    0.713
        25 -10.1096     99.4855    180.7851   9.8130892580e+01   2.3690814886e+01    0.2652836    0.2510119  47.81 0.0005846379    1.061    0.057
        26  -8.4963     89.4067    180.1607   1.0057976340e+02   2.5435089721e+01    0.1920717    0.1335979 -78.32  0.000381065    1.581    0.367
        27 -10.0240    187.2402    175.7125   7.6474848180e+01   8.9942090479e+00    0.3395054    0.2715132 -41.24  0.001116924    1.254    0.203
        28 -11.9717     81.7703    159.2444   9.9127955702e+01   3.1726605098e+01    0.9304559    0.5781873  68.48 0.0003980339    2.165    0.538
        29 -13.0726     70.4229    154.0725   1.0137464496e+02   3.4681770150e+01    0.6683394    0.6394969 -23.54  0.001395259    1.177    0.150
        30 -10.8155    192.5641    194.3898   7.9085713197e+01   4.5373849640e+00      1.23766    0.6894271 -66.54  0.003433589    6.983    0.857
        31 -11.4781     69.1128    172.1416   1.0458275622e+02   3.0356661254e+01    0.5001263    0.3206833 -30.92  0.001950181    2.264    0.558
        32  -9.2513     34.7874    171.4868   1.1332541929e+02   3.4666588320e+01    0.2386835    0.1664625  69.39 0.0007945937    1.408    0.290
        33  -8.5507    193.5102    170.4828   7.4084926077e+01   8.8603535464e+00    0.1449458    0.1324336 -11.73 0.0008103472    1.007    0.007
        34  -9.9441    240.7189    169.3930   6.5042068006e+01   9.7198474051e-01    0.1749795     0.118811  24.14 0.0009516497    1.631    0.387
        35  -8.4764    147.9935    174.2892   8.4971923534e+01   1.6603397746e+01    0.2024078    0.1902488  25.54 0.0003803544    1.041    0.039
        36  -8.2165     29.2589    164.3154   1.1393998206e+02   3.6982026367e+01    0.1281507   0.08818699 -50.50 0.0002070457    1.536    0.349
        37  -9.7984     32.1885    156.3235   1.1224148449e+02   3.8674742419e+01     0.192672     0.166154 -33.00 0.0007395758    1.397    0.284
        38 -11.5816     89.1030    152.3000   9.5835087542e+01   3.2313269692e+01    0.6825821    0.4904217 -19.72   0.00309018    1.931    0.482
        39 -10.9946     53.5303    147.7510   1.0511360354e+02   3.8493002510e+01    0.6998209     0.424636 -85.53  0.003185756    1.900    0.474
        40 -10.5511    134.2455    147.0499   8.2576185774e+01   2.5410202877e+01    0.8286611    0.2874496 -53.70  0.002496106    3.311    0.698
        41  -9.2568    174.9012    149.1672   7.3379796719e+01   1.6734751048e+01    0.2269898    0.2098518 -77.19 0.0005386954    1.255    0.203
        42  -9.6102     39.0155    146.4549   1.0905646455e+02   4.0458135287e+01    0.2648161    0.2390268  54.63 0.0007594608    1.195    0.163
        43 -10.3302    133.0000    140.9729   8.1506543165e+01   2.7066423236e+01    0.5834126    0.2131384 -52.68  0.001825537    2.988    0.665
        44 -10.5423     29.3859    143.8874   1.1143650341e+02   4.2053935535e+01     0.356611     0.339944 -29.31  0.001759755    1.240    0.194
        45 -10.1262    102.7360    138.3196   8.9115820326e+01   3.3462454581e+01    0.5808334    0.3612719 -19.51  0.002140669    2.739    0.635
        46 -10.1270    105.9649    130.9212   8.6511728035e+01   3.4676758930e+01    0.3933958    0.3227941 -53.21  0.001338301    1.185    0.156
        47 -11.5771     90.0439    138.0096   9.2691520366e+01   3.5721052613e+01    0.2963898    0.2652278 -35.56  0.000346137    1.153    0.133
        48 -10.2470    135.6925    128.9830   7.7935716981e+01   2.9273576538e+01    0.4889272    0.1414916 -50.38  0.001334915    3.792    0.736
        49  -9.6269    111.6599    129.3959   8.4535074633e+01   3.3976560097e+01    0.3410954    0.2702158   0.34  0.001032021    1.593    0.372
        50  -9.5587     43.6777    129.3564   1.0500164104e+02   4.4283797655e+01    0.2194679     0.188906  82.77   0.00126776    1.215    0.177
        51 -10.1018     40.7518    128.0033   1.0567560767e+02   4.4936172947e+01    0.3417753    0.1892529 -80.03  0.001507863    2.032    0.508
        52  -9.0232    160.6201    128.4102   7.1681818424e+01   2.4112887142e+01    0.3145738    0.1330156 -54.84 0.0009581656    3.267    0.694
        53 -10.2705     98.9822    125.1213   8.7164980209e+01   3.7349117624e+01    0.3356527    0.2666833 -16.52  0.001485853    1.508    0.337
        54 -10.2998    118.7524    122.7212   8.0910970222e+01   3.4169294065e+01    0.6261607    0.3777898   3.24  0.001876018    4.166    0.760
        55  -9.1298     89.0542    122.3668   8.9483291467e+01   3.9745854368e+01    0.4401899    0.2524991  64.63  0.001273584    3.101    0.678
        56  -9.5348    135.0000    120.4342   7.5959468024e+01   3.1348419919e+01    0.3491509   0.08844712 -45.59 0.0009252725    3.859    0.741
        57  -9.2305    107.9862    118.4652   8.2888691007e+01   3.7269318738e+01     0.224003    0.2014521 -45.10 0.0001230205    1.074    0.069
        58 -10.9195     34.6659    118.8622   1.0602463415e+02   4.7837139619e+01     0.333751    0.2330572   8.85   0.00177825    1.778    0.437
        59 -11.4164     73.2909    167.5904   1.0279435886e+02   3.0896393577e+01    0.3680558    0.3222654 -58.19  0.001071624    1.142    0.124
        60  -9.9202    231.3055    113.8027   5.4678644387e+01   1.2200395445e+01    0.2772162    0.2281152 -41.74 0.0008307279    1.059    0.056
        61 -11.7271     18.3650    108.0721   1.0954771620e+02   5.1875946823e+01    0.4625836    0.2828939 -26.78  0.002234741    1.922    0.480
        62  -9.3774    205.3227    110.2343   5.8101783244e+01   1.8086930785e+01    0.2882168    0.2056638  45.17 0.0009355072    1.539    0.350
        63 -10.5353    115.6614    107.3257   7.7743879255e+01   3.8311955521e+01    0.3868218    0.2720751  79.40  0.001553447    2.306    0.566
        64 -10.7082     33.2317    109.4357   1.0478272967e+02   5.0306747381e+01    0.2878272    0.1975902  84.18   0.00145807    1.829    0.453
        65  -8.4723    134.6481    106.3078   7.2300312418e+01   3.4522850516e+01    0.1605247    0.1263186 -89.76 0.0007043133    1.714    0.417
        66 -10.9166     44.8028    105.3063   9.9990596381e+01   5.0141279135e+01    0.4019879    0.2261215  38.72   0.00154069    2.007    0.502
        67  -8.2374    138.5382    105.5612   7.1097229553e+01   3.3828915841e+01    0.1553813    0.1507753 -72.11 0.0002263725    1.073    0.068
        68  -8.3509     65.3348    103.6776   9.2572398890e+01   4.7955014444e+01    0.1451601    0.1136963  76.52 0.0007050412    1.708    0.414
        69  -9.4145     34.0541    100.1089   1.0264330820e+02   5.2499637288e+01    0.2072997    0.1803421 -54.05  0.000719114    1.029    0.028
        70  -9.5226     30.3989     98.2345   1.0355461117e+02   5.3285954730e+01    0.1881519    0.1179496 -72.11 0.0008136384    1.620    0.383
        71  -8.9904    126.3349     93.8219   7.0977220757e+01   3.8965395587e+01    0.2400881    0.1913012 -60.58 0.0005110855    1.414    0.293
        72  -9.2673    156.2393     88.2125   6.2046274177e+01   3.3274355643e+01    0.3731773    0.2328176 -69.90  0.001200454    2.580    0.612
        73  -9.0554    114.8845     84.4832   7.1364073385e+01   4.3331829408e+01    0.2418014    0.2158752 -78.86 0.0008139819    1.330    0.248
        74  -9.5326    158.6688     83.0003   6.0049988046e+01   3.3670056713e+01    0.2164722    0.1958729 -41.04 0.0005224804    1.096    0.088
        75  -8.0576     70.0011     81.9718   8.5005615657e+01   5.2215349517e+01    0.1659616    0.1517398 -20.04 0.0009417779    1.018    0.017
        76  -8.4697    184.5986     77.2136   5.3434929992e+01   2.8584106863e+01    0.1977356    0.1388984 -24.62 0.0005119516    1.632    0.387
        77  -8.6053     56.4872     66.5090   8.5190084298e+01   5.7440056017e+01    0.1368349    0.1223577 -22.13 0.0001948871    1.047    0.045
        78  -7.9161     83.3440     61.6497   7.3702346480e+01   5.3995222167e+01     0.139254    0.1163033 -86.30 0.0007042018    1.809    0.447
        79 -12.9813    189.0790     49.9480   4.5561729491e+01   3.1755898523e+01    0.9692879     0.787473  41.66 0.0009892789    1.436    0.304
        80 -11.0577    119.8911    244.8568   1.0254958423e+02   7.0506358118e+00    0.5998489    0.3028926 -36.81  0.002696173    3.079    0.675
        81 -11.0617    135.0599    211.6461   9.4643965571e+01   1.1000450596e+01    0.3378425    0.2453481  62.35  0.001734775    1.661    0.398
        82 -11.0210     19.4211     33.0921   8.9644556180e+01   6.8004734049e+01    0.3440988     0.150777  30.98  0.001150939    2.499    0.600
        83  -8.8848     66.9628     51.6606   7.5950792357e+01   5.8634612029e+01    0.1904427     0.159686  24.07 0.0007037283    1.168    0.144
        84  -9.7831    187.9541     31.4717   4.0933596331e+01   3.4447359253e+01    0.2040197    0.1204458  68.45 0.0007373692    1.586    0.369
        85 -10.4647    107.6165    203.8051   9.9741975039e+01   1.7136075799e+01    0.2908527    0.2085645  89.97  0.001050908    1.744    0.427
        86  -9.1869    189.7687     14.8899   3.6531219878e+01   3.5899916473e+01    0.1853348    0.1676356  61.55 0.0009698545    1.231    0.188
        87 -10.7417    111.1462    203.4737   9.8867484362e+01   1.6641605055e+01    0.3244291    0.2316605  80.78  0.001268595    1.801    0.445
