#   1 NUMBER                 Running object number                                     
#   2 MAG_AUTO               Kron-like elliptical aperture magnitude                    [mag]
#   3 X_IMAGE                Object position along x                                    [pixel]
#   4 Y_IMAGE                Object position along y                                    [pixel]
#   5 X_WORLD                Barycenter position along world x axis                     [deg]
#   6 Y_WORLD                Barycenter position along world y axis                     [deg]
#   7 A_WORLD                Profile RMS along major axis (world units)                 [deg]
#   8 B_WORLD                Profile RMS along minor axis (world units)                 [deg]
#   9 THETA_WORLD            Position angle (CCW/world-x)                               [deg]
#  10 FWHM_WORLD             FWHM assuming a gaussian core                              [deg]
#  11 ELONGATION             A_IMAGE/B_IMAGE                                           
#  12 ELLIPTICITY            1 - B_IMAGE/A_IMAGE                                       
         1  -9.3458     33.0000     31.8977   8.7573124956e+01   6.6500736357e+01    0.3338147   0.06119708 -46.28  0.001047954    4.904    0.796
         2 -11.8446    227.7438     16.8319   3.6138584780e+01   2.6689146086e+01    0.7109001    0.5902227 -66.96  0.002753222    1.035    0.034
         3  -9.8262      8.7222      3.5996   8.7526909137e+01   7.3304373694e+01    0.3560622    0.1033357 -47.67  0.001436556    4.254    0.765
         4  -8.7973     33.0000      2.9501   7.3900890492e+01   7.0717922307e+01    0.2990896   0.05823159 -33.38  0.001041724    4.847    0.794
         5  -8.0529    249.4998      1.5142   3.1262798764e+01   2.3703171916e+01    0.1178377   0.09162637 -68.17 0.0008104854    1.014    0.014
         6  -9.9414    124.6125    246.9176   1.0569012755e+02   6.8605573449e+00    0.3133609    0.1114197 -51.18  0.001387723    3.339    0.701
         7 -11.8410     38.9580    232.7384   1.2102625457e+02   2.1008167497e+01     1.072395    0.4441159  74.04  0.001376048    2.954    0.661
         8 -13.3265     77.2335    248.3529   1.1503402854e+02   1.3365041993e+01     3.216267    0.8633375  31.52   0.01055146    5.395    0.815
         9 -11.2324     60.2546    248.3493   1.1820056145e+02   1.5550796748e+01    0.6383306    0.4914117  67.01  0.004143809    1.069    0.065
        10 -12.0599     31.9324    206.9960   1.2053880302e+02   2.7000377073e+01     1.048755    0.3718921 -64.18  0.004365934    2.598    0.615
        11 -13.5686     39.5467    194.8259   1.1792801231e+02   2.8817351104e+01     3.705196     1.468166  70.34   0.01371969    3.914    0.744
        12 -12.2524     19.1854    220.0510   1.2391397882e+02   2.5607320406e+01     1.080498    0.5599955  67.34  0.006463458    1.669    0.401
        13 -11.7300     83.9111    229.2620   1.1192050348e+02   1.6009393815e+01    0.9562948    0.4938184 -89.04  0.004373296    2.889    0.654
        14 -10.3416     72.9862    219.2620   1.1315071401e+02   1.9492665931e+01     0.326003    0.2013989  58.93  0.001832235    1.501    0.334
        15 -14.2409      3.3928    130.1438   1.2048518689e+02   4.7008042752e+01     11.83985     1.182521 -74.76   0.02484166   10.430    0.904
        16  -9.0820    114.0266    206.8275   1.0272537946e+02   1.5970208344e+01    0.2935964    0.1699539 -30.52  0.001228562    2.930    0.659
        17 -10.0165     59.8333    179.9588   1.1172903007e+02   2.9811008782e+01    0.4127397    0.2682963 -35.93  0.001682482    2.193    0.544
        18 -10.0110     65.4396    174.1034   1.0962338694e+02   3.0462520925e+01    0.3081283    0.2495581 -32.91 0.0008669941    1.570    0.363
        19  -8.2395    114.6257    173.1760   9.7218439215e+01   2.3158584707e+01    0.2100507    0.1315313 -45.20 0.0009531557    1.699    0.411
        20 -10.6612    120.4340    224.1868   1.0371235504e+02   1.1542051081e+01    0.3945359    0.2670367 -39.15  0.002154046    1.861    0.463
        21  -9.7238     75.2852    164.3320   1.0573913843e+02   3.1452346863e+01    0.2740302    0.2523852  21.63 0.0005382899    1.248    0.199
        22 -10.8103     82.3743    158.2112   1.0289925018e+02   3.1901609356e+01    0.6853467    0.5264393 -39.95  0.002143282    1.454    0.312
        23 -11.3326     68.3527    144.2609   1.0434324045e+02   3.7299091607e+01    0.7139583    0.4864821  75.91  0.002567489    1.812    0.448
        24  -9.6204     22.3484    156.7262   1.1827724884e+02   3.9295820366e+01    0.2253542    0.1668525  77.71  0.001390803    1.249    0.199
        25 -10.1258     73.4679    154.7396   1.0469800813e+02   3.4028552943e+01    0.6230645    0.3682175  85.52   0.00258442    2.455    0.593
        26  -9.9252     32.9121    144.2960   1.1412575827e+02   4.1332038993e+01    0.6560948    0.1100375 -69.38  0.001786878    5.447    0.816
        27 -10.4172     85.3093    141.8759   9.9146430087e+01   3.5435789336e+01    0.3013919    0.2667621 -43.41 0.0005659469    1.150    0.131
        28 -10.5034     58.3505    130.6795   1.0483367165e+02   4.1941616257e+01    0.5795294    0.2696549 -75.87  0.002145068    2.869    0.651
        29  -9.1218     97.9752    142.7381   9.5782599547e+01   3.3182494829e+01    0.5574822    0.3085397 -24.81  0.001838738    3.633    0.725
        30 -11.6269     62.4768    160.3853   1.0847447840e+02   3.4125365798e+01    0.5064563    0.2998773 -43.32  0.001660967    1.970    0.492
        31 -12.5136     29.9159    247.5340   1.2357704130e+02   1.9228103704e+01     1.415075    0.9438205  54.13   0.01024837    1.186    0.157
        32  -9.2364    107.7349    131.6848   9.0664336509e+01   3.4129916769e+01    0.4751932    0.2667094  36.78  0.001968566    1.847    0.459
        33 -11.5874      2.5650    184.0870   1.2498635336e+02   3.4666537460e+01     0.882672    0.3676878 -82.55  0.002647909    1.996    0.499
        34 -13.4269      5.0393    242.1279   1.2754191803e+02   2.2728586354e+01     1.945246     1.129377 -77.62   0.01133142    1.625    0.385
        35  -8.6263     96.2587    128.0212   9.3109800615e+01   3.7030366678e+01    0.2610477     0.206463  -9.53 0.0007307464    1.579    0.367
        36  -8.9514    114.8446    125.7004   8.7261679757e+01   3.4216024843e+01    0.2265911    0.1889261 -38.77  0.001117202    1.189    0.159
        37 -13.1833      9.0596    207.3997   1.2509095803e+02   2.9144988436e+01     1.198802     1.026671  80.81   0.00608171    1.189    0.159
        38  -7.7327    106.3379    120.2346   8.8349152351e+01   3.7097428464e+01    0.1493838    0.1189867  -1.02 0.0001954006    1.542    0.352
        39  -8.7337    135.0000    114.4766   7.8906601609e+01   3.2679776733e+01    0.3549889   0.08891246 -44.62 0.0009344329    3.932    0.746
        40  -8.4669     33.0000    113.9632   1.0964668349e+02   4.8737705763e+01    0.2273533   0.06522939 -65.40 0.0008025303    2.943    0.660
        41  -7.7690    205.5254    110.4796   6.2077326084e+01   1.7747622048e+01    0.1492509    0.1392233 -24.90 -1.270168e-05    1.023    0.023
        42  -8.4127     32.6252    107.7995   1.0869376803e+02   5.0266293366e+01    0.1947124    0.1134462 -74.85 0.0005432674    1.710    0.415
        43 -11.6159    134.2532    230.8101   1.0170083368e+02   8.1473106645e+00    0.4875254    0.2467788  34.27  0.002371101    1.777    0.437
        44  -9.4895     33.0000     81.4754   1.0313936641e+02   5.6441782041e+01    0.4443621   0.06463745 -60.24  0.001148559    5.857    0.829
        45 -11.3762     87.4204    226.4043   1.1090049574e+02   1.6071581662e+01    0.7472095    0.3909482  77.87  0.002480337    3.038    0.671
        46  -8.1044     42.6674     59.7536   9.3333558756e+01   6.0205453931e+01    0.1845994   0.09855606  38.40 0.0008819576    2.268    0.559
        47  -9.8047     33.0000     50.5626   9.4450250150e+01   6.3056866928e+01    0.5572332   0.06281333 -52.78  0.001328512    7.781    0.871
        48 -11.2328    202.8460     39.6506   4.4317753905e+01   2.9678167591e+01    0.6941789    0.4759024  58.37  0.002808544    1.457    0.314
        49 -11.3380    210.9471     34.9870   4.2141458427e+01   2.8363388703e+01    0.7844806    0.5675253 -66.25  0.004276877    1.363    0.266
        50 -11.0209    217.5774     27.2951   3.9536168625e+01   2.7772015827e+01    0.5960389    0.3554603  42.82   0.00137548    2.213    0.548
        51  -8.4758    135.8949     42.7555   5.6750907547e+01   4.5714707273e+01    0.2172701    0.1844956  33.52 0.0004692318    1.153    0.132
        52 -11.4449    119.5953    240.5760   1.0594054456e+02   8.7011207765e+00    0.8586918    0.2510739 -55.02  0.003417413    3.962    0.748
        53  -9.2655     61.0508    234.7160   1.1697082464e+02   1.7990475148e+01    0.2977966    0.1700025  71.92   0.00135433    1.785    0.440
        54 -11.2034    114.8814    242.1016   1.0706464715e+02   9.1435351684e+00     1.500729    0.2531462 -58.47  0.004207908    8.203    0.878
        55 -12.8231    113.2577    230.5413   1.0602411065e+02   1.1468557691e+01      1.42732    0.4206275  38.61  0.005538278    2.833    0.647
        56 -10.1245    134.1897    244.3976   1.0348165717e+02   5.8270241423e+00    0.2032757    0.1632146  60.76  0.001304404    1.336    0.252
