#   1 NUMBER                 Running object number                                     
#   2 MAG_AUTO               Kron-like elliptical aperture magnitude                    [mag]
#   3 X_IMAGE                Object position along x                                    [pixel]
#   4 Y_IMAGE                Object position along y                                    [pixel]
#   5 X_WORLD                Barycenter position along world x axis                     [deg]
#   6 Y_WORLD                Barycenter position along world y axis                     [deg]
#   7 A_WORLD                Profile RMS along major axis (world units)                 [deg]
#   8 B_WORLD                Profile RMS along minor axis (world units)                 [deg]
#   9 THETA_WORLD            Position angle (CCW/world-x)                               [deg]
#  10 FWHM_WORLD             FWHM assuming a gaussian core                              [deg]
#  11 ELONGATION             A_IMAGE/B_IMAGE                                           
#  12 ELLIPTICITY            1 - B_IMAGE/A_IMAGE                                       
         1 -11.3720     33.1570     23.5729   5.8138979772e+01   7.2742962505e+01    0.4469308    0.2972672 -65.64 0.0003135061    2.076    0.518
         2 -10.2051     36.0258      8.2582   4.5634975550e+01   7.4810286064e+01    0.2101422    0.1758326  -9.93 0.0003214995    1.246    0.197
         3 -10.5693     38.7551     13.9695   4.8162224421e+01   7.3413117514e+01    0.2613086    0.2275657  43.81  0.000384733    1.130    0.115
         4 -10.8347     35.3859     12.1553   4.8991787271e+01   7.4347219021e+01    0.3129056    0.2077909 -44.84  0.001139076    1.618    0.382
         5 -12.2386     24.2566     17.9812   6.1244716870e+01   7.5219050319e+01     0.299846    0.2762502 -69.41 0.0004001651    1.281    0.219
         6 -10.7971     25.9133     13.5159   5.6839640008e+01   7.5789648141e+01    0.2610405    0.2446848 -13.24  0.001082721    1.044    0.042
         7 -10.5037     14.2871     16.4383   6.9016518354e+01   7.6846422839e+01    0.2833248    0.1770212 -56.81   0.00133371    1.632    0.387
         8 -10.4940     78.4540     21.2167   3.5170032964e+01   6.3432535222e+01    0.2301304    0.1628426  66.91 0.0009441415    1.385    0.278
         9 -10.3239    225.8873     11.3187   1.2951670532e+01   2.9149552442e+01    0.2016254    0.1181931 -44.75  0.000262382    1.246    0.197
        10  -9.9460    203.3544     11.7855   1.4228694946e+01   3.3665381331e+01    0.1646554    0.1076231 -22.85 0.0002603124    1.645    0.392
        11  -9.7071    185.1643     12.1729   1.5468661925e+01   3.7618647254e+01    0.1896706    0.1185243 -55.02 0.0004560486    1.315    0.239
        12 -11.5650    126.0401     10.9103   2.0633615490e+01   5.2323923941e+01    0.2676448    0.2095774 -59.45 0.0002769433    1.180    0.153
        13 -10.3515    101.2751     10.9616   2.4516665327e+01   5.8812290518e+01     0.360119    0.1516206  72.27 0.0008718603    2.265    0.558
        14 -11.6315     91.6222     10.1930   2.6075742677e+01   6.1411173033e+01    0.3947548    0.2910524  60.71 0.0006010167    1.277    0.217
        15  -9.9707     96.9932     10.6901   2.5211464205e+01   5.9960622135e+01    0.2165297    0.1857814  56.28  0.001222757    1.173    0.148
        16 -12.7374     55.0130      9.8829   3.6974522379e+01   7.0512020123e+01    0.4870365    0.2641472  40.10  0.001388079    1.961    0.490
        17 -10.9306     43.5727     10.7278   4.3058605809e+01   7.2919902497e+01    0.3254904    0.2702901  31.68  0.001900117    1.183    0.155
        18 -10.3785     11.5054     11.4910   6.8557910091e+01   7.8170008771e+01    0.2611412    0.1909934  58.21  0.001148777    1.900    0.474
        19 -10.0790      1.2714      2.7075   7.4369161718e+01   8.0946660887e+01    0.1838741     0.118736 -59.13 0.0001860333    1.572    0.364
        20 -10.3783      7.5805      8.5395   7.0773988309e+01   7.9185403079e+01    0.2137945    0.1561405  61.82 0.0007124832    1.994    0.499
        21 -11.3186      2.9722      6.1548   7.4624436283e+01   8.0102433850e+01    0.4246814    0.2119253  26.53  0.001401085    1.992    0.498
        22 -12.4859     29.6056      5.1732   4.7468219281e+01   7.6493039706e+01    0.3936087    0.3145891 -33.52 0.0002582779    1.288    0.224
        23 -10.7234     29.8583      1.3076   4.3922657318e+01   7.6977519846e+01    0.2704553    0.1141496  49.20 0.0007583659    2.223    0.550
        24 -10.0423    133.1546     10.1952   1.9481925888e+01   5.0549248223e+01    0.2004518    0.1401491 -62.39 0.0003515524    1.324    0.245
        25 -10.8831    116.3530      9.6003   2.1438805601e+01   5.4992508261e+01    0.2493423    0.2218143  54.99 0.0001704329    1.219    0.180
        26  -9.9230     16.8812      8.8434   6.1219557357e+01   7.7994782925e+01     0.199992    0.1625172  -4.51  0.001210449    1.241    0.194
        27 -10.2107    247.1700      5.8914   1.0887084944e+01   2.5779005588e+01    0.1673687    0.1026964 -50.19 0.0002867416    1.148    0.129
        28 -10.8249    221.9884      6.3079   1.1958791058e+01   3.0423434584e+01    0.1638636    0.1229281 -60.16 0.0002829606    1.096    0.088
        29 -10.2542    124.9762      3.4753   1.7852095472e+01   5.3319174270e+01    0.2012288    0.1681862 -78.41 0.0005880464    1.057    0.054
        30  -9.1121    111.6651      6.2771   2.0711591844e+01   5.6548537831e+01    0.1477873   0.09312404 -65.34 0.0004538261    1.607    0.378
        31 -10.2940     67.0239      5.7777   2.9955175737e+01   6.8113817170e+01    0.2002148    0.1916888  54.27 0.0002217862    1.037    0.036
        32 -10.7904     70.7976      4.9960   2.8358387604e+01   6.7257163994e+01     0.255619    0.1891808  47.84 0.0004030394    1.311    0.237
        33 -11.1431    194.0935      4.7154   1.2898237511e+01   3.6389021220e+01    0.2148571    0.1712174 -51.32 0.0002306976    1.067    0.063
        34 -11.2382     48.2575      4.4154   3.6093516094e+01   7.2705407275e+01    0.6488653    0.2274312  61.41   0.00242632    2.911    0.656
        35 -10.4951    210.9834      2.5128   1.1524191655e+01   3.3014600448e+01    0.3027422   0.09671987 -44.19  0.001187395    2.104    0.525
        36  -9.9753    190.1077      3.8041   1.2867812517e+01   3.7360350795e+01    0.1967694     0.133141 -55.52 0.0005345781    1.172    0.147
        37  -9.9213     49.4624      1.4428   3.3346851256e+01   7.2756606581e+01    0.2109708    0.1213048  59.67 1.448397e-05    1.614    0.380
        38 -10.0968     39.2694      3.6154   4.0016243785e+01   7.4767389691e+01    0.2023185    0.1915138  79.53 0.0005892998    1.193    0.162
        39  -9.8511    123.4540      6.4637   1.9212986083e+01   5.3439241224e+01    0.2129099    0.1643579 -42.31 8.358134e-05    1.263    0.208
        40 -10.9632    148.5289      2.3437   1.5181968444e+01   4.7384477039e+01     0.242018    0.2027513 -76.78 0.0004699958    1.050    0.047
        41  -9.9745     12.3327      2.4848   6.0550861001e+01   7.9755712244e+01    0.2885875    0.1660912  58.63  0.001217794    3.485    0.713
        42  -9.4754    138.0136      1.9538   1.5952888641e+01   5.0086017532e+01    0.1628863    0.1402992 -63.06 0.0004493734    1.049    0.047
        43  -9.7323    108.6738      2.0130   1.9272207141e+01   5.7720904316e+01    0.1882715    0.1687112 -61.73 0.0005478119    1.087    0.080
        44 -11.9938     19.9572      2.4771   5.2905806282e+01   7.8602373448e+01    0.3161678    0.2298792   5.17  0.001188963    1.576    0.366
        45 -10.2222    245.1492      1.4082   1.0003254403e+01   2.6577773501e+01    0.1365943    0.0944382 -80.20 0.0004461583    1.463    0.317
        46  -9.2901      7.3189      1.2669   6.5298940332e+01   8.0612006177e+01    0.1245535   0.08681003 -12.04 0.0002635299    1.556    0.357
        47 -11.6105     11.4926    120.3452   9.4985238146e+01   4.9799351150e+01    0.5414093    0.2724319 -16.22  0.001454866    3.047    0.672
        48  -9.2687    109.6859    250.7414   8.0053597680e+01   9.4701446587e+00    0.1084797   0.07521989   3.93 0.0002816458    1.533    0.348
        49 -11.9019      2.0724    233.5080   1.0229913635e+02   2.3311185271e+01    0.4474212    0.2968631  88.02  0.001939866    1.587    0.370
        50 -11.4511     24.6965    248.9930   9.7850890028e+01   1.8500238353e+01    0.4014589   0.08285753  43.86  0.001802736    2.716    0.632
        51 -11.6829     17.5083    248.5883   9.9352764578e+01   1.9211438311e+01    0.4358441    0.2120773  10.68  0.002241785    2.740    0.635
        52 -12.7350     10.3676    246.4185   1.0079724007e+02   2.0215746447e+01    0.6169443    0.3327595  71.74  0.003914202    1.763    0.433
        53 -11.5552      2.4406    248.2029   1.0248629863e+02   2.0549524445e+01    0.4922875    0.2825028  31.97   0.00302339    1.355    0.262
        54 -11.3483      5.0774    243.2632   1.0184352226e+02   2.1232161638e+01    0.3442876    0.1072899  29.49  0.001727298    2.242    0.554
        55 -11.9818      6.3496    239.9823   1.0150512380e+02   2.1735204008e+01    0.3422869    0.2377034  26.71  0.001688516    1.340    0.254
        56 -10.0905    114.0217    119.9361   5.9221351967e+01   3.5220396397e+01    0.2200402    0.2159193 -74.11  0.001199016    1.020    0.019
        57 -10.6458     27.0572    116.9542   8.8564953831e+01   4.9455118257e+01     0.219265    0.1965079  80.70 0.0003218103    1.007    0.007
        58 -11.7556     23.3996    113.1216   8.9559462440e+01   5.0870667918e+01     0.321684     0.243317 -64.16 0.0003067479    1.278    0.217
        59 -11.0038     69.2714    115.3744   7.2298509313e+01   4.4441802927e+01    0.2907286    0.2701171  54.53 0.0001276833    1.072    0.067
        60 -10.6255     58.2927    115.8188   7.6369534245e+01   4.5998808073e+01     0.254451    0.2294721  34.53 0.0008603691    1.167    0.143
        61 -10.2455     39.1014    115.5087   8.3633443154e+01   4.8589550350e+01    0.4501425     0.136609 -51.93  0.001399084    3.375    0.704
        62 -11.6122      5.7002    113.8695   9.6768445845e+01   5.1984376391e+01    0.3937821    0.2063984 -54.34 0.0009970102    1.950    0.487
        63 -10.2461    115.5558    114.0236   5.7373677738e+01   3.6290480550e+01    0.2926551    0.2140915  21.43  0.001094491    1.763    0.433
        64  -9.5587     81.9959    108.0207   6.6201922885e+01   4.4200104020e+01    0.1802915    0.1704888  65.06 0.0009345541    1.047    0.045
        65 -10.3255     56.5332    107.4894   7.5378239171e+01   4.8527484315e+01    0.1542275    0.1454063 -85.34 0.0002687272    1.024    0.024
        66  -9.6901     17.7013    105.3241   9.1005862167e+01   5.3548537259e+01    0.1563948   0.09640425  61.16 0.0003569948    1.628    0.386
        67  -9.5555     67.9664    103.9834   7.0250494750e+01   4.7686872266e+01     0.186437    0.1765515  86.85 0.0003848156    1.008    0.008
        68  -9.8823      1.3354    103.8690   9.7870899852e+01   5.5014271602e+01    0.2164264    0.1051792 -69.62 0.0009392603    1.827    0.453
        69 -11.0863     22.1850    101.1790   8.8541158432e+01   5.4343706297e+01    0.5507959    0.2252619  73.28  0.001747003    3.529    0.717
        70 -10.8822     18.6472     99.3213   8.9856126606e+01   5.5164933887e+01    0.3088408    0.1788354  51.84 0.0006909436    1.750    0.429
        71  -9.5252    103.0275    102.0000   5.7890502628e+01   4.1637203411e+01    0.2571582   0.08940265  42.55 0.0008016572    2.937    0.660
        72  -9.6701    217.9950     98.4413   3.3820036246e+01   1.9252779528e+01    0.1585499    0.1269587  52.76 0.0005548446    1.536    0.349
        73  -9.5321    139.7044     98.2852   4.7204213857e+01   3.4692818133e+01    0.1489786    0.1157635 -79.26 0.0001599251    1.545    0.353
        74 -10.3228     37.7880     97.2194   8.1043162480e+01   5.3854294347e+01    0.2051661    0.1689077 -43.44 0.0004758202    1.303    0.232
        75 -12.5663     57.6730     91.8546   7.1351167333e+01   5.2581428552e+01    0.4375978    0.3484316 -82.38 0.0003379483    1.295    0.228
        76 -10.9339     18.6368     93.7857   8.9113713608e+01   5.6724014835e+01    0.4599685    0.3795551  -1.63  0.002472138    1.411    0.291
        77 -10.1448     43.5381     94.5089   7.7985929734e+01   5.3892611786e+01    0.1523542    0.1422603 -82.04 0.0001584994    1.012    0.012
        78 -10.4021    125.1377     93.0090   4.9254322414e+01   3.8966900136e+01    0.2214982    0.2125846 -64.47 0.0003227776    1.030    0.029
        79 -10.3521     92.3476     93.0745   5.8791509360e+01   4.5948036972e+01    0.3074084    0.2285282  53.54 0.0009604395    1.380    0.275
        80  -9.7516     74.7589     92.8345   6.4888327557e+01   4.9410842030e+01    0.2132582    0.1774345  82.62 0.0005701792    1.292    0.226
        81 -10.3067    105.8197     91.8108   5.4217639367e+01   4.3433401097e+01    0.2199385    0.1827733 -87.15  0.000355048    1.326    0.246
        82 -11.2629     66.7045     91.6818   6.7659946505e+01   5.1138963476e+01    0.2708302     0.254944 -66.68 0.0002882931    1.047    0.045
        83  -9.9069      7.8340     91.1270   9.3846849871e+01   5.8225025594e+01    0.2024153    0.1758835  77.60 0.0004426856    1.078    0.072
        84 -10.3659      1.7374     89.7179   9.6603486993e+01   5.8940576552e+01    0.2727472    0.1641548 -75.00 0.0008020818    1.462    0.316
        85  -9.6019     46.5195     90.4737   7.5782210202e+01   5.4599624708e+01    0.1523967    0.1437357 -68.55 0.0008093154    1.048    0.046
        86  -9.4756     24.6443     90.2732   8.5760453877e+01   5.7186985797e+01    0.1563608    0.1002435  56.94 0.0004705648    1.644    0.392
        87 -13.8349     65.4149     81.8960   6.5429921859e+01   5.3884431097e+01    0.6244765    0.5018178  73.36 0.0008617816    1.378    0.275
        88  -9.6932     54.8032     84.8455   7.0746825683e+01   5.4892699923e+01    0.1990622    0.1687862  73.98 0.0003117076    1.233    0.189
        89 -11.3828    159.8754     89.0047   4.0501390241e+01   3.2135159815e+01    0.2834097    0.2401303 -25.89 0.0003326398    1.265    0.210
        90  -9.8013     47.9658     79.3472   7.2323984183e+01   5.7383605534e+01    0.2031872    0.1951552  51.24 0.0006359396    1.077    0.071
        91  -9.6133     24.4306     79.5358   8.3897696062e+01   6.0190191409e+01    0.2225285     0.162117  69.44 0.0001401006    1.467    0.318
        92 -10.2482    180.4953     76.0154   3.3561607919e+01   2.9962941885e+01    0.1994753    0.1697151 -47.11 0.0003839402    1.022    0.022
        93 -10.0703    176.8214     76.6340   3.4282712173e+01   3.0644033972e+01    0.3182622    0.2122518  79.84  0.001554142    1.877    0.467
        94 -10.5794     75.0156     76.7698   6.0018120380e+01   5.3360372643e+01    0.2392845    0.2127454 -68.36 0.0002624788    1.102    0.093
        95 -11.3285     11.2481     76.7636   9.0297825482e+01   6.2013102811e+01    0.2194557    0.2037019  -4.98 0.0006485856    1.200    0.166
        96  -9.9202     70.9617     76.3903   6.1485761153e+01   5.4236518883e+01    0.2066036    0.1873008  50.02  0.001060712    1.119    0.107
        97  -9.9773     52.9691     75.6872   6.8972813296e+01   5.7573304494e+01    0.2223561     0.205628  52.26  0.001182167    1.101    0.092
        98  -9.3616     43.3276     76.3283   7.3695272842e+01   5.8845274822e+01    0.1583867    0.1120478 -30.77 0.0007050782    1.705    0.413
        99 -11.0292      4.9526     73.1441   9.3194750524e+01   6.3374439524e+01    0.2093936    0.1873002  86.48 0.0002863838    1.065    0.061
       100 -10.7749      9.9557     69.7742   8.9905218644e+01   6.4014766114e+01    0.3849802    0.1766957 -10.27  0.001457964    3.037    0.671
       101  -9.4912    105.7769     71.6575   4.7934867622e+01   4.7877178867e+01    0.2053744    0.1434553  62.45 0.0005036665    1.523    0.343
       102 -10.0459     74.9726     70.1842   5.7835002928e+01   5.4932415841e+01    0.2860256    0.2194408 -52.51  0.001362843    1.278    0.217
       103  -9.1333      1.2968     70.3414   9.4880140400e+01   6.4310458905e+01    0.1503749   0.08722516 -48.29 0.0007032892    1.663    0.399
       104 -10.0209    131.7372     68.8633   4.0386774239e+01   4.2307731345e+01    0.2091454    0.1969033 -30.21 0.0004285942    1.174    0.148
       105 -12.6132     81.1423     66.8930   5.4339833133e+01   5.4405044400e+01    0.3339884    0.3016459 -52.37 0.0004574142    1.097    0.089
       106 -11.7319     16.3264     65.0468   8.5338504497e+01   6.4845048627e+01    0.4010556    0.3396146 -17.81            0    1.289    0.224
       107 -10.6558      7.7884     62.9379   9.0015177842e+01   6.5998213972e+01    0.2632507    0.1586833 -55.09 0.0007396066    1.503    0.335
       108 -11.8236     11.6992     59.6482   8.6984355668e+01   6.6632256915e+01    0.3099117    0.2604511  -2.14 0.0002915522    1.304    0.233
       109  -9.1766     69.2390     65.9794   5.8653237647e+01   5.7055611455e+01    0.1867464    0.1271285 -52.56 -0.000430966    1.443    0.307
       110  -9.1898    166.4961     64.4740   3.2537570838e+01   3.4919243603e+01    0.1432492    0.1287997 -53.19 0.0008097545    1.041    0.040
       111 -10.1694    128.3867     63.8726   3.9520754481e+01   4.4036209618e+01    0.2138692    0.1727897 -48.77 0.0004616914    1.173    0.148
       112 -10.0000     51.8337     63.8069   6.5683111895e+01   6.0748857992e+01    0.2548225    0.1908388 -48.95  0.000294695    1.309    0.236
       113 -10.7117     49.9253     59.8476   6.5216607608e+01   6.2029329049e+01     0.258421    0.2256432 -76.93 0.0003777981    1.195    0.163
       114  -9.4392    119.7778     62.6179   4.1119837504e+01   4.6352890039e+01    0.1466742    0.1199715 -10.37 0.0006869585    1.610    0.379
       115 -10.9494     78.6558     59.9843   5.2707288286e+01   5.6455649916e+01    0.4977133    0.2420984 -54.77  0.001683363    2.281    0.562
       116 -10.6414     42.3974     60.4270   6.9301141399e+01   6.3070594990e+01    0.3931336    0.2360386 -77.11  0.001612481    2.171    0.539
       117 -10.2497     97.8328     60.8853   4.6520399767e+01   5.1937238479e+01    0.2335917    0.2151119 -82.46 0.0008289241    1.060    0.056
       118 -13.1153     21.0720     58.1019   8.0816535896e+01   6.6273810056e+01    0.4432537    0.2761087 -60.75 0.0008004062    1.459    0.314
       119  -9.4960    202.0558     60.5192   2.6777269374e+01   2.7848094210e+01    0.1610533    0.1286756  79.18 0.0003341038    1.412    0.292
       120  -9.6626     37.5494     59.9238   7.1753464013e+01   6.3888306120e+01    0.2178741    0.1042143 -40.34  0.000806957    2.458    0.593
       121 -11.2316     58.4475     58.9515   6.0776565811e+01   6.0748738968e+01     0.292045    0.2131475  40.50 0.0005641945    1.397    0.284
       122  -9.7287    216.9545     58.4843   2.4735517571e+01   2.5200383857e+01    0.1547317     0.123694  80.10 9.574593e-05    1.453    0.312
       123  -9.9687     71.7503     57.2697   5.4348088682e+01   5.8508777505e+01    0.2489053     0.170659 -51.62 0.0006243364    1.454    0.312
       124  -9.5803    105.7774     57.6291   4.2999727293e+01   5.0683870021e+01    0.2161189    0.1430924  68.86 0.0007195901    1.671    0.402
       125  -9.9363     31.7185     57.5755   7.4288680636e+01   6.5243191804e+01    0.1767751     0.133802  43.02 0.0008926467    1.389    0.280
       126  -9.8505    229.1536     56.3567   2.3127137251e+01   2.3215165663e+01    0.1614341    0.1289519 -55.16 0.0005115785    1.126    0.112
       127  -9.3009    130.7235     56.7387   3.6630705533e+01   4.4736912245e+01    0.1370812    0.1186981  23.26 0.0003140438    1.471    0.320
       128  -9.6103    182.2448     54.3937   2.7504925599e+01   3.2933144757e+01    0.1720317     0.125473 -88.92 0.0003341163    1.487    0.328
       129 -12.1023    115.4039     53.0242   3.8802041560e+01   4.9172289464e+01    0.2945997    0.2761496  71.38 0.0005099998    1.089    0.081
       130 -10.2683     86.1860     54.1707   4.7724109165e+01   5.5984742241e+01    0.4034304    0.2115569  39.87   0.00150107    2.229    0.551
       131  -9.5088    105.2186     51.6511   4.0911563342e+01   5.1929208839e+01     0.252213    0.1878161 -15.39 0.0008813897    1.808    0.447
       132  -9.9121     66.7695     52.6136   5.4539013084e+01   6.0543327928e+01    0.4977829    0.1490729  43.52  0.001319353    3.400    0.706
       133 -12.6429     62.0436     49.7733   5.5420700905e+01   6.2107017262e+01    0.3096238    0.2728459 -48.19 0.0004763308    1.128    0.113
       134  -9.3390    198.4711     51.5468   2.4884899180e+01   2.9846473660e+01    0.1340363    0.1096744 -50.63 5.405292e-05    1.003    0.003
       135  -9.1083    148.7092     51.7101   3.1580680970e+01   4.1156743635e+01    0.1354514    0.1155552  22.55  0.000440506    1.544    0.353
       136 -10.8196    138.2388     50.1743   3.2932702904e+01   4.3973230371e+01    0.3962229    0.2145992  58.29   0.00170693    1.874    0.466
       137 -10.3688    142.1350     48.6909   3.1734486102e+01   4.3243655189e+01    0.2448073    0.1910482 -46.86    0.0003505    1.188    0.158
       138  -9.7734     83.5470     50.5529   4.7171132024e+01   5.7304721148e+01     0.151719    0.1435327 -86.02 5.607271e-05    1.033    0.032
       139 -11.2745     78.3407     50.0178   4.8827819384e+01   5.8591598271e+01    0.2656542    0.2169504  54.64 0.0002881005    1.219    0.180
       140 -10.1358     74.6498     47.1100   4.8986521472e+01   5.9989444196e+01    0.2233581    0.1987858 -78.90 0.0005024856    1.186    0.157
       141  -9.9227     14.0111     48.7229   8.2817096290e+01   6.9315360675e+01    0.1825907    0.1794817  -9.99  0.000364767    1.081    0.075
       142 -10.5419      9.9834     46.8154   8.5114390015e+01   7.0102021833e+01     0.231853     0.218988 -57.67 0.0006568065    1.033    0.032
       143  -9.4235    159.2490     48.7080   2.8980183615e+01   3.9073962300e+01    0.1446779   0.09537544 -59.78 0.0001626658    1.479    0.324
       144 -10.0774    102.1650     47.8683   4.0278102247e+01   5.3355984449e+01    0.2567802    0.2105079  32.87 0.0003689671    1.456    0.313
       145 -11.3933    103.0903     41.7974   3.7592436304e+01   5.4163923742e+01    0.5315503    0.2908675 -31.08  0.001225986    2.004    0.501
       146  -8.9778     66.3061     47.2845   5.2464085196e+01   6.1755346072e+01    0.1449874     0.119105   4.44 0.0003526487    1.563    0.360
       147  -9.0381    123.3216     46.3092   3.4549779142e+01   4.8328988036e+01    0.1471191    0.1177515  26.66 0.0007035548    1.646    0.392
       148 -10.3157      1.9828     45.7451   9.0629479278e+01   7.0828615662e+01    0.2026801    0.1642021 -28.00  0.001179197    1.250    0.200
       149 -11.3717     85.7651     42.8421   4.3142910288e+01   5.8229196277e+01    0.2914224    0.2604499 -10.38 0.0003066311    1.312    0.238
       150  -9.7041     17.5773     44.6163   7.9083940651e+01   7.0043070777e+01    0.3415005    0.1746184  62.23  0.001283021    3.188    0.686
       151  -9.5461    120.4663     44.0135   3.4318487162e+01   4.9419413708e+01    0.2118271    0.1431043 -37.96 6.564034e-05    1.461    0.315
       152 -10.3003     27.7768     42.5498   7.1320004543e+01   6.9424875515e+01    0.4709893    0.1654584  28.33  0.001706995    2.965    0.663
       153 -12.0789    141.4753     40.8949   2.9238586677e+01   4.4589558553e+01    0.3209292    0.2246904  88.55 0.0005640751    1.498    0.333
       154 -11.5274     91.7425     40.4645   4.0224326929e+01   5.7199991630e+01    0.4173886    0.2657536 -46.79 0.0008744493    1.581    0.367
       155 -11.2443     37.6763     41.5358   6.4576011447e+01   6.8265766983e+01    0.4864706    0.2474986  41.65  0.001814126    2.028    0.507
       156 -10.9450    184.6438     40.6446   2.3440186637e+01   3.4322697212e+01    0.4029881    0.2367802  83.78  0.001661263    1.889    0.471
       157 -10.0509    116.8238     40.7085   3.3864711807e+01   5.0865898852e+01    0.2577704    0.2043931 -49.14 0.0009205606    1.216    0.177
       158 -10.1516     69.6922     41.5457   4.8456796483e+01   6.2160741357e+01    0.2040899    0.1416411  62.06 0.0006697206    1.567    0.362
       159 -10.4217      1.9509     40.0654   8.9418488785e+01   7.2280813434e+01    0.2711422    0.1894486 -36.93  0.001489019    1.378    0.274
       160  -9.6821    109.0368     40.4779   3.5564997657e+01   5.2880016314e+01    0.2266899    0.1437442  63.65 0.0008311368    1.554    0.357
       161 -10.3554     81.1227     38.9132   4.2956726794e+01   6.0025481663e+01    0.2145683    0.2071931 -77.85 0.0003181672    1.022    0.022
       162 -10.6925     50.2425     37.9109   5.5722014997e+01   6.6872597843e+01    0.5437688    0.3427671 -58.72  0.002472583    1.842    0.457
       163 -12.2649    121.5370     37.3234   3.1586184817e+01   5.0177503378e+01    0.3654374    0.2688613 -37.45  0.001825465    1.353    0.261
       164 -10.0432     21.5162     38.0128   7.3828016244e+01   7.1242486928e+01    0.2086654     0.129776 -60.40 0.0007135379    1.549    0.354
       165  -9.3137     30.2846     37.3902   6.7416228325e+01   7.0284988407e+01    0.1815064    0.1292949  38.67 0.0009277933    1.453    0.312
       166  -9.3916    207.7825     34.9657   1.9801560259e+01   3.0080336124e+01    0.1629569   0.08788956 -33.45 0.0004084882    1.577    0.366
       167  -9.4797    154.8473     47.3905   2.9232713996e+01   4.0330211136e+01    0.1922837    0.1284965  55.65 0.0009326366    1.630    0.387
       168 -10.3442      6.4301     34.5603   8.4313131980e+01   7.3407310431e+01    0.2586658    0.2082411 -38.83  0.001084178    1.160    0.138
       169  -9.6734    112.8732     34.5270   3.2307642909e+01   5.2813383593e+01    0.2132944    0.1404791  66.15 0.0003792574    1.479    0.324
       170  -9.2070     65.4559     34.4378   4.6781734099e+01   6.4404507270e+01    0.1431506    0.1386303  78.99 -1.799001e-06    1.036    0.035
       171  -9.7615     27.8169     34.2708   6.7654552008e+01   7.1322490244e+01    0.2107183   0.08661101 -46.57 0.0005706584    2.340    0.573
       172 -10.1294    145.1011     32.6762   2.5894389551e+01   4.4831541180e+01    0.1945529    0.1604677  85.30 0.0003180317    1.171    0.146
       173  -9.4357    213.0329     31.9693   1.8653177833e+01   2.9375946195e+01    0.1490831    0.1158681 -51.69 -0.003769674    1.012    0.011
       174  -9.4318     85.6351     32.7072   3.8608312579e+01   5.9969662215e+01    0.1523332    0.1116147  29.45 0.0004436458    1.710    0.415
       175 -12.7333     10.3879     29.6275   7.9207599762e+01   7.4303371494e+01    0.3823743    0.2257112  32.02   0.00193779    1.772    0.436
       176  -9.8881     39.5708     29.9945   5.7668724246e+01   7.0398571623e+01    0.2936092    0.1334746  32.08 0.0007972297    2.584    0.613
       177 -10.8790    135.6923     29.0837   2.6047458381e+01   4.7695435466e+01    0.2331617    0.1944792  76.82  0.000286919    1.172    0.147
       178 -11.0794     80.5566     27.6864   3.7797027947e+01   6.1987628585e+01    0.3492611    0.2295787 -20.94  0.001604905    1.839    0.456
       179  -9.8942     77.4101     26.7502   3.8359894281e+01   6.2893731718e+01    0.2713076    0.2072785  74.75 0.0003324695    1.382    0.276
       180 -10.5215    129.7724     27.5409   2.6420233054e+01   4.9417831794e+01    0.4358011     0.196059  53.48  0.001060592    2.333    0.571
       181  -9.4121     69.6700     28.7358   4.2161100732e+01   6.4419857847e+01    0.1441599     0.109295  27.13  0.000246047    1.573    0.364
       182 -10.1508     47.9878     27.9917   5.1682615964e+01   6.9219423554e+01    0.2052993    0.1994492  52.43 0.0003322467    1.062    0.059
       183 -11.5323     47.6775     23.5804   4.9279894041e+01   7.0062896845e+01    0.4453992    0.3049163  18.78  0.001723222    1.944    0.486
       184  -9.6571    221.6881     27.0976   1.6882673240e+01   2.8232758195e+01    0.2291051   0.07413436 -54.92 0.0009544771    2.829    0.646
       185  -9.6902    144.0931     27.5010   2.4273207544e+01   4.5761326131e+01    0.1960405    0.1331663  80.39 0.0003545035    1.447    0.309
       186 -11.4946     90.9741     26.1285   3.3969476203e+01   5.9620318865e+01    0.3772036    0.2147698 -42.75 0.0009676853    1.766    0.434
       187 -10.1687    216.9279     25.7272   1.6861779113e+01   2.9329125249e+01    0.1880753    0.1533125 -65.65 0.0002588765    1.144    0.126
       188 -11.8221    212.8851     23.7617   1.6646296070e+01   3.0367924274e+01    0.2830074     0.160074 -54.05 0.0001967961    1.432    0.301
       189  -9.3297    110.4933     26.4804   2.9522023918e+01   5.4555980408e+01    0.1456564    0.1347284 -85.62 0.0008102836    1.015    0.015
       190  -9.4822     59.8178     26.0072   4.4753256075e+01   6.7092679541e+01    0.2027687    0.1544287  77.78 0.0004975317    1.609    0.378
       191 -10.5835     31.7053    247.9925   9.6327530767e+01   1.8034938550e+01    0.1885368    0.1591164 -20.84 0.0009207318    1.662    0.398
       192  -9.8957    230.1070    247.1181   5.8118629814e+01  -2.3380693275e+00    0.1504725    0.0932972  -3.59 0.0004592397    1.217    0.178
       193 -10.1280     40.4905     20.4978   5.1479709609e+01   7.1999068620e+01    0.2326751    0.2276015  21.15   0.00143988    1.052    0.049
       194 -11.1394     35.0738     17.2121   5.2764915550e+01   7.3571005602e+01    0.4958289    0.2699719  55.36  0.002192787    2.304    0.566
       195 -10.1907    131.3563    247.1239   7.5339650974e+01   7.6188375497e+00    0.1495917    0.1277025  15.79  0.001133611    1.114    0.102
       196 -10.3167    116.2411    246.9104   7.8353422077e+01   9.3310367976e+00    0.1519993     0.132047  22.87  0.000827328    1.123    0.110
       197 -10.1325    117.3784     29.7861   2.9488781013e+01   5.2324490898e+01    0.2846512    0.1276172 -35.59  0.001130792    2.130    0.530
       198  -9.5797    183.1917     25.5853   1.9379523189e+01   3.6556246187e+01    0.1596826    0.1189608  66.84 0.0002428065    1.494    0.331
       199  -9.6344     25.6657     25.2196   6.4536631502e+01   7.3566960307e+01    0.1781762    0.1162717 -42.93 0.0001930111    1.487    0.327
       200 -10.1918    100.8705     22.5016   2.9862931045e+01   5.7572175144e+01    0.4494628    0.1729968 -48.82  0.001574229    2.938    0.660
       201 -10.5159    163.1704     20.5027   1.9748935104e+01   4.1870964777e+01    0.3074486    0.2195785  -2.89  0.001358178    1.969    0.492
       202 -11.5867    131.2540     21.4861   2.3939241878e+01   4.9790850733e+01     0.395941    0.2617446  31.15  0.000925562    2.156    0.536
       203  -9.9408     52.1192     23.4800   4.6917870435e+01   6.9166766837e+01    0.2121073    0.1342679  50.54   0.00101787    1.551    0.355
       204 -10.2324     21.8002     22.3690   6.5955601206e+01   7.4687216606e+01    0.2927265    0.1629785  23.06 0.0005175842    1.967    0.492
       205  -9.6942    243.4868    244.5037   5.5822774781e+01  -3.2078513158e+00   0.09916586   0.06388397  -4.68 8.037397e-06    1.079    0.073
       206 -10.6018     52.2554    243.9559   9.1706408603e+01   1.6752585453e+01     0.190055    0.1597485 -42.17  0.001365609    1.587    0.370
       207 -10.4586     15.8585     21.7958   7.0698443876e+01   7.5538584714e+01    0.3098232    0.2215191 -53.95  0.001064077    1.358    0.264
       208 -10.0334    147.4974    243.4712   7.1783464052e+01   6.3571083090e+00    0.1129832   0.08743849  13.94  0.000162619    1.017    0.017
       209  -9.5105    107.2349     21.2913   2.7979984432e+01   5.6071312108e+01    0.1317826    0.1090924  29.36            0    1.459    0.315
       210  -9.7230    250.8099     23.3995   1.4440138443e+01   2.3321633593e+01     0.121492   0.05138782 -45.15 0.0005038677    1.610    0.379
       211  -9.6859     73.6716    243.3524   8.7016493102e+01   1.4614638451e+01    0.1261388   0.06819754  51.10 0.0006587029    1.770    0.435
       212 -11.0119     70.3980     18.1127   3.6136085327e+01   6.5819709245e+01    0.2959968    0.2329921 -39.15 0.0009724441    1.316    0.240
       213  -9.7492    207.5352     17.9988   1.5554358343e+01   3.2115752984e+01    0.1802911    0.1028068 -34.01 0.0003567121    1.487    0.327
       214 -10.0507    123.5640     17.7707   2.3666415632e+01   5.2224518427e+01    0.3668717    0.1426567  52.93  0.001118894    2.705    0.630
       215  -9.7174    103.4718     17.7145   2.7163117763e+01   5.7485952391e+01     0.167647    0.1426367  -7.15 0.0003004532    1.396    0.284
       216  -9.6242     45.4584     18.1155   4.7076217326e+01   7.1418662176e+01    0.2483008    0.1697508  75.34  0.001150748    2.189    0.543
       217 -10.0963    147.9062     16.4973   2.0044791643e+01   4.6106956507e+01    0.2252608    0.1596936 -48.33  0.001205023    1.263    0.208
       218 -10.0803     64.8254     21.1304   3.9903984288e+01   6.6716159334e+01    0.2086419    0.1885606 -89.13 0.0002904301    1.184    0.155
       219  -9.3300     83.6912     15.7267   3.0793596492e+01   6.2826020597e+01    0.1421105    0.1025759  37.49 0.0003497502    1.548    0.354
       220 -10.2271     38.6706    242.3755   9.4584080788e+01   1.8384333424e+01     0.191475   0.09056539  50.63 0.0005345774    1.724    0.420
       221 -10.8129     28.4235    240.7623   9.6750998011e+01   1.9651786893e+01    0.2367414   0.09321458  36.69 0.0008653976    1.751    0.429
       222 -10.3133     31.5776    232.9657   9.5728612836e+01   2.0823597848e+01    0.3650147    0.1148395  29.77  0.001641659    2.311    0.567
       223 -10.0442    153.8286     12.5211   1.8107788904e+01   4.5053922402e+01    0.2780164    0.1138101  68.91  0.001169973    2.323    0.570
       224 -11.3757     25.5779    232.6249   9.7063547812e+01   2.1451012029e+01    0.1984194    0.1886223  36.98 0.0006507019    1.282    0.220
       225 -10.1498     55.0301    231.2913   9.0322443074e+01   1.8788453849e+01    0.1747259    0.1243269  36.84 0.0003657528    1.107    0.097
       226  -9.4139    242.5003    230.5222   5.4051450311e+01  -1.6652074945e+00    0.1006359      0.06863  -6.41 0.0003207396    1.017    0.017
       227 -10.2713      7.5052    228.9914   1.0100172191e+02   2.3745079703e+01    0.1637093    0.1034586  85.18   0.00104066    1.613    0.380
       228  -9.8992    139.6615    226.6759   7.1328557195e+01   9.7664004602e+00    0.1221825   0.08060535  -4.48 0.0007051124    1.722    0.419
       229  -9.6433    223.6443    225.6862   5.6163266466e+01   6.2908787478e-01    0.1106766   0.06151396  -4.15 2.777538e-05    1.739    0.425
       230 -11.6884      2.5635    220.9897   1.0193841253e+02   2.5748602942e+01    0.3739143    0.1852395  68.34  0.001857992    1.763    0.433
       231 -10.3958      7.7647    221.7906   1.0076254608e+02   2.5161922743e+01    0.2204738    0.1257349  83.15  0.001307654    1.734    0.423
       232  -9.5032    210.3667    215.7995   5.6824280872e+01   3.1902056144e+00    0.1486054   0.08173852 -24.95 0.0006072694    1.633    0.388
       233  -9.6121     85.7228    215.0293   8.1869032386e+01   1.8426892545e+01    0.1582807    0.1460916  35.17  0.001067102    1.093    0.085
       234  -9.7184     39.1287    207.5008   9.2607241276e+01   2.5257364630e+01     0.188479    0.1080108  29.78 0.0007732461    1.506    0.336
       235 -10.3370      4.0536    206.1105   1.0123914800e+02   2.8757268353e+01    0.3900109    0.0618572  42.63  0.001512794    3.047    0.672
       236  -9.9586    237.6805    186.4469   4.8037338393e+01   3.9773512574e+00    0.1793143   0.09982326 -17.69 0.0006298836    1.633    0.388
       237  -9.8980      2.0000    169.9876   1.0074606729e+02   3.7315994073e+01    0.2091438   0.06764692 -85.46 0.0007976083    2.909    0.656
       238  -9.2665    229.5093    165.5330   4.5633826308e+01   7.7018533435e+00    0.1159871    0.0893543 -17.99 0.0001740501    1.016    0.016
       239 -10.9893     13.7497    164.6014   9.7069353394e+01   3.7765055415e+01    0.2818986    0.2011662  37.44 0.0007803562    1.285    0.222
       240  -9.5136    213.2247    155.2098   4.6185663351e+01   1.1332963038e+01    0.1536957    0.1309782 -40.25  0.001043218    1.305    0.234
       241 -10.4240     22.5753    149.1494   9.3318612663e+01   4.1027936777e+01    0.2682283    0.1609536 -37.48   0.00120652    2.223    0.550
       242 -11.2001      5.6074    145.5222   9.8663392313e+01   4.3346271686e+01    0.3670679    0.2688314  18.72 0.0009588839    1.497    0.332
       243 -10.3593      7.1531    153.8592   9.8563283199e+01   4.1042949468e+01    0.2184785    0.1574813  60.62  0.000575758    1.186    0.157
       244  -9.2006     32.2408    140.9943   8.9358226375e+01   4.2291681836e+01    0.1773407    0.1152633 -79.71            0    1.468    0.319
       245  -9.3903     54.0175    140.0243   8.1864629569e+01   4.0024775799e+01    0.1781654    0.1557175  45.01 0.0003663008    1.113    0.101
       246  -9.5705      1.9843    140.0364   9.9615686178e+01   4.5048379586e+01    0.1681807    0.1376739  76.98 0.0003666396    1.051    0.049
       247  -9.1922    235.5081    137.5216   3.9613588955e+01   1.0837686010e+01    0.1186395   0.09207486 -26.97 0.0005914966    1.012    0.012
       248 -10.3715     21.6478    136.0502   9.2563030751e+01   4.4647898771e+01     0.326286    0.1640639  49.24   0.00120491    1.842    0.457
       249  -9.5544     16.4720    137.5098   9.4492739245e+01   4.4687294079e+01    0.1461831     0.122021  67.89 8.898311e-07    1.053    0.051
       250  -9.6340     96.3673    134.1974   6.7405819073e+01   3.5041724167e+01    0.2174379    0.1434823 -69.47 0.0009490518    1.690    0.408
       251  -9.9437     70.7321    130.0667   7.4665665822e+01   4.0310569701e+01    0.2467349    0.1565714 -41.11  0.001047253    1.873    0.466
       252 -10.6012     28.0439    129.9129   8.9678549529e+01   4.5746614732e+01    0.2158659    0.1890686  69.42 0.0003006603    1.034    0.033
       253  -9.5486     92.4049    129.4195   6.7619238022e+01   3.6914625357e+01    0.1505643    0.1438262  81.86  5.04341e-05    1.011    0.011
       254  -9.7524     38.2035    126.7987   8.5586531891e+01   4.5549350670e+01    0.2738822    0.1198955  60.30 0.0009455591    2.784    0.641
       255 -10.9592     25.6427    124.8471   9.0020769614e+01   4.7381200500e+01    0.2955363    0.1424367 -85.82  0.001180754    2.075    0.518
       256  -9.7473      2.3915    125.2616   9.8749311273e+01   4.9029722871e+01    0.2124442    0.1111571  78.75 0.0009494867    1.746    0.427
       257  -9.3934    208.5321    123.4645   4.0555138656e+01   1.6961818964e+01    0.1284313    0.1069629 -31.63 0.0001259421    1.011    0.011
