#   1 NUMBER                 Running object number                                     
#   2 MAG_AUTO               Kron-like elliptical aperture magnitude                    [mag]
#   3 X_IMAGE                Object position along x                                    [pixel]
#   4 Y_IMAGE                Object position along y                                    [pixel]
#   5 X_WORLD                Barycenter position along world x axis                     [deg]
#   6 Y_WORLD                Barycenter position along world y axis                     [deg]
#   7 A_WORLD                Profile RMS along major axis (world units)                 [deg]
#   8 B_WORLD                Profile RMS along minor axis (world units)                 [deg]
#   9 THETA_WORLD            Position angle (CCW/world-x)                               [deg]
#  10 FWHM_WORLD             FWHM assuming a gaussian core                              [deg]
#  11 ELONGATION             A_IMAGE/B_IMAGE                                           
#  12 ELLIPTICITY            1 - B_IMAGE/A_IMAGE                                       
         1 -15.4166    245.1706     19.4245   9.3862406968e+00   2.5339833689e+01     3.731831    0.5785328 -33.59   0.01500652    3.645    0.726
         2 -11.7440      1.7367     25.2900   7.9489069071e+01   7.6497642177e+01    0.6052194    0.1585395 -67.89   0.00212129    3.607    0.723
         3 -12.7965     24.9658      4.1901   4.2842212673e+01   7.7556491418e+01    0.6474325    0.3510602  30.34   0.00302786    2.159    0.537
         4 -12.0914     13.5423     12.7983   6.0311618340e+01   7.8011315449e+01    0.3772279    0.2538436 -27.95   0.00164776    1.603    0.376
         5 -12.2864     15.5313      6.9874   5.3714693161e+01   7.8763208558e+01    0.4627925     0.314543  -8.69  0.002451497    1.870    0.465
         6 -13.3434     12.0438     23.4725   6.8433624212e+01   7.6028278008e+01    0.7508346    0.3651327 -36.61  0.003309744    2.280    0.561
         7 -11.6822     26.1647     16.3505   5.1548269345e+01   7.5435949036e+01    0.2615474      0.17531 -17.25  0.001300986    1.934    0.483
         8 -12.2120     19.8595     13.8928   5.5064110214e+01   7.6898087317e+01    0.3945505    0.2182663 -32.29  0.001872102    2.095    0.523
         9 -13.3008      6.3113     11.3120   6.7194810521e+01   7.9161798749e+01    0.9231269    0.5188026 -33.52  0.004674433    1.879    0.468
        10 -12.2286     10.3501      2.1666   5.4966396270e+01   8.0339358503e+01    0.7486645    0.2307311  33.03  0.002801106    3.386    0.705
        11 -10.8968     72.7043    240.2121   8.1670714266e+01   1.4736054622e+01    0.2873295    0.1401604  44.74  0.001500662    1.825    0.452
        12 -12.0219    248.8319    225.4728   4.6446953764e+01  -1.3479743446e+00     0.365519    0.2550818   3.63  0.003105985    1.241    0.194
        13 -12.5055    234.1810    244.5489   5.1135499024e+01  -2.2705113328e+00     0.585471    0.2028788 -29.10  0.003428464    2.507    0.601
        14 -11.7036    240.0340    239.4581   4.9609069118e+01  -2.1824437565e+00    0.2853174    0.1363038 -21.17  0.001495457    1.720    0.419
        15 -11.7137    243.7511    235.3616   4.8525995844e+01  -2.0313154811e+00     0.273192    0.1340058 -18.46  0.001435273    1.697    0.411
        16 -11.7430    244.9970    230.4823   4.7678466497e+01  -1.5928731416e+00    0.3647174    0.1206789 -36.21  0.002127436    2.530    0.605
        17 -12.1972    243.0594    245.6664   5.0009521122e+01  -3.0882602136e+00     0.519254    0.2071507 -21.43  0.003201952    2.327    0.570
        18 -11.6926    247.4196    239.3122   4.8551445454e+01  -2.7488438239e+00    0.3584096    0.1700592 -21.54  0.001696419    1.673    0.402
        19 -11.4402    249.9114    232.8845   4.7332388060e+01  -2.2513272529e+00    0.3010234     0.142629 -27.31   0.00162689    1.611    0.379
        20 -11.3195    248.8092    250.1146   4.9790603487e+01  -3.9837175025e+00     0.338258    0.1479691  17.02  0.002379792    2.089    0.521
        21 -10.9321    248.9775    245.2455   4.9128767031e+01  -3.4938286015e+00    0.2483707    0.1381994 -14.56  0.001960447    1.327    0.247
        22 -11.8802    225.5242    248.5927   5.2952373908e+01  -2.0150446657e+00    0.2741834    0.1815947 -14.94  0.001433006    1.140    0.123
        23 -12.6823    212.6124    247.9234   5.4859173587e+01  -8.5632518668e-01    0.4177979    0.2069323  -6.52  0.002586804    2.120    0.528
        24  -9.7545    183.4946    250.4642   6.0029234881e+01   1.4617952861e+00     0.108282   0.07745442   0.55 0.0003495835    1.055    0.052
        25 -11.1645    168.1972    250.3058   6.2747695446e+01   2.9539574452e+00     0.224612   0.08153161  20.12  0.001090156    2.651    0.623
        26 -10.2743     87.0157    250.5263   7.9284893547e+01   1.1398378775e+01    0.1915992    0.0937034  25.78  0.001036045    1.604    0.377
        27 -10.8366     74.5994    250.3253   8.2014108124e+01   1.2733277823e+01    0.3098415    0.1071381  33.90  0.001478971    2.062    0.515
        28 -11.4379     65.1754    249.1496   8.4038626882e+01   1.3910601163e+01    0.4094199    0.1768253  36.80  0.002153069    1.726    0.420
        29 -11.1726     50.1490    250.0978   8.7482106596e+01   1.5244957836e+01    0.4308994    0.1316764  27.55  0.001930396    2.363    0.577
        30 -11.3904     44.7815    245.0553   8.8424558856e+01   1.6694897203e+01    0.3762887    0.1807192  46.24  0.001607727    1.699    0.412
        31 -10.7707     27.2247    248.7816   9.2589843981e+01   1.7643935469e+01    0.3183467    0.1466599  43.67  0.001382663    1.601    0.376
        32 -12.0505     25.6087    228.8138   9.2156592210e+01   2.1696977964e+01    0.5956599    0.2840791  57.62  0.003077118    1.900    0.474
        33 -11.8668     20.3268    249.0114   9.4146833239e+01   1.8212006806e+01    0.4624158    0.2173823  40.60   0.00199322    1.508    0.337
        34 -12.3181      2.3379    211.0827   9.7337395986e+01   2.7471127434e+01    0.8775994    0.2683836  86.49  0.003474279    3.455    0.711
        35 -11.4266     18.6978    221.8324   9.3565984526e+01   2.3776186493e+01    0.4068978    0.2021507  62.13  0.001741406    1.856    0.461
        36 -12.3462     12.2314    217.0377   9.5007622041e+01   2.5363385970e+01     0.641312     0.275818  48.30  0.002453967    1.795    0.443
        37 -11.9730     12.0502    248.9492   9.5991348915e+01   1.8930291823e+01    0.4965017    0.1647161  36.58  0.001834222    1.925    0.481
        38 -12.4098     15.9875    240.3300   9.4854710301e+01   2.0243722747e+01    0.7358815    0.2352397  40.36  0.002858889    2.047    0.512
        39 -11.5853     14.2488    231.9910   9.4999904402e+01   2.2051440155e+01    0.4886811    0.2356833  52.48  0.001856764    1.667    0.400
        40 -11.4367     11.1178    225.7592   9.5558705541e+01   2.3598925039e+01    0.4423735    0.1891688  44.44  0.001615409    1.715    0.417
        41 -12.2645      6.7129    236.3313   9.6886253887e+01   2.1806734555e+01    0.5927467    0.2691968  44.55   0.00327418    1.582    0.368
        42 -12.1135      4.8157    228.3054   9.7141102057e+01   2.3585886144e+01     0.526686    0.2471331  53.49  0.001895549    1.677    0.404
        43 -11.8649      2.2873    220.9400   9.7581124164e+01   2.5330247578e+01    0.4638872    0.2294377  74.13  0.001595124    1.925    0.481
        44 -11.4267      3.5669    250.3002   9.7893374524e+01   1.9371353786e+01    0.3958969    0.1606265  18.47  0.001893534    2.335    0.572
        45 -12.6652      3.3910    243.2047   9.7794007802e+01   2.0728925607e+01    0.5699484    0.2914511  60.74   0.00336895    1.664    0.399
        46 -10.6805     38.2484    240.3885   8.9692305422e+01   1.8209767816e+01    0.3218951    0.1477375  42.43  0.001553542    1.655    0.396
        47 -10.8520    202.8047    249.5152   5.6642970859e+01  -1.8636568807e-01    0.2080501      0.11928  -9.28  0.001111755    1.544    0.352
        48 -10.1680     64.7276    239.8701   8.3489368464e+01   1.5644554418e+01     0.261917    0.1045761  44.41  0.001242134    2.146    0.534
        49 -10.6577    115.7682    243.6152   7.2398800906e+01   9.4406400099e+00    0.1765343   0.08581354  33.47 0.0009524859    1.687    0.407
        50 -11.8635     36.7985    248.6586   9.0423657663e+01   1.6787492116e+01    0.4764347    0.1956002  43.02  0.002505124    1.807    0.447
        51 -10.9062     45.1528    237.1697   8.7899357001e+01   1.8159670517e+01    0.3176843    0.1541452  42.20  0.001694487    1.607    0.378
        52 -11.9346    231.5852    234.9397   5.0218656679e+01  -9.8101315087e-01    0.3144609    0.1393244 -28.58  0.001825826    1.860    0.462
        53 -10.4723     32.8152    236.3095   9.0769283100e+01   1.9519741144e+01    0.2745339    0.1312047  54.62  0.001318095    1.874    0.466
        54 -11.4296    178.2871    243.6805   6.0094438550e+01   2.8410144613e+00    0.2350205    0.1256171  -7.27  0.001357235    2.104    0.525
        55 -11.9842    236.7813    228.4521   4.8559416328e+01  -6.7763991285e-01    0.3017542    0.1382153 -32.21  0.001994019    1.784    0.439
        56 -10.7691    207.0121    233.9898   5.3895250798e+01   1.3238965430e+00    0.1788808   0.09905639  -8.74  0.001141801    1.748    0.428
        57 -10.9468     39.7543    230.9962   8.8840283990e+01   1.9912211374e+01    0.3443706    0.1885527  63.68  0.001849471    1.880    0.468
        58 -11.2128    217.6590    231.3798   5.1838473345e+01   6.6220516878e-01    0.2208442   0.09985642 -30.20  0.001373215    1.902    0.474
        59 -10.4505     59.3107    231.7908   8.4183017322e+01   1.7758492488e+01    0.3385618   0.09966873  38.19  0.001420443    2.435    0.589
        60 -10.6826     48.7705    230.6779   8.6643516736e+01   1.9074072032e+01    0.3274126    0.1756115  62.40    0.0017024    2.005    0.501
        61 -10.3951     32.5371    229.3761   9.0502465154e+01   2.0936620723e+01    0.2860033    0.1326222  53.86  0.001199588    1.917    0.478
        62 -10.0145    229.4887    227.0023   4.9422414896e+01   1.2574114822e-01    0.1514544   0.07902381 -31.44  0.001034868    1.598    0.374
        63  -9.8830    223.6737    225.6600   5.0106474078e+01   8.0983321605e-01    0.1106123   0.06047572  -9.81 0.0007051434    1.731    0.422
        64 -10.4589     43.7456    221.2862   8.7284049573e+01   2.1510012617e+01    0.2457437    0.1623791  47.58  0.001290294    1.280    0.219
        65 -12.1191    248.5093    215.1000   4.5002636806e+01  -1.4074054882e-01     0.456885    0.1566505 -30.96  0.002605489    2.338    0.572
        66 -11.8381    239.3530    219.1763   4.6868167683e+01   1.8047402562e-01    0.2683973    0.1236177 -21.84  0.001677269    1.927    0.481
        67 -10.3485    227.7593    218.6558   4.8481327684e+01   1.2908014930e+00    0.1995961   0.09552011 -26.85  0.001258474    1.747    0.428
        68 -10.8275     35.6068    217.4940   8.9109757574e+01   2.3130790864e+01    0.3063803    0.1627486  73.93  0.001527346    2.080    0.519
        69 -10.5307     24.2432    217.5358   9.1996208544e+01   2.4200016965e+01     0.269273    0.1512293  54.11  0.001283698    1.524    0.344
        70 -11.2532     21.6000    211.2656   9.2389614860e+01   2.5816911871e+01    0.3877079    0.2155755  82.16  0.002019869    1.876    0.467
        71 -10.1156    233.4025    211.7667   4.6634300118e+01   1.6137184017e+00    0.1514584   0.07321326 -26.57 0.0009518611    1.700    0.412
        72 -11.0005     28.8550    211.3932   9.0510987767e+01   2.5117077786e+01    0.2951133    0.1514762  58.63   0.00146363    1.809    0.447
        73 -12.4651     12.3053    205.4928   9.4584384855e+01   2.7928001066e+01    0.7035825    0.3235508  48.36  0.003148099    1.724    0.420
        74  -9.9485     36.2096    207.8006   8.8375120529e+01   2.5203303921e+01    0.2495135   0.08494057  53.14 0.0009553604    2.829    0.647
        75 -10.1833    240.0930    206.3844   4.4871668040e+01   1.6509070613e+00    0.1920814    0.1042274 -24.96  0.001314375    1.437    0.304
        76 -10.2956    246.9839    205.8068   4.3833513149e+01   1.0882079191e+00      0.18727    0.1089657 -28.44  0.001048669    1.310    0.237
        77 -10.5852     18.7107    201.3519   9.2705007555e+01   2.8330264644e+01    0.2438685    0.1393392  70.12   0.00119616    1.679    0.404
        78 -11.7002     16.4943    196.2550   9.3078990878e+01   2.9720129118e+01    0.4087078    0.1867635  53.27  0.001755071    1.864    0.464
        79 -10.3216    250.5024    200.5110   4.2559588650e+01   1.4034125565e+00    0.2099535   0.07609908 -35.42  0.001207187    2.151    0.535
        80 -10.4812    243.5475    199.8029   4.3389656614e+01   2.1356800457e+00    0.1975808   0.07596275 -32.64  0.001132053    2.047    0.512
        81 -12.1262      3.6282    197.1508   9.6627656661e+01   3.0557198286e+01    0.5617508    0.3300115  57.14  0.002261391    1.415    0.293
        82 -11.4509      5.4049    183.0988   9.5680076060e+01   3.3814370494e+01    0.3272385    0.1804822  64.35  0.000934383    1.603    0.376
        83 -11.7150      2.0145    178.2420   9.6505791416e+01   3.5275902358e+01    0.5650527    0.2582947 -88.63  0.002520335    2.118    0.528
        84 -10.8561      9.3964    198.1876   9.5097955415e+01   2.9859072950e+01    0.3353007    0.1614316  78.61  0.001236652    2.052    0.513
        85 -12.2901      3.9298    188.5099   9.6282254431e+01   3.2598906435e+01      1.01699    0.2452265  57.83  0.003462759    3.585    0.721
        86 -10.6401     24.3494    197.6629   9.0984846624e+01   2.8683258154e+01    0.2285739    0.1175715  52.61  0.001099112    1.683    0.406
        87  -9.9214    246.0000    192.0094   4.1846123709e+01   2.8680834247e+00    0.1714401    0.0457408 -37.30 0.0008047463    2.958    0.662
        88 -11.2382     11.5388    190.7907   9.4224059870e+01   3.1446594970e+01    0.3313416    0.1850859  74.07  0.001419668    1.701    0.412
        89 -12.3277     11.6148    184.2376   9.3926850409e+01   3.3043581454e+01    0.4321666    0.2304923  74.77  0.001928269    1.797    0.444
        90 -11.4945     16.9507    189.6963   9.2646383947e+01   3.1255054250e+01    0.3526737    0.1714823  68.96  0.001520926    2.011    0.503
        91 -10.7312     24.4438    186.7400   9.0340997744e+01   3.1304678061e+01    0.2531243    0.1257946  88.62  0.001128754    2.120    0.528
        92 -10.1865    249.5940    183.8119   4.0071561633e+01   3.5433193026e+00    0.1471679   0.07760051 -39.64 0.0009527074    1.716    0.417
        93 -11.8277     17.3999    182.2701   9.2144448554e+01   3.3046124866e+01    0.4561703    0.1724563  71.42  0.001710752    2.908    0.656
        94 -10.8809     23.0125    179.7020   9.0336674106e+01   3.3189643689e+01    0.3074983    0.1221085  64.05  0.001167154    2.670    0.625
        95 -11.7295      9.0695    177.8757   9.4401786458e+01   3.4838586942e+01    0.3094239    0.1901082 -88.96   0.00157229    1.584    0.369
        96 -12.8065      4.4408    145.9850   9.4434209110e+01   4.3599114227e+01    0.9377117    0.2465008  55.13  0.002958665    3.598    0.722
        97 -12.8799      3.4764    154.0176   9.5137923611e+01   4.1482648284e+01    0.8966014     0.270511 -75.05  0.003190262    3.028    0.670
        98 -12.2779      6.4404    171.4379   9.4927375951e+01   3.6681985816e+01    0.4773712    0.2291973  85.03  0.001901334    2.014    0.503
        99 -10.7646      1.5058    170.4610   9.6401647849e+01   3.7289102552e+01    0.3744335    0.1661352 -78.48  0.001416406    2.191    0.544
       100 -11.5376      2.5102    165.6426   9.5919403547e+01   3.8467399922e+01    0.4454107     0.239066  38.80  0.002154685    1.594    0.373
       101 -11.5487     11.2993    172.5311   9.3486936282e+01   3.6025042321e+01    0.3065187    0.1610886  61.05   0.00126679    1.719    0.418
       102 -11.7123     17.1485    169.8813   9.1537537043e+01   3.6226761212e+01    0.2383901      0.16266  56.06  0.001237397    1.288    0.223
       103 -12.0874     10.8145    166.5836   9.3346201575e+01   3.7607546875e+01    0.3693911    0.1744767  59.22  0.001605309    1.931    0.482
       104 -11.0864     19.5277    164.4908   9.0451831390e+01   3.7434131500e+01    0.2599027    0.1181094  80.58  0.001030389    2.333    0.571
       105 -13.1552      5.4395    139.7588   9.3752063732e+01   4.5249048884e+01      1.16396    0.3151252  73.77  0.003177369    4.805    0.792
       106 -12.6701      9.8756    155.5761   9.3076404675e+01   4.0605295919e+01    0.4360453    0.2246701  87.36  0.001928755    1.868    0.465
       107 -12.1849      5.5258    161.2460   9.4781983535e+01   3.9410532070e+01    0.4347909    0.2187177  76.95   0.00183937    1.882    0.469
       108  -9.9040    249.6367    150.8396   3.4549758826e+01   7.8226066336e+00     0.160508   0.07672392 -41.14 0.0009467812    1.737    0.424
       109  -9.6516    244.3661    149.1432   3.4895309790e+01   8.6661309778e+00    0.1624564    0.0790177 -41.80 0.0009435778    1.741    0.426
       110  -9.5950    234.6530    146.3135   3.5618622659e+01   1.0246047094e+01    0.1068462   0.08054116 -55.41  0.000704687    1.716    0.417
       111 -11.1439     13.5054    145.9356   9.1243995649e+01   4.2955241241e+01    0.2234012    0.1336343 -85.20  0.001032156    1.590    0.371
       112  -9.8015    247.3233    143.6721   3.3563972731e+01   9.0574630576e+00    0.1050652   0.07404374 -51.39 0.0004012391    1.693    0.409
       113  -9.5535    250.6495    140.3072   3.2572823393e+01   9.1138194397e+00    0.1034819   0.07383127 -52.73 0.0007042977    1.709    0.415
       114 -10.3036    242.4787    134.0312   3.2395539188e+01   1.0979537715e+01    0.1817582   0.08570235 -36.38  0.001033927    1.596    0.373
       115 -12.3986      3.1020    128.2926   9.3981109797e+01   4.8599534319e+01    0.6257905    0.2147582  78.88   0.00209326    3.111    0.679
       116 -10.6281    248.0176    129.5764   3.0933791355e+01   1.0889663855e+01    0.2251999    0.1202181 -44.52  0.001372337    1.634    0.388
       117 -11.6781      7.5101    125.4831   9.2070367055e+01   4.9115427689e+01    0.2907283    0.1329947 -88.60  0.001153559    2.095    0.523
       118 -10.9288    241.6233    125.2833   3.0867992449e+01   1.2310169002e+01    0.2374248   0.08043001 -39.82  0.001140979    2.222    0.550
       119 -10.4047    249.5075    123.9894   2.9739219481e+01   1.1460424363e+01    0.2115312    0.1097877 -33.12  0.001072682    1.459    0.315
       120 -11.3384    248.7424    118.8309   2.8863493142e+01   1.2261085273e+01    0.3546147    0.1362206 -40.28  0.001653526    1.933    0.483
       121 -10.0056    239.2953    120.6620   3.0261015549e+01   1.3272175663e+01     0.114053    0.0738843 -52.61 0.0004050901    1.652    0.395
       122  -9.9055    243.4519    118.9499   2.9464650087e+01   1.2947921286e+01    0.1657145   0.07168288 -49.75 0.0008084111    2.527    0.604
       123 -11.5481      4.4586    116.0177   9.2643706357e+01   5.1990940534e+01    0.2287716     0.131998 -83.03  0.001031118    1.595    0.373
       124 -11.4914    243.6176    114.4052   2.8581499390e+01   1.3555611514e+01    0.2325475    0.1029778 -51.25  0.001146925    2.594    0.615
       125 -11.2268    247.8501    112.5583   2.7777684464e+01   1.3234489443e+01    0.2310992    0.1072841 -45.53 0.0009693259    1.825    0.452
       126 -13.9316    242.5827     92.8655   2.4491021443e+01   1.6668685790e+01    0.9565614    0.2150995 -37.73  0.003869454    3.074    0.675
       127  -9.7830    236.2850    107.6227   2.8068253238e+01   1.5540424562e+01    0.1209833   0.07204773 -53.00 0.0005312224    1.721    0.419
       128 -11.1556    248.4603    106.9615   2.6650118265e+01   1.3912665528e+01    0.2575992    0.1238026 -47.23  0.001120987    1.828    0.453
       129 -11.0881    238.5140    102.9422   2.6901716185e+01   1.5874584501e+01    0.1855151   0.08851588 -37.18  0.000992049    1.571    0.364
       130 -11.5074    249.1297     97.8049   2.4825439137e+01   1.5055395328e+01     0.303105    0.1294366 -46.50    0.0016411    1.955    0.488
       131 -10.6069    235.8187     95.7586   2.5749635134e+01   1.7281799456e+01    0.1654632    0.1102383 -50.94 0.0006963231    1.353    0.261
       132 -11.0672      1.6203     94.3044   9.2228327415e+01   5.8308866275e+01    0.2869622    0.1281779 -88.00  0.001131749    2.146    0.534
       133 -10.5661    237.0238     90.0487   2.4472514522e+01   1.7892722863e+01    0.1902951     0.110555 -54.11  0.001126468    1.673    0.402
       134 -11.7033    247.4735    102.9829   2.5986548668e+01   1.4588924286e+01    0.4016327    0.1874451 -56.77  0.001950871    3.045    0.672
       135 -11.8616    249.4133     87.7427   2.2843714588e+01   1.6356224112e+01    0.3918088    0.1483288 -32.73  0.001968239    2.149    0.535
       136 -11.9452    246.5192     84.5430   2.2473651350e+01   1.7205258372e+01    0.1975877    0.1122778 -42.05  0.000884614    1.284    0.221
       137 -11.2095      6.3088     85.5252   8.8935555937e+01   6.0540773303e+01    0.2733125    0.1227871 -78.00  0.001088024    2.059    0.514
       138 -11.9182    249.5214     80.5212   2.1417497372e+01   1.7289907683e+01    0.3061161    0.2020479  85.93  0.002032884    2.141    0.533
       139 -12.5133    248.7440     74.8631   2.0363957473e+01   1.8141722105e+01    0.4145604    0.1230943 -40.89  0.001986655    2.265    0.559
       140 -11.0581      2.6240     81.1954   9.0416332842e+01   6.1945221491e+01    0.2343093    0.1338457 -81.14  0.001062268    1.629    0.386
       141 -11.5412    243.4429     76.6807   2.1172942493e+01   1.8712248419e+01    0.2239748   0.07975905 -38.63  0.000827657    1.976    0.494
       142 -11.9765    141.6212    248.2432   6.7579936617e+01   5.9462264776e+00    0.5455385     0.195469  14.45  0.001980943    4.558    0.781
       143 -11.4150      7.1413     63.0709   8.5091618832e+01   6.6675235744e+01    0.2329557    0.1759615 -45.08  0.001058368    1.280    0.219
       144 -10.1723     16.3026     49.3471   7.5460140788e+01   6.9546782276e+01    0.1522422   0.09554369 -34.80 0.0007039737    1.690    0.408
       145 -11.5971      8.1550     44.2636   8.0026185285e+01   7.1496701699e+01    0.3379046    0.1489318 -58.71  0.001454105    1.996    0.499
       146 -11.1552    239.4289     72.2666   2.0619867928e+01   1.9923926441e+01    0.1721433    0.0781387 -43.15 0.0008356269    1.605    0.377
       147 -11.8980     12.1821     37.3707   7.4517765428e+01   7.2856295859e+01    0.4005086    0.1782203 -60.68   0.00172517    2.097    0.523
       148 -12.2058      2.9520     50.2362   8.5469338643e+01   7.0290847523e+01    0.6110632    0.2799248 -67.56  0.002675268    1.952    0.488
       149 -11.5033     18.7093     30.6034   6.6178726984e+01   7.3710355919e+01    0.3239748    0.1763116 -33.64  0.001436624    2.146    0.534
       150 -12.0170      2.4530     40.3280   8.3559123396e+01   7.2834686841e+01    0.5146974    0.2285432 -69.35  0.002248098    2.091    0.522
       151 -11.5753      3.1130     33.5722   8.1047021496e+01   7.4454823771e+01    0.3981857    0.1524865 -59.74  0.001492913    2.230    0.552
       152 -10.0965     77.4790    246.9673   8.1114407785e+01   1.3017516026e+01    0.1552582   0.08676362  63.79 0.0008084418    2.416    0.586
       153 -12.1445    194.7827    245.8229   5.7500892867e+01   9.8916519477e-01    0.3049222    0.1539446  -8.55  0.001781191    2.220    0.550
       154 -10.8402     97.1115    244.8075   7.6562567388e+01   1.1283639917e+01    0.3371561    0.1059903  34.84   0.00150716    2.391    0.582
       155 -10.9419     84.6677    244.6450   7.9313237960e+01   1.2658463470e+01    0.2522068    0.1304567  49.69  0.001333253    2.050    0.512
       156 -11.4335     57.4939    242.1973   8.5325313008e+01   1.5960242471e+01    0.4880234    0.1671555  42.77  0.002237558    2.301    0.565
       157 -12.0255      1.9126     60.1948   8.8028400107e+01   6.7721294861e+01    0.5415073    0.1897279 -79.48  0.001970908    2.797    0.642
       158 -12.6138    226.1138    241.2744   5.1894747068e+01  -1.2422368036e+00    0.3032492    0.1478499 -20.80  0.002024638    1.779    0.438
       159 -11.8354     29.5129    240.6470   9.1737243467e+01   1.8979498596e+01    0.4666377    0.2269204  50.42  0.002059162    1.695    0.410
       160 -11.0288    126.9960    247.4873   7.0455286055e+01   7.6109482651e+00    0.1870887   0.09210761  26.00    0.0010336    1.621    0.383
