#   1 NUMBER                 Running object number                                     
#   2 MAG_AUTO               Kron-like elliptical aperture magnitude                    [mag]
#   3 X_IMAGE                Object position along x                                    [pixel]
#   4 Y_IMAGE                Object position along y                                    [pixel]
#   5 X_WORLD                Barycenter position along world x axis                     [deg]
#   6 Y_WORLD                Barycenter position along world y axis                     [deg]
#   7 A_WORLD                Profile RMS along major axis (world units)                 [deg]
#   8 B_WORLD                Profile RMS along minor axis (world units)                 [deg]
#   9 THETA_WORLD            Position angle (CCW/world-x)                               [deg]
#  10 FWHM_WORLD             FWHM assuming a gaussian core                              [deg]
#  11 ELONGATION             A_IMAGE/B_IMAGE                                           
#  12 ELLIPTICITY            1 - B_IMAGE/A_IMAGE                                       
         1 -15.7554    242.6864     79.2792   4.1652366747e+01   1.6463927615e+01     3.128229     1.407821 -47.91    0.0151316    1.871    0.466
         2 -14.0271    231.0984     15.7275   2.9884619675e+01   2.7270982232e+01     1.154373    0.8117816  25.34  0.006522123    2.977    0.664
         3 -14.8318    246.2187     54.4325   3.6262504479e+01   1.9448891725e+01     2.513596     0.769546 -45.43   0.01098773    2.552    0.608
         4 -13.8626    238.7597      4.3617   2.7188409338e+01   2.7001807113e+01    0.9661077    0.5464207  85.99  0.006215621    1.576    0.365
         5 -14.9870    246.6488     20.4612   2.9673305104e+01   2.3710534517e+01     1.896583    0.9020571 -34.09   0.01056819    2.187    0.543
         6 -14.9203    247.0188    106.7740   4.6764382210e+01   1.1277740899e+01     2.137321    0.8163207 -42.93  0.009391575    2.122    0.529
         7 -12.9680    213.7952      8.7283   2.9785555606e+01   3.1564515236e+01    0.5012652     0.353856 -46.33  0.003346987    1.362    0.266
         8 -11.7328    215.1635      2.6727   2.8436078183e+01   3.1897114045e+01    0.3175972    0.1498316 -57.93  0.001635824    1.892    0.471
         9 -12.9034    222.2613     11.6691   2.9737603237e+01   2.9501492691e+01    0.5558484     0.296097 -28.17  0.003093571    2.294    0.564
        10 -12.2150    220.6997      5.1659   2.8543548875e+01   3.0505513423e+01     0.398587    0.2986078 -55.33   0.00281612    1.204    0.170
        11 -11.9410     87.7861     16.7038   5.1016778953e+01   5.9244275573e+01    0.2984365    0.2113952 -51.06  0.001676041    1.922    0.480
        12 -12.0071     66.7951     13.4747   5.6046768395e+01   6.3782282173e+01    0.2523751    0.1996416 -23.31  0.001081241    1.404    0.288
        13 -11.5919    107.7001     10.1886   4.3837682265e+01   5.5492811030e+01    0.2263042    0.1857847  71.38 0.0004731334    1.203    0.169
        14 -11.8502    112.8295     12.0627   4.3442313038e+01   5.4167437948e+01    0.2414446    0.2267442 -33.96 0.0005468833    1.236    0.191
        15 -12.6157    112.3009      6.1858   4.1535260823e+01   5.4788512459e+01    0.4136392    0.3457671  47.00  0.002717797    1.093    0.085
        16 -12.6367    127.9788     11.4098   4.0431174289e+01   5.0739815515e+01    0.3334776     0.280237 -41.72  0.002143679    1.352    0.260
        17 -11.7584    119.2728     10.6787   4.1738233976e+01   5.2816588367e+01    0.2194205    0.1823307  88.30  0.001192365    1.274    0.215
        18 -11.5750     29.0309     10.2201   7.0193476883e+01   7.0351582473e+01    0.2463091    0.1657646  10.55 0.0005006852    1.264    0.209
        19 -10.9171     31.6472      7.2835   6.7409563336e+01   7.0332140993e+01    0.1824114    0.1435827  24.16 0.0005601668    1.228    0.185
        20 -12.3340    205.0493      8.5294   3.0448392052e+01   3.3436105971e+01    0.3485868    0.2171527  35.06  0.001336181    2.822    0.646
        21 -11.0760    155.5140     10.0001   3.5940246145e+01   4.4443598192e+01    0.1701373    0.1243527 -30.21 0.0007052018    1.573    0.364
        22 -10.6572    148.9577      8.9471   3.6513051441e+01   4.6067754854e+01    0.2079617    0.1346562 -71.28  0.001139135    1.719    0.418
        23 -11.2833    139.6994      8.6864   3.7744278277e+01   4.8251312864e+01    0.2604783    0.1363971 -87.08  0.001168583    2.511    0.602
        24 -11.3393     21.1746      6.7570   7.2524561357e+01   7.1790138492e+01    0.2172854      0.17215 -41.55 0.0009772496    1.883    0.469
        25 -11.1711    201.4881      2.9706   2.9539138990e+01   3.4754118513e+01    0.1637575    0.1085241 -37.66 0.0009431924    1.593    0.372
        26 -10.9848    169.8366      3.0513   3.2460623901e+01   4.1772149861e+01    0.1941624    0.1424053 -74.47 0.0006345233    1.273    0.215
        27 -11.9983    119.7508      3.1820   3.9192787632e+01   5.3327523457e+01    0.3584967    0.1524464  66.47  0.001681547    1.994    0.498
        28 -11.0954     97.8807      2.7080   4.3213980133e+01   5.8285393655e+01     0.224341    0.1456276 -55.94  0.001228039    2.143    0.533
        29 -10.2999     89.6178      2.8497   4.5134770355e+01   6.0069900916e+01    0.1595743    0.1090175 -34.65 0.0009487253    1.755    0.430
        30 -11.8198     65.3035      2.8222   5.1816570219e+01   6.5045507200e+01    0.3678997    0.1423239  51.80  0.001755511    2.132    0.531
        31 -11.8643    149.5183      1.9202   3.4480309519e+01   4.6543800053e+01    0.4146174    0.1067691  64.39   0.00164053    2.863    0.651
        32 -10.7048      7.4999      2.4739   7.8178721362e+01   7.3861799157e+01     0.113146   0.08202365  -4.19 0.0008101136    1.003    0.003
        33  -9.9388    207.6692      1.3296   2.8709554432e+01   3.3596916338e+01    0.1266296   0.06766622 -66.28  0.000705174    1.716    0.417
        34 -10.0070    137.6700      1.3470   3.5871842710e+01   4.9335725556e+01    0.1287521   0.08362292 -69.60 0.0007049652    1.760    0.432
        35 -10.8075    241.1163    209.6744   6.7928774046e+01  -5.0815803509e+00    0.2139761    0.1533618 -38.00   0.00131975    1.415    0.293
        36 -10.5719    249.5109    250.0633   7.3397827570e+01  -1.1823693927e+01    0.1644439   0.09075306 -28.88  0.001019626    1.558    0.358
        37 -11.0294     49.8227    250.1455   1.1379491443e+02   1.4718346938e+01    0.3849529    0.1512808  31.56  0.001799688    2.440    0.590
        38 -11.9228     20.1053    249.0738   1.1955667812e+02   1.8241367912e+01    0.3804178    0.1925659  42.72  0.002206471    1.639    0.390
        39 -11.8637     12.5660    249.0158   1.2097607021e+02   1.9015223755e+01    0.3657617     0.175471  49.54  0.001576687    1.650    0.394
        40 -12.4436      6.7900    236.3599   1.2141971412e+02   2.2140863651e+01    0.3208972    0.1829488  78.35  0.001418844    1.505    0.335
        41 -11.5791      3.7455    250.2174   1.2266124599e+02   1.9630527087e+01    0.3148516    0.1487497  30.89  0.001816353    2.182    0.542
        42 -12.6585      3.0755    243.0259   1.2245252776e+02   2.1124542245e+01    0.6181852    0.2506737  82.94  0.002881244    2.394    0.582
        43 -13.3448    242.9149    180.1351   6.2102809044e+01  -5.4890732473e-01    0.6585724    0.3380225 -39.60  0.002776961    1.664    0.399
        44 -11.2761    249.8628    200.7119   6.4808043307e+01  -4.8032245973e+00    0.3628977    0.1561154 -37.35  0.001752131    1.953    0.488
        45 -12.3396    247.1124    192.8710   6.3816765068e+01  -3.2081870406e+00    0.6393132    0.3673908 -54.62  0.003021091    2.821    0.646
        46 -11.5743    242.9168    201.1171   6.6055690108e+01  -3.9707118574e+00    0.3323747    0.2260969 -37.66  0.001997044    1.379    0.275
        47 -11.9455    233.7266    212.1794   6.9685083014e+01  -4.5158119360e+00    0.4056666    0.2338039 -20.59  0.001903136    1.675    0.403
        48 -11.1476    229.3336    200.0428   6.8246206932e+01  -1.9578943556e+00    0.3298173    0.1999109 -47.26  0.001725356    1.872    0.466
        49 -11.3192    231.5180    193.9832   6.6714597367e+01  -1.2544614087e+00    0.2904793    0.2058771 -31.47  0.001066303    1.214    0.176
        50 -12.5538    237.6315    189.0965   6.4714327093e+01  -1.2993521488e+00    0.6209525    0.2089554 -41.80   0.00252879    2.648    0.622
        51 -11.2880    235.3227    181.5151   6.3657024721e+01   3.0794381213e-01    0.3559498    0.1561337 -35.89  0.001615844    1.978    0.495
        52  -9.8478    220.3016    193.6969   6.8703686271e+01   4.1929295962e-01    0.1168906    0.1066434 -66.69 0.0006698915    1.590    0.371
        53 -10.3420    224.4994    191.9515   6.7594829856e+01   1.0193945144e-01    0.2032444    0.1146017 -37.21 0.0009408324    1.570    0.363
        54 -10.5702    215.4740    191.9596   6.9277672443e+01   1.4483610885e+00    0.1786257     0.114925 -59.76 0.0008096276    2.529    0.605
        55 -10.6144    210.5080    187.9990   6.9459273068e+01   2.9251864626e+00    0.2089801    0.1224739 -39.47  0.001024516    1.567    0.362
        56 -10.9976    230.5136    186.5438   6.5471554341e+01   1.5005936725e-01    0.2717059    0.1129178 -39.71  0.001040292    2.105    0.525
        57 -11.0273    224.0974    183.4164   6.6016487322e+01   1.6471430231e+00    0.2668098    0.1784979 -41.48  0.001182419    1.412    0.292
        58 -11.8117    249.7177    185.0846   6.1925465295e+01  -2.3015283921e+00    0.4037869    0.1954946 -44.37  0.001950197    1.988    0.497
        59 -10.8480    230.4542    180.2893   6.4267336696e+01   1.2367013858e+00    0.2549244    0.1113014 -36.33   0.00101085    2.010    0.502
        60 -11.3916    226.3537    178.8135   6.4705534573e+01   2.1139659883e+00    0.2491636    0.2056252  -8.46  0.001049015    1.128    0.114
        61 -10.4703    219.3756    177.7622   6.5764566571e+01   3.3840400721e+00    0.2559483    0.1550203 -31.63  0.001259476    1.494    0.331
        62 -11.1420    233.3691    174.2335   6.2569971528e+01   1.8509350580e+00    0.3165355    0.1719988 -38.78  0.001237732    1.580    0.367
        63 -11.3714    225.9881    173.0754   6.3631914942e+01   3.1870516098e+00    0.3728625    0.2397502 -40.54  0.001513947    1.396    0.283
        64 -11.1770      5.7124    172.5727   1.1751695385e+02   3.6788813278e+01    0.2085107    0.1296718  13.11  0.001135797    2.113    0.527
        65 -14.9847    244.6033    152.2832   5.6356725857e+01   3.9364150441e+00     2.182065    0.7867078 -43.70  0.009023977    2.396    0.583
        66 -10.4122    123.2589    165.2141   8.4673224816e+01   2.3172362350e+01     0.220684    0.1845089  70.75  0.001073155    1.411    0.291
        67 -11.9993    240.7443    163.7257   5.9252828715e+01   2.5560285410e+00    0.2536403    0.1891083 -37.43 0.0008726265    1.155    0.134
        68 -10.6747    213.4584    163.4939   6.3958829912e+01   6.9772387216e+00    0.2565229    0.1202971 -49.77  0.001035487    2.337    0.572
        69 -15.2192    245.3587    132.1657   5.2179419201e+01   7.2754941051e+00     2.287687     1.394896 -59.63   0.01142906    2.062    0.515
        70 -11.7377    227.1709    157.0651   6.0178356676e+01   5.8730802916e+00    0.4061912    0.2070882 -36.37  0.001587831    1.723    0.420
        71 -10.0444     42.5429    157.4977   1.0596014655e+02   3.7238070048e+01    0.3132628   0.05406133  42.11 0.0008087559    5.827    0.828
        72  -9.8898    146.4098    156.7591   7.6977237188e+01   2.0806781809e+01    0.1560754    0.1198018  67.65 0.0005532385    1.698    0.411
        73 -10.6497    233.2980    153.0791   5.8328774002e+01   5.5877363479e+00    0.3262642    0.1555078 -38.41   0.00105355    1.789    0.441
        74 -10.9475    221.5157    153.1821   6.0354502560e+01   7.5263512882e+00    0.2549185    0.1846123 -55.41  0.001339132    1.567    0.362
        75  -9.6130     39.6686    153.6488   1.0625143649e+02   3.8541010953e+01    0.1500888   0.09535512 -39.48 0.0007047358    1.775    0.437
        76 -11.5960    224.1657    145.8562   5.8359359448e+01   8.4176008591e+00    0.3853488    0.2209868 -31.11  0.001412367    1.689    0.408
        77 -12.2554    230.5022    141.2109   5.6331528266e+01   8.1736151516e+00    0.3859231    0.1799227 -46.69   0.00169458    1.987    0.497
        78  -9.9686    110.6753    249.3542   1.0095768532e+02   6.8072113500e+00    0.1338616   0.08845653  60.87 0.0007046715    1.765    0.433
        79 -10.5613    224.5670    140.0318   5.7060544349e+01   9.4121641581e+00    0.2178621    0.1187542 -40.20  0.001021246    1.583    0.368
        80 -10.3884    209.7086    137.9456   5.9187597974e+01   1.2485108109e+01    0.2052685    0.1721565 -40.16 0.0006719337    1.070    0.065
        81 -12.1069    226.2883    133.9193   5.5477383099e+01   1.0219914235e+01    0.4021994    0.1688511 -37.28  0.001654332    2.148    0.534
        82 -10.8927    221.6620    129.6487   5.5317537796e+01   1.1827929792e+01     0.271894    0.1859101 -67.71 0.0009971017    2.001    0.500
        83 -10.5151     25.5817    128.7748   1.0691987968e+02   4.6295027785e+01    0.1982107    0.1202567 -80.26 0.0009527918    1.660    0.398
        84 -11.0720      2.0342    127.0668   1.1412303178e+02   4.8380328712e+01     0.206018    0.1673991 -72.66  0.001297739    1.025    0.024
        85 -11.1138     65.3006    248.8054   1.1051635588e+02   1.3078106968e+01    0.3298284    0.1111487  45.78  0.001425832    2.474    0.596
        86  -9.6955     69.0063    122.7973   9.1538966788e+01   4.2864791857e+01      0.18173    0.1202141  30.10 0.0003227111    1.612    0.380
        87 -11.2036    234.1354    164.0559   6.0413838104e+01   3.5132325151e+00    0.3618775    0.1681934 -46.51  0.001356784    2.092    0.522
        88 -10.0612    131.9927    126.0022   7.3470571688e+01   3.0766116546e+01    0.1831932    0.1784519 -29.73            0    1.002    0.002
        89  -9.6855     92.3553    117.7457   8.2839567515e+01   4.0363168834e+01    0.1526034    0.1202665  67.84 0.0006960343    1.607    0.378
        90 -10.6192    219.1810    168.1912   6.3871772153e+01   5.1557875281e+00    0.1866496    0.1577365 -50.93  0.000929052    1.335    0.251
        91 -10.6429    104.9941    111.6602   7.7391807930e+01   3.9471373267e+01     0.221061      0.19385  35.01 0.0005748363    1.165    0.141
        92 -10.6578     15.4784    112.0331   1.0767003644e+02   5.1297634133e+01    0.2107628    0.1134112 -67.12  0.001026933    1.575    0.365
        93 -11.5764    231.1173    103.0342   4.8124350519e+01   1.4775833592e+01    0.3133476    0.1531851 -46.93  0.001223509    1.788    0.441
        94 -11.3404    233.3483    246.3618   7.5632606137e+01  -9.5228972536e+00    0.3594104    0.1659242 -38.09  0.001941272    2.122    0.529
        95 -10.6525    121.3207    104.1069   7.0623116202e+01   3.7876158144e+01    0.2692809    0.2051098  63.95  0.001233221    1.580    0.367
        96 -11.6861    225.3215     92.9516   4.6748228844e+01   1.7583930278e+01    0.1968547    0.1506211 -45.70 0.0006186352    1.135    0.119
        97 -10.6361      6.6519     93.7041   1.0779339347e+02   5.6314086638e+01    0.1393277   0.07557407 -39.29 0.0006389223    1.677    0.404
        98 -10.3927     18.9966     91.5313   1.0265801469e+02   5.6040149563e+01    0.1807593    0.1294484  13.31 0.0006555408    1.573    0.364
        99 -10.0561     98.9722     90.4705   7.3309382664e+01   4.5333876406e+01    0.2194745    0.1474487  41.58 0.0006680442    1.504    0.335
       100 -10.8359     27.5952     88.7738   9.8697261054e+01   5.6000329655e+01    0.1908424    0.1217193 -71.46 0.0009512858    1.732    0.423
       101 -11.3141    216.7310     88.5690   4.6986364171e+01   2.0027406959e+01     0.315227     0.135792  61.07  0.001306571    2.697    0.629
       102 -10.9685      4.8183     88.3348   1.0754248317e+02   5.7683367153e+01    0.2311459    0.1000361  25.82   0.00109109    2.628    0.619
       103 -11.2333    242.9574    246.1515   7.3894959833e+01  -1.0591374597e+01    0.2821517    0.1573573 -24.63  0.001466634    1.541    0.351
       104  -9.7368    139.6716     87.2701   6.1120784290e+01   3.7297349855e+01    0.1494437    0.1193434 -88.31 0.0003714851    1.581    0.367
       105 -10.1688    147.8323     84.8391   5.8528778852e+01   3.5897787460e+01    0.2003944    0.1747177 -84.04 0.0004289415    1.273    0.215
       106  -9.6315    154.2813     83.6303   5.6769176731e+01   3.4640750279e+01    0.1548052    0.1134263 -70.73 0.0007013962    1.694    0.410
       107 -10.2606    135.4132     83.2950   6.1018264151e+01   3.9011182634e+01    0.2065329    0.1396972 -51.29 0.0007017211    1.586    0.369
       108 -12.1069    219.2813     81.5769   4.5064947343e+01   2.0658981005e+01    0.3600035    0.2167674  77.77   0.00174417    2.110    0.526
       109 -10.3844     88.7971     82.1584   7.4066853709e+01   4.9001952282e+01    0.2056449    0.2039349  78.02  0.000603797    1.155    0.134
       110 -11.0051     12.0000     81.0060   1.0323597723e+02   5.8972911105e+01    0.2205099   0.06285313 -63.72 6.651114e-05    2.997    0.666
       111 -10.0977    149.3185     76.7107   5.5914427293e+01   3.7019955199e+01    0.1482107     0.114443 -80.43 0.0003588872    1.597    0.374
       112 -10.0878    128.7574     70.9987   5.9017600676e+01   4.2740483052e+01    0.1888323    0.1246021 -37.59 0.0004138136    1.558    0.358
       113  -9.9542    168.5751     67.4898   4.9552735784e+01   3.4088083437e+01    0.1417454    0.1311048 -76.13 0.0001630693    1.036    0.035
       114 -11.3063      3.0162     66.0707   1.0375820372e+02   6.2823888895e+01    0.2610381    0.1440164 -59.30  0.001265602    1.513    0.339
       115 -10.1489    118.5316     64.5306   5.9618808429e+01   4.6144305087e+01      0.14428     0.137058  31.75 0.0001489629    1.010    0.010
       116 -11.0960    134.7000     60.3997   5.4385085674e+01   4.3130106166e+01    0.4379945    0.2434493 -59.37  0.001722251    2.657    0.624
       117 -11.0171     40.9611     62.5309   8.5904315121e+01   6.0365578460e+01    0.3018352    0.2204264  65.19  0.001497988    2.491    0.599
       118 -10.7471    141.7864    246.2265   9.3874065496e+01   2.8650237032e+00    0.2141955    0.0958818  24.42 0.0008854435    2.491    0.599
       119  -9.6557    141.6957     61.3255   5.3116366474e+01   4.1354921196e+01    0.1461332    0.1101058 -74.70 0.0003572982    1.644    0.392
       120 -10.3619     33.5200     59.5177   8.8184209626e+01   6.1810045310e+01    0.1307945    0.1116429 -22.44 0.0001826974    1.043    0.041
       121 -10.7111     19.4918     56.9870   9.3797521609e+01   6.3650090258e+01    0.1913927    0.1076239 -50.67 0.0006921685    1.554    0.356
       122  -9.7659     55.6946     51.3268   7.5797111955e+01   6.0467702675e+01     0.119904    0.1100023  84.16  0.000339414    1.649    0.394
       123  -9.8829     60.6610     47.6729   7.2436007838e+01   6.0308692484e+01    0.1422953   0.09497441   0.31 0.0007051625    1.731    0.422
       124 -10.2594     30.6349     46.7699   8.5152468746e+01   6.4559252156e+01    0.1686206    0.1130552 -51.94  0.000667108    1.670    0.401
       125 -11.9817    218.4945     41.9230   3.6416195325e+01   2.6661302956e+01    0.2100877    0.1809986 -25.86  0.001247478    1.466    0.318
       126 -11.6280    223.1179     40.2523   3.5589817713e+01   2.5920774658e+01    0.3085456     0.197186 -51.69  0.001650216    1.352    0.260
       127 -11.3631    159.0591     42.9302   4.4509518235e+01   3.9916903941e+01     0.214441    0.1786013  71.37 0.0003176583    1.113    0.101
       128 -10.7200    134.2127     42.4566   4.8982671544e+01   4.5843494584e+01    0.2630532    0.1676181 -52.59   0.00090643    1.831    0.454
       129 -10.2396    169.5023     39.5326   4.1940392037e+01   3.7904298417e+01    0.2644996    0.1302357 -33.10  0.001207493    2.152    0.535
       130 -10.3117     61.4106     38.2505   6.8465773696e+01   6.1663129394e+01    0.1701019     0.120473 -40.92 0.0007118123    1.606    0.377
       131 -12.8559    227.9019     34.1682   3.3864095659e+01   2.5722415793e+01    0.3824883    0.2574951  87.19  0.002373971    1.409    0.290
       132 -12.4925    214.8169     30.9330   3.4407715845e+01   2.8832556385e+01    0.2979182     0.240465  50.08  0.001924174    1.578    0.366
       133 -10.3024    199.3436     31.6558   3.6164383203e+01   3.2086597946e+01    0.1393834   0.08081602 -67.44 0.0007046385    1.790    0.441
       134 -10.4636     71.1749     31.0988   6.1962642215e+01   6.0919305362e+01    0.1639052    0.1550402  48.52 0.0007345955    1.309    0.236
       135 -11.3244    192.0071    244.8414   8.3234664665e+01  -4.0641734964e+00    0.2185328    0.1266419   6.37  0.001094394    2.012    0.503
       136 -10.5266    104.5975     29.5569   5.1423867216e+01   5.4225244692e+01    0.2479809    0.1254159  67.90  0.001034258    2.515    0.602
       137  -9.8734    197.3224     28.6833   3.5697622017e+01   3.2891808488e+01    0.1343764    0.0813534 -68.20 0.0007042633    1.665    0.399
       138 -10.8351    229.6396     25.9729   3.2041139161e+01   2.6376593783e+01    0.2435556    0.1126895 -44.87  0.001309529    1.830    0.453
       139 -11.9232    237.4851    169.4850   6.0932711971e+01   2.0539115061e+00    0.3134322    0.2035419 -43.39  0.001074857    1.428    0.300
       140 -10.3565    118.5306     27.2916   4.7410137712e+01   5.1335899564e+01    0.1704061    0.1282617  -0.74 0.0009405882    1.620    0.383
       141 -10.9534    137.0808     25.7899   4.3305571782e+01   4.7180795129e+01    0.2037974    0.1872307 -37.99 0.0004642085    1.214    0.176
       142 -10.1773     65.0198     25.2194   6.1724278284e+01   6.2798557217e+01    0.1657365   0.09270286  42.95 0.0003240026    1.613    0.380
       143 -10.1573     97.5896     21.8025   5.0375829517e+01   5.6623363844e+01    0.1667372    0.1187918 -39.65 0.0005919833    1.642    0.391
       144 -10.5538     17.0365     21.8029   8.2065469745e+01   7.0179410542e+01    0.1663988     0.128741  41.64 0.0009513893    1.963    0.491
       145 -10.1809    199.6690     20.7096   3.3628851660e+01   3.3296564771e+01    0.1153543   0.08896702  47.55 0.0003039682    1.626    0.385
       146 -10.3340     61.8297     19.1932   6.0295740597e+01   6.4090111852e+01    0.1801703    0.1260137  20.11 0.0007736505    1.317    0.241
       147 -12.2651    225.9459    242.5133   7.6346135245e+01  -8.1007609595e+00    0.3629112     0.233151 -39.40  0.002214664    1.711    0.416
       148 -10.9667     44.7640    244.4108   1.1438409049e+02   1.6471045668e+01    0.2355848   0.09221418  38.11   0.00113338    2.122    0.529
       149 -12.6929     17.6153    240.9345   1.1957172359e+02   2.0142435136e+01    0.4278394    0.1866445  53.93  0.001697003    1.912    0.477
       150 -12.1613     30.3484    240.9804   1.1705634993e+02   1.8799946902e+01    0.3106479    0.1548189  82.63  0.001612823    2.101    0.524
       151 -11.9413    247.1547    239.9777   7.2146121820e+01  -1.0226354002e+01    0.2894912    0.1771772 -28.50  0.001763596    1.403    0.287
       152 -11.0042    134.3485     16.2598   4.0863530880e+01   4.8803254419e+01    0.2568109    0.1972675  70.32   0.00154333    1.156    0.135
       153 -10.3947     25.3517     17.7168   7.5737624888e+01   6.9850000715e+01    0.1860471    0.1072682  31.04 0.0007415191    1.683    0.406
       154  -9.9702     26.6586     15.2790   7.3896357674e+01   7.0019010606e+01    0.1269422   0.09339254   0.34 0.0002893083    1.089    0.082
       155 -10.6149    243.8236    236.3502   7.2115997927e+01  -9.3482315928e+00    0.1921289     0.121474 -33.04  0.001206328    1.477    0.323
       156 -10.8909    240.2885    239.7750   7.3309550025e+01  -9.4174730505e+00    0.2473651     0.142905 -36.11  0.001485664    1.676    0.404
       157 -12.1884     35.4835    247.9113   1.1649902299e+02   1.6821928497e+01    0.4780658    0.1787628  48.61  0.002339543    2.173    0.540
       158 -10.9821    214.5941    240.2214   7.8087562875e+01  -6.3461774892e+00    0.1747793   0.09924275 -26.22 0.0009589103    1.679    0.404
       159  -9.9530    101.1732     13.6243   4.6496328496e+01   5.6642904740e+01     0.182378   0.09690527  50.18 0.0003109994    1.565    0.361
       160 -11.0477    205.2347    235.9524   7.9179907760e+01  -4.4636348964e+00    0.2475574    0.1700627 -47.14  0.001425386    1.830    0.453
       161 -10.2479     90.6692     12.3183   4.8549942169e+01   5.9049421114e+01    0.1196233   0.09694473 -77.95 0.0007047667    1.688    0.408
       162 -10.4482     58.7361     12.5859   5.8485984490e+01   6.5366186806e+01    0.1632922     0.108464  52.17 0.0009441134    1.611    0.379
       163 -11.0212    249.5004    234.4176   7.0810034352e+01  -9.7263946235e+00    0.2272809   0.09685422 -36.84  0.001188994    2.099    0.524
       164  -9.9353    168.9572     18.0000   3.6368116002e+01   4.0531679619e+01     0.205404   0.06397533  68.61 0.0006397261    2.848    0.649
       165 -11.3507    230.8212    235.2941   7.4250354016e+01  -7.6542385100e+00    0.4144343     0.147146 -37.89  0.001903165    2.611    0.617
       166 -11.1595     13.3901    232.1097   1.1989327087e+02   2.2401148036e+01    0.2970355     0.138277  49.74  0.001630714    1.788    0.441
       167 -11.8034    236.9782    230.3152   7.2295949344e+01  -7.6785095775e+00    0.3152939    0.2776008 -75.82  0.001992068    2.387    0.581
       168 -12.0623    248.3099    227.1488   6.9772923802e+01  -8.5672268483e+00    0.3286774    0.1331136 -33.39  0.001637907    2.126    0.530
       169 -12.1906      4.7832    228.4505   1.2139691548e+02   2.3986992000e+01    0.3990745    0.1769532  60.76  0.002118114    1.973    0.493
       170 -11.4950    229.5307    227.8685   7.3216195368e+01  -6.3945917702e+00    0.2836574    0.1084014 -41.44  0.001290113    2.586    0.613
       171 -11.0492     10.4959    225.4922   1.2008927149e+02   2.4092493067e+01    0.2873201    0.1142999  60.45  0.001372235    2.353    0.575
       172 -11.6257    227.8875    220.6164   7.2249538884e+01  -5.0735491510e+00    0.3950804    0.2657469 -50.62  0.002202112    2.082    0.520
       173 -12.1604    238.9409    219.7134   7.0103531181e+01  -6.3453232956e+00    0.4617437    0.2525492 -42.09  0.002519258    1.893    0.472
       174 -11.4106      1.8587    220.2368   1.2154205525e+02   2.6015248426e+01    0.2123406    0.1284514  82.30  0.001019404    1.384    0.278
       175 -12.9071    248.1271    216.7369   6.7985865717e+01  -7.0272904295e+00    0.5878828     0.254032 -38.57  0.002980174    2.053    0.513
       176 -10.4467    193.6174    219.8412   7.8743383457e+01  -1.7207046123e-01    0.1766405    0.1222531 -49.96 0.0009423673    1.760    0.432
       177 -11.7665     12.6217    216.9071   1.1912563003e+02   2.5775179590e+01    0.3228025    0.1476671  49.87  0.001687252    1.907    0.476
       178 -12.2795    214.1775    212.6596   7.3395019269e+01  -1.9263541462e+00    0.4827861    0.2195461 -35.50  0.002244384    2.052    0.513
       179 -11.5819      2.3168    212.8549   1.2103896558e+02   2.7601408697e+01    0.3096322    0.1490906  84.04  0.001624119    1.887    0.470
       180 -11.1937    235.7218    203.7088   6.7785257387e+01  -3.4311748466e+00    0.2389567    0.1825286 -28.23 0.0008316828    1.158    0.137
