#   1 NUMBER                 Running object number                                     
#   2 MAG_AUTO               Kron-like elliptical aperture magnitude                    [mag]
#   3 X_IMAGE                Object position along x                                    [pixel]
#   4 Y_IMAGE                Object position along y                                    [pixel]
#   5 X_WORLD                Barycenter position along world x axis                     [deg]
#   6 Y_WORLD                Barycenter position along world y axis                     [deg]
#   7 A_WORLD                Profile RMS along major axis (world units)                 [deg]
#   8 B_WORLD                Profile RMS along minor axis (world units)                 [deg]
#   9 THETA_WORLD            Position angle (CCW/world-x)                               [deg]
#  10 FWHM_WORLD             FWHM assuming a gaussian core                              [deg]
#  11 ELONGATION             A_IMAGE/B_IMAGE                                           
#  12 ELLIPTICITY            1 - B_IMAGE/A_IMAGE                                       
         1 -11.4752    164.1266     53.5909   5.3302381809e+01   3.7162659031e+01     1.310701    0.8230586 -62.21  0.005713894    1.989    0.497
         2 -10.9623     50.6087     10.0012   6.7672708632e+01   6.7541238187e+01    0.5758723    0.4791153 -11.41  0.003479595    1.212    0.175
         3 -10.7059     66.0012     20.3459   6.6610824883e+01   6.3698514737e+01    0.6180904    0.4278184 -61.16  0.002992378    2.975    0.664
         4 -11.8158     90.8834     23.3746   5.9749536938e+01   5.8483575771e+01     1.306029    0.4522085 -29.48   0.00515747    2.963    0.662
         5 -11.4306     50.5954     24.5355   7.4624232848e+01   6.5690489569e+01    0.9834853      0.54711  -4.65  0.004612355    2.433    0.589
         6 -10.5086     55.0281     17.8097   6.9663128195e+01   6.5890915857e+01    0.3014731    0.2323704  -1.77 0.0009364664    1.130    0.115
         7 -11.8266     87.2756     40.0504   6.7593227194e+01   5.7014404122e+01     1.036278     0.386951 -32.88  0.004001505    2.740    0.635
         8 -11.4916     60.0359     27.8317   7.2237690978e+01   6.3734807691e+01    0.7642372    0.3390166  24.29  0.002977237    3.255    0.693
         9 -12.9706     69.0594     31.4264   7.0355651955e+01   6.1685979012e+01     1.068403    0.6773636  43.50  0.004897744    1.599    0.375
        10 -12.0179     79.4123     32.6451   6.7210504445e+01   5.9608917053e+01    0.5488093    0.3582459 -48.53  0.001461127    2.041    0.510
        11 -10.3630    215.2455     23.9039   3.8239064233e+01   2.8638707543e+01     0.474624    0.3629411  39.40  0.002742003    1.740    0.425
        12 -10.2600     36.5159     25.8863   8.1541538445e+01   6.7434078885e+01    0.3952745    0.2473172   0.11  0.001573198    1.692    0.409
        13 -12.0442      3.6788     27.1290   9.8799044851e+01   7.0277519892e+01    0.9887741    0.3214689 -41.97  0.004863081    2.229    0.551
        14 -10.9549     12.6831     24.7639   9.3061815465e+01   7.0058830576e+01    0.4772056    0.2208176 -30.05 0.0005601132    1.931    0.482
        15 -13.0757     18.8850     15.6992   8.5721545394e+01   7.0968495959e+01      1.57361    0.7999147 -49.58  0.008377285    2.447    0.591
        16 -12.6280     24.8634      8.5672   7.8979798370e+01   7.1334662754e+01     0.571871    0.4497659 -29.12  0.004050245    1.401    0.286
        17 -13.3031      4.7622      9.6908   9.0861515859e+01   7.3129884676e+01    0.6016398    0.4376189 -26.71  0.001320013    1.099    0.090
        18 -11.7763     10.0233      3.3376   8.4504977567e+01   7.3612505490e+01    0.2476042    0.1963445 -19.77 0.0003429146    1.238    0.193
        19 -12.4299      3.2641      3.0632   8.8468055161e+01   7.4237721900e+01    0.3697491    0.2463478  18.11  0.001603712    1.549    0.354
        20 -10.0169    204.4214     25.8866   3.9848631802e+01   3.0937224564e+01    0.4352593    0.2108927 -21.69  0.001870081    2.729    0.634
        21 -10.2226    163.8610      6.1923   3.9317407234e+01   4.2900910204e+01     0.786129    0.5928348  14.83  0.004481832    1.734    0.423
        22 -10.3562    157.5297      6.0932   4.0101386340e+01   4.4471725006e+01    0.5170285    0.2858648  -6.69  0.002415815    2.576    0.612
        23  -9.9395    148.7869     10.3315   4.2625285186e+01   4.6247899622e+01    0.3492905    0.2303905  86.74  0.001078976    1.589    0.371
        24 -10.7591    177.4825     20.9858   4.1769062070e+01   3.8046645657e+01    0.4974566    0.3332518   5.70  0.002233331    2.282    0.562
        25 -11.1016    159.9916     18.4563   4.3451334809e+01   4.2665882616e+01    0.7132812    0.3345587  47.65  0.003100138    2.179    0.541
        26 -11.5593    152.6652     16.6069   4.3989348810e+01   4.4679431065e+01    0.7210146    0.4394002  76.95  0.001611921    1.621    0.383
        27 -10.4852    122.9321     22.2529   5.1279712020e+01   5.1372992239e+01    0.5664423    0.3642325  -8.86   0.00228844    1.884    0.469
        28 -11.2626     92.8643      9.9107   5.3610876118e+01   5.9463952806e+01    0.7976935    0.3042923 -14.47  0.003107734    3.463    0.711
        29 -10.8043    100.7348      5.3968   4.9825803661e+01   5.8123079432e+01     0.324534    0.2668204  46.25  0.001595294    1.042    0.040
        30 -10.8507    123.3548      8.9815   4.6454081775e+01   5.2568651292e+01    0.5438052    0.4928515 -61.72  0.003442755    1.264    0.209
        31 -11.8980    105.4176      9.2231   5.0266613317e+01   5.6737484837e+01     1.041246    0.3876119  46.01  0.004383746    2.304    0.566
        32 -11.2133    105.4293      2.1049   4.7482513961e+01   5.7324451098e+01    0.4435684    0.2577772  60.58   0.00193463    1.502    0.334
        33 -11.6886    116.6168     14.8646   4.9941795198e+01   5.3624434178e+01    0.7063449    0.5101388  53.59  0.003892904    1.211    0.174
        34 -11.6300    111.1470     13.7312   5.0711311664e+01   5.5008654958e+01    0.5396692    0.3162202 -12.64  0.002689056    1.992    0.498
        35 -11.3800    131.6187     19.6721   4.8615259018e+01   4.9553117056e+01    0.5140737     0.305335  48.12 0.0007495325    1.536    0.349
        36 -10.5162     84.3497     19.4493   6.0058585925e+01   6.0284877169e+01    0.5468835    0.3011545  26.05   0.00258901    2.025    0.506
        37 -10.4240    214.0769     12.5206   3.5670629807e+01   3.0199670682e+01    0.4581984    0.2719386 -87.38  0.001881676    1.620    0.383
        38  -9.2494     37.3157     12.6960   7.4901641576e+01   6.9205615545e+01    0.2299074    0.1537112 -20.72 0.0007471321    1.320    0.243
        39 -10.1126     38.7357      9.2404   7.2479268042e+01   6.9440332566e+01    0.2548619     0.161474  32.60  0.001569135    1.495    0.331
        40 -10.0545     31.3618     11.9278   7.7392170358e+01   7.0092613044e+01    0.2372846    0.1780791 -21.21 0.0006499188    1.208    0.172
        41  -9.4461    233.9580     10.5125   3.3595119478e+01   2.5977393904e+01    0.2017377    0.1555794 -50.19 0.0003619074    1.199    0.166
        42  -9.3713    233.9642      7.2325   3.2894286499e+01   2.6332726277e+01    0.1864205    0.1438156 -68.93            0    1.048    0.045
        43 -10.6661    200.7043      6.8102   3.5520971700e+01   3.3911683170e+01    0.5168329    0.2124411 -32.74   0.00117925    2.403    0.584
        44  -9.2252    197.4828      4.0196   3.5134527236e+01   3.4947976178e+01    0.2510753    0.1722163 -19.48   0.00127419    1.823    0.451
        45  -9.8047    226.2766      8.3010   3.3701655831e+01   2.7900338346e+01    0.2288727    0.1797516  47.44  0.001025076    1.662    0.398
        46  -9.2688     77.4957      8.9934   5.7573473212e+01   6.2753804445e+01    0.1938813     0.150561  37.48 0.0004673658    1.111    0.100
        47  -9.2871    250.7118      7.3523   3.1772322114e+01   2.2798354358e+01    0.2201135    0.0907936 -39.91 0.0009096865    2.021    0.505
        48  -9.8684    248.6369      2.2681   3.0890838824e+01   2.3772331141e+01    0.2982035    0.1655966 -44.15  0.001224959    1.536    0.349
        49 -10.7272    139.7683      4.6210   4.2171998562e+01   4.8966918859e+01     0.518787    0.2929142 -13.38  0.002338202    2.186    0.543
        50 -10.4446    182.3676      4.6550   3.6777373341e+01   3.8511028110e+01    0.4349425    0.2539618 -89.64  0.001871287    1.677    0.404
        51 -10.2993    132.5726      4.9911   4.3440614874e+01   5.0688297270e+01    0.3964221    0.3457043   6.23  0.002412283    1.302    0.232
        52  -9.4777     67.7525      6.0390   5.9333407840e+01   6.4931618319e+01    0.2532687    0.1623745 -11.08 0.0009189301    1.578    0.366
        53 -10.4239     71.5473      3.5659   5.6929828865e+01   6.4427119237e+01    0.3388931     0.277853 -31.63  0.002208016    1.480    0.324
        54  -8.9320     60.8868      6.2636   6.1837548126e+01   6.6177936950e+01     0.230448    0.1025646  54.00  0.001066092    2.511    0.602
        55  -8.8742    244.2002      4.6110   3.1643878743e+01   2.4440118867e+01    0.1635856    0.1186166 -59.31 0.0005099204    1.122    0.109
        56  -9.2488    217.8576      4.9994   3.3626365146e+01   3.0131054169e+01    0.2583741     0.163758  10.38  0.001233825    3.212    0.689
        57 -10.0627     41.3366      3.6731   6.8379007949e+01   6.9695471460e+01    0.3340804    0.1963981  11.16  0.001790236    1.710    0.415
        58  -9.9104    210.4675      3.5033   3.3881633556e+01   3.1967972053e+01    0.2390203    0.2311655 -15.45  0.001679588    1.353    0.261
        59  -9.5163    207.3326      3.2961   3.4094494447e+01   3.2712138874e+01    0.2114535    0.1803421  43.42  0.000717747    1.492    0.330
        60  -9.9891     56.8171      2.0318   6.1222939025e+01   6.7309624572e+01    0.3469456    0.1846074  43.47    0.0017001    1.645    0.392
        61  -8.6388    230.2907      2.3497   3.2116060461e+01   2.7643932189e+01    0.1089539    0.0902927  43.17 0.0005575903    1.668    0.401
        62 -10.8240    170.4258     14.4361   4.0843164393e+01   4.0487145888e+01    0.7129858    0.4383756 -87.47  0.003360124    1.743    0.426
        63  -9.5320     29.2339    128.5605   1.1192639119e+02   4.5916965107e+01    0.2470157    0.2247694  67.03  0.001594237    1.195    0.163
        64  -9.3980    211.4930    249.9997   8.8245957325e+01  -7.2324917210e+00    0.1349233    0.1080535 -65.70 0.0008099046    2.487    0.598
        65  -9.6190    183.2943    249.9844   9.3541199321e+01  -3.1153199471e+00    0.1712113    0.1447598  17.19  0.001171174    1.074    0.069
        66  -9.9202    162.4734    250.5035   9.7638968724e+01  -2.2298978741e-02    0.2668678    0.1015911  37.33   0.00120692    2.152    0.535
        67  -9.2079     22.8981    128.6629   1.1379419571e+02   4.6441734654e+01    0.2643074    0.2336466  13.90  0.001719009    1.409    0.290
        68 -10.8360     91.0568    121.0743   9.1757434798e+01   3.9717684007e+01    0.5852473    0.4334387 -38.98  0.001663892    1.387    0.279
        69 -11.3126     75.4599    120.0234   9.6255530803e+01   4.2493209718e+01    0.2449323    0.2400754 -65.22 0.0002103611    1.060    0.057
        70 -10.2518     20.3461    118.0603   1.1306564131e+02   4.9245874304e+01    0.3256538    0.2305757 -83.33  0.001443734    1.315    0.240
        71 -10.2415    116.3294    116.5039   8.3271486350e+01   3.6074335247e+01    0.3071354    0.2775244  13.80 0.0005639545    1.203    0.168
        72  -9.5686    104.3579    115.9398   8.6559795929e+01   3.8548158213e+01    0.2290019    0.1945622 -48.88  0.001146999    1.133    0.118
        73  -9.6069    108.6521    114.2801   8.4884740567e+01   3.8113518485e+01    0.4859828     0.229305 -58.57  0.001676808    2.594    0.615
        74 -10.4374     84.7193    113.3407   9.1832352942e+01   4.2656465676e+01    0.2728048    0.2402149  -5.72  0.000199675    1.278    0.218
        75  -9.2734     54.9428    113.3351   1.0128232421e+02   4.6959084064e+01    0.2164508    0.1679226  56.59 0.0006865055    1.490    0.329
        76 -10.0857     32.7607    109.9832   1.0782651939e+02   5.0169144719e+01    0.5209181    0.1694179 -50.72  0.002034317    2.565    0.610
        77  -8.7920     29.8784    107.6133   1.0834309817e+02   5.1006612218e+01    0.2025842    0.1654764  77.76 0.0004945241    1.369    0.270
        78 -10.1469     98.2117    114.6568   8.8051633083e+01   3.9994066763e+01    0.4265432    0.3485737 -15.30  0.002066375    1.445    0.308
        79  -9.9875     62.8378    109.3110   9.7845296768e+01   4.6924160593e+01    0.4528321    0.2908068   6.47  0.002009379    2.238    0.553
        80  -9.4655    193.1909    111.5843   6.3697205630e+01   2.0011163584e+01    0.2097872    0.1431314  38.93 0.0005692436    1.623    0.384
        81  -9.6964    121.0434    109.9373   8.0218218897e+01   3.6607332400e+01     0.238674    0.2228577 -10.04 0.0003152901    1.122    0.109
        82 -10.1542     75.0669    107.4972   9.3451079169e+01   4.5599647048e+01    0.6383046    0.4250044 -24.87  0.002277372    1.915    0.478
        83  -9.3765     82.8599     89.8798   8.6186420689e+01   4.8429399548e+01    0.2445655    0.2273321 -67.11            0    1.184    0.155
        84  -9.4349     82.4460     86.5324   8.5343836991e+01   4.9240077126e+01    0.2594948    0.1709963 -45.20 0.0005142827    1.426    0.299
        85 -11.1682     74.9217     95.4964   9.0403926680e+01   4.8449296476e+01     0.703769    0.4027783 -46.56  0.002290178    1.606    0.377
        86 -10.7643     77.9973     89.8052   8.7788527921e+01   4.9254949414e+01    0.3125844    0.2788063 -41.62 0.0003786049    1.050    0.048
        87 -10.2336    113.4757    107.5179   8.1699437520e+01   3.8712718328e+01     0.360023    0.2825605  -5.45  0.001268345    1.620    0.383
        88  -9.6693    110.4590    104.4950   8.1744402412e+01   4.0005378194e+01    0.3253104    0.1886816  46.90 0.0009504427    1.816    0.449
        89  -8.5191    103.6807    108.7030   8.4879197840e+01   4.0370167631e+01    0.1556489    0.1212985 -10.27 0.0003008441    1.615    0.381
        90  -8.7727    147.1946    106.8695   7.2525242369e+01   3.1533227517e+01    0.2169204    0.1878414   3.49 0.0004504225    1.328    0.247
        91  -9.3278     54.4543     96.8751   9.7741819924e+01   5.0997813061e+01    0.5319721    0.2755489   7.00  0.001963886    3.524    0.716
        92 -10.1447     53.5499    101.6723   9.9184893411e+01   4.9965669941e+01    0.4970942    0.2216231 -47.44  0.001087216    2.008    0.502
        93 -10.4651     48.1454    100.5719   1.0077679054e+02   5.0868713729e+01    0.5893576    0.4639033 -71.88  0.003291999    1.292    0.226
        94 -11.3202    141.6727    102.6877   7.2744601006e+01   3.3673329770e+01    0.4839005    0.3611293  31.04  0.001373445    1.493    0.330
        95 -11.2819    145.9340    100.0031   7.0931011360e+01   3.3256533864e+01    0.5788528    0.3225149  38.44  0.001458128    1.986    0.496
        96 -10.7522    133.1068    100.5851   7.4359471870e+01   3.6049071007e+01    0.7467535    0.3198493 -52.17  0.002075591    2.792    0.642
        97  -9.8685     63.0507    102.1517   9.6093326506e+01   4.8621497856e+01     0.508205    0.3525677  17.34  0.002519337    1.723    0.420
        98  -8.9834     62.5109     98.0140   9.5255325608e+01   4.9677811380e+01    0.2675216    0.1840166  72.02  0.001204885    2.239    0.553
        99  -9.6433     37.1209    103.1251   1.0507433273e+02   5.1422002722e+01    0.3026198    0.1940405   1.39  0.001517849    2.094    0.523
       100 -10.4153     87.9603     96.3850   8.6374017175e+01   4.6084657561e+01    0.3819681     0.375799   9.64   0.00139095    1.071    0.067
       101  -9.3586     33.4934     98.9762   1.0547662333e+02   5.2766118401e+01    0.2724333    0.1911409  -0.64  0.001484787    1.786    0.440
       102 -11.3984     24.6574     95.9050   1.0793508149e+02   5.4261772738e+01    0.6757242    0.4795732  61.95  0.003393634    1.797    0.444
       103 -10.1938     15.1987     87.4873   1.0968286427e+02   5.6933777402e+01    0.5369111    0.2983948  79.68  0.002409593    2.930    0.659
       104 -10.3788      3.8776    100.1888   1.1569482374e+02   5.4627525859e+01    0.4674189    0.1838183 -65.68  0.002160892    1.881    0.468
       105 -11.4953      4.3282     88.3412   1.1372275123e+02   5.7378042396e+01    0.8131071    0.2922249 -56.07  0.003858515    1.982    0.495
       106 -10.2870     40.6170    146.7228   1.1126481294e+02   4.0287698157e+01    0.2688952    0.2156097 -51.04 0.0007534095    1.296    0.228
       107 -10.7591    156.3176     96.6149   6.7504595027e+01   3.1518115074e+01      0.44416    0.2950287 -35.62  0.001934185    1.526    0.345
       108 -11.4667    117.6717     94.4440   7.6808321763e+01   4.0726329343e+01    0.7765324    0.5962998  66.03  0.003154622    1.592    0.372
       109 -11.4671    124.9409     92.0383   7.4075402218e+01   3.9660142598e+01    0.7143978    0.4454637  51.07  0.002993785    1.681    0.405
       110 -10.8624     89.6012     87.8144   8.3371256715e+01   4.7702962022e+01    0.6419472    0.4673482 -24.32  0.003067954    1.522    0.343
       111 -11.0117     39.0759     79.6221   9.8998030759e+01   5.6735892698e+01     1.035585    0.5374005 -69.56  0.004484525    2.444    0.591
       112  -9.5996     39.5233     92.4825   1.0196108424e+02   5.3723565130e+01    0.2714028    0.1780125 -40.21 0.0007151316    1.425    0.298
       113 -10.4843     34.4049     91.6948   1.0361631402e+02   5.4410543841e+01    0.5308315    0.2545266  13.51  0.002327398    2.811    0.644
       114  -9.6557      2.2125     82.6206   1.1352118697e+02   5.8802217839e+01    0.2451126    0.1690519 -35.68 0.0007889917    1.415    0.293
       115  -9.0846    189.0765     93.9522   5.9935859844e+01   2.4263735916e+01    0.2439358    0.1884315   8.84  0.001124595    1.754    0.430
       116  -9.4689     51.5533     86.6559   9.6195401737e+01   5.3735598217e+01    0.3901481    0.1810988 -41.65  0.001493246    2.056    0.514
       117  -9.4305    104.4668     92.1558   8.0004810402e+01   4.3936322237e+01    0.4614213    0.2658065  18.13  0.001609535    3.022    0.669
       118  -9.2828     67.9821     91.8593   9.1773646737e+01   5.0337262130e+01     0.388267    0.2048541 -70.78   0.00136577    3.297    0.697
       119  -9.9644    136.5035     89.9985   7.0413719235e+01   3.7471551073e+01    0.4134973    0.2120263  52.33  0.001574571    2.043    0.510
       120  -9.4915    140.0583     87.6578   6.8823240613e+01   3.7114473139e+01    0.2377094    0.2090529  11.10 0.0004786279    1.263    0.209
       121 -10.4944    135.4058     83.3499   6.8705364539e+01   3.9039637255e+01    0.6701243    0.3363081  40.93  0.002534446    2.130    0.530
       122  -8.9086    194.3193     89.3348   5.7763004805e+01   2.3866888384e+01    0.1515825    0.1191537  11.34 0.0003345334    1.700    0.412
       123 -10.2815     51.8723     92.3441   9.7533490041e+01   5.2380396817e+01    0.4264234    0.2567965 -44.69  0.001600821    1.489    0.328
       124 -10.6373    112.4328     87.3944   7.6212787777e+01   4.3320878263e+01    0.4663744     0.222828 -35.18  0.001705853    2.307    0.566
       125  -8.9953     53.4616     82.0165   9.4247781901e+01   5.4551063397e+01    0.2870806    0.1553545 -53.71 0.0009057674    1.677    0.404
       126  -9.7435    146.3128     87.3267   6.7194249562e+01   3.5710679241e+01    0.3592713    0.2192059  39.84  0.001205175    1.758    0.431
       127 -10.5939    146.5809     83.4276   6.5978725489e+01   3.6396389385e+01    0.4414249    0.3698087 -32.85 0.0004820508    1.211    0.174
       128 -10.5891    119.1199     86.6773   7.4081010973e+01   4.2040605604e+01    0.4104273    0.2733934  44.88   0.00107257    1.517    0.341
       129  -9.8755    108.3297     84.9724   7.6680446010e+01   4.4677854870e+01    0.4315598    0.2828787 -14.36  0.001742415    2.215    0.549
       130  -9.6129     58.5840     84.9711   9.3198101149e+01   5.3221868520e+01     0.490812    0.2762659  -3.03  0.001843299    3.327    0.699
       131 -10.7772     21.3041     73.1682   1.0429716643e+02   5.9768763505e+01    0.5567616    0.3797825 -17.31  0.002881754    1.597    0.374
       132 -10.0366     41.8281     53.8862   9.0168292754e+01   6.1876397428e+01    0.2235166    0.1744593 -15.12 0.0003598809    1.188    0.158
       133 -10.3842     44.5458     49.9943   8.7642320477e+01   6.2296750010e+01     0.264752    0.1925026  23.25  0.000536875    1.435    0.303
       134 -12.0289     20.9438     61.7745   1.0152591499e+02   6.2277916833e+01    0.9624617    0.6735641   5.50  0.005870296    1.590    0.371
       135 -10.4461     25.2711     84.4526   1.0536068914e+02   5.6897836942e+01     0.581291    0.2854768  41.85  0.002748164    2.595    0.615
       136  -9.3412     20.6631     80.7797   1.0628778868e+02   5.8098439705e+01    0.4004793    0.2383572 -16.52  0.002103069    2.050    0.512
       137 -12.1899    161.1066     82.0775   6.2292836593e+01   3.3152911601e+01    0.5165098    0.3279161  46.23  0.002252392    1.607    0.378
       138 -10.2615     93.7230     75.3990   7.8176257952e+01   4.9541935826e+01    0.7714105    0.4336461  17.58  0.002762491    3.076    0.675
       139 -10.6283     98.5900     76.4757   7.6978889531e+01   4.8378592559e+01    0.5932822    0.3725789 -42.01  0.002696393    1.556    0.357
       140 -10.9179    101.4609     82.0829   7.7865424656e+01   4.6667783484e+01    0.5763147     0.394459  10.02  0.002464753    2.056    0.514
       141 -10.8946    105.9764     77.7556   7.5121089854e+01   4.6629980074e+01    0.4655216    0.3467239  43.00  0.001217262    1.361    0.265
       142  -8.4329     72.4699     84.4835   8.8138787866e+01   5.1320551870e+01    0.1460989    0.1306419 -28.48 0.0002279197    1.037    0.036
       143 -11.2972    177.0079     78.5190   5.8049023116e+01   2.9919896216e+01    0.2814816    0.2371056 -42.56 -2.321601e-05    1.163    0.140
       144  -9.7819    235.8073    249.6144   8.3813996798e+01  -1.0483771714e+01    0.1559655   0.09242824  37.31  0.000652838    1.729    0.422
       145 -11.1416    146.0485     75.7185   6.3788118860e+01   3.7955563157e+01    0.6743875    0.4469033  13.28  0.000891762    2.442    0.590
       146 -11.9373    140.6314     69.5480   6.3161857903e+01   4.0357620022e+01     1.516151     1.089111 -70.90   0.00671619    1.894    0.472
       147 -12.0505    155.7020     42.6757   5.1555343600e+01   4.0828892327e+01     1.458146    0.9442854  48.43  0.007005989    1.517    0.341
       148 -11.7393    149.3921     66.0867   6.0082091234e+01   3.8828187965e+01     1.170748    0.5808521 -43.95  0.004616935    2.086    0.521
       149 -10.5354    141.5005     45.0796   5.5129269690e+01   4.4021131424e+01    0.2622507    0.2373236  36.58  0.000478587    1.108    0.098
       150 -10.4099    144.9029     42.5149   5.3594682512e+01   4.3538013109e+01    0.3281686    0.2364766  61.18 0.0007733728    1.320    0.243
       151 -12.6061    147.2651     53.8374   5.6720568350e+01   4.1316428862e+01    0.4393082    0.3705277  36.03 0.0003422446    1.232    0.188
       152 -11.9522    145.7039     48.4235   5.5327439643e+01   4.2507169551e+01    0.5778456    0.3358914  38.96 8.477163e-05    1.923    0.480
       153 -10.4181    189.9316     77.0432   5.5283422177e+01   2.7046254583e+01    0.7159577    0.3169357  39.06  0.002360058    3.446    0.710
       154  -9.7840    164.7282     69.2084   5.7797296080e+01   3.4529614735e+01    0.4116017    0.2609948 -47.47   0.00146405    1.622    0.383
       155 -10.8384    167.4129     73.7449   5.8576368269e+01   3.3095756540e+01    0.7030698     0.328213 -37.61  0.002196511    2.111    0.526
       156  -9.1307    169.9802     70.5180   5.7141826729e+01   3.3014335427e+01    0.2991776    0.1853754  42.34  0.001181333    1.776    0.437
       157 -11.3903     30.4928     72.5243   1.0048472523e+02   5.9149038232e+01    0.7859358    0.2502301 -48.08  0.003198406    2.445    0.591
       158  -9.6015      9.8868     76.8515   1.0957290634e+02   5.9705211614e+01    0.1857859    0.1404631 -52.31 0.0003882019    1.043    0.041
       159 -11.4810      4.9543     77.0698   1.1149983934e+02   5.9927429969e+01    0.2332646    0.2197967  69.96  0.000508165    1.318    0.241
       160 -10.1180      3.5336     72.9680   1.1125508241e+02   6.0921063418e+01    0.2767732    0.1447054 -51.17  0.001295511    1.451    0.311
       161  -9.5293    248.4866     77.5015   4.6920671403e+01   1.3929317764e+01    0.1339322    0.1138093 -49.89 -0.0001109816    1.011    0.010
       162  -9.3756    203.9408     75.8515   5.2646425063e+01   2.3921157570e+01    0.4429276    0.2284072  38.99  0.001348853    2.741    0.635
       163 -10.3368    102.1316     68.8482   7.3370852558e+01   4.9148450480e+01    0.4695252    0.3606892  15.43  0.001549854    1.470    0.320
       164 -10.0525    115.8894     64.8373   6.8000904959e+01   4.6932414617e+01    0.3732466    0.2807615  35.55 0.0009842633    1.340    0.253
       165 -10.2819    127.1905     70.3780   6.6774583608e+01   4.3377213589e+01    0.5951737    0.3841939 -65.79  0.002014062    2.383    0.580
       166 -10.3255    122.4059     66.7233   6.6850009654e+01   4.5129600093e+01    0.5024404    0.3250572 -42.59  0.001558918    1.588    0.370
       167 -11.7714    115.6671     71.2701   7.0193348504e+01   4.5812651786e+01      1.12794    0.7489052  52.09  0.002199227    1.566    0.361
       168 -10.6644    110.2254     68.2227   7.0745511406e+01   4.7561524270e+01    0.4808339    0.2854687  46.07 0.0008608346    1.676    0.404
       169  -9.5692     70.1091     76.2742   8.6493181995e+01   5.3465679440e+01    0.3006987    0.2325842 -17.47  0.001421731    1.358    0.264
       170  -9.3375     79.0306     74.1776   8.2688188121e+01   5.2451402309e+01    0.2569908    0.1942332   9.76  0.001296327    1.501    0.334
       171  -9.7373     38.9898     96.7791   1.0310592106e+02   5.2759762000e+01    0.3104212    0.1998847 -31.81  0.001029516    1.680    0.405
       172 -10.4142     66.6762     70.6611   8.5960706074e+01   5.5167972392e+01    0.4516011    0.2941233  15.16  0.001298243    1.841    0.457
       173 -10.8993     70.0676     68.9501   8.4164041013e+01   5.4992117752e+01    0.7197655    0.2593551  39.82  0.002487499    2.945    0.660
       174 -10.7940     52.8204     71.0590   9.1300490795e+01   5.7027274017e+01    0.3681142    0.2828887 -16.92 0.0009062961    1.323    0.244
       175 -10.2532     57.3732     69.1327   8.8955817445e+01   5.6828798129e+01    0.2779259    0.2052031  12.88  0.001426743    1.472    0.321
       176 -11.9079     56.0864     63.9667   8.7779422678e+01   5.8065701331e+01    0.7008024    0.5978925 -56.20  0.001941065    1.336    0.251
       177  -8.7573    174.4722     67.4764   5.5421239425e+01   3.2412468602e+01    0.2287119    0.1460467  73.60 0.0008917126    1.820    0.451
       178 -10.7253     39.7369     66.9148   9.5207184616e+01   5.9451123540e+01    0.3998115    0.3840056 -60.03  0.001775985    1.250    0.200
       179  -9.5141    248.5088     68.4592   4.4914137286e+01   1.5294738595e+01    0.1329783    0.1112155 -54.54 2.755942e-05    1.013    0.013
       180  -9.1899    132.0417     67.1534   6.4496996351e+01   4.2819364285e+01    0.2304723    0.1976112  22.73 0.0005927462    1.242    0.195
       181  -9.5980     87.7303     65.3147   7.6771888038e+01   5.2647995429e+01    0.3073444    0.2174904 -38.91 0.0009088954    1.374    0.272
       182  -9.2028    125.6384    249.6794   1.0476886702e+02   5.7826010127e+00    0.1209823   0.09146334   8.61 0.0007042282    1.774    0.436
       183 -11.1048     77.3073     61.4415   7.9004963055e+01   5.5261302512e+01    0.6130176    0.4074929 -32.28  0.002371369    1.453    0.312
       184  -9.6251    108.5189    249.5123   1.0811408490e+02   8.3920742677e+00    0.1230978    0.1001375  48.76 0.0002686685    1.014    0.014
       185 -10.9297     76.3346     43.3596   7.2610461095e+01   5.8585250549e+01     0.729205    0.3496193 -22.98  0.002908882    2.699    0.630
       186 -12.4481     87.4391     56.6051   7.3794833388e+01   5.4295761482e+01    0.7606996    0.6729391 -48.90  0.004319488    1.296    0.229
       187 -11.7629    101.2794     54.7767   6.8744490302e+01   5.1828877949e+01     1.219205    0.7765545  15.61  0.005259136    2.163    0.538
       188 -10.4473    148.0081    247.3239   1.0005311645e+02   2.7132750978e+00      0.18281    0.1352845  37.50 0.0004516962    1.110    0.099
       189 -11.4878     31.0739     41.7120   9.0566641147e+01   6.5367330447e+01     0.472859    0.2681248  30.11   0.00260827    1.937    0.484
       190 -11.1204     40.3325     40.4036   8.5867021284e+01   6.4560965782e+01    0.7587497    0.4033346   7.74   0.00347492    2.603    0.616
       191  -9.5372      3.4134    246.7707   1.2720941249e+02   2.2027401625e+01     0.135011   0.08043627 -75.69  0.000693187    1.662    0.398
       192 -10.3845    141.1972    244.7255   1.0106680156e+02   4.2003992902e+00    0.2784119    0.2012012  77.13  0.001574828    1.995    0.499
       193  -9.4548    188.6639    244.2941   9.1664421109e+01  -3.1112839095e+00    0.1155169   0.09097062  53.29 0.0005270513    1.645    0.392
       194  -9.5326     21.0629    244.0502   1.2407250940e+02   2.0741445960e+01    0.1730217    0.1213798  68.56 0.0006485707    1.042    0.040
       195  -8.9753     57.3224    243.3287   1.1742377413e+02   1.6640566658e+01    0.1006144   0.09225237 -27.73 0.0007048993    1.693    0.409
       196  -9.6998    211.5823    240.1927   8.6679618358e+01  -5.9419244589e+00    0.1635336    0.1032301 -18.98 0.0009271624    1.672    0.402
       197 -11.5589     49.6356     39.6461   8.1518383766e+01   6.3480414558e+01    0.4888498    0.3311769   8.86  0.001239218    1.542    0.352
       198 -12.2359     56.3326     37.7888   7.7975035485e+01   6.2813772686e+01    0.5329686    0.3578196  -7.96  0.001052869    1.582    0.368
       199  -9.4911    132.6838     62.7128   6.2902580654e+01   4.3429415804e+01    0.3807464    0.2239529  55.85 0.0009706697    1.714    0.417
       200 -10.0719    127.8900     59.4822   6.3032946888e+01   4.5099763300e+01    0.3933468    0.2918418  56.54   0.00166048    1.359    0.264
       201  -9.7727    207.1342     61.1951   4.8420288846e+01   2.5493885704e+01    0.2800365    0.1983219 -37.78 0.0006234872    1.364    0.267
       202  -9.3329    211.5872     58.0390   4.7009744387e+01   2.4926145453e+01    0.4129623    0.2571272  89.68  0.001912407    1.961    0.490
       203  -8.5911    111.3895     62.4542   6.8463236329e+01   4.8345246024e+01    0.1467668    0.1371154   2.60 0.0001200937    1.039    0.038
       204  -8.9652     42.9930     62.0057   9.2371764028e+01   6.0114758747e+01    0.1831377    0.1624526  80.57 0.0007759996    1.602    0.376
       205  -9.1063    182.0203     61.0154   5.2266455327e+01   3.1583844286e+01    0.3496027    0.1883264  53.38  0.001049065    1.843    0.457
       206 -10.7274    184.7797     56.0215   5.0427945229e+01   3.1667455060e+01    0.3925921    0.3340111 -32.22 0.0004245164    1.237    0.191
       207 -11.0698    183.9720     51.6441   4.9348448177e+01   3.2512901038e+01    0.6057843    0.4289136  72.95  0.001432454    1.421    0.296
       208  -9.5038    191.0010     58.2642   5.0052572464e+01   2.9805497359e+01    0.3369855    0.2321795  62.24  0.001056916    1.439    0.305
       209 -11.1232    193.3123     54.3502   4.8649649641e+01   2.9827753462e+01    0.6246784     0.329762  47.35  0.002395855    2.125    0.529
       210 -10.2417    106.5306     59.7251   6.8929770176e+01   4.9872761387e+01    0.2711548    0.2454956   0.27  0.001498906    1.084    0.077
       211  -9.4879    200.5360     59.1141   4.8835715684e+01   2.7374333575e+01    0.3488832    0.2262953  29.27  0.001525294    2.369    0.578
       212  -9.2516    156.0750     59.9441   5.6783126361e+01   3.8186718837e+01    0.3592342    0.1817913  37.06  0.001315415    2.617    0.618
       213  -9.9006    174.1568     56.9590   5.2476973793e+01   3.4154704925e+01    0.4365889    0.2434254 -15.85  0.001481354    2.746    0.636
       214 -10.5053      3.1830     56.3400   1.0777735844e+02   6.4556039814e+01    0.3150157    0.3009027 -68.98  0.001955916    1.298    0.230
       215  -9.8218      3.9931     51.5154   1.0620590706e+02   6.5523096192e+01    0.2160491    0.1995812 -39.73 0.0008933481    1.225    0.184
       216  -9.0703    123.9609     55.0000   6.2522961824e+01   4.6746674489e+01    0.2202152     0.164885  32.08 0.0006351196    1.396    0.283
       217 -10.5393    119.3746     54.8297   6.3653529401e+01   4.7834501978e+01    0.6225622    0.4722386  -4.77  0.002654484    1.554    0.357
       218  -9.9852    116.5409     49.7701   6.2642031913e+01   4.9277591929e+01    0.4595388    0.2497774 -42.60  0.001462359    1.990    0.498
       219 -10.3914    234.7285     55.4486   4.3537625159e+01   2.0097087539e+01    0.3480193    0.1465231 -44.22  0.001164458    2.041    0.510
       220 -10.4294    133.9229     53.7729   5.9674593490e+01   4.4579205143e+01    0.6177347    0.3589111  -4.04  0.002149051    3.195    0.687
       221  -9.3924    177.9888     67.1833   5.4695630546e+01   3.1594042800e+01    0.4871519    0.2686954 -23.73  0.001879131    2.281    0.562
       222 -12.3419     32.7549     58.9531   9.5680296038e+01   6.1833667872e+01    0.5470803    0.3947184  -1.62  0.003243733    1.474    0.321
       223 -10.0286     70.2519     52.2938   7.8249582209e+01   5.8136819287e+01    0.3350171    0.2995071 -64.29  0.001886296    1.494    0.331
       224  -9.2448     51.3731     53.3409   8.6002731884e+01   6.0785939875e+01    0.2554905     0.147972 -45.68  0.001288529    1.625    0.385
       225 -11.6332     57.9226     48.7693   8.1669625813e+01   6.0705734038e+01    0.6267838    0.6088467 -82.26  0.003140828    1.423    0.297
       226 -11.3411     64.8236     44.7892   7.7428729381e+01   6.0327460912e+01    0.5320002    0.4154811  -3.19  0.002372534    1.230    0.187
       227  -9.2740     37.1194     51.3823   9.1324809796e+01   6.2895851055e+01    0.2215079    0.1463331 -34.73 0.0007744494    1.293    0.227
       228 -10.0897     29.1554     49.8490   9.4313712579e+01   6.4011809720e+01    0.3373461    0.2169193 -48.20  0.001398285    1.375    0.273
       229  -9.5525    228.1798     49.8528   4.2980835802e+01   2.2329363570e+01    0.2120147    0.1755878  88.92 0.0004666336    1.180    0.153
       230 -10.6007    204.9642     46.9144   4.5081482888e+01   2.8089108835e+01    0.7503712    0.1867531  52.23  0.002320908    4.312    0.768
       231  -8.5691     21.3833     49.1912   9.7608409335e+01   6.4833059475e+01    0.1521267    0.1050621 -56.92 0.0002088261    1.453    0.312
       232  -8.8498     95.1918     45.8574   6.7324293246e+01   5.4532224911e+01     0.196465    0.1545745   8.21 0.0004696068    1.331    0.249
       233  -9.2907     16.0068     44.9686   9.8742274037e+01   6.6087399146e+01    0.3195643    0.1238221 -38.51  0.001507119    2.183    0.542
       234 -10.2339     15.6664     31.0008   9.3982838371e+01   6.8729496180e+01    0.2308126    0.2163856  22.49  0.001095099    1.478    0.323
       235 -10.7027     10.6588     41.3985   1.0014437494e+02   6.7160772393e+01     0.485109    0.2910685  14.28  0.002697441    1.833    0.454
       236 -11.3621     17.3111     38.0229   9.5761955124e+01   6.7315944466e+01    0.4929537    0.3873024 -22.97  0.002323264    1.064    0.060
       237 -10.1908     12.9577     34.0073   9.6481347125e+01   6.8396404424e+01    0.2347326    0.2172431 -16.12 0.0008980911    1.303    0.232
       238  -9.7724    222.9854     45.2738   4.2489986766e+01   2.4129924985e+01     0.231446    0.1711499  55.14 0.0008872829    1.513    0.339
       239 -10.4604    136.0672     42.1907   5.5340393174e+01   4.5753325194e+01    0.5173101    0.2645023 -49.95  0.002074919    2.451    0.592
       240 -10.0415    118.4773     42.5041   5.9569888987e+01   4.9902575562e+01    0.3617848    0.2938358 -23.74  0.001959153    1.288    0.223
       241  -9.7063    219.7672     42.4635   4.2184410602e+01   2.5244312463e+01    0.2320937    0.1710351 -38.70 0.0004059579    1.323    0.244
       242 -10.7344    173.3327     47.3272   4.9851162019e+01   3.5773392630e+01    0.5100043    0.3609266  59.16  0.002571314    1.355    0.262
       243  -9.8078    105.6158     42.4515   6.2975801995e+01   5.2818813423e+01    0.4293718    0.2414208  54.08  0.001943578    1.787    0.440
       244 -10.0721     98.4802     41.9886   6.4864240443e+01   5.4427257965e+01    0.3466454    0.2675477  31.11  0.001229309    1.236    0.191
       245 -10.3874    108.1616     29.4680   5.7412633901e+01   5.3983792905e+01    0.6281682     0.363561  71.54  0.002717647    2.391    0.582
       246 -10.5687    100.8484     37.9021   6.2617116794e+01   5.4503466229e+01    0.5027255    0.3194648  42.47  0.002500752    1.466    0.318
       247 -10.4648    105.7838     34.0441   5.9774905784e+01   5.3939554675e+01    0.2745417     0.195345  31.49 0.0002566615    1.388    0.280
       248  -8.6620    202.3606     42.2844   4.4236253831e+01   2.9345329451e+01    0.1363915    0.1026689  37.95 0.0007019803    1.680    0.405
       249 -10.4441    173.2894     39.8016   4.7693087709e+01   3.6812233977e+01    0.5290496    0.2610352  36.71  0.001962032    3.075    0.675
       250  -9.6294    166.8146     41.6832   4.9294532422e+01   3.8181088943e+01    0.3398496    0.2163587  38.80  0.001568971    1.842    0.457
       251  -9.4753     23.1195     41.0362   9.4041250222e+01   6.6259926903e+01    0.2730455    0.1540791 -33.91  0.001531911    1.497    0.332
       252  -9.3208    250.4809     40.4804   3.8634105050e+01   1.8833751543e+01    0.1262438    0.1040545 -60.98 0.0002478171    1.020    0.020
       253 -10.8772    193.4254     33.3025   4.3047427262e+01   3.2674182601e+01    0.4971343    0.3263606 -23.52   0.00142164    1.785    0.440
       254 -10.3307    180.3552     31.1193   4.4195201673e+01   3.6156892859e+01    0.3398871    0.2624547  89.21  0.001869935    1.262    0.208
       255  -9.6876    181.6189     37.9491   4.5910424932e+01   3.4982012087e+01    0.3087441    0.2448756  30.71  0.001652668    1.561    0.359
       256  -9.1679    227.8133     30.8536   3.8626649217e+01   2.4937163849e+01    0.2266004    0.1363134 -77.43 0.0007239124    1.727    0.421
       257 -10.2564    224.1559     30.0643   3.8801919323e+01   2.5855801557e+01    0.4783532    0.2009577 -27.55  0.002023065    2.763    0.638
       258 -10.4014    219.9344     32.2091   3.9728992171e+01   2.6544911620e+01    0.3047614    0.2344248  26.41  0.001176394    1.935    0.483
       259 -10.7879    147.4332     34.9499   5.0670120616e+01   4.3903661011e+01    0.8904305    0.2257713  60.89  0.002768435    3.562    0.719
       260  -9.8169    156.4306     32.6503   4.8333012800e+01   4.1944207525e+01    0.3997473    0.2179564  56.69  0.001827134    1.667    0.400
       261  -9.8233    123.1671     35.7102   5.6019215457e+01   4.9721069259e+01     0.617811     0.187005  57.75  0.002066642    3.128    0.680
       262 -10.9573    235.6022     32.7577   3.8317035090e+01   2.2982197365e+01    0.4797703    0.3455599   2.67  0.001872744    2.422    0.587
       263  -9.2550    237.7136     26.3514   3.6717294437e+01   2.3324388131e+01    0.1873254    0.1427221  89.17 0.0005899557    1.227    0.185
       264  -9.4871    206.8902     33.8235   4.1546956503e+01   2.9374977839e+01     0.196632    0.1728885  57.66 0.0007092084    1.267    0.211
       265 -10.7084    245.3066     33.4320   3.7587898168e+01   2.0823909713e+01    0.3322498    0.2250958  75.04  0.001045186    1.497    0.332
       266 -10.5763    213.2127     30.8550   4.0113984990e+01   2.8264650454e+01    0.4680744    0.3301445 -31.90  0.002615354    1.506    0.336
       267 -10.1513    191.1141    235.8347   8.9877573906e+01  -2.2474136823e+00    0.2574827    0.1307303  50.61  0.001155937    2.701    0.630
       268  -8.7921    138.4878     31.5357   5.1283648481e+01   4.6537956658e+01    0.2340169    0.1307611  62.23 0.0007877327    1.678    0.404
       269  -9.9742    172.9111     30.9114   4.5199777720e+01   3.8033389342e+01    0.4364157    0.2403672  44.04  0.001952027    2.066    0.516
       270 -11.3484    167.4015     29.2132   4.5531266224e+01   3.9613422084e+01    0.2758032    0.2516222 -17.96 0.0003820449    1.252    0.201
       271  -9.1086    113.7368     31.6136   5.6807039284e+01   5.2446173366e+01     0.239343    0.1647412  -6.97 0.0007304563    1.708    0.415
       272 -11.4302     23.0145     28.9826   8.9456499671e+01   6.8426650784e+01     1.040288    0.3938484  25.93  0.004971249    2.777    0.640
       273  -9.4297    184.3110    236.6512   9.1334189089e+01  -1.3119526066e+00      0.11795    0.0973895  62.86 0.0007045427    1.715    0.417
       274 -10.6858     30.4872     21.9807   8.2676152767e+01   6.8760967217e+01    0.3283644    0.2806448 -44.69  0.002242005    1.592    0.372
       275  -8.8989     21.0824    232.3597   1.2342143111e+02   2.2991083931e+01    0.1582536    0.1120743  61.11 0.0006854134    1.118    0.105
       276  -9.3438     12.2030    231.7029   1.2499176224e+02   2.4030367879e+01    0.1851892    0.1034664  57.65  0.001200654    1.397    0.284
       277  -8.8194    218.9966    230.5458   8.3706308178e+01  -5.6933772371e+00    0.1877127    0.1051894  32.90  0.001027806    1.588    0.370
       278  -9.1279    137.3450    224.8109   9.9137554422e+01   8.2974392285e+00    0.1736182    0.1205487 -40.04 0.0005734834    1.712    0.416
       279  -9.0177     41.1747    221.5881   1.1886858253e+02   2.2931850509e+01     0.145607    0.1109634  29.36 0.0004976973    1.627    0.385
       280  -8.5762    229.4075    214.5123   7.8980114550e+01  -4.9506962647e+00    0.1261262    0.1030016  -0.02 8.366938e-05    1.023    0.023
       281  -8.6859    234.0000    199.9939   7.5453620548e+01  -3.4954144371e+00    0.2025055   0.06661746 -37.17 0.0007950049    2.891    0.654
       282  -8.9329    145.6419     28.6842   4.8988884174e+01   4.5109763326e+01    0.3358781    0.1374615  52.37  0.001346144    2.179    0.541
       283  -9.5838    150.3375     29.3620   4.8364820181e+01   4.3861992290e+01    0.3124831    0.2614853  45.17 0.0008112597    1.190    0.160
       284  -9.6437    153.3340     24.6662   4.6383235455e+01   4.3654559400e+01    0.3240856    0.2574285 -10.58  0.001795731    1.492    0.330
       285  -9.3326    239.1710    197.2160   7.4001911440e+01  -3.8651739571e+00    0.1585592     0.148293 -13.81 0.0005472975    1.326    0.246
       286  -9.8407    221.0817     36.3214   4.0579495102e+01   2.5756966605e+01    0.2837248    0.2078532  64.28   0.00119975    1.411    0.291
       287  -9.1877     11.2412    192.6864   1.2286611820e+02   3.2286293976e+01     0.232531   0.07331931  39.23   0.00109182    2.747    0.636
       288  -9.1019    160.6764     25.0092   4.5315116938e+01   4.1782231188e+01    0.3284926    0.2096969 -51.47  0.001631065    1.697    0.411
       289 -10.4397    181.6256     15.6301   3.9788958019e+01   3.7602654883e+01    0.4732934    0.2034258  63.54  0.001575595    2.035    0.509
       290  -8.8015     11.3998    184.7857   1.2228015968e+02   3.4039550937e+01    0.1660328   0.08982484 -68.89 0.0009356126    1.626    0.385
       291 -12.5151     32.8968    165.7990   1.1560786012e+02   3.6428644026e+01    0.2993376     0.235314 -63.69 0.0006376276    1.249    0.200
       292 -10.4893    179.9223     25.0053   4.2562329142e+01   3.6989945346e+01    0.2512836    0.2199527 -66.35 0.0003016463    1.109    0.099
       293  -8.8638      2.3309    161.3305   1.2257051529e+02   4.0169691151e+01    0.1206139    0.0764285 -52.64 -0.0006893706    1.718    0.418
       294  -9.7104     39.1634    159.1245   1.1325830308e+02   3.7388950208e+01    0.2986173    0.1892886  49.36  0.001602988    1.605    0.377
       295  -9.6713     17.4927    159.2064   1.1873777743e+02   3.9464738914e+01    0.3577566     0.187958   0.87  0.001555489    3.846    0.740
       296  -9.2578     11.7095    153.9742   1.1967503410e+02   4.1192862170e+01    0.1909619     0.145841 -67.29 0.0005301121    1.204    0.169
       297 -10.2290     14.4764    150.9132   1.1868185839e+02   4.1705774075e+01    0.3558359    0.1518942  60.71  0.001552031    2.793    0.642
       298  -8.5922    242.6971     25.6436   3.6142802569e+01   2.2346474683e+01    0.1339664     0.103445 -65.62 0.0005737057    1.067    0.063
       299  -8.5095    240.4972     23.4617   3.5857371692e+01   2.3078394158e+01    0.1841145    0.1059625 -87.08  0.000984792    1.755    0.430
       300  -8.9781     42.0797     24.6470   7.8412595366e+01   6.6896602421e+01    0.1671131    0.1334822   4.88 0.0003175032    1.086    0.079
       301  -9.7100    148.0255     23.9816   4.7060268859e+01   4.5052728123e+01    0.2879009      0.17419  58.64 0.0008223758    1.472    0.321
       302  -9.4858     30.8486    151.3725   1.1448653115e+02   4.0139001270e+01    0.2154142    0.1544387 -84.12 0.0005005794    1.219    0.179
       303 -10.3913    115.5081     23.7464   5.3472771868e+01   5.2961514998e+01    0.4010896    0.2419064  30.09  0.001908659    1.849    0.459
       304  -9.9655     45.5763    150.4502   1.1043207532e+02   3.8817173844e+01    0.2546958    0.2037977 -45.55 0.0005446876    1.379    0.275
       305  -9.0813      8.0275    151.3696   1.2035368210e+02   4.2097389043e+01    0.1616094    0.1383673  89.07 0.0003939632    1.100    0.091
       306 -10.7506     15.6346    100.7902   1.1189247391e+02   5.3765948223e+01    0.4124223    0.2384894 -70.08  0.001376456    1.462    0.316
       307 -10.2587      3.5387    113.2342   1.1753807699e+02   5.1544048396e+01     0.424105    0.2466172  23.23  0.001415176    2.112    0.526
       308 -12.0793     14.1885    132.5835   1.1677425806e+02   4.6168814340e+01     1.233121    0.4602616 -77.35  0.004030236    2.437    0.590
       309  -8.7833    185.3426     23.2377   4.1387625363e+01   3.5857180279e+01    0.1807077     0.115333 -41.86 0.0009302705    1.561    0.359
       310 -13.0782     12.0921    125.8887   1.1656720694e+02   4.7948150972e+01    0.8818391     0.407632 -81.52 0.0005890601    2.033    0.508
       311 -11.9150     14.4358    107.7250   1.1338228338e+02   5.2184560551e+01     1.017228    0.6435649 -28.68   0.00565488    1.874    0.466
       312  -9.4413     79.9992     18.7606   6.1117135917e+01   6.1238470618e+01    0.2478755    0.2224762  -7.87  0.001281364    1.172    0.147
       313 -10.3123     30.6611     25.6779   8.4254724342e+01   6.8165186368e+01    0.2490118    0.1752894   8.99  0.001131142    1.334    0.250
       314  -9.1893    229.7467     20.0148   3.6008295129e+01   2.5821065803e+01    0.1812949    0.1695088  82.23 0.0007236919    1.250    0.200
       315  -9.2642    232.9892     17.9589   3.5283082163e+01   2.5348237097e+01    0.2625146    0.1529164 -46.70  0.001046906    1.494    0.331
       316  -9.8332    246.8771     18.9284   3.4397726467e+01   2.2273279146e+01     0.260498    0.1549337  83.34  0.001507968    1.627    0.385
       317  -8.7763     48.1300     18.8669   7.3044098213e+01   6.6839406640e+01    0.1695947    0.1208441   7.07 0.0003092598    1.272    0.214
       318 -10.1044    211.4459     16.9903   3.6965515142e+01   3.0315279486e+01    0.3552519    0.1613692  55.61  0.001639498    2.326    0.570
       319 -10.2903      7.5728    106.3109   1.1537017553e+02   5.2963049199e+01    0.4199769    0.1868515 -55.05  0.002109371    1.776    0.437
       320  -9.5199     70.3925     16.9682   6.3510332643e+01   6.3295571095e+01    0.2590859    0.1445215  32.07   0.00106509    1.691    0.409
       321  -9.2167    204.7725     15.5040   3.7253287279e+01   3.2040676026e+01    0.2730444    0.1626622 -41.00  0.001461996    1.613    0.380
       322  -9.0529    198.2602     16.5879   3.8183428472e+01   3.3467862802e+01    0.1802321    0.1084672  62.71 0.0006080684    1.578    0.366
       323  -9.2922    239.5319     14.9601   3.4121234358e+01   2.4280793169e+01    0.1899859    0.1480545  79.78  0.000385493    1.271    0.213
       324  -9.3209    193.7462     14.8056   3.8208868349e+01   3.4743141509e+01    0.2498365    0.1402689 -74.72  0.001190787    1.959    0.489
       325 -10.7334     21.1078    144.5190   1.1626759106e+02   4.2705292116e+01    0.6130337    0.2752068  84.17  0.002499974    2.875    0.652
       326  -9.4060      5.2585    147.2474   1.2067476416e+02   4.3281123969e+01    0.1719436    0.1636279 -36.77 0.0007962451    1.356    0.262
       327 -10.0681     36.2331    145.1868   1.1225623843e+02   4.1126273291e+01    0.3535085    0.1755631 -58.62  0.001044079    1.751    0.429
       328  -8.6654     65.4676     12.4938   6.3177473987e+01   6.4702819940e+01    0.1287229    0.1031818  16.98 7.922496e-05    1.040    0.038
       329  -9.0662     10.8578    144.8077   1.1900287873e+02   4.3457343726e+01    0.1894607     0.141679 -59.83 0.0005685835    1.280    0.219
       330 -10.1948      6.5057    142.5175   1.1991010083e+02   4.4323690848e+01    0.2321806    0.1754704 -87.64 0.0005012511    1.091    0.084
       331 -10.4013     31.0590    141.5708   1.1320071046e+02   4.2530643352e+01    0.2747479    0.2212035  74.44  0.001371607    1.230    0.187
       332  -9.9976     25.8318    140.4547   1.1449954389e+02   4.3288397316e+01    0.3246423    0.1495514 -48.19   0.00112685    2.265    0.559
       333  -8.5988    119.6619    140.3124   8.8111407231e+01   2.9810373902e+01    0.1607239    0.1225489  79.45 0.0005011462    1.692    0.409
       334  -8.9992     47.4215    139.3170   1.0827624292e+02   4.1379612060e+01    0.2623188    0.1132802 -61.66  0.000968862    1.969    0.492
       335  -8.7804     54.9831    136.9957   1.0572304531e+02   4.1063542041e+01    0.1742973    0.1519997 -71.55  0.001003651    1.018    0.018
       336  -9.6187     22.2631    136.2835   1.1496683270e+02   4.4622970956e+01    0.4168323    0.1263707 -62.04  0.001664015    2.477    0.596
       337  -9.7109    236.7393    135.9739   6.1714861995e+01   6.5548807693e+00    0.1949307    0.1080243 -36.08 0.0009021348    1.591    0.371
       338  -9.8186      4.5560    136.2046   1.1980379505e+02   4.5970196429e+01    0.2858456    0.1727784   6.74  0.001243837    2.363    0.577
       339 -11.1115     66.2200    134.2084   1.0194424411e+02   4.0298222813e+01    0.4509459    0.2923674  78.60  0.002004534    2.075    0.518
       340 -10.6340     61.2612    120.3224   1.0072449609e+02   4.4427876574e+01    0.4406579    0.2301926 -59.24 0.0005434162    1.715    0.417
       341 -11.6433     67.9100    120.2602   9.8642855392e+01   4.3537338367e+01     1.142282    0.3582369 -47.02  0.002703107    3.162    0.684
       342  -9.7705     56.0006    133.2715   1.0478232705e+02   4.1870159118e+01    0.3712702    0.1582163  34.92  0.001527039    2.471    0.595
       343 -11.9391     54.1793    122.0591   1.0327066665e+02   4.4894257764e+01     1.620018    0.8082958 -86.20  0.002843466    3.890    0.743
       344 -12.4359     42.5859    127.9211   1.0785743179e+02   4.4758798416e+01     0.922497    0.5753262 -52.88            0    1.453    0.312
       345 -11.4003     39.5119    115.2049   1.0659824556e+02   4.8232960724e+01     0.917245    0.5481958 -70.22   0.00451428    1.548    0.354
       346 -10.5932     28.1609    119.7617   1.1092418934e+02   4.8183233418e+01    0.3843769    0.2515408  86.60 0.0009101744    1.683    0.406
       347 -11.0569     33.9853    119.3512   1.0905839810e+02   4.7753175911e+01    0.5739138    0.3615277 -60.06  0.002147421    1.330    0.248
       348  -9.7347     34.7157    129.3789   1.1043226819e+02   4.5199513100e+01    0.2505454    0.2181663  33.17   0.00146109    1.336    0.251
       349  -9.6902     64.5076    113.7475   9.8301145345e+01   4.5613731050e+01    0.2912866    0.1766232  50.25  0.001318847    1.961    0.490
