#   1 NUMBER                 Running object number                                     
#   2 MAG_AUTO               Kron-like elliptical aperture magnitude                    [mag]
#   3 X_IMAGE                Object position along x                                    [pixel]
#   4 Y_IMAGE                Object position along y                                    [pixel]
#   5 X_WORLD                Barycenter position along world x axis                     [deg]
#   6 Y_WORLD                Barycenter position along world y axis                     [deg]
#   7 A_WORLD                Profile RMS along major axis (world units)                 [deg]
#   8 B_WORLD                Profile RMS along minor axis (world units)                 [deg]
#   9 THETA_WORLD            Position angle (CCW/world-x)                               [deg]
#  10 FWHM_WORLD             FWHM assuming a gaussian core                              [deg]
#  11 ELONGATION             A_IMAGE/B_IMAGE                                           
#  12 ELLIPTICITY            1 - B_IMAGE/A_IMAGE                                       
         1 -13.4876    221.6255      2.2299   4.2579283312e+01   2.8032281203e+01     2.490145    0.6396183  64.38   0.00686496    3.513    0.715
         2 -13.7378    180.7291     44.3795   5.9889174206e+01   3.3855366097e+01     1.212866    0.9402233 -14.59   0.00096172    1.361    0.265
         3 -14.0382    191.3382     35.4118   5.5490318387e+01   3.2239145674e+01     1.405142     1.077889 -24.05  0.003140557    1.285    0.222
         4 -14.8145    199.7561     25.2009   5.1281911717e+01   3.1247306433e+01      2.17176     1.510436  30.55  0.001474843    1.717    0.418
         5 -10.9634     65.8284      2.6625   7.0353403311e+01   6.8614179981e+01    0.2772006    0.1842797  86.55  0.001063885    2.999    0.667
         6  -9.8777     47.6528    229.3154   1.2424547114e+02   2.4239196308e+01    0.1635146   0.08020453  48.80 0.0005359357    1.402    0.287
         7 -16.1339    104.4288    237.8843   1.1441218862e+02   1.6201084765e+01     6.485826     2.053489  31.70   0.02867417    3.307    0.698
         8 -11.9607    108.4813    203.7430   1.1048628327e+02   2.0732690180e+01    0.3560324    0.1831563  37.16 0.0009367623    1.572    0.364
         9 -11.6543    104.1336    201.8362   1.1117303079e+02   2.1659437881e+01     0.326419    0.1718894  45.28   0.00186768    1.487    0.328
        10 -10.6928     59.2339    215.9037   1.2132895145e+02   2.5102845102e+01    0.4515622     0.320402  23.88  0.001575508    1.720    0.419
        11 -11.0635     70.5438    209.8549   1.1869331831e+02   2.4764290711e+01    0.2681931    0.1447594  43.62 0.0006365457    1.382    0.276
        12  -9.4677     76.0088    206.9806   1.1737612469e+02   2.4568281683e+01    0.2071067    0.1373524  78.88 0.0007778727    1.607    0.378
        13 -15.9644     72.2447    150.2032   1.1264940910e+02   3.5908207114e+01     5.416325     2.569143  70.97   0.02150329    3.223    0.690
        14  -9.6670     36.1239    234.0488   1.2653132563e+02   2.4708519194e+01     0.134045    0.1056789  49.67 0.0005067384    1.223    0.182
        15  -9.4418     32.3976    205.1086   1.2601694454e+02   2.9839308723e+01    0.1661403    0.1107754  38.52  0.000517079    1.351    0.260
        16 -14.0190     55.4586    205.7093   1.2143860914e+02   2.7257254105e+01    0.8955182    0.5159808  39.90  0.005852318    1.393    0.282
        17 -10.5069    156.1675    199.9999   1.0055996080e+02   1.4116894608e+01    0.3461303    0.2034621 -57.94  0.001917027    2.592    0.614
        18 -11.7223    111.2228    197.6015   1.0925890510e+02   2.1334634342e+01    0.2976954    0.1627524  36.10  0.001409435    1.537    0.349
        19 -11.6431    114.3176    195.3190   1.0835795096e+02   2.1254156322e+01    0.2621688    0.1984222 -18.18  0.001595691    2.046    0.511
        20 -11.1360     95.9122    199.5009   1.1263007110e+02   2.3198356502e+01    0.3742026    0.3167156   0.51  0.001530788    1.675    0.403
        21 -12.0024    113.4891    208.6669   1.0999821866e+02   1.9241836938e+01    0.2977811    0.1711559  57.99  0.001726526    1.821    0.451
        22 -12.1191    193.5421    192.8686   9.2541817904e+01   9.1645451013e+00    0.6514841    0.4073043 -46.23  0.003589753    2.263    0.558
        23 -11.7651    121.7373    212.6653   1.0879958246e+02   1.7455237181e+01    0.2066756    0.1505143  50.39  0.001416508    1.191    0.161
        24 -19.3454      7.4663    137.0509   1.2849374233e+02   4.5539156880e+01     16.83602     1.833709 -83.07   0.04078966    9.680    0.897
        25 -10.6914     35.7930    197.6704   1.2497641921e+02   3.0816083336e+01    0.2259635    0.1142262  45.65  0.000590929    1.466    0.318
        26 -12.6151     30.5617    197.5279   1.2603795618e+02   3.1369432624e+01    0.2001217    0.1392512  54.02 0.0005295292    1.068    0.063
        27 -13.3450     64.7118    192.5103   1.1858287329e+02   2.8506646100e+01    0.7108647    0.6103991  83.46  0.004103318    1.233    0.189
        28  -9.6751     73.3337    189.4475   1.1647290281e+02   2.7986139839e+01    0.2833588    0.1340233  48.17 0.0007630453    1.685    0.407
        29 -10.1927     81.3923    195.1909   1.1526229471e+02   2.5906176410e+01     0.266667    0.1894461  29.49  0.001715171    1.480    0.324
        30  -9.8186    152.1943    194.1596   1.0052616923e+02   1.5580117958e+01    0.1612958    0.1266859  52.77 0.0004092469    1.328    0.247
        31  -9.7879     53.6014    230.0271   1.2319066009e+02   2.3480780384e+01    0.3067662     0.145217  84.50  0.001887333    2.490    0.598
        32  -9.7783     49.9147    193.1885   1.2177710909e+02   3.0115915565e+01    0.2617553   0.08322554  47.86 0.0009293134    2.305    0.566
        33  -9.6506     71.8629    229.9193   1.1981271874e+02   2.1404165279e+01     0.142973   0.08634125  53.47 0.0004203415    1.258    0.205
        34  99.0000     39.1844    224.4174   1.2557862861e+02   2.5908657011e+01    0.1961866    0.1086198 -83.48  0.001376028    1.954    0.488
        35 -10.2259    150.9938    182.9305   9.9139647390e+01   1.7463358148e+01    0.1857371    0.1406253  63.48 0.0005899576    1.628    0.386
        36 -10.6223     36.4577    220.6086   1.2592019162e+02   2.6806125100e+01    0.3107358    0.1799804  31.15  0.001849222    1.702    0.412
        37 -11.1591     99.4880    180.7494   1.0983609703e+02   2.5973234090e+01    0.2329123    0.1847121  47.43  0.000559272    1.041    0.039
        38 -12.3321     76.6767    177.4277   1.1459894680e+02   2.9798690892e+01     0.380365    0.2611061 -39.23  0.002183556    2.203    0.546
        39 -12.4493     80.3197    172.5562   1.1325471642e+02   3.0246279210e+01    0.3461297    0.3077011 -78.63 0.0009952612    1.258    0.205
        40 -10.6784    144.0889    179.1384   9.9990676075e+01   1.9205742291e+01    0.2017883    0.1589285  22.15  0.001240516    1.288    0.223
        41  -9.5509    168.4296    176.5331   9.4637449718e+01   1.5501238371e+01    0.1814711     0.157606 -86.31 0.0004807624    1.686    0.407
        42  -9.9305    165.6137    172.7222   9.4566237515e+01   1.6554734435e+01    0.2451633    0.1990397 -86.00  0.001300552    1.935    0.483
        43 -10.3796     48.2985    173.9673   1.2078834591e+02   3.3964110743e+01    0.2696319    0.1956277  81.25  0.001802048    1.262    0.208
        44 -11.3533     42.1901    171.6501   1.2202598542e+02   3.5096228872e+01    0.5317835    0.1661521  51.07  0.002404714    2.612    0.617
        45  -9.6246    202.7431    170.9998   8.7216757879e+01   1.0426303026e+01    0.1488446    0.1030146 -26.44  0.000569305    1.541    0.351
        46 -11.4775    194.9902    168.2865   8.8136336765e+01   1.2104499429e+01    0.3002584    0.2512704  20.56  0.001302677    1.021    0.021
        47 -10.9214    230.6516    167.1155   8.1756642419e+01   6.3080678635e+00    0.3550417    0.1625664 -45.77  0.001465084    4.224    0.763
        48 -10.6571    145.9901    168.9451   9.7999659535e+01   2.0552390715e+01    0.1584472    0.1406638  35.72 0.0006855001    1.044    0.043
        49 -10.1284     44.0472    205.7095   1.2372973769e+02   2.8523506017e+01    0.1632201    0.1241372  71.24 0.0006559466    1.172    0.147
        50 -10.2459     43.9393    220.0987   1.2449053681e+02   2.6108698331e+01    0.1353602    0.1218321 -41.35  0.001109079    1.768    0.434
        51  -9.5200    139.1708    167.3469   9.9208682693e+01   2.1998035460e+01    0.1851317    0.1042866  47.29 0.0002424266    1.605    0.377
        52 -10.5736    190.0153    160.7885   8.7688240116e+01   1.4013944678e+01    0.2399247    0.1909678 -26.44 0.0007177216    1.353    0.261
        53 -11.1931    189.1854    155.2072   8.6787115645e+01   1.4963686630e+01    0.3865155    0.3649619  67.20  0.002489931    1.392    0.281
        54 -10.1706    140.5749    157.2520   9.7220346619e+01   2.3512308635e+01    0.2693784    0.1999632  70.44   0.00125171    1.738    0.425
        55 -11.3725    133.8163    145.0053   9.6571543724e+01   2.6976233163e+01    0.9393329    0.2774857 -54.94  0.002814807    5.092    0.804
        56 -12.5842     94.3397    155.5751   1.0781211114e+02   3.1588439674e+01    0.6138573    0.4554392 -22.54  0.003269375    2.117    0.528
        57 -10.8047    174.3001    148.8743   8.8477904120e+01   1.8687616116e+01    0.3058777    0.2753734 -48.39   0.00136309    1.339    0.253
        58  -9.6687    159.9965    147.0456   9.1098040759e+01   2.1698332754e+01    0.2053439    0.1676444  80.55 0.0006678785    1.692    0.409
        59 -11.3950    144.2829    146.6211   9.4469765909e+01   2.4736419682e+01    0.3567285     0.271901 -65.59  0.001916153    1.667    0.400
        60 -11.1828    106.4405    140.4501   1.0244215520e+02   3.2738577581e+01    0.5101053    0.3189448 -31.56  0.002302507    2.463    0.594
        61 -12.4422     94.1260    140.7902   1.0566638586e+02   3.4691002356e+01    0.2880436     0.270102  -1.24 0.0004192115    1.315    0.239
        62 -10.1944     48.8056    217.2098   1.2341713531e+02   2.6058037605e+01    0.2942588    0.2210518  20.65  0.001706579    1.761    0.432
        63 -10.6642    114.0498    130.8336   9.8747780283e+01   3.3401517181e+01    0.3039998    0.2587036  11.77 0.0008293375    1.422    0.297
        64 -11.5791    118.8881    126.7800   9.6702294258e+01   3.3352046231e+01    0.7332094    0.3563899 -43.23  0.003024262    2.351    0.575
        65 -10.6798    106.0358    130.8753   1.0084268366e+02   3.4815044717e+01    0.3146896      0.28021 -88.21  0.001166823    1.159    0.137
        66 -10.5504    135.0000    119.9854   9.1189716012e+01   3.1592810658e+01    0.3292052   0.08401559 -46.14 0.0009624577    4.162    0.760
        67 -10.7856    136.0000    128.5157   9.2797020509e+01   2.9721018004e+01    0.3483943     0.163933 -50.60   0.00140781    2.370    0.578
        68 -10.4032    160.5730    127.3037   8.6873618320e+01   2.5004052627e+01    0.2675162    0.1383875 -45.71   0.00113803    2.136    0.532
        69  -9.7372    125.6623    127.4729   9.5123784687e+01   3.1930391727e+01    0.2623884     0.175471 -84.26 0.0006339174    2.416    0.586
        70 -10.9438    101.5203    127.0639   1.0133581936e+02   3.6413205066e+01    0.2683799    0.2358087 -26.86 0.0007769657    1.391    0.281
        71 -10.0816    109.7668    119.5606   9.7624256383e+01   3.6563775516e+01    0.2404779     0.212762  -7.57  0.001127181    1.391    0.281
        72 -10.1020    167.8387    112.6888   8.1908549256e+01   2.6036517088e+01    0.3627831    0.2572151 -74.91  0.001573541    2.352    0.575
        73 -11.0814    120.0273    111.0506   9.2994648303e+01   3.6413712853e+01     0.414538    0.2303295  55.22  0.001718137    1.998    0.499
        74 -10.2744    205.4865    110.1535   7.4010734733e+01   1.8377792532e+01    0.3033065    0.1880956  38.73 0.0009433941    1.594    0.373
        75 -10.1252    134.6813    106.3149   8.8049838331e+01   3.4379727044e+01    0.4097024    0.1376989 -45.99   0.00134287    3.117    0.679
        76 -11.2788     44.9559    198.5706   1.2314369368e+02   2.9686942832e+01    0.2967318    0.2429105 -81.83  0.002279683    1.395    0.283
        77 -12.0507     38.9648    211.9071   1.2504706113e+02   2.7996237106e+01    0.3892589     0.138215  61.04  0.002050771    2.506    0.601
        78  -9.1178    167.3364     94.6698   7.7410647469e+01   2.9281522182e+01    0.1529125    0.1202556 -77.43 0.0007052079    1.732    0.423
        79 -11.4179     53.0689     91.2542   1.0945476200e+02   5.2025547394e+01    0.4396084     0.264746 -83.48  0.002090139    1.823    0.451
        80 -10.6961     41.9998     91.9350   1.1349402643e+02   5.3123420747e+01    0.2452617    0.2039229  50.66 0.0006048061    1.231    0.188
        81  -9.3172     66.8730     70.8911   9.9671252271e+01   5.5025941884e+01    0.1881494    0.1608617  75.15 0.0004724771    1.271    0.213
        82 -11.4404    161.5988     62.8442   6.9290038032e+01   3.6064583469e+01    0.3523995    0.2823948 -83.24 0.0004086143    1.527    0.345
        83  -9.2844     49.0271     60.0163   1.0386698302e+02   6.0068220770e+01    0.1584172    0.1494374 -61.99 0.0003571328    1.044    0.042
        84 -11.0488    162.8846     55.7394   6.6742805478e+01   3.6863517873e+01    0.2737463    0.2493586   3.02 0.0003954894    1.156    0.135
        85 -10.6108    171.8318    239.8629   1.0268884999e+02   6.8819948619e+00    0.3298787    0.2208557 -63.27  0.002161499    3.004    0.667
        86 -12.2201    106.4959    209.9163   1.1151552182e+02   2.0032717524e+01    0.5211349    0.2551966  49.67  0.002924207    1.723    0.420
        87 -11.4605     49.0966    233.7066   1.2419272608e+02   2.3405178887e+01    0.2212271    0.1374067  71.68 0.0006650561    1.480    0.325
        88 -11.6005     44.1700    231.6840   1.2498919583e+02   2.4241555797e+01    0.2559924    0.1070517  46.58 0.0009368191    1.588    0.370
        89 -10.4042     43.6108    210.9872   1.2409613430e+02   2.7662299042e+01    0.2955401    0.1415847  83.01  0.001771158    2.225    0.551
        90 -10.4797    189.9135     14.9896   4.9186368699e+01   3.4918963238e+01    0.2240701    0.2108344 -54.36 0.0005976582    1.017    0.016
