#   1 NUMBER                 Running object number                                     
#   2 MAG_AUTO               Kron-like elliptical aperture magnitude                    [mag]
#   3 X_IMAGE                Object position along x                                    [pixel]
#   4 Y_IMAGE                Object position along y                                    [pixel]
#   5 X_WORLD                Barycenter position along world x axis                     [deg]
#   6 Y_WORLD                Barycenter position along world y axis                     [deg]
#   7 A_WORLD                Profile RMS along major axis (world units)                 [deg]
#   8 B_WORLD                Profile RMS along minor axis (world units)                 [deg]
#   9 THETA_WORLD            Position angle (CCW/world-x)                               [deg]
#  10 FWHM_WORLD             FWHM assuming a gaussian core                              [deg]
#  11 ELONGATION             A_IMAGE/B_IMAGE                                           
#  12 ELLIPTICITY            1 - B_IMAGE/A_IMAGE                                       
         1  -9.8652    243.4603      3.9139   4.8696275994e+01   2.5020300512e+01    0.3066302    0.1101994 -39.02  0.001618405    1.987    0.497
         2 -10.7433    246.9845     16.7750   5.1176528873e+01   2.3034719973e+01    0.3399882    0.1808352 -28.13  0.001813618    1.856    0.461
         3  -8.9357    237.5818     13.7964   5.1047667699e+01   2.5144486804e+01    0.1814114   0.07545725 -42.76 0.0009610289    1.775    0.436
         4  -9.2687    250.2590     10.9908   4.9835865679e+01   2.3031710300e+01    0.2706367    0.1285993 -30.62  0.001541262    1.904    0.475
         5  -8.6359    241.3709      8.8031   4.9803732714e+01   2.4928007155e+01    0.1509003   0.09878778 -24.40 0.0008372467    1.707    0.414
         6  -8.7283    250.5006      4.5300   4.8525532806e+01   2.3640513771e+01    0.2234478   0.08975419 -31.53  0.001199669    2.126    0.530
         7  -9.9093    176.7595    244.2311   1.0591826624e+02   1.9859925677e+00    0.3966063    0.2292214  -0.45  0.002204455    1.996    0.499
         8 -10.8435    242.4918    247.1895   9.4971753730e+01  -5.5979902594e+00    0.3625773    0.1945698 -32.95  0.002538208    1.951    0.487
         9 -10.4000    225.0675    246.1116   9.7601428757e+01  -3.7315323804e+00    0.4914385     0.212505   4.21  0.002184359    3.895    0.743
        10  -8.7086    226.0959    250.4738   9.8037150332e+01  -4.3136304163e+00     0.217384   0.08018236  28.64  0.001144886    2.264    0.558
        11 -10.8350    234.4204    243.8763   9.5773267817e+01  -4.4487731781e+00    0.4776875    0.2085145  10.46  0.002527121    2.729    0.634
        12  -8.8074    202.3347    249.6286   1.0195416428e+02  -1.6786073050e+00    0.2348816    0.1366434   4.30  0.001507238    1.591    0.371
        13  -9.6582    171.1061    250.5443   1.0781092194e+02   1.8422101092e+00    0.4154596   0.09047207  30.93  0.001577295    3.716    0.731
        14  -9.6613    165.3361    246.2687   1.0838482285e+02   3.1197394764e+00    0.3128533    0.1584255  12.27 0.0009534999    2.286    0.563
        15  -8.3724    153.6313    250.3513   1.1119494005e+02   4.0135878944e+00    0.2365953    0.1136194  15.28  0.001152375    2.391    0.582
        16  -9.7511    143.8349    248.9708   1.1300088023e+02   5.4396566784e+00    0.3234223    0.1820674 -12.26  0.001622709    2.808    0.644
        17  -8.0006     63.6588    247.6835   1.2998161806e+02   1.5628149003e+01    0.1105341   0.08642088  -1.86 0.0007048566    1.709    0.415
        18  -9.2497    250.0865    245.0535   9.3510362954e+01  -6.1047513173e+00    0.2535372    0.0988484 -15.57  0.001261855    3.358    0.702
        19  -8.0763    212.1994    246.6124   9.9830190537e+01  -2.4153767960e+00     0.156621   0.07801918  18.44  0.000944051    1.707    0.414
        20  -8.7004    157.3143    245.1948   1.0983213085e+02   4.2731807976e+00    0.2554379    0.1488317   9.86  0.001386224    1.815    0.449
        21  -9.2790    150.2885    245.6091   1.1129320205e+02   5.1052470841e+00    0.2593002    0.1488391  -7.82  0.001330726    2.540    0.606
        22  -9.3035     23.2911    248.7454   1.3867557903e+02   1.9748714668e+01     0.360747   0.03314042  39.89  0.001447889    3.233    0.691
        23  -8.7648    113.0077    249.0000   1.1942340605e+02   9.3593674532e+00    0.2100878   0.05368386  31.18 0.0008063028    2.969    0.663
        24  -7.6009     86.3049    246.6577   1.2496566946e+02   1.3096963687e+01    0.1260976   0.07252549  52.23 0.0003542461    1.684    0.406
        25  -7.9638    206.7720    245.1829   1.0057091745e+02  -1.6494044411e+00    0.1576361   0.09777966   4.66 0.0009457179    1.377    0.274
        26  -9.9643    248.1334    238.5156   9.2871984519e+01  -5.2407130524e+00    0.3474096    0.1543143   2.55   0.00178978    3.065    0.674
        27  -9.2744    196.6576    243.0275   1.0206738716e+02  -2.3523734605e-01    0.3577084     0.132839  31.32  0.001479241    2.221    0.550
        28  -8.6158    201.7368    240.2785   1.0077616905e+02  -4.8541869370e-01    0.2796692    0.1421395   7.65  0.001508804    2.232    0.552
        29  -9.3748    119.7014    246.8466   1.1778093402e+02   8.8440111831e+00    0.1749787    0.1384531  -7.82  0.001167139    1.467    0.318
        30  -8.0872    210.7749    242.2262   9.9465035869e+01  -1.7467939746e+00    0.1567393   0.09744854   3.05  0.001048801    1.381    0.276
        31  -8.1695    172.4509    238.7269   1.0601460796e+02   3.2632015423e+00    0.2423508    0.1297105  15.40   0.00132057    1.842    0.457
        32  -8.9547    113.9465    242.5384   1.1856118935e+02   1.0276712494e+01     0.198678   0.09603912  30.96  0.001018078    1.600    0.375
        33  -9.2272      5.5157    242.6679   1.4219497074e+02   2.2504188420e+01    0.1992519   0.08229706  28.55  0.001088434    1.983    0.496
        34  -8.4500    126.5990    241.1785   1.1569556667e+02   8.8431771849e+00    0.1497073    0.1089035 -30.21 0.0009396402    1.683    0.406
        35  -7.8491     72.3455    242.3242   1.2768986022e+02   1.5553269715e+01    0.1151657   0.08826336  -3.21 0.0007050202    1.740    0.425
        36  -8.6607    226.7654    238.9652   9.6310390628e+01  -3.1118612114e+00    0.1275903   0.07496636 -26.00  0.000509835    1.586    0.370
        37  -8.5421    168.5981    241.7279   1.0716269154e+02   3.3345456113e+00    0.2264242    0.1154822  21.57  0.001181749    1.708    0.415
        38  -8.0349    118.3189    239.3072   1.1726850988e+02   1.0232836640e+01    0.1208065   0.08554664   2.72 0.0005302789    1.636    0.389
        39  -8.0172     68.3389    239.3312   1.2835725064e+02   1.6572458855e+01    0.1150132   0.08951934  -5.86 0.0007051844    1.741    0.426
        40  -8.5471    209.7993    236.3056   9.8793728126e+01  -9.2737544846e-01     0.203328    0.1131801  -7.36  0.000857908    1.899    0.473
        41  -8.3911    194.8999    237.1089   1.0156264138e+02   7.1680470134e-01    0.1835741    0.1100472   1.75  0.000972138    1.660    0.398
        42  -8.9202    183.7407    236.0971   1.0349229665e+02   2.2087636609e+00    0.2137529    0.1367452 -12.52  0.001332571    1.615    0.381
        43  -9.0703    159.5864    236.2660   1.0823368550e+02   5.2610182026e+00      0.34477    0.1820925  12.04  0.001723461    2.230    0.552
        44  -8.4843    147.3898    236.8988   1.1080855283e+02   6.7670403937e+00    0.2589561    0.1355131  18.18  0.001323865    1.932    0.482
        45  -7.9423    112.6604    237.7134   1.1833078875e+02   1.1242400651e+01     0.121921   0.08609081   4.89  0.000701847    1.637    0.389
        46  -8.5445    153.5999    241.2060   1.1007903633e+02   5.3177979161e+00    0.1499526    0.1035092 -24.69 0.0006477315    1.646    0.393
        47 -10.1752    238.0234    234.6568   9.3875063723e+01  -3.8098529306e+00    0.3123815      0.15035  -1.97  0.001715879    2.510    0.602
        48  -9.3396    241.8173    230.4633   9.2662874720e+01  -3.7366738179e+00    0.2389221    0.1232524  -6.12  0.001384281    1.981    0.495
        49  -8.2640    199.6851    235.6591   1.0049045992e+02   3.3109445790e-01    0.1825208    0.1065276   2.39  0.001088485    1.728    0.421
        50  -8.9495    190.4397    235.5198   1.0215847260e+02   1.4613166210e+00     0.261387    0.1268672   9.02  0.001235987    2.755    0.637
        51  -8.2208    178.0125    236.1791   1.0459442044e+02   2.9126783605e+00    0.2055141     0.112799   7.03  0.001083585    2.108    0.526
        52  -8.9646    246.3714    230.7450   9.2003053850e+01  -4.2328819646e+00    0.2015476    0.1228463 -18.63  0.001092702    1.339    0.253
        53  -8.5752    249.6608    230.3063   9.1438721989e+01  -4.5156043836e+00    0.1533144   0.08559668 -28.18 0.0005558286    1.607    0.378
        54  -9.9962    243.9605    235.1818   9.3026229056e+01  -4.4720427706e+00    0.2652225    0.1245683   6.42  0.001302724    2.438    0.590
        55  -8.6306    248.5117    233.4725   9.2079976283e+01  -4.7422185088e+00    0.2135239    0.1107495   9.94 0.0008376114    1.777    0.437
        56  -8.2865    232.9582    235.0418   9.4737124757e+01  -3.3246836516e+00    0.2183311   0.09650353  -1.98 0.0009424302    3.997    0.750
        57  -8.2335    205.1665    234.6032   9.9361372460e+01  -1.8203991291e-01    0.1662886   0.08398959  19.10 0.0009487984    1.774    0.436
        58  -8.6276    170.7989    233.7048   1.0565629575e+02   4.1753465193e+00    0.1984771    0.1444538 -13.97  0.001301901    1.392    0.282
        59  -8.7286    140.4986    234.4849   1.1194768721e+02   8.0552067735e+00    0.2329972    0.1009192  22.47  0.001034921    2.381    0.580
        60  -7.7675    131.4690    234.5032   1.1387517846e+02   9.2636917731e+00    0.1259367   0.09913525  22.49 0.0001632655    1.047    0.045
        61  -8.2064    229.5345    232.9791   9.4987989611e+01  -2.7259572085e+00    0.1506827   0.07145723 -13.42 0.0007796865    2.425    0.588
        62  -8.6618    153.4374    232.9091   1.0904524855e+02   6.5692195585e+00    0.2541178    0.1355005  17.09  0.001300428    1.931    0.482
        63  -8.9540    115.7972    231.3947   1.1694149055e+02   1.1894125696e+01     0.298928    0.1054645  28.16  0.001223786    2.535    0.605
        64  -8.3513    208.7468    229.8341   9.8035766834e+01  -6.2570317286e-03    0.1934388   0.09719855  -2.12 0.0009442406    2.748    0.636
        65  -8.5821    202.9064    229.8297   9.9069330268e+01   6.8879729662e-01    0.1870163    0.1225261   1.79  0.001008439    1.353    0.261
        66  -8.6620    195.4140    229.2478   1.0034154789e+02   1.6760706916e+00    0.2530803    0.1514395  -1.42   0.00149001    1.752    0.429
        67  -8.8262    219.5811    231.0062   9.6345602328e+01  -1.3982991603e+00    0.2162329    0.1201378  12.32 0.0009033806    1.632    0.387
        68  -7.8962    235.4957    229.4833   9.3511178454e+01  -2.9639355995e+00    0.1094739   0.07717855  -0.26 0.0008102453    1.031    0.030
        69  -8.6694    188.4446    230.5727   1.0182599828e+02   2.3648095571e+00    0.2655509    0.1441328  -0.33  0.001359752    2.371    0.578
        70  -8.0828    178.3299    228.2944   1.0342754317e+02   3.9673700829e+00    0.1230815   0.07765058   3.17 0.0004156877    1.632    0.387
        71  -8.5914    152.0219    228.0055   1.0868659294e+02   7.5112997379e+00    0.2015918    0.1318693   2.11  0.001130949    1.721    0.419
        72  -8.6733    212.1055    225.1363   9.6749505564e+01   1.8809790347e-01     0.254269      0.13325  -2.59  0.001335234    2.370    0.578
        73  -8.2575    167.9792    225.6672   1.0509525064e+02   5.7116538967e+00    0.2232847    0.1488004  -7.80  0.001314812    1.634    0.388
        74  -9.3598    248.5539    224.0982   9.0674999062e+01  -3.7230412308e+00    0.2112318    0.1227969  -1.72  0.001066518    1.504    0.335
        75  -8.1948    218.7464    223.6511   9.5385000036e+01  -4.0597545180e-01    0.1840995     0.103407   1.61   0.00107571    1.850    0.459
        76  -8.4538    200.8832    223.2384   9.8453310600e+01   1.7952005082e+00    0.2824987    0.1254263 -24.29  0.001372338    2.708    0.631
        77  -7.8193    229.3243    222.3428   9.3426783691e+01  -1.4552434117e+00      0.11753   0.06680571  -2.36 0.0007050777    1.733    0.423
        78  -8.1454    206.8430    222.3675   9.7254057659e+01   1.1760975999e+00    0.1681497    0.0872613  19.98 0.0009422594    1.778    0.437
        79  -8.0886    241.8352    221.0174   9.1234203672e+01  -2.6705289932e+00    0.1747515   0.09177941 -10.97 0.0009172466    1.878    0.467
        80  -7.9665    180.1939    221.5943   1.0209028441e+02   4.6799633617e+00    0.1743246    0.0959058  21.47 0.0009476811    1.640    0.390
        81  -9.0247    148.5797    220.1163   1.0833466720e+02   9.2426952231e+00    0.4027233     0.205378 -17.80  0.001546994    4.022    0.751
        82  -8.1359    216.4308    219.7493   9.5182460631e+01   3.5596632367e-01    0.1577413   0.08867306 -20.56 0.0009456484    1.698    0.411
        83  -8.3941    194.2618    219.3929   9.9084733640e+01   3.1526330146e+00    0.2044611    0.1241252 -20.49 0.0008235603    1.673    0.402
        84  -9.8592    248.9889    216.8916   8.9504946548e+01  -2.9573392973e+00    0.3407378    0.1483706 -36.84  0.001999503    2.298    0.565
        85  -8.1191    185.8200    219.3964   1.0067666158e+02   4.2517308080e+00      0.17525   0.09471101  20.75 0.0009432215    1.714    0.416
        86  -7.8707    211.1713    216.5020   9.5589123214e+01   1.4118282230e+00    0.2148259    0.1095597 -16.54  0.001121897    2.270    0.560
        87  -8.2604    204.3287    216.5341   9.6806252936e+01   2.2599445048e+00    0.2046447     0.117013 -15.95  0.001162183    1.842    0.457
        88  -9.1369    243.8070    214.8280   8.9971047644e+01  -2.1650606183e+00    0.1344481    0.1126554  -2.93  0.001021505    1.337    0.252
        89  -8.3610    233.8642    214.9484   9.1547913723e+01  -1.0761719667e+00     0.187169   0.09859908 -10.42  0.001067341    2.018    0.504
        90  -8.4638    225.1963    219.7431   9.3705339650e+01  -6.7057448705e-01    0.2428665     0.124069  -1.50  0.001269485    2.460    0.594
        91  -8.2248    246.4666    219.4821   9.0286733218e+01  -2.9866236144e+00    0.1350298    0.0889682  28.67 0.0001337856    1.615    0.381
        92  -7.8147    170.3100    212.3447   1.0266303590e+02   7.4171451245e+00    0.1305542   0.08562201  -1.88 0.0007045097    1.702    0.412
        93  -7.8952    225.3370    211.3124   9.2359933384e+01   3.6483629097e-01    0.1195139   0.07074431  -0.89 0.0007045798    1.689    0.408
        94  -7.7735    213.4559    210.4774   9.4240122343e+01   1.9235629735e+00    0.1187251   0.08977995   0.47 0.0004108162    1.049    0.046
        95  -7.6924    236.6563    208.7066   9.0114707769e+01  -6.3390357221e-01    0.1158658   0.06817337  -0.57 0.0007029519    1.661    0.398
        96  -7.7595    229.6863    208.6322   9.1218282209e+01   1.8722618783e-01    0.1211908   0.06999591  -4.31 0.0007037406    1.772    0.436
        97  -8.6694    179.4877    207.3553   1.0004619459e+02   6.8955481699e+00    0.2910669    0.1599376   4.01  0.001318432    2.640    0.621
        98  -9.6681    247.5755    205.5432   8.7925744117e+01  -1.4827644177e+00    0.2828437    0.1764164  -2.78  0.001923138    1.412    0.292
        99  -9.0591    249.9805    199.9855   8.6666976359e+01  -1.0857391166e+00    0.2851037    0.1246589 -24.76  0.001409043    2.077    0.519
       100  -8.6103    239.1189    204.8141   8.9101586817e+01  -4.3901955159e-01    0.1585144     0.104454  -1.54 0.0007585849    1.302    0.232
       101  -8.7731    230.5388    203.4784   9.0244924650e+01   7.3877279994e-01    0.2030589   0.09019335  22.71  0.001036942    2.436    0.590
       102  -8.9607    237.4323    200.1589   8.8604348822e+01   3.3710442998e-01     0.347262    0.1738442  -1.48  0.001686715    2.906    0.656
       103  -9.1477    243.7399    198.7780   8.7404530043e+01  -2.2876338378e-01    0.3610242    0.1419846 -33.35  0.001935637    2.226    0.551
       104  -8.7423    230.3507    198.3139   8.9423348418e+01   1.4267396721e+00    0.3387944    0.1586226  14.40  0.001584209    3.009    0.668
       105  -8.9638    237.3973    193.6193   8.7521305103e+01   1.1721983270e+00     0.309091    0.1646396 -18.95   0.00178553    1.802    0.445
       106  -8.2996    203.0051    195.2109   9.3581141284e+01   5.4260619010e+00     0.209304    0.1222589   5.88  0.001076834    2.048    0.512
       107  -8.4169    231.6101    191.7417   8.8115794109e+01   2.1309367712e+00    0.2608789    0.1187469 -22.89  0.001311529    2.311    0.567
       108  -8.7610    224.6016    191.4061   8.9194799784e+01   3.0689673048e+00    0.3272578    0.1177697 -31.18  0.001490228    2.709    0.631
       109  -9.3987    243.6090    188.5444   8.5712665217e+01   1.0693289109e+00    0.4068253    0.1684411 -27.32   0.00210871    2.228    0.551
       110  -8.1139    214.4888    191.0094   9.0831022591e+01   4.4605400942e+00    0.2481134    0.1263037   4.44  0.001032126    3.424    0.708
       111  -8.6193    238.0924    185.8358   8.6088825280e+01   2.0956916198e+00    0.2984819    0.1503289 -21.72  0.001642974    1.923    0.480
       112 -10.0572    242.6871    177.9067   8.4014383691e+01   2.5586724961e+00    0.5635312    0.2649522 -25.13  0.003036072    1.979    0.495
       113  -9.2734    249.5067    184.3401   8.4123855627e+01   8.9462996279e-01    0.3712954    0.1855949 -22.38  0.002141967    1.818    0.450
       114  -9.1236    230.7370    185.3494   8.7156562303e+01   3.0948373329e+00    0.2980968    0.1587127   3.81  0.001449073    2.699    0.629
       115  -8.3013    199.3484    189.9697   9.3351066140e+01   6.7172561742e+00    0.2067852   0.08642349 -21.99  0.000704832    4.416    0.774
       116  -8.1806    224.4001    182.7698   8.7728983630e+01   4.2826403776e+00    0.1750632    0.0950172 -24.68 0.0009595747    1.728    0.421
       117  -7.9985    226.3136    178.3173   8.6628290621e+01   4.6457157389e+00    0.1235095   0.07902872  -3.41 0.0006920157    1.646    0.392
       118  -8.7201    235.3434    179.7958   8.5461876087e+01   3.2466572589e+00     0.267572    0.1476202 -22.02  0.001536087    1.676    0.403
       119 -10.1601    244.9152    166.8881   8.1727924808e+01   3.7322455243e+00    0.3850605    0.1773974 -32.50   0.00210027    1.824    0.452
       120  -8.6843    237.7703    167.8142   8.2948712091e+01   4.5529116470e+00    0.2046951    0.1107638  -2.19 0.0009592397    2.838    0.648
       121  -9.0432    250.0248    160.0041   7.9758032936e+01   3.9812866069e+00    0.2684021     0.132521 -15.78  0.001308672    2.578    0.612
       122  -8.9139    201.1976    168.8534   8.9193152327e+01   9.7048116030e+00    0.2057936    0.1805307 -12.39 0.0003356157    1.072    0.067
       123  -8.9933    237.9944    157.0127   8.0924240433e+01   6.0162704986e+00    0.1947595    0.1272675  -4.05  0.001142426    1.686    0.407
       124 -10.2513    242.3587    143.3684   7.7715659545e+01   7.3033058875e+00    0.2645464    0.2118235   5.66   0.00180824    1.279    0.218
       125  -9.7419    249.1135    148.1757   7.7701075988e+01   5.6903116467e+00    0.3323824    0.1178161 -41.53  0.001515393    2.662    0.624
       126 -10.0724    244.7738    146.8002   7.8035280091e+01   6.4820333604e+00    0.3082135    0.1762669  -4.69  0.001544894    2.545    0.607
       127  -9.6175    234.1655    146.0751   7.9404759085e+01   8.1195065273e+00    0.3473076    0.1547932 -25.35  0.001585316    2.431    0.589
       128 -10.0824    244.3921    138.2220   7.6447256298e+01   7.7270775014e+00    0.2761422    0.2018948  15.04  0.001777901    1.558    0.358
       129  -9.4588    242.2115    132.7198   7.5669885073e+01   8.8215113950e+00    0.4039377    0.1409815 -37.50  0.001822345    2.364    0.577
       130  -8.9751    248.9965    134.1554   7.5053874007e+01   7.6220537609e+00    0.2199437    0.1412574 -31.43 0.0009548803    1.261    0.207
       131  -9.5310    231.2737    130.7079   7.6782448653e+01   1.0803508935e+01    0.3768247    0.1751366 -24.46   0.00168578    2.463    0.594
       132 -10.0557    247.8773    116.9710   7.1827962736e+01   1.0164264477e+01    0.5740185    0.2249391 -31.81  0.002700559    2.208    0.547
       133  -9.1299    248.1532    129.1852   7.4199558208e+01   8.4305464469e+00    0.2899633    0.2125757 -25.82  0.001722591    1.129    0.114
       134  -9.4306    249.0940    124.3329   7.3132155467e+01   8.9611790021e+00     0.330549    0.1737885 -33.34  0.001854758    1.545    0.353
       135  -8.5655    220.5034    127.9828   7.7803342086e+01   1.2979882087e+01    0.1814265    0.1026652 -15.03 0.0007814514    2.462    0.594
       136  -9.4007    239.7585    124.9449   7.4455346050e+01   1.0301104504e+01    0.4316596    0.1852734 -29.53  0.002027593    2.184    0.542
       137  -8.7104    224.3913    121.8704   7.5952171944e+01   1.3254232338e+01    0.2633832    0.1455828 -24.28  0.001297284    1.909    0.476
       138  -8.9524    240.0409    117.5146   7.2919377282e+01   1.1317170562e+01    0.2445089    0.1494142 -22.98  0.001367561    1.610    0.379
       139  -9.9153    231.3068    114.7388   7.3496289439e+01   1.3150937581e+01    0.6469675    0.1645635 -37.11  0.002383525    3.229    0.690
       140  -8.2471    218.3984    114.8273   7.5326038652e+01   1.5372489360e+01    0.1905883    0.1112969 -25.67 0.0009325372    1.751    0.429
       141  -8.4861    222.0054    112.4833   7.4301850470e+01   1.5091633665e+01    0.2705778    0.1440063  22.08 0.0006950859    4.325    0.769
       142  -9.7171    241.1501    107.9402   7.0823615817e+01   1.2497991924e+01    0.4582527    0.2104382 -28.17  0.002199177    2.117    0.528
       143  -8.3769    249.8241    107.3181   6.9666451589e+01   1.1193019469e+01    0.2193872    0.1324117 -40.50  0.001307017    1.371    0.271
       144  -8.2571    247.3069    102.3606   6.8953468403e+01   1.2275757669e+01     0.177207    0.1463379   5.32  0.000780557    1.449    0.310
       145  -9.3430    249.1474     97.7451   6.7807477990e+01   1.2610798373e+01    0.4344394    0.1432678 -34.70  0.001916543    2.437    0.590
       146  -8.5389    229.8923    101.6318   7.0908069298e+01   1.5318362109e+01    0.2332645    0.1549237 -28.11  0.001327966    1.392    0.282
       147  -9.4093    242.2936     97.7289   6.8576885524e+01   1.3743261009e+01    0.3796643    0.1513375 -38.55  0.001809443    2.005    0.501
       148  -7.8000    220.7462     96.9935   7.1090338996e+01   1.7661752348e+01    0.1727232   0.09783658 -35.76 0.0007904238    1.532    0.347
       149  -8.5323    249.5444     86.9343   6.5554659948e+01   1.4008579468e+01    0.1634313    0.0958757 -13.12 0.0008080106    2.493    0.599
       150  -8.0851    121.5078     60.9940   7.9435493048e+01   4.6252763796e+01    0.2216418    0.1531422 -38.27 0.0004584269    1.514    0.340
       151  -9.6211    245.9915     32.2364   5.4445685712e+01   2.1513926562e+01     0.219911    0.1383273 -39.36  0.001389506    1.290    0.225
       152  -8.5294    240.0042     33.1811   5.5044812778e+01   2.2532867893e+01    0.1753047    0.1274247  41.29  0.001084301    2.038    0.509
       153  -9.3620    244.4673     26.9033   5.3424314029e+01   2.2402178530e+01    0.1771808   0.09368107 -35.68  0.001022274    1.565    0.361
       154  -8.6834    237.5954     24.8231   5.3408226997e+01   2.3947484758e+01    0.1834922   0.07835288 -42.76  0.000957978    1.760    0.432
       155  -9.5223    219.6431    247.8596   9.8743167595e+01  -3.3561494424e+00    0.2325253    0.1394692  -7.48  0.001604117    1.476    0.322
       156  -8.9074    193.0098    248.9693   1.0352989298e+02  -5.4361700563e-01    0.1755518    0.1273985   8.82 0.0007524244    1.037    0.036
       157  -8.0688    184.3432    249.3338   1.0516437556e+02   4.1921859098e-01    0.1785285   0.08484922  23.62 0.0008141517    1.718    0.418
       158  -9.3946    186.9933    245.6912   1.0419263969e+02   5.6591322034e-01    0.2095361     0.134949 -14.36  0.001379109    1.562    0.360
       159 -10.1892    127.4569    248.7455   1.1635123920e+02   7.5572033081e+00    0.5054101    0.1895018  20.32  0.001903716    3.717    0.731
       160  -9.3330    242.5796     13.2406   5.0670298404e+01   2.4238524586e+01    0.1504568    0.1007443 -24.47 0.0009500438    1.667    0.400
