#   1 NUMBER                 Running object number                                     
#   2 MAG_AUTO               Kron-like elliptical aperture magnitude                    [mag]
#   3 X_IMAGE                Object position along x                                    [pixel]
#   4 Y_IMAGE                Object position along y                                    [pixel]
#   5 X_WORLD                Barycenter position along world x axis                     [deg]
#   6 Y_WORLD                Barycenter position along world y axis                     [deg]
#   7 A_WORLD                Profile RMS along major axis (world units)                 [deg]
#   8 B_WORLD                Profile RMS along minor axis (world units)                 [deg]
#   9 THETA_WORLD            Position angle (CCW/world-x)                               [deg]
#  10 FWHM_WORLD             FWHM assuming a gaussian core                              [deg]
#  11 ELONGATION             A_IMAGE/B_IMAGE                                           
#  12 ELLIPTICITY            1 - B_IMAGE/A_IMAGE                                       
         1 -16.6967    143.3353    151.6823   4.2988129920e+01   2.2014972970e+01     2.850283     1.852945  11.58   0.01143639    2.302    0.566
         2 -16.5915    146.6886    167.8255   4.5563856068e+01   1.7867540224e+01     4.054001     2.384187   2.36   0.01370673    3.594    0.722
         3 -13.9217    121.2331     80.2756   2.9651282117e+01   4.2661103010e+01     1.067192    0.3050854 -40.95  0.003064729    3.454    0.710
         4 -13.2422    135.7372     76.0283   2.4657842820e+01   3.9982764218e+01    0.4877217    0.3169686 -53.72  0.002104746    1.626    0.385
         5 -12.9579    185.6362    124.2303   2.7389325098e+01   1.9281842781e+01    0.3652384     0.279974 -52.44  0.001868771    1.328    0.247
         6 -11.4675     45.9974    194.5083   7.5809183879e+01   2.7307454657e+01    0.2098588    0.1236087  32.62  0.001038704    1.608    0.378
         7 -13.4120     96.7417    124.0882   4.9486839060e+01   3.7763767765e+01    0.5855449    0.3969852 -52.70  0.002546299    1.441    0.306
         8 -13.2901     87.0482    136.9020   5.5431130805e+01   3.6213882579e+01    0.8784302    0.6458594  38.10  0.004064099    1.373    0.272
         9 -14.4288    163.5028    117.7240   3.0235874879e+01   2.5183567653e+01     1.468402    0.6064271 -53.61   0.00464094    3.212    0.689
        10 -13.5458    101.7075    115.6045   4.5802912849e+01   3.8926357225e+01     1.089591    0.5070109  31.93  0.003665606    2.635    0.621
        11 -12.8207    104.4996    109.5105   4.3308967110e+01   3.9852633292e+01    0.6358623    0.4432041  77.96  0.002517071    2.126    0.530
        12 -12.8350     85.3188    163.4654   6.0964185269e+01   2.9622449033e+01    0.4352685    0.2936001  80.58  0.001886286    1.906    0.475
        13 -13.3118     97.7634    109.4284   4.5399896495e+01   4.1247303265e+01    0.5596994    0.3661073 -55.79  0.002361347    1.540    0.351
        14 -12.4134    148.2659    109.6240   3.1524597091e+01   3.0227890981e+01    0.3582766    0.2067822  63.42   0.00134972    2.319    0.569
        15 -13.3594    129.1241    103.8119   3.4668130912e+01   3.5811835032e+01    0.5646132    0.3753152  61.88  0.002347866    1.775    0.437
        16 -12.6699     89.4035    102.8336   4.6324357542e+01   4.4535857999e+01    0.3612778     0.290761  52.43  0.001702326    1.309    0.236
        17 -12.6388     92.3933    114.8160   4.8557704214e+01   4.0951855160e+01    0.4007409    0.2782891 -47.55  0.001754549    1.415    0.293
        18 -13.0646    133.0063     95.8205   3.1359463639e+01   3.6654544065e+01     0.483617    0.3639339  18.45  0.002105926    1.793    0.442
        19 -13.1969    102.0705     96.0992   4.0219606822e+01   4.3559353344e+01    0.7213606    0.3242399 -37.18  0.002373837    2.674    0.626
        20 -12.8757    138.1741    118.8219   3.6413942445e+01   3.0454825565e+01     0.409044    0.2736486 -46.44  0.001778762    1.450    0.310
        21 -14.7794    112.3743    132.1792   4.6741068126e+01   3.2694836271e+01     1.054121    0.8010042  64.01  0.004748188    1.537    0.349
        22 -13.0223     85.7241    176.5663   6.2945613311e+01   2.6283759100e+01    0.4371687    0.2851605 -42.25  0.002003531    1.785    0.440
        23 -10.8269    114.3900     94.7605   3.6091404236e+01   4.1157735101e+01    0.2362882    0.1502986 -35.54 0.0009562448    1.694    0.410
        24 -12.2384    111.7599     77.8587   3.1493849343e+01   4.5391705562e+01    0.3091439    0.2317578  71.61 0.0009881514    1.588    0.370
        25 -11.7531     38.1219    194.6600   7.7852373361e+01   2.8178397404e+01    0.2454376    0.1697933  80.78  0.001341519    1.369    0.269
        26 -12.3075    192.1034     80.0275   1.5207195803e+01   2.5897487181e+01    0.3524763    0.2083657  58.35  0.001654414    1.847    0.459
        27 -12.9498     96.1379     74.7066   3.5218807305e+01   4.9614139893e+01    0.5828108    0.2838516  58.77  0.001979135    2.786    0.641
        28 -11.9204     78.9824     75.7272   4.1581450480e+01   5.3008085119e+01    0.5251074    0.2466828  26.76  0.001637008    3.493    0.714
        29 -12.7452    173.2697     72.4896   1.6158552727e+01   3.1488599770e+01     0.544196    0.3259085 -70.51  0.002230238    2.262    0.558
        30 -12.6576    170.3648     84.9517   2.0134108431e+01   2.9996416390e+01    0.6044037    0.2863283  37.40  0.002037116    3.399    0.706
        31 -12.7773    201.9152     73.6373   1.2185686617e+01   2.4783354606e+01    0.3913932    0.2333503 -45.71  0.001921069    1.453    0.312
        32 -13.0599    167.0623     63.0641   1.4501376588e+01   3.4533266107e+01    0.6728544    0.3139357 -56.49  0.002456764    2.642    0.622
        33 -12.7738    128.8499     61.5424   2.1527121865e+01   4.4312644110e+01    0.4210142    0.2922722  76.45  0.001880373    1.666    0.400
        34 -12.9854    117.3733     61.3618   2.4282357916e+01   4.7198419305e+01    0.5976079    0.2075809  48.04  0.001937101    2.884    0.653
