#   1 NUMBER                 Running object number                                     
#   2 MAG_AUTO               Kron-like elliptical aperture magnitude                    [mag]
#   3 X_IMAGE                Object position along x                                    [pixel]
#   4 Y_IMAGE                Object position along y                                    [pixel]
#   5 X_WORLD                Barycenter position along world x axis                     [deg]
#   6 Y_WORLD                Barycenter position along world y axis                     [deg]
#   7 A_WORLD                Profile RMS along major axis (world units)                 [deg]
#   8 B_WORLD                Profile RMS along minor axis (world units)                 [deg]
#   9 THETA_WORLD            Position angle (CCW/world-x)                               [deg]
#  10 FWHM_WORLD             FWHM assuming a gaussian core                              [deg]
#  11 ELONGATION             A_IMAGE/B_IMAGE                                           
#  12 ELLIPTICITY            1 - B_IMAGE/A_IMAGE                                       
         1 -11.8152     31.2816     14.9275   9.4731574961e+01   6.7496192369e+01    0.7175235     0.279759 -39.22  0.003227812    2.928    0.658
         2 -12.6548     62.7444     27.3924   8.7919922903e+01   6.1527012277e+01     1.765815    0.8043241  32.59  0.008748069    2.137    0.532
         3 -12.0026     16.7568     51.7573   1.1430209237e+02   6.3620089572e+01     1.006513    0.3323803 -47.18  0.004760607    2.431    0.589
         4 -12.1896      2.3388      9.8401   1.0574991133e+02   7.1114565793e+01    0.6427349     0.200191 -33.26  0.001348271    2.820    0.645
         5 -12.8988     20.3348     25.9060   1.0384601920e+02   6.7344096533e+01     1.555431     0.440164 -37.11  0.006164383    3.172    0.685
         6 -13.0368     10.4816     18.0298   1.0520774641e+02   6.9350790659e+01    0.6337657    0.4429007  13.39  0.002585148    1.317    0.241
         7 -12.3193     19.4756      3.5556   9.4889467674e+01   7.0151202096e+01    0.9225465    0.4879671  29.84   0.00611494    1.680    0.405
         8 -12.0161     32.6172     29.6528   1.0006547864e+02   6.5484783598e+01     1.002848    0.4497161  11.51  0.004110741    3.937    0.746
         9 -11.3918     47.7930     22.7845   9.1435417405e+01   6.4364294296e+01    0.4655501    0.2423513  35.53   0.00148612    1.734    0.423
        10 -12.6354     40.2376     18.1425   9.2455633454e+01   6.5961405079e+01    0.6404786     0.538828  -2.11  0.001121558    1.190    0.159
        11 -11.2423     42.1107     10.1717   8.8444780795e+01   6.6559244942e+01    0.2631613     0.202458  10.26 0.0007454749    1.024    0.024
        12 -12.7114     50.0987      8.7161   8.4928042244e+01   6.5515227545e+01    0.9188108     0.661048  26.25  0.005958119    1.117    0.104
        13 -11.8028    249.2103     13.6448   5.2754658348e+01   2.3592548207e+01    0.4054688    0.2443332 -51.02   0.00265338    1.454    0.312
        14 -12.9041    247.4807     34.8052   5.6701786537e+01   2.1277773839e+01     0.763202    0.4983904 -33.45  0.004576185    1.942    0.485
        15 -12.5189    246.2862     23.9848   5.4822883138e+01   2.2910792056e+01     0.587063    0.4221278  75.72  0.004005775    1.363    0.266
        16 -10.8697     26.0620      7.5077   9.3760914825e+01   6.8958098712e+01    0.2636691    0.1699708  10.35 0.0003895017    1.293    0.227
        17 -11.4331     58.4090     16.4173   8.5164646501e+01   6.3443365122e+01    0.3576351    0.3121393  69.16   0.00141514    1.802    0.445
        18 -10.7844     59.4445     11.6888   8.2957688973e+01   6.3743922545e+01     0.374205    0.2252122   8.18   0.00174184    1.812    0.448
        19 -11.4037     86.6229     13.9418   7.5861185098e+01   5.8664062013e+01    0.2902767    0.1965198 -31.50  0.001509565    1.713    0.416
        20 -11.5301     82.6710      7.5980   7.4619835920e+01   5.9974953859e+01    0.4363983    0.2600292  36.80  0.002632037    1.439    0.305
        21 -11.6072     68.8595      7.8139   7.8518422386e+01   6.2490158100e+01    0.5645037    0.2589494  32.53  0.002943458    2.091    0.522
        22 -12.1103     75.7746      3.8203   7.5056506576e+01   6.1572718378e+01    0.6339477    0.3406277  35.95  0.001522511    1.601    0.375
        23 -11.1901    247.7377      3.2911   5.1063114528e+01   2.5065198775e+01    0.3799362    0.2410669 -67.38  0.002623389    1.219    0.180
        24  -9.3218    197.6175      5.7836   5.5583296304e+01   3.5216437446e+01    0.1583574   0.09525151 -51.17 0.0009450958    1.631    0.387
        25  -9.3255    148.1667      5.8394   6.1399570121e+01   4.6269511222e+01    0.1623401    0.1202345  51.14 0.0003300046    1.294    0.227
        26  -9.6464    222.7700      3.4484   5.2915339253e+01   3.0079768942e+01      0.15407    0.0889261  68.41 0.0005312195    1.588    0.370
        27  -9.6921     35.2045      2.0487   8.7617060749e+01   6.8312791527e+01    0.1844861    0.1235896  17.78  0.001006479    1.183    0.155
        28 -11.2245    177.0406    243.2824   1.1063938812e+02  -3.2559521352e+00    0.2893049     0.240049   2.89 0.0005336779    1.236    0.191
        29  -9.7542    249.9065    250.0323   9.7846651684e+01  -1.4804167876e+01    0.1821813    0.1353139  -3.12 0.0007036059    1.109    0.098
        30 -11.1465    225.2431    247.7642   1.0193601131e+02  -1.1256131262e+01    0.3158892    0.2836525  61.43  0.001738271    1.738    0.425
        31 -10.0367    232.3127    250.7085   1.0112299703e+02  -1.2647214899e+01    0.2640629    0.1479326  37.29 0.0008306983    1.826    0.452
        32 -11.3021    234.0164    244.5339   9.9764020766e+01  -1.1971500507e+01    0.4720899     0.257417 -33.28  0.001854598    1.740    0.425
        33  -9.1334    218.0218    250.5284   1.0375681884e+02  -1.0663278745e+01    0.1830412    0.1074994  29.61 0.0005449741    1.560    0.359
        34 -11.3676    166.3179    248.5274   1.1365897920e+02  -2.4380069851e+00    0.2502894    0.2298284 -28.54 0.0003236649    1.192    0.161
        35  -8.9054    153.8366    251.0000   1.1659096268e+02  -8.4721548429e-01     0.212364   0.06664465  38.31 0.0007827259    2.808    0.644
        36 -11.9328    140.0386    246.7345   1.1882666392e+02   2.2018114862e+00    0.4565912    0.3327081   4.52 0.0006970417    1.935    0.483
        37  -9.8169     87.5337    249.9345   1.3006213466e+02   9.9740946337e+00      0.20379    0.1713264  33.51 0.0004758172    1.358    0.264
        38  -9.5121     72.8256    250.6040   1.3306423158e+02   1.2011282138e+01      0.17609    0.1076823  42.98 0.0005766086    1.483    0.326
        39 -10.9810     61.5563    248.4259   1.3505996818e+02   1.4049280192e+01    0.2596959     0.229968  78.56 0.0005880325    1.165    0.142
        40 -11.3145     46.1381    249.9352   1.3814864898e+02   1.5800574346e+01    0.3643506    0.1907943  43.97  0.001555308    1.703    0.413
        41 -10.0223      1.6699    249.0148   1.4604630834e+02   2.1132487884e+01    0.2578658    0.1151695 -75.69  0.001488853    1.908    0.476
        42 -11.6327    169.2689    239.8252   1.1168097957e+02  -1.3695671815e+00    0.6987221    0.4116459  19.48  0.001649455    2.137    0.532
        43  -9.8196     98.5041    241.4665   1.2681931061e+02   1.0010282408e+01    0.2301449    0.2047146  58.53 0.0007092339    1.064    0.060
        44 -10.2878    247.0003    238.9981   9.6468141886e+01  -1.2866584979e+01    0.2698068    0.1490104 -26.67  0.001372838    1.686    0.407
        45 -10.5558    103.3710    240.0997   1.2562656011e+02   9.5198748295e+00     0.232974    0.1958036  45.65 0.0004192916    1.130    0.115
        46 -10.4355     68.8574    240.0901   1.3277846473e+02   1.4769515337e+01    0.2439696    0.1946321  31.74 0.0005381181    1.503    0.335
        47 -10.7136     51.5420    240.3153   1.3626196341e+02   1.7106682666e+01    0.2424122     0.199145 -80.88 0.0004766696    1.215    0.177
        48 -11.3834     26.7364    238.4891   1.4087883799e+02   2.0579351938e+01    0.4250305    0.3304978 -26.98  0.001715739    2.388    0.581
        49 -11.6807     34.6854    230.8292   1.3873122137e+02   2.1290796526e+01    0.4823299    0.3555439  34.09  0.002537791    1.632    0.387
        50  -9.1024     35.5766    240.2081   1.3934378599e+02   1.9161350719e+01    0.1541055   0.09975307 -67.60 0.0003726603    1.547    0.354
        51 -10.6297      9.6603    238.8054   1.4403541599e+02   2.2400108663e+01    0.2281857    0.1792907 -86.96 0.0005751522    1.200    0.167
        52 -10.6065    238.8790    215.8156   9.3770566178e+01  -8.1492628524e+00    0.4535323    0.2066196 -31.08  0.001101571    2.210    0.547
        53 -10.8078    245.6984    167.0102   8.3190116919e+01  -6.5306012341e-01    0.5449991     0.402506   0.25  0.002952536    1.756    0.430
        54 -11.0282    234.0076    209.5058   9.3482180837e+01  -6.3742297211e+00    0.3969223    0.2951853  31.45  0.001108083    1.408    0.290
        55 -11.7113    235.4034    238.6192   9.8489666954e+01  -1.1272739183e+01    0.9999374    0.4442584  20.62   0.00425518    3.088    0.676
        56 -10.3605    249.3623    232.3205   9.4881197440e+01  -1.2182587768e+01    0.5005594    0.2639972  19.31  0.002105881    2.167    0.538
        57 -11.4860    241.5789    175.5595   8.5579371171e+01  -1.5410773946e+00    0.7555397    0.2754677 -37.95  0.002614957    2.531    0.605
        58 -12.3151    247.4915    204.4815   9.0137531574e+01  -7.5081089627e+00     0.980257    0.3987797 -27.31  0.003705978    3.351    0.702
        59 -11.7147    237.0791    197.6607   9.0680510858e+01  -4.7899352995e+00     1.201463     0.423352 -31.04  0.003989127    3.959    0.747
        60 -11.7058    245.8906    191.6449   8.7977701978e+01  -5.0826639721e+00    0.5501382    0.4299716 -25.38  0.003341617    1.119    0.106
        61 -11.1883    239.3375    206.0514   9.1870052218e+01  -6.5815546357e+00    0.5025501     0.226168 -40.50  0.001558945    2.010    0.502
        62 -11.5892    242.9922    198.2699   8.9748925220e+01  -5.7940586660e+00     0.546385    0.3405429 -13.59  0.001877452    1.968    0.492
        63 -12.2507    249.5962    183.8671   8.5848226503e+01  -4.2857694845e+00    0.4826973    0.2911135 -32.47  0.001337214    1.485    0.327
        64 -11.8441    247.2128    176.8262   8.4876319972e+01  -2.6696277901e+00    0.7304434    0.2698738 -34.92  0.002812572    2.753    0.637
        65 -10.8706    250.5928    172.0047   8.3372233540e+01  -2.3393103186e+00    0.3540313    0.1392852 -39.36 0.0007975501    2.199    0.545
        66 -11.4307    248.6618    212.9039   9.1499507771e+01  -9.0589211910e+00    0.3308833    0.2305347 -21.96 0.0005103354    1.286    0.222
        67 -12.8402    245.4956    225.1486   9.4285941181e+01  -1.0571400774e+01    0.8826536    0.4545683 -28.53  0.004547177    1.862    0.463
        68 -11.9670    246.8935    218.0785   9.2758176304e+01  -9.6462477568e+00    0.3598805    0.2151105 -41.05 0.0008061134    1.600    0.375
        69  -9.9222    134.9490    238.7719   1.1874328046e+02   4.5856610344e+00    0.2044717    0.1934603 -50.62 0.0003560407    1.175    0.149
        70  -9.8778     61.8945    239.0391   1.3407809474e+02   1.5974998517e+01    0.2120745    0.1657807  53.39 0.0005399314    1.178    0.151
        71 -11.0847    184.0378    236.6805   1.0812416055e+02  -3.2305856662e+00     0.320107    0.2396599 -14.09 0.0005010923    1.498    0.333
        72 -10.0078    187.2238    231.3555   1.0656849598e+02  -2.8032412951e+00    0.2933763    0.2028419  33.12 0.0007552984    1.354    0.262
        73  -9.8253    190.9885    230.5023   1.0565402122e+02  -3.2663787999e+00     0.259833    0.1938137   0.68 0.0009948676    1.492    0.330
        74 -10.4673    148.6402    238.0184   1.1572209774e+02   2.4229149326e+00    0.2544958    0.1858079  37.67  0.000385143    1.246    0.197
        75  -9.9754     41.2405    236.3276   1.3792329426e+02   1.9290194871e+01    0.2770475    0.1786558  68.24 0.0009676984    1.346    0.257
        76 -11.2214    159.0463    235.0389   1.1305092504e+02   1.2308143959e+00    0.3511302    0.2562411  33.11 0.0007839208    1.276    0.216
        77 -10.6066     91.1728    235.8076   1.2766470349e+02   1.2347681544e+01    0.2390472      0.22985 -12.05 0.0005445259    1.360    0.265
        78 -11.5912     87.0125    233.3335   1.2824410945e+02   1.3522566567e+01    0.5117453     0.316012  56.26  0.001561508    1.517    0.341
        79 -10.5777     77.2792    235.2999   1.3052370693e+02   1.4569242057e+01    0.3311546    0.2301236  62.44 0.0009459372    1.311    0.237
        80 -10.2789      3.6592    235.1980   1.4487978970e+02   2.3773292118e+01    0.1926137    0.1435186 -63.58 0.0006027461    1.585    0.369
        81 -10.6985    140.2476    234.5742   1.1698337071e+02   4.5200801789e+00    0.4306664    0.2210874  40.88  0.001150621    1.763    0.433
        82 -10.5867    145.4859    230.6374   1.1524541103e+02   4.4071663764e+00    0.2841126    0.2455687 -20.13 0.0006291931    1.339    0.253
        83 -11.0136    128.8395    233.7759   1.1931796300e+02   6.6187474223e+00    0.4100047    0.3002435  73.36  0.002142511    1.638    0.390
        84 -10.7191    123.9766    230.5882   1.1990270790e+02   8.0993266506e+00     0.328606    0.2433189  22.40 0.0005337694    1.591    0.371
        85 -10.9272    230.3789    233.2702   9.8477221548e+01  -9.7491686919e+00    0.2402085    0.2043684  14.74 0.0004282183    1.145    0.126
        86 -10.2185    226.6947    229.9136   9.8568643906e+01  -8.6864815960e+00     0.347111    0.2022763 -30.51  0.001241166    1.649    0.394
        87 -10.1239    229.5048    225.4230   9.7239770379e+01  -8.3664769845e+00    0.2524608     0.201639 -24.77 0.0006224414    1.141    0.124
        88 -11.1051    236.2470    226.1705   9.6133064324e+01  -9.4529313096e+00    0.2940966    0.2155704 -12.20 0.0004597968    1.271    0.213
        89  -9.8534    233.6146    222.1760   9.5892682319e+01  -8.4326652626e+00    0.3043268    0.1740101  35.20  0.001055308    1.796    0.443
        90 -10.7384    177.6642    232.1570   1.0867379206e+02  -1.3664911917e+00    0.3015456    0.2281254  -8.61 0.0006437041    1.543    0.352
        91  -8.9492    152.9800    232.9834   1.1401015187e+02   2.6585687356e+00      0.15922    0.1461925  35.36 0.0003378365    1.001    0.001
        92  -9.0524    108.5096    233.0303   1.2360083162e+02   1.0165868400e+01    0.1825659    0.1325688 -61.24 0.0003831413    1.463    0.316
        93  -9.8565    165.1512    232.3580   1.1132561523e+02   7.0350637391e-01     0.344152    0.1544403  35.97  0.001218016    2.111    0.526
        94 -11.1669     55.2636    230.3508   1.3455093868e+02   1.8770403950e+01    0.4066199     0.271361 -65.77  0.001409852    1.493    0.330
        95 -10.5273      9.7241    231.6460   1.4354756296e+02   2.3908111224e+01    0.2187347    0.1736733 -89.19 0.0006370652    1.160    0.138
        96 -10.4694    211.1324    215.9120   9.9007736176e+01  -3.9305017589e+00     0.305095    0.2470103 -14.65 0.0003936647    1.184    0.155
        97  -9.8702    210.8833    210.6317   9.8072779671e+01  -2.9400308346e+00    0.2238337    0.1714974 -23.86 0.0004777525    1.262    0.208
        98 -11.0921    216.7680    230.3009   1.0052020770e+02  -7.2818442374e+00    0.2803456    0.2206576   3.21 0.0004826178    1.199    0.166
        99 -11.1361    228.2231    217.5630   9.6046494459e+01  -6.8734487727e+00    0.3325156     0.237583 -23.13 0.0005920976    1.310    0.237
       100 -11.6650    223.8462    213.3205   9.6081939540e+01  -5.4809762622e+00     0.608418    0.3712409 -24.36  0.002038031    1.722    0.419
       101 -11.2143    222.4753    225.1071   9.8502223398e+01  -7.2764365250e+00    0.4516737    0.2519582  30.14  0.001477885    1.799    0.444
       102 -11.8989    216.5624    220.4200   9.8781518326e+01  -5.5793985246e+00    0.5589342     0.392982 -37.60   0.00131577    1.381    0.276
       103 -12.3367    216.8407    206.1813   9.6074256051e+01  -3.1038014643e+00    0.5198642    0.3606885 -30.67  0.001057407    1.370    0.270
       104 -12.0399    224.8398    203.9587   9.4130444683e+01  -3.9893804142e+00    0.5839127    0.4833064 -74.15 0.0009320233    1.806    0.446
       105 -10.0486    134.3340    230.4378   1.1762834032e+02   6.3646097101e+00     0.260637    0.2057129  32.30 0.0007281741    1.252    0.202
       106 -10.2910    100.5816    230.2350   1.2493881585e+02   1.2051961773e+01    0.2487458    0.2219657 -53.57 0.0006358945    1.286    0.223
       107 -11.0411    103.8609    227.8458   1.2390314392e+02   1.2036428279e+01    0.3911647     0.257706  36.17  0.001115376    1.518    0.341
       108 -10.1926     45.0540    229.3028   1.3652754009e+02   2.0340538365e+01    0.2146417     0.183792 -79.25 0.0005191169    1.223    0.182
       109  -9.2110    158.6442    229.0574   1.1216349599e+02   2.4507077193e+00      0.18047    0.1721069  -5.90 0.0004431452    1.090    0.082
       110 -10.7941    113.6867    227.8696   1.2175584465e+02   1.0406583570e+01    0.3712505    0.2590362  25.38  0.001045803    1.697    0.411
       111 -10.6424    115.1486    222.3652   1.2063153726e+02   1.1349498727e+01    0.4474792    0.2561044 -72.22   0.00171394    2.210    0.548
       112  -9.7695    174.3277    227.2645   1.0853715672e+02   1.0602078443e-01    0.2225423    0.1910032  -3.67 0.0004752981    1.216    0.177
       113  -9.5169     92.9013    227.8530   1.2629188874e+02   1.3796790191e+01    0.1851315    0.1823414  -4.12 0.0004690936    1.275    0.216
       114 -10.2073     78.8139    226.8548   1.2921142605e+02   1.6189675179e+01    0.4427337    0.1891131 -71.38  0.001042572    2.674    0.626
       115 -11.2647     18.9942    227.0015   1.4146885457e+02   2.3928288202e+01    0.4823281    0.2974578  89.28  0.001593955    1.350    0.259
       116 -10.9634     16.2921    221.1832   1.4154283900e+02   2.5499066578e+01    0.2681259    0.2399703 -65.55 0.0009410396    1.424    0.298
       117 -10.4947     68.0105    226.9995   1.3153431384e+02   1.7742718701e+01     0.261078    0.1851774  39.42 0.0005111918    1.451    0.311
       118  -9.7108      1.6306    227.0943   1.4473186987e+02   2.5694834701e+01    0.1653276    0.1152615 -87.40 0.0007216602    1.139    0.122
       119  -9.4383    184.8546    225.8759   1.0610389362e+02  -1.4136540450e+00    0.1995218    0.1696241  -2.11 0.0003872856    1.185    0.156
       120 -10.4181    169.9837    223.0766   1.0873347156e+02   1.6539523127e+00    0.3486674    0.2716858 -64.13  0.001700323    1.573    0.364
       121 -10.9710    163.9772    225.0308   1.1034949767e+02   2.3149142713e+00    0.4165362    0.3422807  43.50  0.001437613    1.179    0.152
       122 -10.4465    165.9733    220.2830   1.0910591637e+02   2.9014912827e+00    0.3474021     0.207744  25.22 0.0006355894    1.920    0.479
       123  -9.7100    143.9705    225.8519   1.1481104982e+02   5.6361769954e+00     0.228107    0.2028165 -50.99  0.000405425    1.207    0.172
       124 -10.1619      7.9649    225.0141   1.4341775680e+02   2.5517649001e+01      0.19172    0.1494352  59.91 0.0005966789    1.243    0.195
       125  -9.7552    199.7047    224.7378   1.0287886100e+02  -3.6572554706e+00    0.2188943    0.1795912  -3.71 0.0004413615    1.202    0.168
       126  -9.6743    120.7849    224.8472   1.1975140987e+02   9.8547910055e+00    0.1938435    0.1880621  10.16 0.0004874638    1.175    0.149
       127  -9.8573    191.1015    223.1404   1.0433624846e+02  -1.9544903726e+00    0.2165423    0.1824802 -28.03 0.0004503829    1.181    0.153
       128  -9.6569    129.5999    223.8376   1.1764900593e+02   8.5543914746e+00    0.2233718    0.1818339  30.27  0.000491041    1.266    0.210
       129 -10.6659    207.1318    222.5460   1.0100729585e+02  -4.4640021618e+00    0.2382245    0.2053471 -14.20 0.0004220829    1.076    0.071
       130  -8.8920    155.4677    223.4259   1.1191101176e+02   4.1174637722e+00    0.1389119    0.1289122  30.93 0.0001313661    1.019    0.019
       131  -9.6579    135.9222    222.9572   1.1611375818e+02   7.6402672056e+00    0.2147752    0.1981229  54.12 0.0004851751    1.027    0.026
       132  -9.5394     82.6834    222.8571   1.2787954706e+02   1.6496752889e+01    0.2135972    0.1793197  35.14  0.000573964    1.333    0.250
       133 -10.1194     50.1125    222.4131   1.3481119590e+02   2.1227048855e+01    0.2177546    0.1899227 -73.31  0.000544416    1.246    0.198
       134  -9.1358     97.9615    221.9424   1.2439203214e+02   1.4294241751e+01    0.1905776    0.1655703 -22.45 0.0004199207    1.545    0.353
       135  -9.7143     74.3609    222.1676   1.2960855422e+02   1.7903973848e+01     0.205382    0.1760182  40.68 0.0003543672    1.282    0.220
       136 -10.6467     40.1260    220.7432   1.3672079235e+02   2.2872201875e+01    0.2479996      0.22496 -56.88 0.0006011555    1.418    0.295
       137 -10.0358     28.7402    221.9746   1.3914817132e+02   2.3950108913e+01    0.1974262    0.1594721  65.47 0.0005292839    1.146    0.127
       138  -9.7580    180.8547    220.8350   1.0604620858e+02   2.0946226080e-01    0.2036849    0.1743275   0.80 0.0004234779    1.193    0.162
       139  -9.6475    174.8955    220.6874   1.0727412575e+02   1.2655068212e+00    0.2191777    0.1835327 -24.93 0.0002917208    1.246    0.197
       140 -10.3474    148.5524    220.1522   1.1287165905e+02   6.0026369767e+00    0.2844405     0.236046 -33.31 0.0005087347    1.333    0.250
       141 -10.0547     68.3016    221.1311   1.3079893601e+02   1.9021924099e+01    0.2055843    0.1848874  38.37 0.0007700118    1.311    0.237
       142  -9.9767     59.0982    220.2176   1.3267584714e+02   2.0522288825e+01    0.3623548    0.2505811  52.30  0.002050214    1.334    0.250
       143 -10.2112     56.0732    216.8494   1.3295325793e+02   2.1704955286e+01    0.2315235    0.1639751 -73.04 0.0007537404    1.309    0.236
       144  -9.0138    140.5493    219.9771   1.1460864979e+02   7.4539524215e+00    0.1936759    0.1399584 -52.75 0.0003139359    1.467    0.318
       145  -9.7876    186.1200    218.9758   1.0461644045e+02  -3.3897496413e-01    0.2058962    0.1873293   0.23 0.0004454764    1.045    0.043
       146  -8.8338    128.7408    218.9327   1.1706955202e+02   9.7526744014e+00    0.1681528    0.1225231 -53.90 0.0003484169    1.447    0.309
       147  -9.3988    109.3006    218.9349   1.2143162352e+02   1.3092174683e+01    0.1876959    0.1755181 -81.09  0.000428494    1.098    0.089
       148 -10.1764    159.1253    217.6418   1.1012883958e+02   4.6417334903e+00     0.264008    0.2298836   8.56 0.0005783477    1.230    0.187
       149 -11.2861    137.2068    213.4662   1.1427562065e+02   9.4376003544e+00    0.4145746    0.2973356 -21.35  0.001929061    1.966    0.491
       150  -8.8346    104.2922    218.3203   1.2246709952e+02   1.4066101823e+01    0.1326954    0.1117026 -20.93 0.0007012487    1.607    0.378
       151 -10.6755    193.7096    215.6598   1.0244959356e+02  -1.0058297847e+00    0.3424881    0.2676381   8.54 0.0004708329    1.359    0.264
       152 -10.6980    201.4575    209.5199   9.9736150566e+01  -1.1669954740e+00     0.381033    0.3236212  64.62  0.001783533    1.545    0.353
       153 -10.9686    202.2352    215.4142   1.0067798622e+02  -2.3886070318e+00    0.3746799    0.2792115  44.58  0.001538184    1.459    0.315
       154 -10.7202    198.5007    212.4863   1.0088789866e+02  -1.2224024407e+00    0.2810914    0.2363385  -1.56 0.0007112781    1.187    0.157
       155  -9.7462    119.8748    216.6387   1.1870156904e+02   1.1796575828e+01     0.247133     0.198372 -61.09 0.0005129225    1.295    0.228
       156 -10.3452    118.6578    212.4402   1.1831797434e+02   1.2942038521e+01    0.3513879    0.2363064  26.47  0.001164195    1.747    0.428
       157 -10.5605      7.9567    216.1084   1.4277982874e+02   2.7476360357e+01    0.2889082    0.2110023 -65.12  0.001107737    1.442    0.307
       158 -10.5741      3.7931    212.4942   1.4332460429e+02   2.8682378245e+01     0.276309    0.2229803  19.32  0.001889814    1.824    0.452
       159  -9.1867    138.9548    226.7636   1.1605140391e+02   6.3213855964e+00    0.1917603    0.1701542  44.88 0.0003792603    1.043    0.041
       160  -9.4401    179.9549    215.2923   1.0524061062e+02   1.4322830205e+00    0.1921981    0.1675547  26.09 0.0003131307    1.098    0.089
       161  -9.3789    124.4592    215.4811   1.1748334301e+02   1.1254054483e+01    0.1420174    0.1332412  60.23 0.0001383131    1.010    0.010
       162  -9.4051     83.1720    215.2203   1.2678383678e+02   1.8159672487e+01    0.1862781    0.1831578 -75.99 0.0005332776    1.224    0.183
       163 -10.1324     31.4432    214.2468   1.3790453223e+02   2.5387090535e+01    0.2196477    0.1924264 -59.20   0.00069066    1.402    0.287
       164  -9.5551    186.5927    213.8443   1.0358534122e+02   5.5785323459e-01    0.2221206    0.1789575  21.73 0.0005052324    1.231    0.188
       165 -10.3308    171.3562    213.7263   1.0678787997e+02   3.2571454368e+00    0.2495667    0.2352956  22.33 0.0004755706    1.015    0.014
       166  -9.5128    165.8401    213.8456   1.0800007110e+02   4.2163833463e+00    0.2138234    0.1849416  -1.76  0.000409438    1.255    0.203
       167  -9.7755    143.4056    214.1870   1.1300616488e+02   8.1724410152e+00    0.2344405    0.1856028  27.97 0.0004494007    1.312    0.238
       168 -10.5081    132.3451    213.4061   1.1536291104e+02   1.0317747401e+01     0.274597    0.2317839   9.81 0.0005304645    1.424    0.298
       169 -10.7291     63.6821    213.2860   1.3088289895e+02   2.1482645562e+01    0.2821168    0.2297873  53.01 0.0004925522    1.195    0.163
       170  -9.8121     51.8629    212.5707   1.3339229320e+02   2.3254948323e+01    0.2066205    0.1620939 -68.04 0.0004436788    1.261    0.207
       171 -10.1726     41.2868    212.3880   1.3565167508e+02   2.4641537630e+01    0.2012523    0.1803635 -72.86 0.0006255795    1.255    0.203
       172  -9.4195    154.6798    212.0897   1.1013410128e+02   6.5855570813e+00    0.1948932    0.1774356 -39.76 0.0004145681    1.145    0.127
       173  -9.5063     97.0466    212.2392   1.2322808977e+02   1.6641597863e+01    0.1952069    0.1899562   4.80 0.0005862399    1.248    0.199
       174  -8.5021     74.3434    212.2909   1.2838401118e+02   2.0174794426e+01    0.1280968    0.1087252 -25.96 0.0007026187    1.654    0.396
       175 -10.1175    124.5621    210.5839   1.1666929310e+02   1.2322141054e+01    0.3631902    0.2403546  87.10  0.001450623    2.203    0.546
       176  -9.9844    124.3564    205.9268   1.1594580713e+02   1.3407046266e+01    0.3215517    0.2010411  31.34 -0.000430966    1.742    0.426
       177  -9.6978     25.3738    210.5002   1.3882051857e+02   2.6930699778e+01    0.2232303    0.1518781 -55.42 0.0009843521    1.659    0.397
       178 -10.2623     18.3197    210.6311   1.4028317359e+02   2.7657897424e+01    0.2369096     0.190372 -53.88 0.0008627788    1.541    0.351
       179  -9.4017    106.9137    210.0446   1.2063750435e+02   1.5503540747e+01     0.207959    0.1739262 -19.44 0.0004328554    1.603    0.376
       180  -9.7237     56.4638    209.9229   1.3208349737e+02   2.3261492594e+01    0.1932801    0.1668928  64.80 0.0004654008    1.118    0.105
       181  -8.9038    187.0083    209.2430   1.0264700478e+02   1.3765725850e+00    0.1703659    0.1151365  36.67  0.000233938    1.456    0.313
       182 -10.3289    161.2027    208.5482   1.0806053804e+02   6.1437564062e+00    0.2730279    0.2345657  15.50 0.0004521165    1.232    0.188
       183  -9.1989     93.4666    208.6931   1.2353480606e+02   1.8045595373e+01    0.1832802    0.1300771 -52.22 0.0006252521    1.501    0.334
       184  -9.1792     78.3612    208.8816   1.2702737835e+02   2.0370239965e+01    0.1893332    0.1633628 -75.78 0.0007200411    1.125    0.111
       185  -9.3293    193.0889    207.6443   1.0108649826e+02   6.2461078431e-01    0.1896663    0.1668312  22.80 0.0004184219    1.108    0.097
       186  -9.8608    177.0172    208.0370   1.0453322498e+02   3.3882942984e+00    0.2080429    0.1963861  -2.03 0.0003486074    1.028    0.027
       187 -10.5917    147.5609    206.3479   1.1070793894e+02   9.1059608437e+00    0.5707315    0.3415608   9.05  0.001968598    3.605    0.723
       188 -11.1332    132.5682    206.8842   1.1421563141e+02   1.1717837651e+01    0.4974554      0.32324  31.15  0.001308821    1.651    0.394
       189 -10.9676    139.7438    203.1236   1.1191359050e+02   1.1248690049e+01     0.363824    0.2805092  -2.83  0.001001651    1.788    0.441
       190  -9.6129     72.8727    207.7725   1.2813175767e+02   2.1452040137e+01    0.1917128    0.1865445 -87.84 0.0005242069    1.208    0.172
       191  -9.4633    120.1164    206.6658   1.1704994200e+02   1.3991434836e+01    0.2007673    0.1836627  40.35 0.0008471535    1.114    0.102
       192 -10.7757    114.7604    206.5760   1.1827708844e+02   1.4951216282e+01    0.3685291    0.2357113  56.87  0.001419182    1.653    0.395
       193 -10.6231    110.0496    201.4767   1.1855180459e+02   1.6951786327e+01    0.4125003    0.2920451 -76.13  0.001657293    1.564    0.360
       194 -10.1647     47.0941    206.1584   1.3372746809e+02   2.5372400517e+01    0.2272431    0.2107177   0.60 0.0004777608    1.509    0.338
       195 -10.6529     27.1529    199.8977   1.3744110701e+02   2.9201716822e+01    0.4456125    0.3304621 -52.00  0.002685916    1.570    0.363
       196 -11.1540     16.3201    205.9192   1.4029165835e+02   2.8942718812e+01    0.3430333    0.2795964  13.19  0.001620673    1.825    0.452
       197 -10.3652     21.0144    201.9969   1.3895960206e+02   2.9365668857e+01     0.225688    0.2063027 -32.44  0.000545849    1.546    0.353
       198  -9.8336    206.9375    206.0064   9.7976619180e+01  -1.4341909013e+00    0.2080625    0.1845603  -7.35 0.0003841649    1.053    0.050
       199  -9.0491     32.2138    206.5522   1.3700582860e+02   2.7076088195e+01    0.1413414    0.1270523  22.02 0.0004331399    1.515    0.340
       200  -8.9512    183.5279    205.4659   1.0266879768e+02   2.7376039019e+00    0.1420323    0.1323104  -0.31 9.080154e-05    1.033    0.032
       201  -9.8054     86.4730    204.9261   1.2460965161e+02   2.0048830083e+01    0.2313568    0.2013752  18.59 0.0006116303    1.438    0.305
       202 -10.8457      6.7005    204.0303   1.4210534111e+02   3.0316519736e+01    0.2723978    0.2095739 -44.16  0.001238992    1.775    0.437
       203  -8.9346    173.4479    202.4221   1.0424928972e+02   5.1795263362e+00    0.1424363    0.1358728   8.33 0.0001088452    1.018    0.018
       204 -10.6725     56.3058    201.6974   1.3113977990e+02   2.5231137220e+01    0.2392198    0.2106112 -70.18 0.0004432175    1.182    0.154
       205 -10.0476    198.2910    201.0336   9.8760898157e+01   9.9592114532e-01    0.2173481    0.1950646  15.60 0.0004362797    1.093    0.085
       206 -10.7129    164.3226    200.1922   1.0582646497e+02   7.3310558305e+00    0.5366564    0.2899303  29.74  0.001907709    2.146    0.534
       207  -8.6595     34.2746    201.2944   1.3602754029e+02   2.8073438485e+01    0.1194609   0.09166937 -51.84 0.0002179354    1.524    0.344
       208  -9.3489    186.9708    200.9605   1.0108638983e+02   3.0203070066e+00    0.2068112    0.1938248  -5.19   0.00033773    1.020    0.020
       209 -10.8425    144.7946    200.0880   1.1020921904e+02   1.0990237791e+01    0.3730988    0.2334001  47.76  0.001413806    1.600    0.375
       210  -9.1700     98.6799    200.4360   1.2107115306e+02   1.9131972442e+01     0.187662    0.1410772  27.21 0.0008839339    1.553    0.356
       211 -10.4577     69.3680    200.1762   1.2793269782e+02   2.3774471026e+01     0.214544     0.191934  29.12 0.0006088797    1.348    0.258
       212 -10.3483    230.1864    198.1909   9.2032406650e+01  -3.8071817558e+00    0.2659975    0.2030214   0.57 0.0005555752    1.412    0.292
       213 -10.3837    209.9626    197.9663   9.5832196794e+01  -4.3505438887e-01     0.320936    0.2412481 -60.87  0.001020954    1.686    0.407
       214 -10.3450    209.6051    192.3156   9.4794637209e+01   7.0557437674e-01    0.3737437    0.2635451 -27.79  0.001057262    1.430    0.301
       215 -10.2738    202.6257    194.9020   9.6690511050e+01   1.4270384147e+00     0.337588     0.246858   8.79 0.0004345638    1.647    0.393
       216 -10.6462    206.3058    188.2675   9.4641124246e+01   2.0726062607e+00    0.5564931    0.3141828 -25.87  0.001830101    2.235    0.552
       217 -10.1924    210.3194    187.3121   9.3660267233e+01   1.5481772701e+00    0.2312542    0.1928295  18.40 0.0004404566    1.262    0.208
       218  -9.8875    132.2182    199.6660   1.1304065591e+02   1.3407914748e+01    0.2776484     0.215782  -0.22 0.0009395402    1.786    0.440
       219  -9.0106     80.6220    198.7908   1.2509745644e+02   2.2425867943e+01    0.1850487    0.1268154 -77.78   0.00027513    1.468    0.319
       220  -9.5359     41.8491    199.0060   1.3409827145e+02   2.7720924582e+01    0.1915763    0.1590488 -59.13 0.0005297707    1.318    0.241
       221  -9.9978    103.6052    197.8451   1.1948862599e+02   1.8916634175e+01    0.3005129    0.2145112  59.74 0.0004747231    1.443    0.307
       222  -9.7539     49.5172    198.0213   1.3224568373e+02   2.7001581763e+01     0.199535    0.1923901 -21.26 0.0004725703    1.375    0.273
       223  -9.5654    176.2220    195.3787   1.0229792263e+02   6.1307409665e+00    0.2193129    0.1887908 -30.40 0.0003859773    1.171    0.146
       224  -9.4630    170.0566    196.0023   1.0376271476e+02   7.1506868810e+00     0.217159    0.2068574   0.69 0.0003686866    1.048    0.046
       225 -10.6166    157.7439    194.4744   1.0621168570e+02   9.7989145035e+00     0.415413    0.3153194 -39.56  0.002062509    1.366    0.268
       226  -9.6025    149.1361    196.4817   1.0854909945e+02   1.0979789926e+01    0.2166786    0.1442202  37.91 0.0004890476    1.492    0.330
       227  -8.7777    124.9927    196.2583   1.1413450984e+02   1.5511771023e+01    0.1793807    0.1254254  41.35 0.0002966405    1.403    0.287
       228 -10.3465     89.1754    195.6330   1.2258961387e+02   2.1840526723e+01     0.254774     0.221135 -48.98 0.0005351648    1.274    0.215
       229 -10.0635    184.4463    194.4706   1.0035906322e+02   4.7949459321e+00    0.2397616     0.223032   5.40 0.0002895559    1.063    0.059
       230  -9.3065    140.5309    195.0837   1.1027512355e+02   1.2908476050e+01    0.2184864    0.1469966 -54.14 0.0005643701    1.519    0.342
       231  -9.0443     60.9933    195.7518   1.2930305948e+02   2.6026471303e+01     0.164097    0.1145693  40.14 0.0003053896    1.497    0.332
       232  -9.2743    179.2608    202.1061   1.0293857481e+02   4.1835660658e+00    0.1877522     0.179556 -29.51 0.0003206983    1.057    0.054
       233 -10.2992    231.4558    191.9987   9.0600631708e+01  -2.8955660268e+00    0.3749804    0.2315085 -13.77  0.001734723    2.179    0.541
       234 -12.3254    233.7787    185.2892   8.8866843437e+01  -2.0503937927e+00     0.540926    0.3794578  27.91  0.001629286    1.590    0.371
       235  -9.4567    113.2187    193.9137   1.1653152017e+02   1.8178894333e+01    0.2007786    0.1878039 -67.96 0.0003889267    1.078    0.073
       236 -10.3439     81.5821    193.7406   1.2412523567e+02   2.3499538654e+01    0.2592666    0.1908602  43.02 0.0006040832    1.372    0.271
       237 -10.2173    215.5898    196.0505   9.4363858399e+01  -1.0287555112e+00    0.2994007     0.214349 -33.00 0.0008145084    1.310    0.237
       238  -9.2663    143.9995    193.5043   1.0917528498e+02   1.2614013994e+01    0.2208237    0.1385588  50.42  0.000910097    1.653    0.395
       239  -8.5537    133.2642    193.3221   1.1165272772e+02   1.4668377894e+01    0.1455072     0.117728 -19.56 0.0003193865    1.558    0.358
       240  -9.6630     74.5119    193.5052   1.2578766414e+02   2.4633213349e+01      0.14186    0.1279285 -88.69 0.0001629485    1.033    0.032
       241  -9.0805     36.2255    192.7881   1.3467498573e+02   2.9876611614e+01    0.1679057    0.1421272 -56.55 0.0005106698    1.327    0.247
       242  -9.1243    194.4169    192.4637   9.7879745915e+01   3.3780143709e+00    0.1421402     0.133009 -19.27 9.675862e-05    1.011    0.011
       243 -10.4368    151.7119    191.4005   1.0699599671e+02   1.1624406719e+01    0.3060339    0.2683951 -32.43 0.0009047206    1.206    0.171
       244  -9.7631    161.9503    190.1553   1.0442759240e+02   9.9448774696e+00    0.2640136    0.2409312 -87.22 0.0008214132    1.219    0.179
       245 -10.8503    158.4661    186.2155   1.0444026412e+02   1.1484425913e+01    0.4496256    0.3324218  33.13  0.001412853    1.408    0.290
       246  -9.3136    104.5639    191.5092   1.1820992254e+02   2.0267830263e+01    0.1457185    0.1394075 -83.51 8.810421e-05    1.059    0.056
       247  -8.8277     26.6784    191.7229   1.3671775318e+02   3.1191003779e+01    0.1198778   0.09154092 -47.34  0.000284216    1.580    0.367
       248 -10.1268    224.5668    189.8026   9.1437439560e+01  -1.3665971733e+00    0.2591658    0.2291385 -74.78  0.001511312    1.485    0.327
       249  -9.2115     64.4261    189.7168   1.2767147354e+02   2.7021245633e+01    0.1834145     0.120902 -57.89 0.0002720728    1.463    0.316
       250 -10.4239    199.2393    188.6552   9.6135786060e+01   3.2656058227e+00    0.2909016    0.2372182 -37.60 0.0004385064    1.169    0.144
       251  -8.8033    186.0270    188.9644   9.8934453744e+01   5.6358179594e+00    0.1699189    0.1597535 -28.36 0.0003532763    1.029    0.029
       252  -9.5078    172.6875    189.0089   1.0181608242e+02   8.1435535822e+00    0.2059378    0.1838958 -39.11 0.0003582684    1.109    0.098
       253  -8.5461     84.6999    189.2820   1.2268643251e+02   2.4099468753e+01    0.1471414     0.104416  72.57 0.0001964436    1.547    0.354
       254 -10.9997     72.5784    188.1883   1.2547784644e+02   2.6222359114e+01    0.3773448    0.2399808  58.14  0.001809882    1.648    0.393
       255  -9.2471    179.2791    187.9501   1.0017183369e+02   7.1167717545e+00    0.2009452    0.1803239 -34.27 0.0003298836    1.094    0.086
       256 -10.1973    215.1994    186.6140   9.2575532203e+01   8.2873800885e-01    0.2889253    0.2257411 -28.20 0.0008715579    1.218    0.179
       257 -10.0126     96.7838    188.6994   1.1963550166e+02   2.2272398226e+01    0.4090436    0.2215202 -58.91  0.001080632    1.797    0.443
       258  -9.1997    193.8060    186.1621   9.6746814010e+01   4.7644732931e+00    0.1944397     0.162387 -12.38 0.0003570298    1.284    0.221
       259  -8.7474     21.2870    186.2691   1.3736756693e+02   3.3052584351e+01    0.1175217   0.08798777 -51.45 0.0002330205    1.501    0.334
       260 -10.2556    127.8568    185.2828   1.1144985565e+02   1.7555557235e+01    0.4237562    0.2044903  36.83  0.001597442    2.156    0.536
       261  -9.5066    116.6193    187.5297   1.1458634401e+02   1.9091036005e+01    0.4031509    0.2061012  27.36  0.001476091    2.661    0.624
       262  -9.4594     34.9242    184.4894   1.3402605822e+02   3.2032098997e+01    0.1745199    0.1313553  34.46 0.0008598414    1.540    0.351
       263 -11.0289    211.1828    179.7910   9.1974872581e+01   2.8654695258e+00    0.4025155    0.2832783 -36.71  0.001105524    1.331    0.249
       264 -10.6771    210.1615    173.9714   9.0980298497e+01   4.2031687672e+00     0.359037    0.3238362 -67.11 0.0008101696    1.256    0.204
       265 -10.4200    205.1733    174.8782   9.2142762472e+01   4.9430279916e+00    0.3142736    0.2406469 -22.59 0.0006352672    1.399    0.285
       266 -10.3626    202.9251    180.0245   9.3647424449e+01   4.3226127730e+00    0.5142061    0.3302589 -66.17  0.001921964    2.329    0.571
       267 -10.3671    198.0265    174.3658   9.3466018836e+01   6.3896738508e+00    0.3091224    0.2324696 -47.79 0.0004257723    1.292    0.226
       268 -10.1036    141.1730    182.2710   1.0768250914e+02   1.5727584552e+01    0.4296881    0.2577695 -24.06  0.001136662    2.882    0.653
       269  -9.5907    167.0333    184.2026   1.0210637914e+02   1.0270264752e+01    0.2238764    0.1977727  -4.86 0.0004634266    1.252    0.201
       270  -9.5520     67.1358    182.6662   1.2599565337e+02   2.8376904344e+01    0.1878758    0.1757988  67.79 0.0006090754    1.122    0.109
       271  -9.2479    224.0429    181.7218   8.9929358748e+01   2.3647356728e-01    0.1791022    0.1657983  -6.01 0.0003407792    1.080    0.074
       272 -10.1483    156.0126    181.5363   1.0406745313e+02   1.3009561788e+01    0.3396471    0.2350058  30.02  0.001229518    1.599    0.374
       273  -9.0084    218.2063    181.6144   9.0999444263e+01   1.2655704311e+00    0.1743413    0.1310454  25.69 0.0003305398    1.468    0.319
       274  -9.6219    184.1205    180.9339   9.7713705012e+01   7.6751594041e+00    0.2182484    0.2063031 -14.39 0.0004309462    1.048    0.046
       275  -8.9501    197.5568    180.5488   9.4837227774e+01   5.2118061564e+00    0.1444986    0.1354213 -24.86 0.0001057162    1.007    0.006
       276 -10.3920    175.2500    179.7077   9.9375800291e+01   9.6518802231e+00    0.2688316    0.2424654  -5.03 0.0004381248    1.188    0.159
       277  -9.5178     55.6153    179.8777   1.2844053449e+02   3.0647547192e+01    0.2004151     0.195119 -22.76 0.0006160076    1.275    0.216
       278  -9.4914    235.8488    178.9224   8.7240133657e+01  -1.2212446910e+00    0.2031668    0.1616208 -17.06 0.0004106217    1.268    0.211
       279  -9.0214    231.0570    178.0069   8.7908231602e+01  -2.5462724072e-01    0.1630081    0.1391827 -32.35 0.0003660974    1.035    0.033
       280  -9.0367    134.6036    177.7659   1.0836777317e+02   1.8050004587e+01    0.2101699    0.1459733 -63.30  0.000624009    1.546    0.353
       281  -9.7969    191.0161    176.9179   9.5435125334e+01   7.1971187236e+00     0.221424     0.205743 -19.19 0.0004256483    1.062    0.059
       282 -10.7667    140.5036    176.3068   1.0665574355e+02   1.7248064231e+01    0.4061112    0.3630733 -79.96  0.001098776    1.176    0.150
       283 -10.1945    101.0987    176.0405   1.1635730775e+02   2.4642786719e+01    0.2513001     0.205974  79.62            0    1.295    0.228
       284  -8.8173     69.3469    177.3021   1.2462709389e+02   2.9393525875e+01     0.141681    0.1093653 -30.81  0.000703926    1.688    0.408
       285  -9.0712    169.5025    176.1182   9.9903022510e+01   1.1563507414e+01    0.2213941    0.1469753 -46.63 0.0004246344    1.478    0.324
       286  -9.8556     60.0311    176.2826   1.2681985299e+02   3.0952547767e+01    0.1923924    0.1751153  76.14 0.0004425256    1.090    0.082
       287  -9.5474    219.3520    174.9949   8.9441778642e+01   2.3423446877e+00    0.1992732    0.1580372 -38.27 0.0003879048    1.147    0.128
       288 -10.8603    152.6456    173.9261   1.0329527321e+02   1.5404578021e+01    0.4714984    0.3262559  13.69  0.001964902    2.114    0.527
       289 -10.3720    146.3199    174.6944   1.0494197674e+02   1.6481310549e+01    0.2698478     0.236765  75.16 0.0007908432    1.241    0.194
       290  -8.8316     46.6502    175.2846   1.3002432277e+02   3.2922009464e+01    0.1426225   0.09367442  69.50 0.0007019234    1.655    0.396
       291  -9.3684    182.9682    173.9958   9.6522311626e+01   9.3729478592e+00     0.223337    0.2111062 -29.50 0.0003648052    1.030    0.029
       292 -10.8129    161.8366    173.7814   1.0114410011e+02   1.3606191119e+01    0.2895518    0.2494535  -1.48 0.0005471518    1.357    0.263
       293  -8.8763    112.6629    174.3251   1.1311636333e+02   2.3006144331e+01    0.1615028    0.1167674  76.94 0.0007051363    1.721    0.419
       294  -9.0924    129.1967    172.8453   1.0870657601e+02   2.0261903844e+01    0.2039893    0.1828656 -17.53 0.0003550618    1.291    0.225
       295  -9.2611    233.1472    172.3371   8.6398491688e+01   4.5307411990e-01    0.1711311    0.1634343 -16.35 0.0003363914    1.104    0.095
       296  -9.0538     24.7542    172.1837   1.3500446212e+02   3.6108322999e+01    0.1662614    0.1358658 -51.78  0.000466261    1.331    0.249
       297 -10.1968    225.8732    170.7337   8.7372291387e+01   2.0125225671e+00    0.2188712     0.195804 -20.52 0.0004270606    1.083    0.077
       298  -9.5058    193.0040    171.0753   9.3803815037e+01   8.0351281748e+00    0.2199447    0.2083799 -26.61  0.000342515    1.023    0.022
       299  -9.0558    188.1394    170.7928   9.4755001587e+01   9.0420984963e+00    0.1981555    0.1715188  -3.66 0.0003586826    1.292    0.226
       300  -8.9078     76.4694    171.4622   1.2186202020e+02   2.9798715200e+01    0.1457482    0.1335547 -74.03 0.0005028668    1.041    0.039
       301  -9.7348    201.0252    169.9875   9.1947965546e+01   6.7184344989e+00    0.2241763    0.1732698  -8.94 0.0003557364    1.586    0.370
       302  -8.8767     44.5274    170.5251   1.2989922811e+02   3.4358665247e+01    0.1377746    0.1183249 -74.95  0.000211881    1.039    0.037
       303 -10.1834    158.4897    168.8798   1.0088149502e+02   1.5386258431e+01    0.2272781    0.2096911  41.08 0.0005412675    1.106    0.096
       304 -10.0711    143.5465    169.2717   1.0448279515e+02   1.8295779986e+01    0.2170424    0.1451407 -39.24 0.0009379681    1.598    0.374
       305 -10.0686    231.8979    157.4190   8.3576475824e+01   3.4948361020e+00     0.293429     0.201304 -26.97 0.0004692444    1.554    0.356
       306 -10.2664    233.1547    151.6320   8.2167624378e+01   4.3736344753e+00    0.3342242    0.1831925 -45.45 0.0006292838    1.615    0.381
       307 -10.1868    240.1322    162.3198   8.3176764540e+01   1.1381677009e+00    0.2803524    0.2294475   3.99 0.0004442538    1.453    0.312
       308 -10.6502    237.5405    156.9500   8.2521684939e+01   2.5887941725e+00    0.4369474    0.2453938 -36.17   0.00115157    1.652    0.395
       309 -10.8252    239.6376    151.1260   8.0985347664e+01   3.3154833098e+00    0.5885509    0.3506944  34.19  0.002825343    2.163    0.538
       310 -10.7708    237.6043    166.8568   8.4520179774e+01   7.2188344099e-01     0.351378    0.2470854 -47.21  0.001010856    1.317    0.241
       311 -10.7477    234.2236    162.2760   8.4171528276e+01   2.1624702299e+00    0.3391273    0.2758499 -47.19 0.0004323258    1.145    0.127
       312 -10.4026    210.9313    165.9008   8.9153516931e+01   5.6737299252e+00    0.5389668    0.3165106 -61.54  0.002223941    2.339    0.572
       313 -10.8661    205.6029    166.1334   9.0232759475e+01   6.6334314208e+00    0.4152063     0.260921 -28.79  0.001738707    1.793    0.442
       314 -11.2770    205.9289    158.5182   8.8552242287e+01   8.1227808502e+00    0.5411298    0.3684099 -24.77  0.001542331    1.733    0.423
       315 -10.0190    206.0737    152.2958   8.7185650759e+01   9.3652321143e+00    0.2438021    0.1892465 -34.75 0.0003731881    1.258    0.205
       316  -9.3658    197.4595    168.0920   9.2265423509e+01   7.7939929491e+00    0.2257393    0.1382755 -42.44 0.0005712587    1.543    0.352
       317  -9.2931    134.9768    167.6920   1.0623354462e+02   2.0366921692e+01    0.2128015     0.201153  44.72 0.0004230789    1.081    0.075
       318  -9.4779    179.1090    166.3595   9.5733758495e+01   1.1785615673e+01    0.2489119    0.1988078 -35.49 0.0003700805    1.257    0.205
       319  -9.9683    150.3422    166.8725   1.0235861062e+02   1.7491689678e+01    0.2167719    0.1925276 -46.08 0.0004115627    1.116    0.104
       320  -9.3089     84.5248    167.0229   1.1899437265e+02   2.9656137025e+01    0.2228091    0.1392739 -62.05 0.0004465278    1.517    0.341
       321  -8.8887     53.8328    167.3917   1.2706577953e+02   3.3990588440e+01    0.1715264    0.1386177  12.70  0.000567521    1.611    0.379
       322 -10.4993    218.9495    165.2420   8.7508243683e+01   4.3191666927e+00    0.2425286    0.1895996 -35.00 0.0003275424    1.185    0.156
       323  -9.2597    169.9512    166.4943   9.7772462659e+01   1.3604003619e+01    0.2209359    0.1521403  42.97 0.0003883369    1.492    0.330
       324  -9.4741    165.2749    166.3273   9.8786718292e+01   1.4589522557e+01    0.1534115    0.1212875 -13.62 0.0001901178    1.587    0.370
       325  -9.0151    140.5230    166.5448   1.0464088820e+02   1.9539399675e+01    0.1546731    0.1500319 -84.16 0.0004107559    1.016    0.016
       326  -8.5178    127.7052    165.7070   1.0762219449e+02   2.2264773472e+01     0.151365    0.1240105 -14.15 0.0003010481    1.558    0.358
       327 -10.1769    213.2208    160.1882   8.7517078864e+01   6.3873393870e+00    0.2696119    0.2255221 -12.04 0.0004049184    1.342    0.255
       328  -9.5585    200.0482    162.4178   9.0540196553e+01   8.4664471432e+00    0.2476459    0.1936162 -31.25 0.0004951332    1.287    0.223
       329  -9.7490    191.9633    162.5645   9.2207528647e+01   1.0028430149e+01    0.2351998    0.1958684 -31.90 0.0004125609    1.200    0.166
       330  -9.8776    184.5925    163.0589   9.3851332550e+01   1.1396846856e+01    0.3098827    0.2189069  64.63 0.0006652665    1.799    0.444
       331 -10.1099    159.4993    162.9698   9.9382444463e+01   1.6525887923e+01    0.2354953    0.2075283  42.78 0.0004543862    1.162    0.139
       332  -9.3481    111.1571    162.9271   1.1126066139e+02   2.6079532367e+01    0.2313627     0.203859  89.20 0.0004894044    1.176    0.149
       333  -8.9756     80.5304    163.4959   1.1941117563e+02   3.1172284192e+01    0.1483062    0.1362774 -73.32 7.697623e-05    1.016    0.016
       334  -8.8160    172.5230    162.4514   9.6329285152e+01   1.3977098754e+01    0.1519882    0.1476142 -39.84 5.672536e-05    1.016    0.016
       335  -9.5146    221.2067    159.8686   8.5975079399e+01   4.9593293136e+00    0.2111219    0.1852886 -62.97 0.0006108473    1.226    0.184
       336 -10.5384    153.2901    159.6971   1.0011687196e+02   1.8549327179e+01    0.2519253    0.2357021 -17.96 0.0004235949    1.152    0.132
       337 -11.2870    156.4495    157.4085   9.8873799483e+01   1.8423387814e+01    0.4810522    0.3468149  64.91  0.002136248    1.672    0.402
       338  -8.5205     85.2997    160.3228   1.1755794128e+02   3.1211027383e+01    0.1496811    0.1139867 -29.70 0.0002856482    1.628    0.386
       339 -10.2922    250.4050    156.6810   8.0374579507e+01   4.5557635976e-01     0.320726     0.143873 -41.75   0.00133316    1.886    0.470
       340 -10.2097     54.1676    158.0119   1.2550477203e+02   3.6295777237e+01    0.3997384    0.2057163  32.44  0.001790368    2.162    0.537
       341  -8.9909    168.2933    157.3099   9.6144112940e+01   1.5990489285e+01    0.1533581    0.1231492  -8.83 0.0002786658    1.588    0.370
       342  -9.5067    140.5962    156.7484   1.0251860655e+02   2.1836007715e+01    0.2177052    0.1477854 -61.35 0.0004177469    1.587    0.370
       343  -9.1421    246.7955    161.1700   8.1846937551e+01   2.3323192423e-01    0.1710249    0.1417257 -17.52 0.0003246237    1.263    0.208
       344  -8.8022     99.0226    156.2137   1.1308865794e+02   2.9924917720e+01     0.189274    0.1246758  38.24 0.0003881469    1.592    0.372
       345  -9.3505    197.1779    154.6427   8.9435028676e+01   1.0650931137e+01    0.1932088    0.1857727  15.97 0.0004677963    1.113    0.102
       346 -10.1626    228.0284    150.5148   8.2810882110e+01   5.5226596398e+00    0.2709537    0.2168424 -35.28 0.0005381314    1.164    0.141
       347  -9.1619    222.2823    154.3381   8.4622124052e+01   5.8441537410e+00      0.19365     0.186501 -40.60 0.0004999139    1.074    0.069
       348  -9.7630    221.5180    150.5219   8.3953517245e+01   6.7363701766e+00    0.2673289    0.1791484 -42.86 0.0005222241    1.340    0.254
       349  -9.5047    216.2112    154.1455   8.5681256520e+01   7.0261740801e+00    0.2223895    0.1837059 -62.38 0.0003649436    1.289    0.224
       350 -10.9266    212.3207    149.5848   8.5423717719e+01   8.6886451909e+00    0.5119535    0.4009318 -70.09   0.00261831    1.495    0.331
       351 -10.8120    167.1675    152.9655   9.5430655839e+01   1.7196104849e+01    0.4279016    0.2071598 -38.24  0.001558252    2.265    0.558
       352  -9.2058    246.4453    155.4763   8.0763590035e+01   1.3359564812e+00    0.1360552     0.115144 -36.91 0.0001017132    1.034    0.033
       353  -9.3661    226.2881    154.5589   8.3958795429e+01   5.0600000206e+00    0.1960507    0.1431247  45.35 0.0008332607    1.538    0.350
       354  -9.5880    157.4997    150.8870   9.7173240867e+01   1.9694184367e+01      0.23387    0.1514459 -46.58 0.0004449511    1.504    0.335
       355 -10.2476    144.8333    149.6405   9.9901793998e+01   2.2630922083e+01    0.5609921    0.2587404 -53.13  0.002006464    2.243    0.554
       356  -9.1021    107.7991    151.3647   1.0974083411e+02   2.9543103513e+01    0.2048901    0.1489898  28.21  0.000440045    1.580    0.367
       357 -10.4479     20.1963    151.3797   1.3355548282e+02   4.1612100169e+01    0.1872983    0.1390484  85.04 0.0007750337    1.333    0.250
       358 -10.6071    249.5503    148.0404   7.8782345227e+01   2.1746568435e+00    0.4621951    0.2117287 -36.53  0.001438525    2.056    0.514
       359 -10.9174    243.7537    145.6970   7.9216311481e+01   3.6061506848e+00    0.4813023     0.241336 -46.58   0.00108469    1.742    0.426
       360 -12.6554    233.7575    123.1989   7.6129023303e+01   9.6493385783e+00      1.35243     1.059148  40.26  0.007534306    1.560    0.359
       361 -12.8059    247.9450    102.5038   6.9824246675e+01   1.0676689518e+01     1.240038    0.4703209 -54.17  0.004782645    2.808    0.644
       362 -11.4980    248.3650     94.1649   6.8095000606e+01   1.2034434026e+01    0.6090845    0.2912874 -57.69  0.002637648    2.138    0.532
       363 -10.5637    249.0993    122.7062   7.3744732339e+01   6.8715690610e+00    0.2664225    0.2127352 -38.11 0.0006801626    1.205    0.170
       364 -10.4912    242.2222    131.7443   7.6602268277e+01   6.4699366955e+00    0.2536647    0.2076317 -24.87  0.000469737    1.362    0.266
       365 -11.0387    246.7283    127.9962   7.5160479036e+01   6.3400558239e+00    0.4571449    0.3092202 -21.02  0.001687556    2.027    0.507
       366  -9.1988    202.5115    149.8780   8.7346213784e+01   1.0569555276e+01    0.2290207    0.1379827 -43.83  0.001016113    1.541    0.351
       367 -10.6275      5.7860    148.5137   1.3693560451e+02   4.3478247343e+01    0.2435941    0.1445722 -72.97 0.0008743042    1.347    0.258
       368  -8.6621    122.4199    148.4464   1.0526188292e+02   2.7463432748e+01    0.1550374    0.1489597 -61.84  0.000108824    1.017    0.017
       369 -10.0553    161.8052    147.4130   9.5391509632e+01   1.9572455451e+01    0.2828965    0.1534146  48.70 0.0004408633    1.924    0.480
       370 -10.6607    159.7653    144.2577   9.5136150447e+01   2.0716880947e+01     0.347392    0.2050069 -39.44 0.0009612099    1.758    0.431
       371  -9.2507    150.0478    147.0109   9.8048139150e+01   2.2149255109e+01    0.1883945    0.1828708 -65.83 0.0004226939    1.002    0.002
       372  -8.7704     98.4631    146.4476   1.1120747673e+02   3.2439469649e+01    0.1520008    0.1444932 -61.21 0.0001060064    1.021    0.021
       373 -11.6264     37.0867    143.9441   1.2789689342e+02   4.1787351007e+01    0.5051451    0.2815805 -58.97  0.002235136    1.506    0.336
       374 -11.4259     25.9526    144.0638   1.3099087694e+02   4.2868214256e+01    0.4137645     0.257192  77.25  0.001853443    1.974    0.493
       375 -11.3370     12.5127    145.0125   1.3474602601e+02   4.3800111464e+01    0.3264336    0.1857236 -60.66  0.001780286    1.417    0.294
       376 -10.2276    234.9623    143.9215   8.0268911874e+01   5.5126023056e+00     0.221754    0.2002388  43.04 0.0005145345    1.274    0.215
       377  -9.4772    223.6468    144.4348   8.2288975156e+01   7.5248449093e+00    0.1654551    0.1393883  31.94 0.0004396483    1.384    0.277
       378  -9.2916    208.5148    142.9462   8.4690193890e+01   1.0780924776e+01    0.2200451     0.135517 -42.89  0.000431804    1.496    0.331
       379  -9.4377    113.2294    142.1462   1.0626668277e+02   3.0767729812e+01     0.305482    0.1983973  66.62  0.001225488    2.117    0.528
       380  -9.7465    131.2946    139.0170   1.0082358871e+02   2.7919538355e+01      0.23568    0.2146535 -18.90 0.0004470612    1.220    0.180
       381 -10.2495    135.7014    138.9257   9.9687161961e+01   2.7029472959e+01    0.3301338    0.2317817  39.56 0.0006885099    1.490    0.329
       382  -9.6763    119.1345    144.5356   1.0524224762e+02   2.9049105997e+01    0.4267265    0.2751702   8.14  0.001520852    2.970    0.663
       383 -10.1145    238.5828    139.2561   7.8717379434e+01   5.7329149882e+00     0.282244     0.192805 -54.18 0.0003637397    1.393    0.282
       384  -8.9322    213.8555    140.3820   8.3152276112e+01   1.0229746943e+01    0.1848157    0.1378026  34.70  0.000414164    1.591    0.372
       385 -10.2754     28.6797    140.0564   1.2962975493e+02   4.3586357798e+01    0.2081929    0.1713986  53.89 0.0006274366    1.372    0.271
       386  -9.5319    109.5563    138.4852   1.0642265687e+02   3.2348926778e+01    0.2518993    0.2007433 -14.96 0.0005348817    1.601    0.376
       387  -9.3996    243.6593    137.9768   7.7657821862e+01   5.0552685885e+00    0.1938119    0.1476845 -42.83 0.0004319655    1.131    0.115
       388 -10.6812    166.1803    137.3913   9.2084049049e+01   2.0868568928e+01    0.3387016    0.2514938 -52.30 0.0007952784    1.320    0.242
       389  -9.8631    203.3554    133.4868   8.3560373754e+01   1.3751353935e+01    0.3081791    0.2442422 -17.41    0.0013864    1.569    0.363
       390  -8.9256    155.6960    134.2901   9.3743555613e+01   2.3829074587e+01    0.1565752    0.1233631 -88.64 0.0002325609    1.570    0.363
       391 -10.0205     11.0145    134.2933   1.3370815968e+02   4.6478098661e+01    0.1714636     0.145539 -67.13  0.000370388    1.057    0.054
       392 -12.9950    242.3675    111.1389   7.2343960257e+01   1.0208304505e+01     1.107587    0.8423605  46.15  0.006319723    1.611    0.379
       393  -8.9960    218.7881    135.6074   8.1242689573e+01   1.0196654156e+01    0.1749564    0.1379036  68.51 0.0002233939    1.476    0.322
       394 -10.0225     38.9844    131.7383   1.2528462915e+02   4.4567400816e+01    0.2946587    0.1823639 -45.34  0.001307479    1.532    0.347
       395 -10.1066      6.2288    131.7005   1.3468030627e+02   4.7436547355e+01    0.2223285   0.09410713  32.69  0.001078108    2.702    0.630
       396  -8.6869     80.4954    130.5013   1.1279888674e+02   3.9359073881e+01    0.1489211    0.1371275 -45.92 -0.0001498126    1.047    0.044
       397  -8.8701    131.2804    129.3352   9.8514856904e+01   3.0168122532e+01    0.1566064    0.1246628 -13.68 0.0003079278    1.614    0.381
       398 -10.7832    221.8942    126.2321   7.8684824893e+01   1.1402531114e+01    0.2568266    0.1867128 -15.27  0.001219896    1.971    0.493
       399  -8.6962    192.6724    126.7518   8.4066416878e+01   1.7386227004e+01    0.1416059    0.1193111  11.36 0.0002232406    1.542    0.352
       400  -9.7795    102.7639    125.7183   1.0529784290e+02   3.6657942664e+01    0.3197556    0.2274065 -23.27  0.001126403    1.810    0.448
       401  -9.8175    145.7253    123.1889   9.3410641720e+01   2.8463610180e+01    0.2267851    0.2013812  60.36   0.00114389    1.154    0.133
       402  -9.3811    124.3167    123.3391   9.8844735296e+01   3.2980349135e+01    0.1593005     0.124504  -9.27 0.0007048555    1.705    0.413
       403 -10.3984      5.6442    124.1581   1.3378585748e+02   4.9243279339e+01    0.1637339    0.1440287 -81.20 0.0005489559    1.157    0.136
       404  -8.6045    180.2674    121.3696   8.5276494118e+01   2.1206097765e+01    0.1514452    0.1215167 -10.85 0.0006992036    1.663    0.399
       405  -9.2063    127.5364    121.4829   9.7540006161e+01   3.2732644998e+01    0.1544998    0.1501223 -66.35  0.000333518    1.012    0.012
       406 -10.2392     13.0060    118.6256   1.3076892698e+02   5.0015478107e+01    0.2799054    0.1456576 -84.63  0.001281987    2.431    0.589
       407 -10.2119     16.9464    115.0605   1.2897112186e+02   5.0544403655e+01    0.2116596    0.1227855 -38.73  0.001126963    1.704    0.413
       408 -10.9963      6.0090    112.0253   1.3182225709e+02   5.2015216954e+01    0.2182783    0.1696057 -36.33 0.0007432281    1.287    0.223
       409 -10.8736     21.0917    112.4640   1.2721981000e+02   5.0812829051e+01     0.423857    0.1981003 -84.66  0.001485923    4.256    0.765
       410  -9.7932     90.4395    111.7843   1.0540419000e+02   4.2085248680e+01    0.2452196    0.2063436  36.58 0.0004929652    1.242    0.195
       411  -8.9371     41.5185    112.5159   1.2077118432e+02   4.8857540247e+01    0.1357909    0.1168042 -48.61 6.560962e-05    1.008    0.008
       412 -11.3761     28.3401    106.3586   1.2372479591e+02   5.1582075909e+01    0.3943841    0.2512501  -3.30  0.002085091    2.026    0.506
       413 -11.0893      2.5826    107.9325   1.3221620601e+02   5.3153850888e+01    0.4265949    0.1567101 -56.41  0.001745128    1.949    0.487
       414  -8.7031    133.6925    107.6657   9.2417782117e+01   3.4435067912e+01    0.1551518     0.123424  -1.75 0.0007041233    1.671    0.402
       415 -11.0870    249.5962    140.1289   7.7186261085e+01   3.6137114159e+00    0.5196375    0.2942257 -32.48  0.001667979    1.829    0.453
       416 -10.4852    248.4644    133.7223   7.6063988851e+01   4.9831505157e+00    0.3600757    0.2377029 -33.30  0.000955676    1.508    0.337
       417  -9.4304     60.5415    104.9611   1.1295024664e+02   4.8263164223e+01    0.3413961     0.161522 -38.50  0.001216457    2.242    0.554
       418 -10.4067     59.3501    101.6781   1.1252511356e+02   4.9153888430e+01    0.2363155    0.1937792 -77.76  0.001059102    1.490    0.329
       419  -9.6349     89.2485    102.9222   1.0345545710e+02   4.4252631359e+01    0.2368035     0.207763  24.13 0.0007122994    1.184    0.155
       420  -9.2420     68.7871    101.0279   1.0931711243e+02   4.7967129480e+01    0.1940274    0.1065842 -50.91 0.0008687461    1.702    0.413
       421 -11.5030      4.2900    100.5722   1.3043060589e+02   5.4692255007e+01    0.4496844    0.1903572  42.02  0.002094639    3.254    0.693
       422 -11.1305     25.0541     98.8999   1.2325623789e+02   5.3543296059e+01    0.3696928    0.1838588 -44.29  0.001159135    1.722    0.419
       423  -8.9866    106.1999     98.7865   9.7376278540e+01   4.1989605206e+01    0.2478485     0.168063  88.35 0.0009541009    2.813    0.644
       424  -9.6359     44.2236     98.3665   1.1670775465e+02   5.1752749102e+01    0.2887885    0.1666401 -33.28 0.0009555598    1.806    0.446
       425 -10.0773    214.4913     97.4690   7.3567648180e+01   1.8339536315e+01    0.2513734    0.2197967 -63.10 0.0005870687    1.018    0.018
       426 -10.6614     86.9798     95.9650   1.0226241644e+02   4.6129335540e+01    0.3762639    0.2995706 -22.83 0.0009752719    1.323    0.244
       427 -11.5995     20.5593     94.6384   1.2386647797e+02   5.4852867570e+01    0.4145633    0.2479428 -18.29  0.002214188    1.990    0.497
       428  -9.8381     68.7271     93.9481   1.0746971606e+02   4.9497536971e+01    0.2026884     0.171309 -41.71 0.0009277894    1.106    0.096
       429 -11.1777     40.1361     93.8449   1.1700006226e+02   5.3187595169e+01    0.7562374    0.2625781 -43.10  0.002899888    2.646    0.622
       430 -10.4222     45.1718     91.4418   1.1468357577e+02   5.3141262737e+01    0.3179765    0.1662342  39.47  0.001515511    2.231    0.552
       431 -11.1381      7.0562     95.6279   1.2861869313e+02   5.5606053899e+01    0.2385117    0.1559363 -78.13  0.001381773    1.684    0.406
       432 -10.0644    198.0302     90.7878   7.4713335289e+01   2.3161354937e+01    0.5333688    0.2043428 -48.43  0.001961352    2.561    0.610
       433 -11.1793     11.2903     90.9668   1.2626731277e+02   5.6335844632e+01    0.2851399    0.1496882 -13.92  0.001431444    2.489    0.598
       434  -8.4933    129.3364    106.6653   9.3260231756e+01   3.5584129349e+01    0.1591498    0.1218435 -88.04 -0.000492951    1.744    0.427
       435  -9.6041     24.0460     87.8689   1.2115506885e+02   5.6017192363e+01    0.2331683    0.1506007 -20.50  0.001273544    1.668    0.400
       436 -11.5076      6.0000     87.4579   1.2737867652e+02   5.7427999033e+01    0.3290273    0.1340384 -58.36  0.001641336    1.887    0.470
       437 -11.1659     11.6542     82.6843   1.2437282435e+02   5.8061072968e+01    0.2998866    0.1731533 -35.85  0.001149383    1.535    0.348
       438 -10.0487    249.4764     86.5385   6.6438262564e+01   1.3105143341e+01    0.2632443    0.1117301 -42.07 0.0008596031    2.072    0.517
       439 -11.2111    243.0473     81.5182   6.6216941571e+01   1.5192199429e+01    0.3030325    0.1767261 -34.25  0.001042999    1.951    0.487
       440 -11.3021    241.3377     85.3472   6.7203930508e+01   1.4895681608e+01     0.492655    0.2495619 -84.54  0.001753745    4.121    0.757
       441  -8.9776    220.5506     85.8073   7.0094208779e+01   1.9102679107e+01    0.1903299    0.1149335 -53.68 0.0003353797    1.520    0.342
       442  -9.6711     17.2895     86.3179   1.2318080206e+02   5.6891231554e+01    0.1300665   0.07419138 -35.69 0.0003490913    1.596    0.374
       443  -9.8629    230.0229     84.4325   6.8486627589e+01   1.7346373082e+01    0.2754854    0.1813455 -66.53  0.001128984    1.512    0.339
       444  -9.5430    202.0100     84.4647   7.2594597806e+01   2.3389099426e+01    0.2027673     0.135337  63.65 0.0004282176    1.517    0.341
       445  -9.3140     35.4862     91.4984   1.1802835041e+02   5.4177211919e+01    0.1959387    0.1214622   4.10 0.0006339455    2.001    0.500
       446 -10.6538      2.5269     82.4756   1.2757973945e+02   5.8680174105e+01    0.2854683     0.195705 -85.42  0.001588411    1.914    0.477
       447  -8.9846     64.6398     82.2533   1.0556582744e+02   5.2491532728e+01    0.1836146    0.1144544 -37.65 0.0003069757    1.511    0.338
       448 -10.1856     37.6262     80.4058   1.1446305929e+02   5.6264618903e+01    0.4024964     0.208718 -34.78  0.001977962    1.871    0.466
       449 -11.9180    249.4723     78.2778   6.4808272382e+01   1.4460557557e+01    0.6083342    0.3243892 -44.27  0.003151284    1.636    0.389
       450 -11.1901    248.0489     72.6845   6.3872725420e+01   1.5633833867e+01    0.3399826    0.2508877 -20.25  0.001721727    2.161    0.537
       451 -11.0785     46.9013     79.5561   1.1092441744e+02   5.5386095484e+01    0.3660626    0.2301282  17.84  0.001948645    1.757    0.431
       452 -10.0220     42.8612     77.3763   1.1175781702e+02   5.6292286552e+01    0.2707499    0.1360742 -37.22 0.0008394496    1.862    0.463
       453 -10.7342     61.8070     78.9894   1.0557995111e+02   5.3540044697e+01    0.3276185    0.1590338  44.03  0.001436578    2.458    0.593
       454 -11.3978    239.1775     80.1929   6.6425441996e+01   1.6183859578e+01    0.2254995    0.1680041 -41.90 0.0008009794    1.349    0.259
       455  -8.8088    135.4730     76.5179   8.3493764960e+01   4.0061940973e+01    0.1434396    0.1383786  55.77 0.0003338722    1.007    0.007
       456 -11.2309      7.2988     74.7523   1.2416314233e+02   5.9972095678e+01    0.3275681     0.217692  59.51  0.001843928    2.561    0.610
       457  -9.4023      1.9630     75.0207   1.2619626871e+02   6.0239698697e+01     0.235888    0.1135957 -26.10  0.001244972    2.191    0.544
       458  -9.9580    217.5232     72.8071   6.7688758882e+01   2.1928962948e+01    0.3030713    0.2317133 -12.87  0.001569955    2.098    0.523
       459  -9.8554    125.3156     73.0257   8.4945292265e+01   4.2913119905e+01    0.1943061    0.1913476 -78.37 0.0006475268    1.062    0.059
       460 -11.2803    101.5364     68.7011   8.9957378374e+01   4.8606580145e+01    0.4067487    0.2716283 -26.46 0.0008624106    1.648    0.393
       461  -8.7911     20.5020     72.5874   1.1869686378e+02   5.9438853669e+01    0.1241852     0.095922 -31.54  0.000296995    1.075    0.070
       462 -10.6931      6.4480     66.7316   1.2256481871e+02   6.1609583523e+01    0.1883316    0.1377804 -27.47 0.0009088857    1.181    0.153
       463  -9.7336     11.0480     72.2475   1.2216767499e+02   6.0223014396e+01    0.1890897    0.1487514 -41.13 0.0005827322    1.033    0.032
       464 -12.5213    242.2554     67.0073   6.3406824558e+01   1.7676547202e+01    0.6101838    0.2124777 -45.71  0.002605785    2.417    0.586
       465 -11.4503     53.0998     70.9820   1.0623925239e+02   5.6259570570e+01    0.3423738    0.2995656  45.95   0.00156954    1.439    0.305
       466  -9.1234     58.5142     65.5249   1.0264467662e+02   5.6512338333e+01    0.1302511    0.1132563 -11.19 0.0004036054    1.001    0.001
       467 -10.2888     43.8622     64.3009   1.0756081049e+02   5.8649015984e+01    0.4104014    0.1922907 -40.26  0.002004632    1.915    0.478
       468 -10.1803     47.5459     59.9842   1.0484228720e+02   5.8958654131e+01    0.2479782    0.1528514   0.46 0.0007215248    1.983    0.496
       469 -12.1371    247.4485     62.2336   6.1900628165e+01   1.7374898839e+01    0.4297731    0.2887834 -48.45  0.002564783    1.323    0.244
       470  -9.9342    250.5009     54.9445   6.0189134441e+01   1.7862400995e+01    0.3236553    0.1125037 -38.48  0.001369921    2.887    0.654
       471  -9.4159     49.2886     64.3109   1.0556828570e+02   5.7973861505e+01     0.130329   0.08699686 -15.52 0.0003147032    1.581    0.367
       472  -9.0181     28.8419     64.2128   1.1321641032e+02   6.0294253667e+01    0.1725265    0.1165668 -21.70 0.0005846836    1.378    0.274
       473  -8.6892     54.3784     62.2829   1.0308745405e+02   5.7657873940e+01    0.1344178   0.08938459  -5.31 0.0007011961    1.719    0.418
       474 -10.9416     17.4830    247.6531   1.4322132154e+02   1.9720465470e+01    0.4742531    0.2031012 -59.01  0.002442795    2.671    0.626
       475 -10.2977      8.8400    248.3351   1.4477939071e+02   2.0522610052e+01    0.1966055    0.1627423  78.81 0.0004117102    1.218    0.179
       476 -11.8389    210.8256    246.0093   1.0437577190e+02  -8.9343615529e+00    0.2887886    0.2375052 -10.55 0.0005357831    1.125    0.111
       477 -10.7116    154.4521    240.7357   1.1491593970e+02   9.2998274061e-01     0.312675    0.1962276  50.44 0.0007164007    1.635    0.388
       478 -11.3601    158.0488    245.3911   1.1488113529e+02  -5.2638469184e-01    0.4951458    0.3524417  16.20  0.001844319    1.613    0.380
       479  -9.8844    171.0004    232.8679   1.1018129061e+02  -3.8095537407e-01    0.2034619    0.1851369  20.67 0.0005337417    1.014    0.014
       480  -9.2479    119.5937    248.2225   1.2328671310e+02   5.2704982656e+00    0.1657831    0.1241949 -46.71 0.0009378223    1.570    0.363
       481 -12.0994     30.6881     38.7888   1.0423769886e+02   6.4392022023e+01    0.6862679    0.4440436 -20.22    0.0014653    1.375    0.273
       482 -10.7645     31.3462    246.8007   1.4065381415e+02   1.8291463095e+01    0.3412369     0.220217  69.12 0.0007212692    1.268    0.211
       483  -9.9146    124.2543    246.9420   1.2214710353e+02   4.7601821733e+00    0.2110942    0.1718891  41.92 0.0004583468    1.108    0.098
       484 -10.3545    133.0321    245.3171   1.2008896148e+02   3.6301396645e+00    0.2220622    0.2167235 -60.51 0.0004377737    1.154    0.133
       485 -10.7987    125.3766    240.0400   1.2096022255e+02   5.9350275011e+00    0.4449959    0.3013237  74.37  0.001999127    1.920    0.479
       486 -10.8039    113.4192    244.2169   1.2404811064e+02   7.0630829924e+00    0.5343249    0.2990572 -56.91  0.002666848    1.955    0.489
       487 -10.2464     60.3184     59.7977   1.0017834327e+02   5.7243328770e+01     0.297463    0.1402049  29.56  0.001363845    2.243    0.554
       488 -12.1126     79.0920     57.0312   9.2985910776e+01   5.4687437873e+01    0.4406395    0.3040372 -30.25  0.002436196    1.450    0.310
       489 -11.5689     82.1762     50.3920   8.9814716177e+01   5.5156749892e+01    0.5058008    0.2926183 -47.27  0.002495441    2.134    0.531
       490 -10.0603     65.2692     56.9686   9.7532142201e+01   5.6966896438e+01    0.1822561    0.1544131 -12.13 0.0003542067    1.068    0.064
       491  -9.1426     39.2157     57.5680   1.0720237544e+02   6.0387095816e+01    0.1650039    0.1068565   8.99 0.0007632479    1.626    0.385
       492 -10.5699     27.0316     55.3869   1.1126777715e+02   6.2061259836e+01    0.4283852    0.1953847  19.40  0.001773951    2.421    0.587
       493 -10.7636     45.9807     53.9599   1.0346423049e+02   6.0179357380e+01    0.2744057    0.1995534  20.55  0.001699287    1.337    0.252
       494  -9.4738    221.4730     53.4840   6.3051416016e+01   2.4060357094e+01    0.1315783     0.108265 -76.12 9.296299e-05    1.008    0.008
       495  -9.4564    131.4805     53.0147   7.7660506364e+01   4.4691805094e+01    0.1983105     0.137007 -33.79  0.000577011    1.574    0.365
       496  -9.0606     63.3082     52.3474   9.6660353192e+01   5.8006367285e+01    0.1339033   0.08973607  -2.86 0.0007043935    1.704    0.413
       497 -10.5820    248.6854     50.8635   5.9594956934e+01   1.8813754417e+01    0.1791458    0.1454084 -42.50 0.0007768816    1.428    0.300
       498  -9.0883    172.1919     49.8671   6.9060786913e+01   3.5739267119e+01    0.1699434    0.1500843  45.14            0    1.281    0.220
       499 -11.4629     50.0343     42.8810   9.8136016419e+01   6.1379247271e+01    0.4019222    0.2227908  19.32  0.001781137    1.969    0.492
       500  -9.4435     42.1484     49.7010   1.0349155168e+02   6.1354386067e+01    0.2359927    0.1302203 -19.68 0.0008485093    2.063    0.515
       501  -9.6106    137.2409     49.4186   7.5381877535e+01   4.3897800610e+01    0.1922533    0.1243354  68.37 0.0005972661    1.623    0.384
       502  -9.4437    198.3026     55.0635   6.6379312329e+01   2.8963500450e+01    0.1868144    0.1576897 -64.64  0.000437758    1.109    0.098
       503 -10.3110    105.1189     47.0891   8.2191175103e+01   5.1199170755e+01    0.2008904    0.1827949  27.22 0.0004298378    1.025    0.025
       504 -10.7198    108.4669     45.1033   8.0697448856e+01   5.0775845646e+01    0.2125515    0.1695761  30.25 0.0006152271    1.219    0.180
       505 -10.7611    118.0296    238.9489   1.2236991556e+02   7.3722452062e+00    0.4900725    0.3469724  -1.90  0.001772983    2.492    0.599
       506  -9.9357    114.6707    239.7202   1.2318808026e+02   7.7675404070e+00    0.3640998    0.2220235  83.12    0.0016167    2.516    0.602
       507  -8.9303    193.7494     45.9834   6.4919704548e+01   3.1296983653e+01    0.1611143     0.109112 -41.64 0.0007179221    1.533    0.348
       508 -10.6292     11.9172     44.4788   1.1405626246e+02   6.5253059455e+01    0.3140713    0.1822811 -20.59  0.001283387    1.583    0.368
       509 -10.7538    118.9933     41.7827   7.7116404653e+01   4.8970626507e+01    0.4212385     0.238847  62.48  0.001688926    1.835    0.455
       510 -11.1374     48.4907     47.9321   1.0048274174e+02   6.0821884681e+01    0.2468251    0.2166048 -18.03 0.0008381708    1.166    0.142
       511  -9.6537    127.3954     40.5892   7.4886036662e+01   4.7277693858e+01    0.3087071    0.1789279  27.48  0.001378458    2.435    0.589
       512  -9.2024    243.1297    245.3228   9.8248382992e+01  -1.3286525494e+01    0.1566537    0.1251027   6.13 0.0004458535    1.085    0.078
       513  -9.7819      3.3919     33.3871   1.1416397752e+02   6.7685325768e+01    0.3074663    0.1480379  -1.54  0.001714853    2.368    0.578
       514 -10.2022      4.6342     29.2089   1.1215087044e+02   6.8240913663e+01    0.3981253    0.2380519   0.33  0.002671243    1.573    0.364
       515 -10.8202     49.1753     32.5025   9.4659126011e+01   6.2951956815e+01    0.3215874    0.1768744  33.88  0.001829995    1.697    0.411
       516 -11.3650     78.0285     21.3569   8.0890078261e+01   5.9554426283e+01    0.3876416    0.2830027  53.49  0.001499906    1.436    0.303
       517 -11.6740    204.9288    231.4583   1.0302939039e+02  -5.6593426662e+00    0.4991399    0.3054209  22.72 0.0005150679    1.703    0.413
       518 -10.7191    236.0272     20.1844   5.4972558696e+01   2.5444009744e+01    0.2434724    0.1088304 -61.85  0.001239002    2.117    0.528
       519 -12.7392      5.6970     56.0892   1.2008836449e+02   6.3661910520e+01    0.8481424    0.6025126 -35.89  0.003785905    1.081    0.075
       520 -11.6898    192.0089    243.9909   1.0773183992e+02  -5.7572685888e+00    0.4109098     0.268968 -25.47  0.000532323    1.697    0.411
       521 -10.9509    225.8187    240.2064   1.0053795302e+02  -1.0187292262e+01     0.294953    0.2302323 -14.51 0.0004472985    1.150    0.130
       522 -11.8754    211.2580    237.7421   1.0288531823e+02  -7.6761197017e+00    0.7124461    0.3568405  40.76  0.003486352    2.029    0.507
       523  -9.3770    178.9955     14.9596   5.9623032571e+01   3.8425796917e+01    0.1849855    0.1530026  82.72 0.0003730343    1.022    0.021
       524 -10.7473    202.1092    239.9508   1.0505116772e+02  -6.6495508272e+00    0.2600136    0.2358665  20.67 0.0005172282    1.138    0.122
       525 -11.4859    198.3923    237.8345   1.0542677940e+02  -5.7199403277e+00    0.4600396    0.3256637  20.67  0.001470596    1.365    0.267
       526 -10.7087    218.7983    241.9803   1.0216703439e+02  -9.4620108098e+00    0.2708491    0.2384609 -56.14  0.001463387    1.593    0.372
       527 -11.0107    221.4044    237.2122   1.0084987392e+02  -9.0873885479e+00    0.4713618    0.2857426  -1.03  0.001582315    2.126    0.530
       528 -10.1875     93.5425    244.6364   1.2823187125e+02   1.0132757516e+01    0.2331702    0.1960586  30.06 0.0005905083    1.376    0.273
       529 -10.2666     80.8461    244.3596   1.3080066198e+02   1.2120223844e+01    0.2258756    0.1949232  44.96   0.00046265    1.229    0.187
       530  -9.7677     41.5155    244.6644   1.3858221928e+02   1.7484388814e+01    0.1944983    0.1620717  61.85 0.0005244993    1.178    0.151
