#   1 NUMBER                 Running object number                                     
#   2 MAG_AUTO               Kron-like elliptical aperture magnitude                    [mag]
#   3 X_IMAGE                Object position along x                                    [pixel]
#   4 Y_IMAGE                Object position along y                                    [pixel]
#   5 X_WORLD                Barycenter position along world x axis                     [deg]
#   6 Y_WORLD                Barycenter position along world y axis                     [deg]
#   7 A_WORLD                Profile RMS along major axis (world units)                 [deg]
#   8 B_WORLD                Profile RMS along minor axis (world units)                 [deg]
#   9 THETA_WORLD            Position angle (CCW/world-x)                               [deg]
#  10 FWHM_WORLD             FWHM assuming a gaussian core                              [deg]
#  11 ELONGATION             A_IMAGE/B_IMAGE                                           
#  12 ELLIPTICITY            1 - B_IMAGE/A_IMAGE                                       
         1 -13.8231      7.0284     12.2781   1.1935834463e+02   7.2510790034e+01     2.071109    0.7460349 -42.11   0.01106813    2.042    0.510
         2 -14.4652    198.0648     16.8416   6.6376635417e+01   3.3756225373e+01      2.79112     1.641868  29.54    0.0120247    2.534    0.605
         3 -14.7304     10.7480    207.6280   1.4886945658e+02   3.0915466383e+01     2.472366     1.575645 -63.67   0.01211314    1.866    0.464
         4 -10.9802    249.7825    247.7237   1.1066294820e+02  -1.0180694253e+01    0.3841844    0.1101879 -33.59  0.001813767    3.910    0.744
         5 -12.0135    140.0770    248.8481   1.2935025202e+02   6.4013727314e+00    0.3914836    0.3135532  84.00  0.002795467    1.471    0.320
         6 -10.8908    119.9609    238.1985   1.3174174694e+02   1.1166789992e+01    0.2790442    0.1600759 -72.84  0.001586426    2.272    0.560
         7 -12.5071    125.8466    244.3900   1.3135840943e+02   9.2808645863e+00    0.5174659    0.3157614  59.11  0.003187072    1.494    0.331
         8 -12.5091    106.2615    247.2906   1.3507128849e+02   1.1790694400e+01    0.6305914    0.2627787  52.66  0.003332019    1.972    0.493
         9 -11.6636     97.9936    248.4757   1.3660255065e+02   1.2808373781e+01    0.3716168    0.2107245  54.57  0.001592973    1.364    0.267
        10 -11.2163    101.1527    246.1367   1.3584791801e+02   1.2724219141e+01    0.3150802     0.206286  87.43 0.0003656221    1.698    0.411
        11 -14.9095     33.2728    246.2263   1.4715412706e+02   2.1548262383e+01     8.281939     2.384069  32.66   0.02906098    7.411    0.865
        12 -13.5477     47.3411    230.9518   1.4393142174e+02   2.2569713163e+01    0.7550987    0.3127279  56.83  0.002164517    1.913    0.477
        13 -15.0128     53.6852    218.0671   1.4188558056e+02   2.4165319753e+01     2.491446     1.358535  56.67   0.01084875    1.468    0.319
        14  -9.7007    229.8024    229.8680   1.1113601877e+02  -5.3697393539e+00    0.1447797    0.1311297  32.47   0.00073761    1.348    0.258
        15 -11.9896    150.6363    229.3270   1.2509898574e+02   7.6330208743e+00    0.5469624    0.1851252  37.04   0.00218714    3.005    0.667
        16 -11.1733     23.8811    226.3784   1.4762441533e+02   2.6068720108e+01    0.2599839    0.1714332 -66.67  0.001881444    1.803    0.445
        17 -10.9776     27.7894    222.1094   1.4672531428e+02   2.6431976719e+01    0.2014741    0.1431231  64.54 0.0004210963    1.109    0.098
        18 -15.7371      3.9443    237.7074   1.5133946586e+02   2.6081497805e+01     12.04123     0.315249 -75.00   0.03474415    8.928    0.888
        19 -11.2856     34.8743    228.4743   1.4589633464e+02   2.4477847832e+01    0.3531253    0.1975353 -64.21  0.002156887    2.066    0.516
        20  -9.1010    180.2855    232.6548   1.2016753588e+02   2.2193927017e+00    0.1132157   0.08852994  68.01 0.0007019187    1.647    0.393
        21  -9.7708     94.4133    216.6992   1.3416319466e+02   1.8807395240e+01    0.2380336     0.145344  66.06 0.0009192661    1.547    0.354
        22  -9.0307    152.6625    213.0087   1.2247138109e+02   9.9153471623e+00    0.1627213    0.1514304  57.28 0.0003895943    1.105    0.095
        23 -10.6759     41.3878    206.5236   1.4326712542e+02   2.7879940427e+01    0.2134653    0.1513737  73.58 0.0003410482    1.069    0.065
        24 -11.2170     30.6782    205.6047   1.4518096417e+02   2.9267997824e+01    0.3035222    0.1939168  38.72  0.002012645    1.737    0.424
        25 -11.9044     23.3272    202.8281   1.4634514463e+02   3.0595953285e+01    0.3251079    0.2870459 -78.43  0.002078561    1.466    0.318
        26 -10.5479    192.4804    193.9681   1.1173182330e+02   5.8553538616e+00    0.5650125    0.2767143 -60.17  0.001873961    5.181    0.807
        27 -11.5975     69.6317    195.9353   1.3683962774e+02   2.6433884963e+01    0.3450609    0.2364878 -49.76  0.001460045    1.954    0.488
        28 -11.7215     74.5528    188.7231   1.3504744454e+02   2.7240106241e+01    0.2796354    0.2350636 -57.31 0.0009086146    1.460    0.315
        29  -9.3188    120.4721    188.1770   1.2529980945e+02   2.0095267886e+01    0.2573503    0.1690183  26.68  0.001259982    2.037    0.509
        30 -13.2852     70.7944    174.0887   1.3412243231e+02   3.0897402672e+01    0.4667968    0.2719491 -47.34   0.00177151    2.248    0.555
        31 -11.0837     83.1610    176.4808   1.3170229363e+02   2.8593280662e+01    0.2346174    0.2058478  80.62 0.0004002186    1.069    0.064
        32 -10.5587    125.8522    174.4582   1.2197658320e+02   2.1923239235e+01    0.3890488    0.2115521  33.86  0.001702306    2.137    0.532
        33 -12.3650     89.2792    167.1730   1.2903171840e+02   2.9693377424e+01     1.095135    0.5515357  56.40  0.003498469    2.078    0.519
        34 -13.1026     67.4541    144.5520   1.3084290199e+02   3.8037757033e+01     1.225963    0.6512789  86.69  0.005112502    2.672    0.626
        35 -12.7424     58.2951    132.3818   1.3128569319e+02   4.2083559721e+01     2.685096       0.7749 -73.28  0.005983644    8.607    0.884
        36 -11.8484     33.1409    156.5435   1.4059421766e+02   3.9372037887e+01    0.4032385    0.1861558 -82.49  0.002003207    1.994    0.499
        37 -10.0305    101.5097    151.2322   1.2357329983e+02   3.1264814742e+01    0.3243721    0.2733121 -41.48 0.0008322735    1.404    0.288
        38  -9.5618    104.0278    147.0470   1.2220334243e+02   3.1778655891e+01    0.2671561    0.1927906 -39.13  0.001327551    1.693    0.409
        39 -12.1371     90.4928    150.5926   1.2613267592e+02   3.3229200062e+01    0.2715019    0.2542576 -43.31 0.0005058854    1.294    0.227
        40 -12.1031     45.0583    148.8753   1.3693843532e+02   3.9825914091e+01    0.4161042    0.2430572 -52.67   0.00224072    1.843    0.457
        41  -9.4960    134.4302    148.4471   1.1521453336e+02   2.5794665352e+01    0.2555293    0.1380534 -61.93 0.0007778576    2.222    0.550
        42  -8.6837    192.3960    144.4382   1.0176633012e+02   1.4422474424e+01     0.142068    0.1397738  -7.93 0.0001282262    1.036    0.035
        43  -9.9818    111.9099    136.5338   1.1819520948e+02   3.2753633036e+01    0.3314205    0.2586547  -1.58  0.001577312    1.991    0.498
        44 -10.6105     99.4421    133.7107   1.2077897995e+02   3.5626352163e+01    0.2643541     0.231521 -27.82 0.0007371741    1.412    0.292
        45 -11.4870     49.9988    129.9747   1.3309791653e+02   4.3651506823e+01    0.2782699    0.2416066  73.04 0.0006956072    1.153    0.133
        46 -11.8512     44.3792    128.9488   1.3443164982e+02   4.4525725070e+01    0.4153858    0.2054821 -80.79  0.001915841    2.114    0.527
        47  -8.7239    117.3343    129.3199   1.1528789156e+02   3.3365549908e+01    0.1471751    0.1201475 -10.62 0.0007049363    1.701    0.412
        48 -11.8211     19.8082    124.6508   1.4033646430e+02   4.7876042039e+01    0.2732559    0.1722266  39.15  0.001404057    1.802    0.445
        49  -9.3902    108.3442    123.7940   1.1636455427e+02   3.6316226464e+01    0.1963287    0.1718341 -53.04 0.0004258233    1.129    0.114
        50 -11.1022    168.1466    113.3083   9.9296868372e+01   2.5862017506e+01    0.3714051     0.310517 -78.24 0.0007515954    1.390    0.281
        51  -9.1520    203.6517    111.6800   9.1734646618e+01   1.7887957975e+01    0.1575276    0.1176721  13.55 0.0007048787    1.736    0.424
        52 -11.9029     80.3156    247.7293   1.3954620964e+02   1.5412626877e+01    0.3899806    0.1872833  69.31  0.002152831    2.234    0.552
