#   1 NUMBER                 Running object number                                     
#   2 MAG_AUTO               Kron-like elliptical aperture magnitude                    [mag]
#   3 X_IMAGE                Object position along x                                    [pixel]
#   4 Y_IMAGE                Object position along y                                    [pixel]
#   5 X_WORLD                Barycenter position along world x axis                     [deg]
#   6 Y_WORLD                Barycenter position along world y axis                     [deg]
#   7 A_WORLD                Profile RMS along major axis (world units)                 [deg]
#   8 B_WORLD                Profile RMS along minor axis (world units)                 [deg]
#   9 THETA_WORLD            Position angle (CCW/world-x)                               [deg]
#  10 FWHM_WORLD             FWHM assuming a gaussian core                              [deg]
#  11 ELONGATION             A_IMAGE/B_IMAGE                                           
#  12 ELLIPTICITY            1 - B_IMAGE/A_IMAGE                                       
         1 -15.4023      5.1652     70.1952   1.1858676858e+02   5.9347959415e+01     3.473458          nan -57.58    0.0101497    6.643    0.849
         2 -14.3256     35.3826     19.2277   9.2860767960e+01   6.5275360806e+01     1.477258    0.6772718  -9.39  0.006404065    3.922    0.745
         3 -14.9804      4.9372     37.4550   1.1066999646e+02   6.5129009191e+01     1.233135    0.3940577 -44.72   0.00667755    2.192    0.544
         4 -16.2629     18.4336     19.0059   9.9447861146e+01   6.6919492298e+01     1.865319     1.158127 -15.24  0.009086441    1.331    0.249
         5 -12.3745    173.3393     42.6064   6.3338213696e+01   3.7075609731e+01    0.2844632    0.2356252  22.47 0.0008584407    1.508    0.337
         6 -17.7735    233.9264    165.1727   8.0892115063e+01   1.4052824931e+00     6.674674     4.358456 -42.57   0.02853725    1.439    0.305
         7 -19.6866     59.9646    156.7401   1.1877093199e+02   3.5664795593e+01     18.28975      2.40647 -61.83   0.04484325    6.486    0.846
         8 -12.3412    154.0445    213.7340   1.0660187720e+02   7.1376140559e+00    0.1970848    0.1737096  47.16 0.0002537044    1.058    0.055
         9 -13.7299    188.2365    210.9778   9.8970098500e+01   1.2931883922e+00    0.4105546    0.1890548 -49.37  0.001697792    2.389    0.581
        10 -12.1755     88.7834    211.5796   1.2007428701e+02   1.8912939992e+01    0.2398671    0.1842241  60.12 0.0006910034    1.183    0.155
        11 -12.9582    174.8897    209.1172   1.0140943621e+02   4.1516654700e+00    0.2157669    0.1920936  71.57 0.0004506674    1.223    0.182
        12 -12.6237     11.0201    205.8254   1.3465754311e+02   2.9905878014e+01    0.2500613    0.2209023  79.96 0.0009263872    1.302    0.232
        13 -12.3169     24.2857    201.9857   1.3189052899e+02   2.9404405921e+01    0.2271676    0.1991642  88.34 0.0008914202    1.234    0.190
        14 -14.2916      9.7388    193.9507   1.3393962568e+02   3.2558319105e+01    0.6589805     0.324113 -67.03  0.002537834    1.666    0.400
        15 -14.6261      2.7878    191.1181   1.3500741845e+02   3.3777601068e+01    0.5523062    0.2440049 -76.16  0.002401027    1.735    0.424
        16 -12.1213     84.5484    184.0425   1.1716573812e+02   2.5808192907e+01    0.3960139    0.3169009   3.62  0.001945986    1.932    0.482
        17 -11.2267     90.3023    183.8912   1.1583687582e+02   2.4953499333e+01    0.2343034    0.1478999  82.00  0.001004328    1.964    0.491
        18 -11.0225     99.0327    180.7434   1.1333584017e+02   2.4282591455e+01    0.1898028    0.1728079  63.45 0.0006461373    1.104    0.094
        19 -12.4361     11.9082    175.4892   1.3186954691e+02   3.6395920933e+01    0.5607349    0.1906613 -73.84  0.002582154    2.386    0.581
        20 -13.3841     90.1732    169.4061   1.1354190548e+02   2.8380831327e+01    0.4352982    0.3242603 -62.72  0.001639379    1.249    0.199
        21 -12.5394      5.2959    225.2555   1.3702765760e+02   2.6452167915e+01    0.2382104    0.1541652  68.32 0.0008506012    1.257    0.204
        22 -10.4809     25.3511    165.2456   1.2794792298e+02   3.7478405450e+01    0.1119044   0.08399386 -44.31 0.0004434942    1.584    0.369
        23 -14.6353     99.0123    160.5118   1.0984160618e+02   2.9063348912e+01    0.6912574    0.4904478 -59.96  0.003481128    1.328    0.247
        24 -14.0231     34.2465    157.8033   1.2502982219e+02   3.8315043051e+01    0.7154301    0.3912791 -59.21  0.003508562    1.544    0.352
        25 -12.6381      3.1439    160.4308   1.3222247237e+02   4.0422019314e+01    0.2850772    0.2615677  84.67  0.001691658    1.266    0.210
        26 -10.9841    123.9760    161.4655   1.0393150555e+02   2.4408605787e+01    0.2079259    0.1227266  64.63 0.0005599086    2.297    0.565
        27 -11.4938    120.6482    156.3119   1.0371400159e+02   2.6240474732e+01    0.1582929    0.1148385  78.78 0.0007045272    1.725    0.420
        28 -10.4723     22.6643    156.2645   1.2749102196e+02   3.9762018811e+01     0.119399   0.07964069  73.06 0.0003223279    1.585    0.369
        29 -14.4568    222.2759    219.9986   9.3828232573e+01  -6.3630664865e+00    0.5731525    0.4568511 -42.36  0.003404897    1.365    0.267
        30 -12.9845    133.8585    146.1126   9.8331689815e+01   2.6074844110e+01    0.8734694    0.1983016 -55.46   0.00175891    7.633    0.869
        31 -12.1010     12.8827    146.3235   1.2853920882e+02   4.2813520085e+01    0.2985257     0.208749 -66.57  0.001671083    1.131    0.115
        32 -11.6806     89.9132    223.7393   1.2136721890e+02   1.6121070631e+01    0.1989428    0.1584449 -89.02 0.0005386552    1.148    0.129
        33 -17.1946    146.3431    189.8249   1.0411537686e+02   1.3652902244e+01     4.923195     2.929941  23.65   0.01948723    2.551    0.608
        34 -11.6172     27.9737    138.4903   1.2390106593e+02   4.3326075462e+01    0.2294124    0.1506488 -83.09 0.0006600044    1.481    0.325
        35 -14.0537    115.4636    133.3500   1.0015128327e+02   3.2566494043e+01    0.4281776    0.2695904 -37.66  0.001875109    1.769    0.435
        36 -14.2475     14.3587    131.7339   1.2633539122e+02   4.5951218782e+01    0.6928573    0.3350649 -66.01  0.002433446    1.591    0.372
        37 -15.9293      6.5739    121.2215   1.2686025502e+02   4.8794833697e+01     1.050675    0.9283624 -47.33  0.005520002    1.229    0.186
        38 -15.8225      6.4257    110.7309   1.2539847920e+02   5.1060612684e+01     1.264979    0.8114197 -13.38  0.007985589    2.077    0.518
        39 -15.0447    106.2916    131.5895   1.0215130079e+02   3.4630002915e+01    0.6142666    0.5196863  77.18  0.001470239    1.327    0.246
        40 -13.5560    165.7312    214.5606   1.0427965656e+02   4.7977430052e+00    0.3155914    0.2475241 -58.12  0.001014227    1.401    0.286
        41 -13.1266    108.6711    121.6767   9.9270664921e+01   3.6469240121e+01      0.25752    0.2244044 -21.97 0.0005996253    1.269    0.212
        42 -18.1784    103.1687    236.2318   1.2026767112e+02   1.1455048924e+01     3.718566     2.576296  46.64   0.02152318    1.326    0.246
        43 -16.4449    176.9319    242.0291   1.0647205384e+02  -2.2736688683e+00     1.991417     1.199174  39.70   0.01047195    1.461    0.316
        44 -12.0192    155.4911     64.2261   7.2551503570e+01   3.8011787094e+01    0.2728763    0.1937957  55.11 0.0008957089    1.334    0.250
        45 -12.0120     27.9699    245.5369   1.3469153530e+02   2.0023288091e+01    0.2998053    0.2039616 -60.01  0.002035535    1.848    0.459
        46 -11.0521     10.9081    237.5594   1.3691200071e+02   2.3448150916e+01    0.1274577   0.09297998  55.33  0.000402148    1.389    0.280
        47 -13.3505    238.4131    229.9444   9.2569262760e+01  -1.0556435023e+01    0.3395084    0.2685155  24.25  0.001991254    1.158    0.137
        48 -12.9424    169.1405     49.0984   6.5780526236e+01   3.7151506527e+01    0.2181331    0.1864539  36.28  0.001246775    1.281    0.219
