#   1 NUMBER                 Running object number                                     
#   2 MAG_AUTO               Kron-like elliptical aperture magnitude                    [mag]
#   3 X_IMAGE                Object position along x                                    [pixel]
#   4 Y_IMAGE                Object position along y                                    [pixel]
#   5 X_WORLD                Barycenter position along world x axis                     [deg]
#   6 Y_WORLD                Barycenter position along world y axis                     [deg]
#   7 A_WORLD                Profile RMS along major axis (world units)                 [deg]
#   8 B_WORLD                Profile RMS along minor axis (world units)                 [deg]
#   9 THETA_WORLD            Position angle (CCW/world-x)                               [deg]
#  10 FWHM_WORLD             FWHM assuming a gaussian core                              [deg]
#  11 ELONGATION             A_IMAGE/B_IMAGE                                           
#  12 ELLIPTICITY            1 - B_IMAGE/A_IMAGE                                       
         1  -8.5929     55.6778      9.9064   6.2283313884e+01   6.6317872618e+01    0.1926608    0.1763089 -63.16 0.0009126812    1.671    0.402
         2  -8.4038     90.8318      8.7650   5.0798141803e+01   5.9574515291e+01    0.2153628    0.1482671 -53.59 0.0006883487    2.007    0.502
         3  -8.1604      5.6785      8.2746   8.5998247091e+01   7.3125507320e+01   0.09138177     0.082129  19.94 0.0002586434    1.575    0.365
         4  -8.4844     33.6860      5.3661   6.9427575854e+01   7.0288690228e+01    0.2134416    0.1652617 -50.15  0.001373125    2.178    0.541
         5  -8.4486     79.1146      3.9326   5.1973468346e+01   6.2443579150e+01    0.1705401    0.1614048 -68.66 0.0007666891    1.372    0.271
         6  -7.3696    166.7106      3.6496   3.6070519774e+01   4.2465908367e+01     0.123231   0.08654679  43.52 0.0003419703    1.667    0.400
         7  -7.6596     44.4292      3.1853   6.3555198131e+01   6.8891722207e+01    0.1443221    0.1032778 -30.60 0.0007474121    1.614    0.380
         8  -8.4105     62.4864      1.4586   5.5971964296e+01   6.5905699869e+01     0.190501    0.1089685  62.09 0.0006911351    2.116    0.527
         9  -9.9353    223.9796    244.0773   7.9931030900e+01  -8.0382430352e+00    0.4252763    0.2207956 -45.32   0.00228131    2.456    0.593
        10  -9.1725    247.9921    234.6701   7.4185964834e+01  -9.7828408991e+00    0.3005551    0.1780296 -40.85  0.001811736    1.917    0.478
        11  -8.3394    248.8421    249.9829   7.6520671457e+01  -1.1842764608e+01    0.2125327     0.120193 -16.36  0.001313431    1.651    0.394
        12  -9.6990    248.5902    242.3798   7.5346508419e+01  -1.0857949856e+01    0.3837864    0.1895091 -41.53  0.001794547    2.337    0.572
        13  -9.0546    232.6743    247.4829   7.8918046618e+01  -9.5959206847e+00    0.2775134    0.1540384 -38.04   0.00165234    1.924    0.480
        14  -8.0060    197.2264    250.4073   8.5897847374e+01  -5.3299798467e+00    0.1571907   0.09912334  37.07 0.0001961372    1.498    0.332
        15  -8.5033     93.7401    249.3058   1.0671845523e+02   1.0117337812e+01    0.2599164    0.1525436  76.77  0.001212489    2.324    0.570
        16  -9.1426    210.9007    246.6603   8.2741647652e+01  -6.6672883964e+00    0.2043906    0.1662805 -35.93 0.0007981837    1.475    0.322
        17  -8.5524     12.9969    247.2666   1.2240977475e+02   2.0551144530e+01    0.1413618   0.08175284  40.77 0.0008990294    1.556    0.358
        18  -8.9060    146.5975    245.5993   9.5304674073e+01   2.8762615537e+00    0.2224222    0.1613504 -63.33 0.0009079279    1.805    0.446
        19  -9.1436    120.1730    245.4719   1.0079251755e+02   6.9263620197e+00    0.3371257    0.2042548  64.60  0.001680185    2.183    0.542
        20  -8.7612     67.4312    244.8481   1.1168339719e+02   1.4610568292e+01     0.210698    0.1151245 -77.51  0.001127766    2.031    0.508
        21  -8.2590     50.5187    245.0193   1.1510148052e+02   1.6747480186e+01     0.177539   0.08214861  75.93  0.000810218    2.687    0.628
        22  -8.6706    202.0090    243.4987   8.3923900025e+01  -4.9927064974e+00    0.2010155    0.1685448 -50.87 0.0007623157    1.669    0.401
        23  -8.5078    169.2322    243.4945   9.0373672757e+01  -2.1372885003e-01    0.2161991    0.1595613  44.74 0.0006495662    1.395    0.283
        24  -8.6739     88.2939    242.0799   1.0710164870e+02   1.2273692733e+01    0.2293195    0.1470209 -79.33 0.0008467896    1.820    0.451
        25  -9.3592     77.4070    242.7375   1.0943835120e+02   1.3674110374e+01     0.248378    0.1520848  76.04  0.001108624    1.859    0.462
        26  -9.1635    183.1045    240.1829   8.7092173333e+01  -1.7600711306e+00    0.3731962      0.24165  58.02    0.0018713    2.514    0.602
        27  -9.2802    159.8674    240.0144   9.1777635034e+01   1.7885959812e+00    0.3306018    0.2405723 -85.63  0.001499169    2.462    0.594
        28  -7.7322    153.3998    242.1992   9.3427102806e+01   2.4132905036e+00    0.1578328    0.1254943 -68.75 0.0006855263    1.698    0.411
        29  -8.3705    240.4918    240.0900   7.6361725486e+01  -9.5867679796e+00    0.2298125    0.1007323 -35.52  0.001039564    2.186    0.542
        30  -8.8045    242.9671    236.2210   7.5300482798e+01  -9.3764738775e+00    0.2301554    0.1238893  -6.23  0.001196724    2.266    0.559
        31  -8.3482    146.2701    239.6900   9.4558771919e+01   3.9494257925e+00    0.2562018    0.1922443  78.08  0.001220291    1.974    0.493
        32  -8.6220    194.0479    239.7893   8.4877111086e+01  -3.3040649380e+00    0.1776018    0.1513857  31.40 0.0004424051    1.238    0.192
        33  -9.0827    135.4635    239.0239   9.6743462713e+01   5.7490142539e+00    0.2109528    0.1574445  53.00  0.000832613    1.359    0.264
        34  -8.4030    129.0427    238.7430   9.8068153531e+01   6.7976361598e+00    0.2137059    0.1676964 -87.57 0.0007879085    1.650    0.394
        35  -9.3193    230.7907    237.1105   7.7580463885e+01  -7.9623714149e+00    0.2401756    0.2101487 -53.76  0.001196638    1.845    0.458
        36  -9.7668    214.7632    233.2413   7.9868797885e+01  -5.2622416409e+00    0.4424521    0.3382418 -81.74  0.002221796    3.440    0.709
        37  -8.8149    203.0628    234.6935   8.2320959343e+01  -3.8271292102e+00    0.2362566    0.1740194 -53.10 0.0009068144    1.905    0.475
        38  -9.8061    175.7211    233.3112   8.7513376994e+01   4.6988662132e-01    0.4651619    0.2376859 -55.94  0.002105253    2.868    0.651
        39  -7.9928     57.9410    237.0000   1.1294884523e+02   1.7418553178e+01    0.1983993   0.06179691  34.35 0.0007978812    2.911    0.656
        40  -8.0408    170.3573    235.3235   8.8920110946e+01   9.6057870392e-01    0.1578691    0.1235618 -54.57 0.0005682252    1.607    0.378
        41  -8.6587    122.9709    234.3204   9.8786777736e+01   8.5686996596e+00    0.2340138     0.172147  73.64 0.0008824309    1.697    0.411
        42  -9.3357    108.4182    234.2985   1.0192892495e+02   1.0818551900e+01    0.3051854    0.2106839  69.17    0.0012774    1.684    0.406
        43  -9.0390     78.7262    234.4817   1.0834266073e+02   1.5138006440e+01    0.2721712     0.163604 -87.95 0.0009970807    1.986    0.496
        44  -8.8544      7.9930    234.9874   1.2271753251e+02   2.3485770465e+01    0.1416726    0.1035026  76.61   0.00099735    1.075    0.070
        45  -8.2673     99.6386    234.3276   1.0383066210e+02   1.2137802286e+01    0.2056822    0.1316017  64.24 0.0007874367    1.721    0.419
        46  -8.8974     92.5050    232.6784   1.0518444892e+02   1.3524397537e+01    0.3671158    0.2179287  89.46  0.001694261    2.308    0.567
        47  -8.4043     70.6221    234.2849   1.1004690542e+02   1.6296349780e+01    0.2130146    0.1229038  51.15 0.0007564288    1.493    0.330
        48  -8.8878     67.4612    231.9380   1.1049301649e+02   1.7205826115e+01      0.28946    0.1642789  70.83   0.00129534    1.948    0.487
        49  -8.6228    194.1896    232.6654   8.3715280465e+01  -2.2185797136e+00     0.190724    0.1712793 -37.86 0.0005994434    1.351    0.260
        50  -8.3434    144.8169    233.2122   9.3947084117e+01   5.3336607628e+00    0.2762031    0.1433315  60.18  0.001044844    3.540    0.718
        51  -8.5816    140.0428    230.2216   9.4539353150e+01   6.6424406711e+00    0.2440831    0.1586227  50.95 0.0008607885    1.583    0.368
        52  -8.7543    132.5905    232.8088   9.6509292442e+01   7.3433219611e+00    0.2329997    0.1690083 -80.19  0.001253775    1.903    0.474
        53  -9.9130    185.2060    228.8250   8.4879119537e+01  -2.4459727810e-01    0.5176917    0.3481627 -76.53  0.002224116    3.773    0.735
        54  -8.4934    180.3996    224.1945   8.5098983930e+01   1.2785644409e+00    0.1848841    0.1787015  69.65  0.000370391    1.337    0.252
        55  -8.3052    157.9909    232.0535   9.0989346603e+01   3.4548902833e+00    0.2007319    0.1533039  62.84 0.0008560004    1.705    0.414
        56  -8.9452    236.0501    230.4646   7.5547366753e+01  -7.7178818399e+00    0.2894995    0.1676938 -38.21 0.0009342348    1.766    0.434
        57  -8.8610      1.8197    231.1128   1.2368858959e+02   2.4860735235e+01    0.1874715    0.1108887  66.03  0.000743543    1.324    0.245
        58  -9.4677    246.5611    228.3571   7.3374671601e+01  -8.7580298818e+00    0.4086124    0.1685742 -31.34  0.001657692    2.266    0.559
        59  -9.8952    149.5585    226.1256   9.1885926978e+01   5.8729665020e+00    0.6081796    0.3795466 -85.57  0.002377874    3.895    0.743
        60  -8.3933    229.9273    228.9664   7.6382517469e+01  -6.7031543427e+00    0.1590349    0.1545541 -74.14  0.001122925    1.687    0.407
        61  -8.7227    162.5262    227.9311   8.9405335523e+01   3.4627462047e+00    0.3038069     0.189029  51.44  0.001483163    1.864    0.464
        62  -8.9507    127.8677    227.3760   9.6781727232e+01   9.1283435734e+00    0.3175506    0.1938258  57.76  0.001228329    1.920    0.479
        63  -8.3798    119.9101    227.5954   9.8558924538e+01   1.0349532724e+01    0.2503268    0.1759819  88.75  0.001276335    1.950    0.487
        64  -8.5439      8.6382    228.3125   1.2224554659e+02   2.4787757209e+01    0.1285684   0.06130869  61.42 0.0007041323    1.752    0.429
        65  -8.0051    223.4361    227.0251   7.7229584153e+01  -5.5431937764e+00    0.1782801    0.1087966 -33.52 0.0004787977    1.586    0.370
        66  -8.6837    216.3027    226.3314   7.8429285415e+01  -4.4455029385e+00    0.2409656    0.1727586   8.31 0.0007439702    1.297    0.229
        67  -8.7593    216.3128    223.6193   7.7967272017e+01  -4.0345028157e+00    0.2102746    0.1969672   0.57 0.0007584089    1.279    0.218
        68  -8.6426    206.0474    225.6420   8.0253682275e+01  -2.8627367461e+00    0.2234757    0.1702383 -48.56 0.0009565204    1.663    0.399
        69  -7.7915    199.6564    226.2247   8.1587778203e+01  -2.0097628394e+00    0.1679776    0.1089603 -28.53 0.0005352149    1.571    0.364
        70  -7.9013     49.2859    226.6219   1.1387387370e+02   2.0666746969e+01    0.1357959    0.0765497  66.87 0.0007015347    1.726    0.420
        71  -9.1580     94.2805    224.3614   1.0382444696e+02   1.4963111960e+01    0.4535355    0.1972306  55.28  0.001814369    2.703    0.630
        72  -7.8572     71.6779    225.6792   1.0896308983e+02   1.7940631100e+01    0.1190088    0.1014088 -22.21 0.0004062591    1.673    0.402
        73  -8.5316     38.4488    224.5316   1.1598632028e+02   2.2410845206e+01    0.2129526     0.102183  89.41 0.0009157299    2.248    0.555
        74  -8.4070    173.0168    223.2140   8.6460916749e+01   2.6184626601e+00    0.2511467     0.185131 -56.57 0.0007357828    1.720    0.418
        75  -7.9407    113.6183    223.7899   9.9441078252e+01   1.2102006936e+01    0.1748061    0.1276127 -78.32  0.000665996    1.650    0.394
        76  -8.8961    104.7128    223.6736   1.0141268697e+02   1.3516482117e+01    0.3147258    0.2018798  67.81  0.001521129    1.883    0.469
        77  -9.4773    192.5032    221.2970   8.2171578769e+01  -1.2099406289e-01    0.3022758    0.2641142 -83.44  0.001342748    1.774    0.436
        78  -8.2070    140.5542    222.7733   9.3334921094e+01   7.9669849834e+00    0.1685889    0.1334135 -72.48 0.0009350905    1.588    0.370
        79  -8.9642    239.0687    221.5080   7.3497821962e+01  -6.8413214015e+00    0.2429858    0.1789965 -44.53  0.001023519    1.710    0.415
        80  -9.2773    225.5510    221.7694   7.5948138149e+01  -5.0542560410e+00    0.2256634    0.2081363  32.32 0.0009172354    1.429    0.300
        81  -9.0423    158.9332    220.2749   8.8960892806e+01   5.4279136267e+00    0.2574819    0.1996268  71.23 0.0009101562    1.817    0.450
        82  -8.5119     73.4453    221.0893   1.0809168438e+02   1.8673811005e+01    0.3571061    0.1804145  78.08  0.001343413    3.004    0.667
        83  -9.1294    120.4548    219.2249   9.7281580612e+01   1.1937326001e+01    0.4586696    0.2466967  64.27  0.001797841    3.020    0.669
        84  -9.0259     82.6621    220.4597   1.0596256535e+02   1.7499315202e+01    0.3475781    0.1877632  67.60  0.001195706    2.353    0.575
        85  -8.3746     27.6595    220.8489   1.1796396846e+02   2.4412184803e+01    0.2343096   0.08588795 -66.03  0.001088223    2.567    0.610
        86  -8.1979    202.8328    220.1443   7.9941627101e+01  -1.5094489572e+00    0.1800251    0.1700246  21.14 0.0006007085    1.262    0.208
        87  -8.3317      5.6831    220.3610   1.2239397163e+02   2.6731749792e+01    0.1296324   0.06297445  64.57 0.0007042598    1.762    0.432
        88  -7.9836    210.0543    219.2896   7.8405158074e+01  -2.4509895231e+00    0.1723034    0.1474358  10.69 0.0004194043    1.069    0.065
        89  -8.6189    248.8040    217.9611   7.1218560563e+01  -7.5949022976e+00    0.1942617    0.1596976  58.28  0.001231472    2.193    0.544
        90  -8.5918    185.4488    214.3157   8.2405345449e+01   2.1820975093e+00    0.2016568    0.1684918 -71.54 0.0007678655    1.737    0.424
        91  -9.4243    132.9542    216.0605   9.4008406086e+01   1.0532681789e+01    0.5130291    0.3149937  73.50  0.002100103    2.964    0.663
        92  -8.7828     51.6396    217.0368   1.1251575642e+02   2.2442051339e+01    0.2805728    0.1452779 -81.66 0.0008751255    2.025    0.506
        93  -8.6994    143.0559    216.6070   9.1841029885e+01   8.7485203802e+00    0.2770108      0.21014  80.67  0.001346236    1.860    0.462
        94  -8.2088    111.8550    217.2565   9.8950616230e+01   1.3722522406e+01    0.2324052    0.1299977  67.21 0.0009383559    2.750    0.636
        95  -8.7194    169.3282    216.1051   8.6064064340e+01   4.4863911263e+00    0.2513613    0.2060346 -76.95 0.0007659143    1.740    0.425
        96  -8.3537     18.4598    215.8025   1.1952914568e+02   2.6467067982e+01    0.2260969     0.101799 -84.74  0.001135249    2.076    0.518
        97  -8.5553    232.3390    214.8348   7.3521682665e+01  -4.9533452233e+00    0.2091826     0.181212 -48.52  0.001288814    1.591    0.371
        98  -9.6327    153.2831    212.7010   8.8961030486e+01   7.7963802478e+00    0.3479293    0.2513516 -64.57 0.0008141746    1.769    0.435
        99  -8.9147    147.7885    210.2970   8.9782366285e+01   9.1939776005e+00    0.3314985    0.2388551  69.54   0.00160539    1.943    0.485
       100  -9.0386     93.4500    214.3090   1.0276720211e+02   1.7220603021e+01    0.4503849    0.2011264  55.62  0.001530342    2.673    0.626
       101  -9.4258    213.8792    212.3521   7.6467063059e+01  -1.9106556227e+00    0.3267445    0.2603886  55.47  0.001355743    1.807    0.447
       102  -9.4780     73.0172    211.9344   1.0717821826e+02   2.0733057183e+01    0.6542191    0.2592912  59.51  0.002268505    3.689    0.729
       103  -8.0678    106.4985    212.9994   9.9589256693e+01   1.5472436780e+01    0.1921698    0.1363385 -67.72  0.001007962    1.554    0.356
       104  -8.0240    224.8370    212.0566   7.4381810100e+01  -3.4706668226e+00    0.1804585    0.1440862 -60.48 0.0008913284    1.964    0.491
       105  -8.9163    204.1486    211.0081   7.8094099183e+01  -2.0904616944e-01     0.260044    0.1985201 -49.49 0.0005807061    1.590    0.371
       106  -9.0912      6.9562    209.8226   1.2153656700e+02   2.8878650568e+01    0.5049099    0.1509922  72.64  0.001611038    5.458    0.817
       107  -9.3872    175.2766    209.8928   8.3751762306e+01   4.6381171935e+00    0.3477183    0.2730914  86.97  0.001524758    2.085    0.520
       108  -8.9042    116.3247    210.3545   9.6945067262e+01   1.4450530996e+01    0.3624792    0.2393228  73.38  0.001161049    2.072    0.517
       109  -8.3074    192.3207    210.0303   8.0263251931e+01   1.8244220962e+00    0.2402754    0.1202319 -49.56 0.0008811104    2.364    0.577
       110  -8.5022     85.6777    209.6679   1.0397836569e+02   1.9406373139e+01    0.2866191     0.168319  69.14  0.001303718    2.100    0.524
       111  -7.9958     46.7062    209.9508   1.1295478166e+02   2.4622846571e+01    0.2518448   0.08974113  58.89 0.0009002988    3.554    0.719
       112  -8.1898     31.8619    210.0309   1.1625068552e+02   2.6322601460e+01    0.2190952    0.1105551  71.72 0.0008394688    2.041    0.510
       113  -8.9438    236.3539    208.2251   7.1641725546e+01  -4.5096668637e+00    0.2350202    0.1942869 -49.02 0.0007546985    1.615    0.381
       114  -9.4346    246.4433    207.2269   6.9730000648e+01  -5.7344321649e+00     0.255318    0.1828482 -31.07 0.0006010859    1.271    0.213
       115  -8.4545    139.0106    208.0421   9.1388359711e+01   1.1137353959e+01    0.2207205    0.1645633  68.32 0.0005438784    1.697    0.411
       116  -8.6720     62.3133    217.5242   1.1019891556e+02   2.0960269486e+01    0.3453282    0.1609163  58.96  0.001529101    2.297    0.565
       117  -9.3358     99.2655    205.8043   1.0028007257e+02   1.8180439079e+01    0.4517722    0.2739135 -85.11  0.001562177    2.270    0.559
       118  -8.4564     12.3001    207.3166   1.2026304448e+02   2.8930877251e+01     0.110392   0.08476979 -54.00 0.0003761773    1.615    0.381
       119  -8.9932    183.7230    203.8138   8.0913783022e+01   4.3409663134e+00    0.3194449    0.2500962  71.41  0.001144271    1.963    0.491
       120  -8.8892    131.2664    203.9318   9.2499478352e+01   1.3307705583e+01    0.3353805    0.2315436  84.29  0.001162544    2.211    0.548
       121  -8.3296    108.9115    204.9628   9.7884818530e+01   1.6820887531e+01    0.2440054    0.1900677 -74.63 0.0009518387    1.413    0.292
       122  -8.5541    161.5421    212.3306   8.7099781163e+01   6.4797427382e+00    0.2178761    0.1937332  81.09  0.000676658    1.435    0.303
       123  -8.4097     56.2052    205.2136   1.1032217432e+02   2.4508287485e+01    0.1897948    0.1319934  72.51 0.0006295768    1.379    0.275
       124  -8.2396     24.6828    205.3177   1.1745291279e+02   2.8146720414e+01    0.1337943   0.07444864  64.75 0.0003651253    1.655    0.396
       125  -7.7282    218.3322    204.3039   7.4188221436e+01  -1.2753246314e+00    0.1342824   0.09044541  -1.88 0.0006042855    1.658    0.397
       126  -9.3600    194.8035    203.3352   7.8565769386e+01   2.5951807603e+00    0.3342831     0.246766 -32.26  0.001124534    1.338    0.253
       127  -9.2351    192.4190    197.5825   7.7993013504e+01   4.0183107124e+00    0.3235194    0.2505543 -67.09 0.0007683972    1.876    0.467
       128  -9.5330    163.6852    203.0065   8.5037212934e+01   7.9019293348e+00    0.3922962    0.2615625  58.04  0.001126987    1.952    0.488
       129  -9.3995    250.0569    202.0113   6.8191640038e+01  -5.4429892551e+00    0.3359168     0.154641 -36.26  0.001090284    1.914    0.478
       130  -9.0906    140.5562    201.2056   8.9910217368e+01   1.2277568807e+01    0.4112948      0.27976 -88.75  0.001796694    2.460    0.593
       131  -9.1822    242.9954    200.8394   6.9164704070e+01  -4.3055095227e+00    0.2901349    0.1580959 -42.22  0.001023824    1.842    0.457
       132  -8.4585    211.0261    202.0462   7.5153251568e+01   2.2271644359e-01    0.1855237    0.1658011 -84.30 0.0005936737    1.708    0.415
       133  -8.5921     79.9418    201.2547   1.0426692813e+02   2.2148245781e+01    0.3452821    0.1934089  76.80  0.001443832    2.514    0.602
       134  -7.7023     40.6779    202.3183   1.1361234293e+02   2.7070085315e+01    0.1390851    0.0808799  64.98 0.0005842933    1.668    0.400
       135  -7.7668    221.9841    201.4892   7.2999238601e+01  -1.3677503250e+00    0.1544095    0.1134239  61.00 0.0007445497    2.278    0.561
       136  -9.2579    237.0482    198.8497   6.9823515892e+01  -3.1603704777e+00    0.3115387    0.1600318 -42.60  0.001097651    1.945    0.486
       137  -9.4739    149.6036    198.6450   8.7408148244e+01   1.1224941960e+01    0.4427946    0.3104997  89.04  0.001141944    2.415    0.586
       138  -8.8778    124.0571    199.5471   9.3477693485e+01   1.5474030094e+01    0.2942906    0.2149822  81.68  0.001061875    1.815    0.449
       139  -9.6041    112.9838    198.5757   9.5955256883e+01   1.7556331028e+01    0.4760476    0.2850744  71.53  0.001740048    2.600    0.615
       140  -9.1208     88.7728    198.7188   1.0180699919e+02   2.1405800907e+01    0.3893411    0.2428357  75.11  0.001684195    2.047    0.511
       141  -9.0809    176.4947    198.2134   8.1417784849e+01   6.6114628285e+00    0.3124491    0.2325779 -62.01  0.001021509    1.746    0.427
       142  -8.2977    202.4552    198.0713   7.6079934423e+01   2.2732817362e+00    0.1950184    0.1888789  61.48 0.0007519667    1.330    0.248
       143  -9.1574     61.3883    197.0654   1.0820581208e+02   2.5711000938e+01    0.4314479    0.2252843  69.10   0.00165455    2.391    0.582
       144  -8.5551     12.8362    197.3785   1.1947427914e+02   3.1107952331e+01    0.2523777    0.1248823  73.41  0.001277183    1.957    0.489
       145  -8.8792    216.0934    195.8330   7.3046132340e+01   4.7656756549e-01    0.2903464    0.1985536 -59.17  0.001174425    2.204    0.546
       146  -7.9573     29.0000    196.9876   1.1581067828e+02   2.9592774007e+01    0.2056462   0.06401621 -73.31 0.0008016642    2.937    0.660
       147  -9.5028    245.8066    193.9142   6.7424584467e+01  -3.6331723930e+00    0.3391861    0.2555068 -65.52  0.001631369    2.394    0.582
       148  -8.1127    133.0413    196.0475   9.0785038688e+01   1.4676242329e+01     0.223008    0.1696783  73.04 0.0005574209    1.651    0.394
       149  -7.9861     53.3614    196.6704   1.1008141698e+02   2.6842096459e+01    0.1482088   0.08554459  64.39 0.0007040427    1.799    0.444
       150  -8.8112    224.3640    193.9623   7.1170846405e+01  -4.9400283767e-01    0.3222768     0.172654 -45.85  0.001396455    1.998    0.500
       151  -9.2794    161.0151    194.3450   8.4079247635e+01   1.0080566631e+01    0.2916109    0.2316274 -79.83 0.0009342402    1.738    0.425
       152  -8.1838    230.6359    194.2252   7.0094383977e+01  -1.4861574555e+00    0.1771082    0.1056532 -28.83 0.0003896787    1.564    0.361
       153  -8.6914     76.9548    193.8852   1.0403359553e+02   2.4289841832e+01     0.232312    0.1904835 -83.58 0.0005844697    1.194    0.163
       154  -8.7585     43.5805    193.2439   1.1205275761e+02   2.8837418697e+01     0.383414    0.1968747  77.93  0.001678779    2.316    0.568
       155  -8.3316      4.0358    194.0000   1.2117870951e+02   3.2656977708e+01    0.1737814   0.06552467  26.83  0.000656732    2.954    0.661
       156  -8.8728    185.1825    195.0096   7.9001062184e+01   5.7190406675e+00    0.2518103    0.2192702 -63.00 0.0006976416    1.433    0.302
       157  -8.4368    205.2327    191.0441   7.4218157943e+01   3.0562663730e+00    0.4226229    0.1068899 -46.23  0.001292865    4.445    0.775
       158  -8.3616    198.8491    191.6185   7.5583312301e+01   4.0180919739e+00    0.2520159    0.1745701 -56.03 0.0006088197    1.841    0.457
       159  -8.2371    179.0067    191.7252   7.9683415744e+01   7.4135758034e+00    0.2427856    0.1791819 -57.84 0.0007083574    1.646    0.393
       160  -8.6074    172.2884    191.8141   8.1139397443e+01   8.5816911269e+00    0.2513781     0.217531 -87.52  0.001166827    1.537    0.349
       161  -9.2615    139.4123    190.5289   8.8333096732e+01   1.4734941841e+01    0.3787677     0.275821 -87.26 0.0008529168    1.983    0.496
       162 -10.5250     92.3832    188.8759   9.9510582043e+01   2.3123906925e+01     1.031065    0.2847619  46.61  0.003125276    3.877    0.742
       163  -8.6354    148.5149    189.6722   8.6060714271e+01   1.3281570381e+01    0.2676336    0.2145543  87.69  0.000982826    1.658    0.397
       164  -8.2976    237.1626    188.6626   6.7913131912e+01  -1.5586032887e+00    0.2097226    0.1531631 -39.17 0.0005529985    1.339    0.253
       165  -8.9203    216.5801    188.0224   7.1480202368e+01   1.7320344789e+00    0.2806724    0.2040489 -43.41 0.0009240731    1.418    0.295
       166  -9.2289    155.9668    187.6057   8.3974530956e+01   1.2364192036e+01    0.3736734    0.2289673 -59.01 0.0009967468    1.974    0.493
       167  -8.7849    129.1240    188.5709   9.0432586305e+01   1.6994580629e+01    0.2944468    0.2212745  82.44  0.001045208    1.751    0.429
       168  -9.6949    120.8335    186.6276   9.2105836898e+01   1.8889596328e+01    0.5714223    0.3169636 -75.10  0.002122442    2.954    0.661
       169  -8.9481     34.2737    188.0528   1.1376278382e+02   3.1116170770e+01      0.34635    0.1684049  74.39  0.001108269    2.437    0.590
       170  -8.0407      6.3645    189.3077   1.2035150928e+02   3.3527771246e+01    0.1170051   0.08369831 -47.93 0.0007038273    1.747    0.427
       171  -8.9004    191.5137    187.2346   7.6225004417e+01   6.0784171779e+00    0.3125111    0.2244211 -66.73  0.001235092    2.087    0.521
       172  -9.1470     54.6823    186.7544   1.0864057042e+02   2.9020689426e+01    0.3992331    0.2200715  72.32  0.001400407    2.178    0.541
       173  -8.2422    230.3912    187.1947   6.8816046280e+01  -2.9869547324e-01    0.1834379    0.1119664 -46.33  0.000946668    1.755    0.430
       174  -8.7663    165.0364    186.8193   8.1790113146e+01   1.0878299179e+01    0.2766635    0.2372881 -87.52 0.0009817396    1.509    0.337
       175  -9.2984    109.4002    186.1019   9.4835474516e+01   2.0980759051e+01    0.3822382    0.2546936  78.51  0.001044512    2.085    0.520
       176  -9.2869    248.5320    185.7251   6.5454692515e+01  -2.7435619751e+00    0.2651041    0.2194525  20.37  0.001442161    1.273    0.214
       177  -8.8199    182.9018    184.8780   7.7555245128e+01   8.0436171615e+00    0.2894818    0.1951091 -48.29 0.0005848128    1.568    0.362
       178  -8.6194    210.1446    184.3762   7.1992570829e+01   3.4241235644e+00    0.2426239    0.1804712 -42.33  0.000410801    1.354    0.262
       179  -8.8024    202.7569    184.7126   7.3486975318e+01   4.6081577925e+00    0.2543962    0.1824355 -49.75 0.0006791569    1.548    0.354
       180  -9.0552     66.5003    184.3953   1.0538735466e+02   2.8024026043e+01     0.377471    0.2295295  67.96  0.001162279    1.870    0.465
       181  -8.4586    224.0919    183.6826   6.9269508471e+01   1.2733271166e+00    0.2219591    0.1626659 -42.58 0.0005600548    1.379    0.275
       182  -8.9237    174.2681    183.6000   7.9150242144e+01   9.8487416443e+00    0.2816496    0.2317881  86.67 0.0009727287    1.711    0.416
       183  -7.9817     11.6511    184.3410   1.1878486047e+02   3.4217885535e+01    0.1375879   0.07328895  64.74 0.0007044935    1.796    0.443
       184  -7.9521      1.8478    183.8146   1.2099657582e+02   3.5165125072e+01    0.1721703    0.1132253  62.73  0.001055561    1.359    0.264
       185  -7.6910    197.2639    183.6717   7.4373030640e+01   5.7431568084e+00    0.1280025    0.1112108 -76.32 0.0002358825    1.569    0.363
       186  -9.0449     44.2500    182.3846   1.1073505890e+02   3.1344310997e+01    0.3309046    0.1947699  80.75 0.0008843848    1.841    0.457
       187  -9.4284    147.5721    180.8069   8.4634333681e+01   1.5343115828e+01    0.3552088    0.2710701  85.12  0.001143547    1.841    0.457
       188  -9.5750     25.6594    179.0078   1.1498669447e+02   3.4167156344e+01    0.6913968     0.267123  79.29  0.002289559    4.363    0.771
       189  -8.2677     19.4019    182.2099   1.1678798560e+02   3.4010809936e+01    0.1878479    0.1017938  88.89 0.0009504374    1.738    0.425
       190  -7.7873    235.3037    181.6505   6.6903112554e+01  -1.3543413405e-01     0.120819     0.101129 -64.18 0.0005930861    1.698    0.411
       191  -7.7884     90.6026    181.7230   9.8870580360e+01   2.5096043128e+01    0.1435228    0.1136476 -11.68 0.0006990377    1.752    0.429
       192  -8.2661    240.4691    180.4689   6.5799029118e+01  -7.2506706028e-01    0.1284973    0.1081724 -18.57 0.0002389134    1.003    0.003
       193  -8.7086    137.5235    179.3466   8.6745273395e+01   1.7518790273e+01    0.3170651    0.2293203  80.04 0.0009687522    1.986    0.497
       194  -9.2780     36.7393    177.8470   1.1211976791e+02   3.3291284631e+01    0.6398236    0.2685809  74.47  0.002162154    4.056    0.753
       195  -9.2820    191.3700    178.3190   7.4512903747e+01   7.7897177352e+00    0.2737812     0.246863 -70.51 0.0005419527    1.374    0.272
       196  -8.0475    169.1354    178.7989   7.9335766882e+01   1.1758466914e+01    0.2159746    0.1951779  74.37 0.0006895003    1.319    0.242
       197  -9.6112    248.4470    176.6391   6.3754966827e+01  -1.2923393126e+00    0.4249073    0.2617911 -51.58  0.001996385    1.998    0.499
       198  -8.7341    250.5024    172.9029   6.2713505386e+01  -9.9644792984e-01    0.2069372     0.155879 -41.16  0.000535835    1.288    0.224
       199  -8.7525    205.0505    177.9984   7.1723975246e+01   5.4393030697e+00    0.2090721    0.1940255 -27.67 0.0007082057    1.104    0.094
       200  -8.6946    129.1683    177.4393   8.8422084812e+01   1.9478584730e+01    0.3085032    0.2206096  79.58 0.0008433146    1.963    0.491
       201  -8.7895    230.9882    176.7369   6.6702153481e+01   1.3568669130e+00    0.2460764     0.173417 -42.34 0.0006340849    1.384    0.277
       202  -8.4439    217.4144    177.0248   6.9192107023e+01   3.5138591793e+00    0.2130717    0.1919473 -89.36 0.0008603297    1.553    0.356
       203  -8.9220    183.1181    176.1855   7.5800466097e+01   9.7002061504e+00    0.2770135    0.2245962 -56.55 0.0004993764    1.402    0.287
       204  -9.5566    104.5268    175.0291   9.4198148263e+01   2.4402784235e+01    0.5868816    0.3145932  64.17  0.002100062    2.954    0.661
       205  -7.9511     97.5249    177.5208   9.6422447317e+01   2.4981804450e+01     0.143211    0.1397312  72.85 0.0004913517    1.058    0.055
       206  -8.7136     88.9915    176.8896   9.8526004000e+01   2.6510015418e+01    0.2994699    0.2158864  80.61 0.0008457192    1.610    0.379
       207  -9.4935     58.3396    175.0290   1.0624742606e+02   3.1393345246e+01     0.471011     0.248548  73.20  0.001887549    2.638    0.621
       208  -9.3465     55.9768    171.2231   1.0636139529e+02   3.2634035550e+01    0.6768458    0.3199597  71.76  0.002320804    3.666    0.727
       209  -8.9813     12.8018    176.5431   1.1789270466e+02   3.5951445523e+01     0.299926    0.1371379  80.53 0.0009966278    2.357    0.576
       210  -8.0068    211.5024    176.4743   7.0186970306e+01   4.6082190873e+00    0.1355408    0.1239476 -17.06 0.0008097219    1.045    0.043
       211  -9.1133    158.7726    175.1039   8.0934723039e+01   1.4466788107e+01     0.365927    0.2701426  84.88  0.001195626    2.101    0.524
       212  -9.4662     81.9646    155.0942   9.6750606708e+01   3.2967045500e+01     0.530397    0.4563791  83.14  0.001596561    1.188    0.158
       213 -10.6831     76.0830    171.2449   1.0103265356e+02   2.9859335194e+01     1.119163    0.4777931 -79.57  0.003252318    4.684    0.787
       214  -8.1986    224.4695    174.5117   6.7416469852e+01   2.7876933455e+00     0.132893    0.1180881 -21.45 0.0001082856    1.043    0.041
       215  -9.6196    175.8454    172.0807   7.6527158108e+01   1.1871572403e+01    0.3985243     0.246933 -41.65  0.001105544    1.606    0.377
       216  -8.5096    142.9722    172.7408   8.4171060713e+01   1.7965989648e+01    0.2622876    0.1965293 -69.51 0.0007492217    1.611    0.379
       217  -8.6701    134.9323    171.9456   8.5966105791e+01   1.9655893469e+01    0.2946085    0.2246104  76.79  0.001081046    1.696    0.410
       218  -9.4967    121.3641    170.4200   8.9057492112e+01   2.2515565513e+01    0.4061179    0.2918502 -79.63  0.001107552    1.769    0.435
       219  -9.2000     45.0890    171.1288   1.0921078537e+02   3.3987792571e+01    0.3764293    0.2073001  85.51  0.001189504    2.137    0.532
       220  -8.6048    205.7482    170.2708   7.0042283046e+01   6.7412746103e+00    0.3119377    0.1774453 -54.75  0.001210554    2.230    0.552
       221  -9.2573     74.0278    160.4878   9.9881284340e+01   3.2824636681e+01    0.5352519    0.2972533   6.00  0.001766693    4.156    0.759
       222  -8.2124    237.0883    169.6355   6.4271949254e+01   1.5884067614e+00    0.2224331    0.1587221 -43.97 0.0006750702    1.376    0.273
       223  -9.0890    230.6087    169.9724   6.5442053087e+01   2.5693599827e+00    0.2159722    0.1774803   7.61  0.001039264    1.258    0.205
       224  -8.6125    149.8379    169.5774   8.1909009687e+01   1.7355995415e+01    0.2800197     0.201953 -71.34 0.0007569393    1.808    0.447
       225  -8.4946    244.4599    169.0886   6.2948990793e+01   5.3101713327e-01    0.1949628     0.110065 -38.22  0.000466054    1.540    0.351
       226  -8.5228    219.0667    168.6268   6.7219217465e+01   4.7247838781e+00    0.2202896    0.1757375 -46.98 0.0005509142    1.309    0.236
       227  -9.2923    167.1236    168.6308   7.7742250944e+01   1.4238968908e+01    0.3456159    0.2644664  60.76 0.0009768292    1.562    0.360
       228  -8.2703     88.6871    168.8420   9.7292108355e+01   2.8512425455e+01    0.2772381    0.1684944  61.42 0.0007053151    1.974    0.493
       229  -8.8211    111.5345    167.5190   9.1036140170e+01   2.4969105185e+01    0.3290811    0.2122736  73.41 0.0009026166    2.281    0.562
       230  -8.9542    191.9109    166.6853   7.2048222091e+01   9.9357265239e+00     0.270324    0.2000705 -48.45 0.0006056795    1.391    0.281
       231  -8.7928    185.1093    166.6992   7.3453619370e+01   1.1206579274e+01    0.2482872    0.1907336 -52.76 0.0006733279    1.401    0.286
       232  -9.3833     20.5452    166.3268   1.1504509084e+02   3.7714679692e+01     0.352275    0.1631896  62.05   0.00124925    2.453    0.592
       233  -8.2567    198.4582    170.1621   7.1445158385e+01   8.0667538874e+00      0.21278    0.1957872  75.58  0.000614289    1.354    0.261
       234  -9.7596    136.6391    164.4582   8.4065808597e+01   2.1029251135e+01      0.62826    0.3279358  58.12  0.001888309    2.746    0.636
       235 -10.0261     94.8688    162.2000   9.4477293308e+01   2.9128840725e+01    0.9379091    0.5776585 -86.84  0.003116073    2.399    0.583
       236  -8.2027    233.9047    164.9411   6.3881596571e+01   2.8952139414e+00    0.1942595     0.152843 -60.58 0.0005621281    1.631    0.387
       237  -8.8109    159.5751    164.3964   7.8580058162e+01   1.6595849755e+01    0.3012156    0.2460025  73.32 0.0009561225    1.524    0.344
       238  -9.6825     33.6619    163.5224   1.1131722852e+02   3.7123310229e+01    0.5738336    0.2035332  50.95  0.002148766    3.239    0.691
       239  -8.8843    246.1341    163.2784   6.1547984981e+01   1.2298413444e+00    0.2213461    0.1490816 -29.76 0.0003798847    1.307    0.235
       240  -8.2846    239.9568    164.1699   6.2721186988e+01   2.0520193973e+00    0.1922435    0.1664813 -50.93 0.0005538847    1.313    0.238
       241  -8.6831    212.9560    163.6645   6.7334336587e+01   6.6821495511e+00    0.2656563    0.1845694 -46.42 0.0008564192    1.436    0.304
       242  -8.4918    204.8836    162.8963   6.8699709706e+01   8.2730480591e+00    0.2494223    0.1795422 -46.41 0.0006024858    1.386    0.279
       243  -9.2817      3.2742    162.3401   1.1906566551e+02   4.0099281125e+01    0.3915884    0.1717833  55.49  0.001574678    2.369    0.578
       244  -9.0893    177.4108    160.8174   7.3856899112e+01   1.3867766669e+01    0.2925283    0.2493373 -48.98 0.0008232691    1.197    0.165
       245  -8.8785    151.6589    161.1074   7.9741141745e+01   1.8860162667e+01    0.3204924    0.2487056 -83.25  0.000797531    1.722    0.419
       246  -8.8213     60.7058    160.7409   1.0360017557e+02   3.4622824168e+01    0.3635635    0.2270209  70.73   0.00123403    1.929    0.482
       247  -9.0828    242.9458    155.0323   6.0426853344e+01   3.1100601429e+00    0.3903714     0.202636 -55.00  0.001689683    2.670    0.625
       248  -7.8372    239.7307    153.3119   6.0595769299e+01   3.9263699015e+00     0.175247    0.1706882 -37.81 0.0003675926    1.186    0.157
       249  -8.3346    242.2982    160.2789   6.1572038745e+01   2.3323237357e+00    0.3532777    0.2067587  15.19  0.001575595    2.816    0.645
       250  -9.8442    250.1342    157.8036   5.9849764068e+01   1.5105875216e+00    0.3146793    0.2445699 -30.95 0.0006805849    1.084    0.077
       251  -9.1021    246.5792    155.5253   5.9952913981e+01   2.4452690584e+00    0.2387478    0.1801118 -20.79 0.0005135671    1.275    0.215
       252  -8.4166    227.2727    159.1222   6.3845001845e+01   5.0097520715e+00    0.2501012    0.1662359 -53.26  0.001041551    1.711    0.415
       253  -9.6330    105.8551    157.9342   9.0716777818e+01   2.8277996603e+01    0.5082667    0.3367067  81.52  0.001190417    2.250    0.555
       254  -8.5877    237.2537    158.9704   6.2132792804e+01   3.3686150648e+00    0.1907993     0.153841 -32.39 0.0005162744    1.078    0.073
       255  -9.1880    167.7672    157.5332   7.5273799436e+01   1.6445280441e+01    0.3951986    0.2892633 -84.51  0.001120373    2.112    0.527
       256  -8.4853    128.1656    158.9023   8.5062290808e+01   2.3928224982e+01    0.2957737    0.2234161  84.09   0.00101914    1.749    0.428
       257  -8.3903    196.6381    158.0534   6.9296273650e+01   1.0726258148e+01    0.2283327    0.2003057  66.31 0.0008545623    1.368    0.269
       258  -8.1669    188.2090    158.1206   7.1012392375e+01   1.2321241772e+01    0.1994583    0.1695548 -65.10 0.0005963916    1.370    0.270
       259  -8.4467    217.8524    156.5443   6.4974519444e+01   7.1118055198e+00     0.273024    0.1627534 -53.32 0.0007819545    1.939    0.484
       260  -9.0194    157.5712    156.2551   7.7324764458e+01   1.8749027826e+01    0.3423747    0.2423328 -73.70   0.00107375    1.983    0.496
       261  -9.2417    119.5477    155.4440   8.6582669374e+01   2.6373204285e+01    0.4433812    0.3007452 -87.94  0.001656037    2.225    0.551
       262  -9.4001     49.6717    155.2033   1.0585701782e+02   3.7404555734e+01    0.4332272    0.2454902  66.53  0.001512897    2.205    0.546
       263  -8.8441     34.3143    155.9635   1.1023111045e+02   3.8928424608e+01    0.2925559    0.1885805  35.46  0.001554285    1.645    0.392
       264  -7.9598    204.7748    155.5575   6.7187772396e+01   9.6775146019e+00    0.1782504     0.137498  58.06  0.000448317    1.562    0.360
       265  -8.5074    144.4591    154.8047   8.0136525965e+01   2.1684849879e+01    0.2875126    0.2330391  77.99 0.0007534552    1.520    0.342
       266  -9.7311     67.8284    153.2918   1.0042721421e+02   3.5515819033e+01    0.4945571    0.3100769  86.21  0.001715719    2.073    0.518
       267  -9.7040    132.7653    152.9242   8.2644052025e+01   2.4423699607e+01    0.5498163    0.3930928 -65.74  0.002493542    1.606    0.377
       268  -9.0542    133.3089    148.6887   8.1593889864e+01   2.5293926915e+01    0.4341184    0.2099169 -45.81  0.001444138    2.089    0.521
       269 -10.4403     54.9249    144.7764   1.0274963825e+02   3.9379485321e+01    0.9276707    0.4593496  71.09  0.002655374    3.950    0.747
       270  -9.8050     56.5948    135.6615   1.0069797737e+02   4.1459270911e+01    0.5525916     0.302321   0.01   0.00192254    3.913    0.744
       271  -8.7105     19.8903    152.7984   1.1381238138e+02   4.1081954291e+01    0.1805124    0.1330253  70.93 0.0005701872    1.331    0.249
       272  -8.9540     98.3613    150.8512   9.1377453836e+01   3.1316855443e+01    0.3293789    0.2412837  85.78 0.0008786226    1.724    0.420
       273  -9.5621     29.4673    150.8345   1.1093894437e+02   4.0688144261e+01    0.4718387    0.2249909  66.96  0.001733923    2.871    0.652
       274  -8.9420    189.4626    150.2160   6.9056975304e+01   1.3649093215e+01    0.3117801    0.2202515 -66.08 0.0007327438    1.880    0.468
       275  -8.0294    182.4143    151.2722   7.0742798771e+01   1.4830680461e+01    0.2051619    0.1370848 -53.72 0.0006674051    1.614    0.380
       276  -8.4850    162.7907    150.5578   7.4883916664e+01   1.8928334241e+01    0.3019581     0.200022 -63.08  0.000966941    1.888    0.470
       277  -9.4607    248.7530    149.2995   5.8383824259e+01   3.1341064093e+00    0.2833299    0.1763614 -38.63 0.0006540648    1.364    0.267
       278  -9.5207    242.2715    149.6694   5.9459734076e+01   4.1262737379e+00    0.3331512    0.2374573  48.07  0.001905649    1.658    0.397
       279  -8.1361    212.8151    149.8038   6.4474391253e+01   9.2630876653e+00     0.184799    0.1581598 -58.72  0.000405824    1.294    0.227
       280  -9.8279     39.6792    147.7163   1.0763052326e+02   4.0421821568e+01    0.5676479    0.2833588  68.61  0.001862359    2.946    0.661
       281  -8.9771      2.6392    149.9350   1.1816716269e+02   4.3120611842e+01    0.2531279    0.1318089  85.37  0.001274733    1.866    0.464
       282  -8.5821    198.8686    149.0322   6.6931390373e+01   1.2047068750e+01     0.221232    0.1886631 -67.71 0.0006196543    1.373    0.272
       283 -10.0479     89.1982    146.3548   9.3069551875e+01   3.3976240546e+01    0.6956449    0.4088038 -89.91  0.002471654    3.054    0.673
       284  -9.8526    233.3924    147.6783   6.0478979170e+01   5.9660253971e+00    0.3038223    0.1673634 -36.50 0.0008365312    1.622    0.384
       285  -8.0995    223.2923    147.0130   6.2034393562e+01   7.8620070955e+00    0.1972738    0.1592005 -37.07  0.000413783    1.112    0.101
       286 -10.2972    148.8639    144.6922   7.6847615724e+01   2.3055663399e+01    0.6207571    0.4088908 -73.50  0.001389371    2.286    0.563
       287 -10.3725    139.1250    143.3251   7.8936389908e+01   2.5353953288e+01    0.9850852    0.2990077 -49.38  0.002944231    3.345    0.701
       288 -10.2408    106.7232    144.6342   8.7790093039e+01   3.1344032618e+01    0.7228995    0.4376861  73.57  0.002132195    2.946    0.661
       289  -8.9801    106.3900    138.4106   8.6545040506e+01   3.2909085241e+01    0.5450889    0.2619043  19.15  0.001366478    5.795    0.827
       290  -9.7243     13.0640    146.1367   1.1496699123e+02   4.3279861742e+01    0.3848981    0.2209501  74.03  0.001223723    1.880    0.468
       291  -7.9535    206.7726    146.5632   6.4895416192e+01   1.1003446905e+01    0.1794945    0.1386679  60.02 0.0005796023    1.551    0.355
       292  -8.3129    175.6651    146.1614   7.1053014995e+01   1.7236360981e+01    0.2341696    0.1845927 -63.85 0.0007657586    1.457    0.314
       293  -9.3860    240.1922    145.1819   5.8879194908e+01   5.2372581944e+00    0.2089239    0.1613994 -49.26 0.0005354469    1.283    0.220
       294  -9.8467    124.8609    142.2499   8.2365836947e+01   2.8461760207e+01    0.6614861    0.3789166 -67.75  0.002009163    2.470    0.595
       295  -8.8815    247.0445    143.8308   5.7550755225e+01   4.3246836347e+00    0.2235556    0.1581298 -39.48 0.0005258813    1.208    0.172
       296  -8.1265    194.3964    144.1971   6.6752723276e+01   1.3863859243e+01     0.203465    0.1314471 -51.37 0.0004349748    1.605    0.377
       297  -8.7901    165.7083    144.1427   7.2794413920e+01   1.9702060306e+01    0.2540759    0.2077268  61.51 0.0007238513    1.361    0.265
       298 -10.7550     68.3824    138.2462   9.7604482858e+01   3.9213865410e+01      1.12809    0.6840014 -81.11  0.004083302    2.085    0.520
       299 -10.4284     59.9195    125.0573   9.7672906597e+01   4.3672453511e+01    0.7727613    0.4489543  76.16    0.0022696    3.023    0.669
       300  -8.7868     59.6488    115.0993   9.5706788923e+01   4.6156822696e+01    0.5235656    0.2795046 -24.25  0.001868209    3.363    0.703
       301  -9.9610      2.8497    141.2734   1.1729981392e+02   4.5197785958e+01    0.5572944    0.2366956  84.61  0.002178673    2.761    0.638
       302  -8.7976     78.2984    147.2634   9.6369290913e+01   3.5487176569e+01    0.2952617    0.1943104  71.97 0.0008688271    1.991    0.498
       303  -8.1934    134.0000    140.9436   7.9697068507e+01   2.6938041535e+01    0.2560376    0.0880117 -48.79 0.0007363602    2.904    0.656
       304  -9.0655    242.7587    143.0273   5.8042554176e+01   5.1723935211e+00    0.4286861    0.1632062 -31.46  0.001593919    3.057    0.673
       305  -9.8984     23.4290    138.2642   1.1107848379e+02   4.4365782116e+01    0.5189946    0.2533906  63.61  0.001935673    2.736    0.634
       306  -7.8095    218.6437    138.7798   6.1092608727e+01   1.0206975627e+01    0.1993798    0.1176041 -47.80 0.0004357114    1.636    0.389
       307  -8.6454    172.3731    138.3861   7.0011175399e+01   1.9530414285e+01    0.3043289    0.2404636 -82.16 0.0008100801    1.649    0.393
       308  -8.0863    207.4870    138.0441   6.2915443403e+01   1.2474643837e+01    0.2150504     0.130933 -43.73 0.0005744917    1.528    0.346
       309  -8.6020    197.5916    137.6117   6.4673649604e+01   1.4512076404e+01    0.2838402    0.2036222 -57.99 0.0008910103    1.550    0.355
       310  -9.6480    182.2338    143.7511   6.9121937918e+01   1.6394623323e+01    0.3908441    0.2423932 -47.09 0.0008250393    1.586    0.370
       311  -8.3236    162.6490    136.5378   7.1748574357e+01   2.1961286962e+01    0.2554979     0.182784 -65.40 0.0006338513    1.698    0.411
       312 -10.4227     83.3494    133.4538   9.2162475362e+01   3.8126393182e+01    0.5948156    0.3730721 -63.57  0.001920553    1.633    0.388
       313  -9.3414     39.1947    136.1168   1.0606595890e+02   4.3380199259e+01    0.2839378    0.2072867  70.68 0.0009026291    1.511    0.338
       314  -8.9850    248.4350    135.2052   5.5607156977e+01   5.5388724804e+00    0.2757798     0.180049 -42.85 0.0006698868    1.316    0.240
       315  -9.0074    250.6978    129.9553   5.4221378604e+01   6.0340348724e+00    0.4225238    0.1029308 -38.54  0.001419446    3.580    0.721
       316  -8.5272    246.8584    130.2043   5.4822444488e+01   6.6440179863e+00    0.2199008     0.151533 -46.61 0.0005615855    1.295    0.228
       317  -8.6084    187.8524    135.5827   6.6131459112e+01   1.6889108152e+01    0.3001719    0.1825099 -56.75 0.0009206742    1.911    0.477
       318  -9.0228    112.8804    133.4016   8.3610918640e+01   3.2884078673e+01    0.3936891    0.2759406  86.62  0.001126426    2.130    0.530
       319  -8.2344    237.5677    133.7250   5.6935333411e+01   7.6596311860e+00    0.1891222    0.1108558 -48.27 0.0009331109    1.613    0.380
       320  -8.6037    179.3509    133.8458   6.7478372135e+01   1.9005384067e+01    0.2811943    0.2195431 -70.73 0.0007838456    1.554    0.356
       321  -9.6670    143.1757    131.8306   7.5268262259e+01   2.7103000736e+01    0.4402958    0.2624542 -57.84  0.001238286    1.909    0.476
       322 -10.0402    130.6764    118.6067   7.5224765571e+01   3.2692938515e+01    0.6055587    0.4005501  83.96  0.002244935    2.701    0.630
       323  -9.8595    132.2496    131.3133   7.7916567650e+01   2.9499620760e+01    0.5736803    0.3853951 -81.05  0.001187603    2.370    0.578
       324  -9.4495    134.2103    124.9815   7.5885388896e+01   3.0522836332e+01    0.4929665    0.2117354  33.01   0.00154046    3.243    0.692
       325 -10.3239     98.2096    130.2879   8.7079450953e+01   3.6361407538e+01     0.744091     0.385177 -56.30  0.001880757    1.950    0.487
       326  -8.9692    100.4341    120.0328   8.4030720821e+01   3.8406002047e+01    0.6439096    0.3792924   7.68  0.002015907    4.000    0.750
       327  -9.8311     73.1263    129.3407   9.4409884101e+01   4.0739241578e+01    0.4381487    0.2996883  88.75   0.00125431    1.960    0.490
       328 -10.3446     12.7738    128.7029   1.1303717919e+02   4.7572680951e+01    0.6054666    0.2947692  89.73  0.002484274    2.358    0.576
       329  -7.7541    220.6956    129.9789   5.8849513593e+01   1.1418335385e+01    0.1736202    0.1154615 -39.56 0.0008031342    1.356    0.263
       330  -8.2281    211.7048    129.5387   6.0291450378e+01   1.3239548891e+01    0.2561815    0.1581996 -56.56  0.001161492    1.840    0.456
       331  -8.0890    204.4813    130.2556   6.1742196355e+01   1.4540269054e+01    0.2002105    0.1280423 -51.93 0.0009282595    1.596    0.373
       332  -8.0928    192.7160    130.1565   6.3935111897e+01   1.6956673164e+01    0.2347917    0.1724475 -56.40 0.0005989866    1.441    0.306
       333  -9.4312    168.3468    129.5405   6.8834895908e+01   2.2226600888e+01    0.3081421    0.2459752 -73.96 0.0007046426    1.504    0.335
       334  -9.7472    152.8726    128.1454   7.2036603995e+01   2.5847711444e+01    0.6716476    0.2668176 -46.71  0.001662037    2.505    0.601
       335  -7.7264      1.4951    130.4319   1.1658535918e+02   4.7903683721e+01    0.1245094    0.1025576 -77.71 8.334539e-05    1.016    0.016
       336 -10.6728     44.6934    123.3873   1.0222194456e+02   4.5955738052e+01     1.110278      0.58001  76.74   0.00384167    3.871    0.742
       337  -9.9434    117.9933    125.3017   8.0290781640e+01   3.3782334061e+01     0.618369    0.3981265  74.34  0.001431468    2.597    0.615
       338 -10.2775     28.4043    122.4813   1.0729486703e+02   4.7830883089e+01    0.7683982    0.3768423  78.68  0.002789857    3.695    0.729
       339  -8.6473     26.7647    113.4283   1.0635352582e+02   5.0194781771e+01    0.2232761    0.1573907 -47.39 0.0006471107    1.311    0.237
       340  -8.0556    228.4738    125.5393   5.6630958386e+01   1.0741619680e+01    0.1376384    0.1200274 -50.34 0.0008073571    1.085    0.078
       341  -8.9071    179.1228    124.6861   6.5387676419e+01   2.0908679827e+01    0.2935373    0.2194125 -68.68 0.0007345941    1.621    0.383
       342  -7.8290    188.5713    123.8322   6.3285051200e+01   1.9062521014e+01    0.2099489    0.1333153 -52.80 0.0005664342    1.632    0.387
       343  -8.7767     84.4788    122.7995   8.9496298044e+01   4.0550166611e+01    0.3413502    0.2167089  10.42  0.001368826    2.420    0.587
       344  -7.8797    194.8454    122.0377   6.1661623048e+01   1.8087469700e+01    0.2375785    0.1536305 -62.32 0.0005111122    1.912    0.477
       345  -8.7175    172.0141    121.5582   6.6134419697e+01   2.3079931815e+01    0.2738078    0.2042125 -60.57 0.0005732352    1.470    0.320
       346  -8.9159    158.7522    121.6888   6.9099591711e+01   2.5951110593e+01    0.3246018    0.2494482 -80.21 0.0008600318    1.676    0.403
       347  -9.5032     71.2691    120.0542   9.3017626746e+01   4.3302127764e+01    0.4142175    0.2787516 -87.71  0.001060255    2.077    0.519
       348 -10.0294    141.6451    118.6840   7.2440653182e+01   3.0325832722e+01    0.4533433     0.315791 -73.22  0.001168303    1.972    0.493
       349  -9.4945     16.8091    118.8871   1.1046482655e+02   4.9672049362e+01    0.3679793    0.1704451  -2.44  0.001476893    3.696    0.729
       350  -9.8198      2.9997    117.2470   1.1462955175e+02   5.0988867625e+01    0.5049249    0.2489284  69.42  0.002284843    2.736    0.635
       351  -7.5625    203.2740    116.5968   5.8866112924e+01   1.7354284060e+01     0.152185    0.1057468 -66.43 0.0006980878    1.759    0.432
       352  -8.2485    185.5263    116.0187   6.2039100345e+01   2.1242074386e+01    0.2248585    0.1405667 -43.87  0.000470722    1.528    0.345
       353  -9.8607    109.2089    114.3231   8.0051371548e+01   3.8056666338e+01    0.5091213    0.3372547 -74.83  0.001392513    2.210    0.547
       354  -8.2664    192.9191    115.1352   6.0413343212e+01   1.9817933345e+01    0.2233747    0.1891746 -68.54 0.0004782864    1.254    0.202
       355  -7.9234    153.2770    115.6468   6.8868528894e+01   2.8426484967e+01    0.1577716    0.1211942 -78.12 0.0007008041    1.647    0.393
       356 -10.1252     92.6811    112.4803   8.4513255713e+01   4.1594524808e+01    0.6157919    0.3479921 -64.32  0.001219591    2.205    0.546
       357  -8.6950     93.7916    104.4092   8.2102843061e+01   4.3252830663e+01    0.2531661    0.1851151 -14.98 0.0008884195    1.801    0.445
       358  -9.9459     78.9415    112.2903   8.8782591537e+01   4.3982210247e+01    0.5717182     0.388859  89.37  0.001951273    2.286    0.562
       359  -8.6932     78.0423    105.4655   8.7398472602e+01   4.5734458137e+01    0.3476219    0.2357659   2.08   0.00106821    2.146    0.534
       360  -7.9565    167.2431    114.4437   6.5423153150e+01   2.5575838267e+01    0.2066706    0.1467635  63.71 0.0006805394    1.595    0.373
       361 -10.0982    133.5049    108.9916   7.2020569389e+01   3.4189170121e+01    0.6654254      0.31902 -51.84  0.002445959    2.262    0.558
       362 -10.1614    128.4976    101.8172   7.1417542695e+01   3.6805009747e+01    0.4525529    0.3114034 -65.60  0.001315891    1.831    0.454
       363  -9.8404    121.7980    112.4613   7.6036146037e+01   3.5925243924e+01    0.3449727    0.2758516 -63.74 0.0005066987    1.364    0.267
       364 -10.9631    248.8283    108.3844   5.0084968340e+01   9.9243828613e+00    0.5323582    0.2845584 -39.36  0.002698216    1.598    0.374
       365  -8.5634    159.2074    111.7351   6.6520912547e+01   2.7919072257e+01    0.2718042    0.1979802 -54.46 0.0006909601    1.420    0.296
       366 -10.2937     66.3072    110.0838   9.2384597566e+01   4.6442062171e+01      0.54987    0.3352439 -67.96  0.001731595    1.857    0.462
       367 -10.1638     13.6189    111.0479   1.1035481070e+02   5.1801650515e+01    0.4303647    0.2579009  57.49  0.001751548    2.072    0.517
       368  -9.0572     43.1422    109.4737   1.0007668612e+02   4.9539928542e+01    0.3345601    0.1452181  19.55  0.001318445    2.944    0.660
       369  -8.0258    189.3596    108.1540   5.9421083628e+01   2.1914948810e+01     0.214091    0.1271884 -50.51 0.0004644245    1.682    0.405
       370  -9.8509    118.5117    105.4153   7.5091481003e+01   3.8162871960e+01    0.5952972    0.3536249 -65.95  0.002245406    2.461    0.594
       371 -10.3826    108.6859     98.7301   7.6076873487e+01   4.1634835894e+01    0.6836535    0.4312911  69.34  0.001634202    2.566    0.610
       372  -9.0546    107.3910     92.7384   7.4779155240e+01   4.3174168573e+01     0.719265    0.3605396  26.12  0.002357379    3.371    0.703
       373  -9.3526    109.9449    106.9986   7.7942516860e+01   3.9566212320e+01    0.3281701    0.2178328  29.95  0.001420793    1.702    0.413
       374  -9.3026    139.9513    104.7391   6.9267782975e+01   3.3670936085e+01     0.386621    0.2962525 -81.50  0.000934237    1.694    0.410
       375 -10.5346     45.7474    102.4034   9.7682524055e+01   5.0941766894e+01    0.8013299    0.4574476  69.43  0.002763131    3.405    0.706
       376  -9.4086     45.6727     92.8997   9.5529434141e+01   5.3173177261e+01    0.5430769    0.2944447  -5.52  0.002099593    3.269    0.694
       377 -10.7088     22.9289    102.6747   1.0578959090e+02   5.3108029070e+01    0.7496981    0.4135909  73.37  0.002734658    3.011    0.668
       378  -8.5027    166.6525    104.2575   6.2994164372e+01   2.7742773313e+01    0.2648663    0.2177255 -66.55 0.0006064295    1.304    0.233
       379  -9.5388    150.6889    103.2320   6.6285250120e+01   3.1569973021e+01    0.4762709    0.3051949 -65.65  0.001270113    2.090    0.522
       380  -9.8600      6.6665    102.2547   1.1138675705e+02   5.4345880692e+01    0.4375387    0.2164575 -76.58   0.00190366    1.915    0.478
       381  -8.0043    175.5286    102.0207   6.0596793147e+01   2.6164743850e+01    0.2270129    0.1426889 -44.13 0.0006020762    1.543    0.352
       382  -8.4218    159.7366    100.8977   6.3625910115e+01   2.9978194208e+01    0.2839727    0.1954823 -58.90 0.0006530481    1.616    0.381
       383  -9.1863     82.0060     99.9157   8.4671952568e+01   4.6353490287e+01    0.3652773    0.2728365 -84.75  0.001002124    1.876    0.467
       384  -9.5820    188.1665     96.8611   5.6901324976e+01   2.4279879145e+01    0.6017848     0.214467 -34.78  0.001966157    3.228    0.690
       385 -10.3962     86.5252     86.1150   7.9352459217e+01   4.8586172525e+01    0.9773321    0.5623604 -37.28  0.003162578    1.817    0.450
       386  -9.4569     94.8960     97.0820   7.9786162470e+01   4.4684295200e+01    0.3764528    0.2826006 -68.73 0.0009439214    1.627    0.386
       387 -10.5075     91.8797     93.0844   7.9622219423e+01   4.6117819109e+01    0.2649023    0.2423355  32.99            0    1.104    0.094
       388 -10.1174     63.8962     95.7461   8.9709204156e+01   5.0147085732e+01    0.6043246    0.3958712 -84.21  0.001729388    2.527    0.604
       389  -8.3682     64.5086     87.9730   8.7431106639e+01   5.1804118116e+01    0.3598362    0.2181596  -8.49  0.001442769    2.736    0.634
       390  -8.6309    150.5526     96.4200   6.4511466323e+01   3.2961952662e+01    0.3513891    0.2230111 -11.39  0.001264141    2.987    0.665
       391  -8.5163    174.7408    111.8616   6.3200996035e+01   2.4426846308e+01    0.2820721    0.1942921 -59.00 0.0007738575    1.604    0.377
       392  -8.2917    176.3247     93.3924   5.8261205011e+01   2.7605138802e+01    0.2568125    0.1660451 -58.89 0.0005492587    1.729    0.422
       393  -8.2889    164.7925     94.0951   6.0767281536e+01   3.0130758408e+01    0.2328514    0.1942335 -68.06 0.0004946635    1.269    0.212
       394  -9.2290    139.1071     92.4522   6.6150945667e+01   3.6356918155e+01    0.4136913    0.2840425 -82.21 0.0008943743    2.271    0.560
       395 -10.1247    123.9877     91.1185   6.9653130009e+01   3.9998372770e+01     0.479216    0.4152676  33.90  0.001204042    1.185    0.156
       396  -9.6516      5.3264     92.2560   1.1029006397e+02   5.6759486262e+01    0.3603648     0.196379  49.97  0.001321967    2.426    0.588
       397  -8.1305    157.8519     91.5690   6.1580698375e+01   3.2216413382e+01    0.2491181    0.1738735 -48.03 0.0006192155    1.436    0.304
       398  -9.7958     34.7491     89.9478   9.8890555822e+01   5.5028227935e+01    0.4406631    0.2783428 -89.12  0.001731935    2.433    0.589
       399  -9.7660    246.9805     88.8771   4.6301761202e+01   1.3407970075e+01     0.265974    0.1715042 -12.77   0.00122429    2.818    0.645
       400  -7.6462    188.2887     87.6394   5.4606962224e+01   2.5907075387e+01    0.1533493    0.1062878 -68.98 0.0007025084    1.689    0.408
       401  -8.0741    163.9865     86.9658   5.9057379052e+01   3.1646790266e+01     0.241937    0.1772486 -75.30 0.0006183948    1.681    0.405
       402  -9.8046     48.4642     84.1011   9.2279290830e+01   5.4827932527e+01    0.5158501     0.343371  79.19  0.001977938    2.815    0.645
       403  -9.7490    104.7103     83.1189   7.2771999352e+01   4.5694184122e+01    0.4587424    0.3206991 -69.80  0.001021501    2.044    0.511
       404  -8.9399    105.9418     76.8658   7.0515536082e+01   4.6664537042e+01    0.5778127    0.2258153  37.08  0.001933159    3.047    0.672
       405  -8.5145    157.9577     83.8020   5.9467827125e+01   3.3636199003e+01    0.2646088    0.1820409 -55.44 0.0005393441    1.556    0.357
       406  -9.8533      9.9356     81.3606   1.0658971733e+02   5.8974911182e+01    0.3882933    0.2361238  76.63  0.001776494    2.533    0.605
       407  -9.1937    140.7807     82.5276   6.2967079816e+01   3.7878812336e+01    0.3725714    0.1980822 -47.28 0.0009403214    1.964    0.491
       408  -9.1743     22.7904     90.3233   1.0346454408e+02   5.6017337504e+01    0.3113707    0.2182975 -26.77  0.001091491    1.485    0.326
       409  -9.8098     24.6140     80.3672   1.0059472013e+02   5.8126741485e+01    0.4555261    0.2799419 -85.53  0.001405568    2.420    0.587
       410  -8.1734    150.9687     89.0044   6.2412651719e+01   3.4299725994e+01    0.2371657    0.1792433 -74.02  0.000473333    1.619    0.382
       411  -8.4518    150.4082     80.7117   6.0252579925e+01   3.5969025525e+01    0.2932547    0.1978069 -62.70 0.0008475904    1.792    0.442
       412  -8.6030    119.4519     80.6201   6.7829537145e+01   4.3057380178e+01    0.3140273    0.2292003 -76.68 0.0007615695    1.958    0.489
       413  -8.8561     74.6010     80.2717   8.1660492331e+01   5.1876870837e+01    0.3369952    0.2293407 -65.39    0.0010195    1.935    0.483
       414  -8.3283    166.8434     79.3950   5.6468664378e+01   3.2333483149e+01     0.250075    0.1867321 -50.87 0.0004693131    1.339    0.253
       415  -7.9179    184.3286     78.2456   5.2946103638e+01   2.8439868539e+01    0.2065678    0.1224795 -47.15 0.0005755149    1.638    0.389
       416  -9.2903    128.1639     75.3993   6.3988779514e+01   4.2086092502e+01      0.35888    0.2368331 -56.71 0.0006419025    1.789    0.441
       417  -8.5205    140.6271     75.5237   6.0998404123e+01   3.9191189041e+01    0.2495358    0.1701487 -59.34 0.0007083564    1.723    0.419
       418  -9.9890     63.1936     73.6776   8.3776021976e+01   5.5041814824e+01    0.4896714    0.2939498 -60.63  0.000990157    2.098    0.523
       419  -7.4254    170.6679     83.3677   5.6771976470e+01   3.0734314953e+01    0.1600515    0.1111039 -74.03 0.0007032786    1.825    0.452
       420  -8.2983    163.2969     73.6129   5.5609649011e+01   3.4170470600e+01    0.2735094    0.1647104 -49.28  0.000872569    1.709    0.415
       421  -9.7369     82.4117     72.6552   7.6634511660e+01   5.2062084141e+01    0.3750986    0.2969986 -76.20  0.001162784    1.787    0.440
       422  -8.6395    115.5760     72.9494   6.6569940418e+01   4.5341207528e+01    0.2520951    0.2206452 -67.94 0.0004813774    1.301    0.231
       423  -8.5424     42.4583     72.6565   9.1481013437e+01   5.8019828069e+01    0.2404712    0.1251732 -58.41 0.0007695953    2.007    0.502
       424  -7.7657    175.4954     72.5331   5.3032464279e+01   3.1464128621e+01    0.1452362    0.1337533 -81.96  3.12367e-05    1.025    0.024
       425  -8.7696    105.8891     71.7673   6.8949470507e+01   4.7634407672e+01    0.2689512    0.2107534 -52.11   0.00065692    1.398    0.285
       426  -9.4614     95.0564     69.8009   7.1605964648e+01   5.0210293293e+01    0.7370918    0.2379998 -44.79  0.002471704    3.233    0.691
       427  -9.4586     51.4573     69.6905   8.7042171724e+01   5.7517477187e+01    0.4495217    0.2646626 -66.73  0.001616053    2.543    0.607
       428  -7.9710    140.4601     71.4978   5.9868867103e+01   3.9937938743e+01    0.1468173    0.1406941  76.99 -5.184051e-05    1.024    0.023
       429  -9.2007     29.2080     70.3877   9.6251736705e+01   5.9892698880e+01    0.3682013    0.1892387 -10.29  0.001573488    2.923    0.658
       430  -9.1887     16.5089     69.9921   1.0144992021e+02   6.1037533675e+01    0.2651527    0.1978298  85.06 0.0008825139    1.876    0.467
       431  -7.8650    157.2121     69.9444   5.5813987387e+01   3.6236798222e+01     0.190532     0.116866 -39.74  0.000444752    1.661    0.398
       432  -8.8059    147.0714     68.1490   5.7425174421e+01   3.8949426386e+01    0.3039941    0.2007784 -47.31 0.0005580106    1.573    0.364
       433  -8.7190    138.5118     66.0412   5.8710813239e+01   4.1323778939e+01    0.3002009    0.2227069 -63.29 0.0008034364    1.579    0.367
       434  -8.8712    121.5583     66.0359   6.2834958817e+01   4.5236605787e+01    0.3387031     0.238757 -68.24 0.0008538734    1.952    0.488
       435  -8.6547     83.7356     65.2801   7.3806827212e+01   5.3219005529e+01    0.4156849    0.2166604  16.97  0.001306411    4.365    0.771
       436  -8.8727    110.3503     63.8002   6.5143479516e+01   4.8102192692e+01    0.2976273    0.2285988 -66.80 0.0008067252    1.684    0.406
       437  -9.0897     37.1315     64.0606   9.1154959903e+01   6.0400661489e+01    0.2851467    0.2065571 -66.41  0.001101702    1.707    0.414
       438  -8.9578     17.3699     63.8838   9.9557575187e+01   6.2269739723e+01    0.4381095    0.1554708 -29.88  0.001557689    4.124    0.758
       439  -8.8083     64.2788     63.0933   8.0005697018e+01   5.6962308223e+01    0.3445905    0.2086317   5.66  0.001487011    2.476    0.596
       440  -8.2106    158.2479     61.9797   5.3387305323e+01   3.7285584056e+01    0.1955533    0.1802246 -59.44 0.0003695121    1.095    0.087
       441  -9.0194     97.7603     60.6520   6.7782934323e+01   5.1301241498e+01     0.309723    0.2391089  59.32 0.0009667875    1.452    0.311
       442  -9.6093     73.2813     59.4837   7.5484387603e+01   5.6146306757e+01     0.391257    0.2359435 -52.72    0.0010344    2.007    0.502
       443  -8.2874     88.8891     59.5592   7.0195766946e+01   5.3262809696e+01     0.224851    0.1629183 -42.71  0.000591145    1.451    0.311
       444  -7.8323    147.1198     59.1457   5.4805852042e+01   4.0396792034e+01     0.199683    0.1635971 -68.27 0.0004301294    1.327    0.246
       445  -7.8680     38.3151     59.3246   8.9199539327e+01   6.1214076878e+01    0.1366931   0.08685181 -21.59 0.0007042763    1.666    0.400
       446  -8.1359    130.7878     57.8010   5.8005390013e+01   4.4471616096e+01    0.1896768    0.1648104 -81.62 0.0004653382    1.285    0.222
       447  -9.8731     23.3992     56.3427   9.4799443497e+01   6.3315623034e+01    0.3902436    0.2746074  86.94  0.001871475    2.659    0.624
       448  -9.7537      7.2425     57.1223   1.0230664110e+02   6.4359832995e+01    0.2632607    0.2225409  80.60  0.001149459    1.622    0.383
       449  -9.1404    119.0631     55.4720   6.0136434809e+01   4.7537157192e+01    0.3991476    0.2196208 -46.05  0.001307331    2.021    0.505
       450  -8.2141    139.8941     56.1197   5.5441856109e+01   4.2588023659e+01    0.2184951    0.1853919 -77.46  0.000473506    1.293    0.227
       451  -9.1077     62.9315     54.8552   7.7710969057e+01   5.8690187321e+01    0.2653486    0.1828952 -45.36 0.0006439018    1.520    0.342
       452  -8.8031     43.9600     55.6233   8.5607189282e+01   6.1250884940e+01    0.2405135    0.1824962 -51.36 0.0009673645    1.426    0.299
       453  -8.9375     54.0450     53.9171   8.0868655725e+01   6.0204794443e+01    0.3553014     0.206222 -61.03  0.001228142    2.769    0.639
       454  -8.6625    105.8560     53.2847   6.2949243549e+01   5.0807857177e+01    0.2963318     0.191004 -52.36 0.0009367969    1.906    0.475
       455  -9.5124     92.4462     50.5856   6.5976630620e+01   5.4043501775e+01    0.3869085    0.2318555 -48.26  0.001132682    1.983    0.496
       456  -8.4029     74.8082     51.7664   7.2242926370e+01   5.7219951340e+01    0.2351286    0.1410861   3.77 0.0009555776    2.800    0.643
       457  -8.2051    129.5536     49.0732   5.5570824947e+01   4.6084659906e+01    0.2012012    0.1392413 -36.39 0.0005019314    1.541    0.351
       458  -8.8051    120.9319     47.4707   5.7082857941e+01   4.8319159030e+01    0.2394129    0.1890654 -52.55 0.0004779273    1.427    0.299
       459  -8.4128    112.1893     46.9258   5.9099647347e+01   5.0380446235e+01    0.2056699    0.1846291 -74.89 0.0005141516    1.300    0.231
       460  -8.9679     81.9789     46.4641   6.7865041014e+01   5.6750730563e+01    0.2701247    0.1870852 -39.57 0.0007545357    1.537    0.349
       461  -8.5530     45.0305     44.6222   8.1279895855e+01   6.3099967145e+01    0.2184899    0.1710718 -52.21 0.0005941715    1.558    0.358
       462  -9.2541     16.5953     44.6148   9.4325817424e+01   6.6164167334e+01    0.2132757     0.204685 -62.18 0.0007306645    1.388    0.279
       463  -8.5269    132.8829     43.3447   5.3038068683e+01   4.6110552408e+01     0.227412    0.1850768 -49.76 0.0003131586    1.331    0.249
       464  -8.6060     92.8883     42.2676   6.2883470380e+01   5.5211207256e+01    0.2592339    0.1719553   2.58  0.001228324    2.064    0.516
       465  -9.2738     69.6243     41.5700   7.0343151818e+01   5.9774988372e+01    0.3198285    0.2483149 -59.72  0.001087994    1.854    0.461
       466  -8.7041     58.2620     42.6823   7.5083056327e+01   6.1495601767e+01    0.2430801    0.1983556 -63.31  0.001066453    1.807    0.447
       467  -9.7621      5.1708     41.7868   9.9044590360e+01   6.7517346426e+01    0.3433742    0.2038603 -73.04  0.001616042    2.425    0.588
       468  -8.1358    154.6588     42.7278   4.8598201064e+01   4.0973390707e+01    0.1399541     0.100446  38.13 0.0004741353    1.611    0.379
       469  -8.6671    105.9911     41.2670   5.8805466498e+01   5.2560066091e+01    0.2766719     0.181207 -41.83 0.0007589593    1.690    0.408
       470  -8.0359    140.2130     41.0180   5.0807310447e+01   4.4679781805e+01     0.174382    0.1139163 -32.28 0.0006667582    1.676    0.403
       471  -8.6481     36.8574     40.9133   8.3505881116e+01   6.4778567365e+01    0.1999362    0.1733905 -57.45 0.0004983557    1.549    0.355
       472  -8.6190     95.6162     37.9984   6.0533756487e+01   5.5242710059e+01    0.2288267    0.2083437 -76.97 0.0007647748    1.368    0.269
       473  -8.0008     80.5999     36.7557   6.4705870408e+01   5.8451953648e+01    0.1739136    0.1219331 -43.05 0.0005267896    1.648    0.393
       474  -9.2790     26.1750     35.5082   8.6476754666e+01   6.6907846316e+01    0.2648479     0.196257 -53.55 0.0009000447    1.649    0.393
       475  -7.5685    133.4998     36.5042   5.0765798046e+01   4.6869779130e+01    0.1376733    0.1249522  63.87 4.267313e-05    1.009    0.009
       476  -8.6206    125.2826     35.7737   5.2271841812e+01   4.8900645677e+01    0.3491104    0.1632086  58.00  0.001512547    1.929    0.482
       477  -8.6029    111.9094     34.6697   5.5005553922e+01   5.2118891282e+01    0.2529323    0.1657682 -50.96  0.000720538    1.873    0.466
       478  -8.9833     48.5023     33.3718   7.5427644279e+01   6.4438368800e+01    0.2385775    0.2131608 -43.26 0.0007635169    1.433    0.302
       479  -8.3455    119.1387     32.9412   5.2709896601e+01   5.0684189921e+01    0.2261394    0.1541941 -39.84 0.0005317591    1.616    0.381
       480  -8.7051     60.8372     32.6489   7.0134289850e+01   6.2605718297e+01    0.2241844    0.1753599 -36.34 0.0004708213    1.407    0.289
       481  -7.9966    139.5618     31.7767   4.8112987928e+01   4.6010765415e+01    0.1880728    0.1204442 -46.90 0.0009457472    1.713    0.416
       482  -8.6050     72.2939     31.2763   6.5381618941e+01   6.0776155718e+01    0.2159986    0.1815689 -81.12 0.0005004385    1.887    0.470
       483  -9.1945     12.8697     30.3130   9.1228773277e+01   6.9040848415e+01    0.2656175    0.1571277 -55.11  0.001144601    1.902    0.474
       484  -8.4429    101.6468     29.5519   5.5807869893e+01   5.5036646297e+01    0.2092116    0.1538736 -52.68 0.0009408366    1.705    0.414
       485  -8.0675     42.0291     30.0023   7.6862926436e+01   6.5868489862e+01    0.1500116    0.1239816  -2.74 0.0004054322    1.010    0.010
       486  -8.9197     81.5061     27.5042   6.0834728062e+01   5.9496786713e+01    0.2490337    0.1980573 -57.97 0.0009225971    1.746    0.427
       487  -9.3263      3.4306     27.3671   9.5199073816e+01   7.0250690215e+01    0.2758447    0.1690356 -57.07  0.001515868    1.781    0.439
       488  -8.9417     91.8360     26.1652   5.7230242620e+01   5.7546827518e+01    0.3065861    0.1707056 -42.68  0.001189223    2.161    0.537
       489  -7.8310    104.3281     22.6925   5.2649287450e+01   5.5239012359e+01    0.1273372    0.1008598 -79.47 0.0004884259    1.657    0.396
       490  -8.9417     63.6134     21.1640   6.4311462307e+01   6.3645707794e+01     0.274763    0.1909238 -45.89   0.00100246    1.918    0.478
       491  -8.7077     48.1652     21.4673   7.0529061476e+01   6.6177297696e+01    0.2091502     0.162971 -30.09 0.0006854057    1.375    0.273
       492  -7.8042    120.6610     20.9522   4.8368829485e+01   5.1707406708e+01    0.2080655   0.07790225 -49.07 0.0007024884    4.222    0.763
       493  -9.0395     74.3467     19.8015   6.0029613874e+01   6.1813736340e+01    0.2697445    0.2048692 -56.92  0.000896771    1.957    0.489
       494  -8.1711     19.5341     21.5119   8.4185346569e+01   6.9858396108e+01    0.1155969   0.09277554 -10.89 5.256492e-05    1.050    0.048
       495  -8.1710     38.8165     18.7720   7.3440930947e+01   6.7910516412e+01    0.1464388    0.1336043  11.04 0.0006087048    1.302    0.232
       496  -8.2496     87.8357     17.7572   5.5119402499e+01   5.9326240863e+01    0.1595578    0.1488671 -88.46 0.0004739465    1.336    0.251
       497  -7.5240    112.7660     17.0046   4.8689704787e+01   5.3935137234e+01    0.1463018    0.1103483 -23.14 0.0003594898    1.512    0.338
       498  -8.0051     30.0251     16.0117   7.6357006741e+01   6.9454585871e+01    0.1524201    0.1484488  61.81  0.000796093    1.715    0.417
       499  -8.2522     97.2013     15.1962   5.1653865261e+01   5.7591266009e+01    0.1601539    0.1467678 -81.29 0.0004513617    1.318    0.241
       500  -7.6460      7.6476     15.3291   8.8045369000e+01   7.1908873761e+01   0.09554385   0.08779631  43.81 0.0007047167    1.772    0.436
       501  -8.2527     17.1460     14.1868   8.2204673793e+01   7.1191437274e+01    0.1390675     0.122746   0.97 0.0004425543    1.319    0.242
       502  -7.5055     83.6511     11.2921   5.3723028110e+01   6.0846301532e+01    0.1171302   0.09716168 -85.33 0.0005958594    1.670    0.401
       503  -9.0544    175.5413    247.7690   8.9734368549e+01  -1.8314469896e+00    0.2842635    0.2044688  61.10  0.001011459    2.124    0.529
       504  -8.8570    132.1620    247.9061   9.8596985210e+01   4.6760941831e+00    0.2688488    0.1966676  68.50 0.0007730988    1.731    0.422
       505  -8.4055    113.0337    248.5676   1.0264827656e+02   7.4347873679e+00    0.2249559    0.1668971  88.38 0.0009224145    1.693    0.410
       506  -8.4240    218.4106    247.4717   8.1481599977e+01  -7.7769189382e+00    0.2491839    0.1088724 -43.87  0.001234917    2.737    0.635
       507  -8.2452    156.0796    248.0457   9.3694372562e+01   1.0270119723e+00     0.189629    0.1423663  60.22 0.0006395982    1.698    0.411
       508  -9.2325    103.8194    246.8406   1.0436836536e+02   9.1149304101e+00    0.3839546    0.2063036 -74.53  0.001870129    2.575    0.612
       509  -8.9879    242.7633    246.1188   7.6942159061e+01  -1.0646114366e+01    0.2855965    0.1206355 -27.92  0.001476557    2.362    0.577
