#   1 NUMBER                 Running object number                                     
#   2 MAG_AUTO               Kron-like elliptical aperture magnitude                    [mag]
#   3 X_IMAGE                Object position along x                                    [pixel]
#   4 Y_IMAGE                Object position along y                                    [pixel]
#   5 X_WORLD                Barycenter position along world x axis                     [deg]
#   6 Y_WORLD                Barycenter position along world y axis                     [deg]
#   7 A_WORLD                Profile RMS along major axis (world units)                 [deg]
#   8 B_WORLD                Profile RMS along minor axis (world units)                 [deg]
#   9 THETA_WORLD            Position angle (CCW/world-x)                               [deg]
#  10 FWHM_WORLD             FWHM assuming a gaussian core                              [deg]
#  11 ELONGATION             A_IMAGE/B_IMAGE                                           
#  12 ELLIPTICITY            1 - B_IMAGE/A_IMAGE                                       
         1 -12.6493     42.5966     81.2802   9.0834460702e+01   5.6206569989e+01     1.146873    0.7583057 -23.75   0.00553601    1.575    0.365
         2 -10.8061     39.4573      7.7405   6.3995172817e+01   6.9117867021e+01    0.4703479    0.2371138 -14.58  0.002432883    2.243    0.554
         3 -11.3716     50.4503     37.1128   7.2462156672e+01   6.3594246903e+01    0.7262164    0.5796267 -79.43  0.003846238    2.643    0.622
         4 -11.6331     39.8321     29.6402   7.4025546346e+01   6.6261863625e+01    0.5266031    0.3151873 -34.67  0.002405619    1.631    0.387
         5 -12.6809     45.0493     22.6606   6.8596017986e+01   6.6475220940e+01    0.9577267    0.8018348 -47.65  0.006179183    1.756    0.431
         6 -11.8774     83.9759      3.8560   4.6923142612e+01   6.1190034411e+01     0.819051    0.3351964  56.84  0.003049513    2.015    0.504
         7 -11.0467     77.1192     21.4062   5.6031144313e+01   6.0938048636e+01    0.7807419     0.359347 -10.36   0.00306256    3.625    0.724
         8 -11.7389     78.2586     13.4576   5.2418140511e+01   6.1530940666e+01    0.5220358    0.3916764  17.03  0.003233595    1.310    0.236
         9 -11.7060    178.3785     24.2472   3.6802686526e+01   3.7681957925e+01    0.4444595    0.3458475  67.14  0.002749509    1.211    0.174
        10 -10.2801    116.1554     16.5046   4.4283954977e+01   5.2997409506e+01    0.4895457    0.2703899 -45.17  0.002446136    2.181    0.541
        11 -10.0084    128.2430     18.0359   4.2479100158e+01   5.0055657023e+01    0.3348852    0.2515167  51.57  0.001431802    1.200    0.167
        12  -9.5921    129.4522     12.8670   4.0638422210e+01   5.0265219541e+01      0.28075    0.1543958  45.86  0.001278506    1.755    0.430
        13 -12.1346    165.0847     12.3088   3.5362864271e+01   4.2001934299e+01    0.6378907    0.3289247 -40.96  0.003336361    1.986    0.496
        14 -12.1152    155.6983     11.5750   3.6345898991e+01   4.4253133494e+01    0.5950413     0.473766 -56.13  0.003547442    1.307    0.235
        15 -12.5372    169.3524      8.7884   3.3959620655e+01   4.1356172789e+01    0.6280921    0.3871118 -55.88  0.003581736    1.650    0.394
        16 -12.4476    164.2388      2.5905   3.2942509091e+01   4.3092530781e+01     1.556304    0.2338807  68.33  0.004977292    4.594    0.782
        17  -9.8896     21.0084     13.7328   7.6131265533e+01   7.0912140235e+01    0.3509382    0.1530345 -28.10  0.001795789    2.252    0.556
        18 -11.0211    250.0203      7.1830   2.7021824798e+01   2.4570246365e+01    0.5808386    0.1056337 -37.99  0.002448134    3.816    0.738
        19 -11.1763    180.9568      9.9895   3.3011149696e+01   3.8596813061e+01    0.2532933    0.1739082 -67.77  0.001534145    1.380    0.276
        20 -10.1370    233.7805      9.5845   2.8499782447e+01   2.7415663311e+01    0.1629721    0.0879927 -86.15 0.0009584668    1.709    0.415
        21 -10.5495     71.3173      5.7462   5.1239105823e+01   6.3623194905e+01    0.4024434    0.2372506  56.27  0.002076271    1.597    0.374
        22 -10.6705    223.1589      4.5995   2.8257733534e+01   3.0063102248e+01    0.3942147    0.1528581 -54.16  0.002020913    2.242    0.554
        23 -11.1100    145.5258      4.3821   3.5683275159e+01   4.7264861826e+01    0.3985676    0.2598059 -80.87  0.002250103    1.638    0.389
        24 -10.3412    140.8126      1.6040   3.5517482258e+01   4.8586987689e+01    0.2980137    0.1496041  77.88  0.001333693    1.871    0.466
        25 -10.7526    131.0495      3.8003   3.7570514474e+01   5.0674120126e+01    0.6688958    0.2125734  56.89   0.00273151    2.413    0.586
        26 -10.8705    121.2219      4.5480   3.9386943174e+01   5.2882218484e+01    0.4781678    0.3403744  71.34  0.002830949    1.251    0.200
        27 -10.3184    112.0032      5.4996   4.1357194310e+01   5.4911413034e+01    0.3605998    0.1785652  65.78  0.001249198    1.766    0.434
        28 -10.7025    106.5085      5.0710   4.2277732219e+01   5.6185243914e+01    0.4472579    0.2615603  80.86  0.002274723    2.048    0.512
        29  -9.5974    208.4770      4.5191   2.9318331523e+01   3.3112319255e+01    0.1864469    0.1566267  71.73  0.001037409    1.301    0.232
        30 -10.0256    204.2429      4.1189   2.9565944618e+01   3.4051746968e+01    0.3073211    0.1785201 -73.91  0.001210135    1.577    0.366
        31  -9.7810    211.9777      5.0527   2.9161540582e+01   3.2322070773e+01    0.2419098    0.1244717  68.25  0.001384858    1.799    0.444
        32 -10.8128     61.0477      2.1172   5.2882290834e+01   6.5916022276e+01    0.4540106    0.1978983  44.78  0.002338881    1.824    0.452
        33  -9.7525    217.6701      1.7981   2.8080877623e+01   3.1467016460e+01    0.2375195    0.1282887 -87.75    0.0012666    1.658    0.397
        34  -8.6754     17.3930      1.7973   7.1972252874e+01   7.2845117187e+01    0.1518037   0.08728243 -17.58 0.0009380058    1.593    0.372
        35  -9.1172     86.6638    110.6838   8.2853789870e+01   4.3042739815e+01    0.1601626    0.1167294 -15.72 0.0007047909    1.696    0.410
        36  -9.5981    108.9693    108.5140   7.5366592788e+01   3.9416301643e+01    0.2408468    0.1537334  39.65  0.001034922    1.597    0.374
        37 -10.0970    224.1393    107.1278   5.0021124511e+01   1.5392329569e+01    0.2016851    0.1797666 -17.06 0.0006469961    1.273    0.214
        38  -9.5444     69.1716    105.6012   8.7396899271e+01   4.7066309245e+01    0.2086909    0.1420075  14.11  0.000951885    1.735    0.424
        39 -13.1250    239.2957    125.3357   5.1660203655e+01   9.4702012906e+00     1.096339     1.034181  49.10  0.007241371    1.269    0.212
        40 -10.5237     17.3836    104.5436   1.0574006843e+02   5.3014704943e+01    0.4157261    0.2839446  40.18  0.002289997    1.740    0.425
        41  -9.9284     46.5035    100.6717   9.4275236754e+01   5.1256533288e+01    0.4145708    0.1909106 -57.44  0.001731673    1.971    0.493
        42  -9.8154     30.6675    101.9028   1.0038632284e+02   5.2589234240e+01    0.2789099      0.21071 -32.85   0.00155722    1.277    0.217
        43  -9.1288    208.6960     94.9814   4.9648503757e+01   2.0580194606e+01    0.2043761    0.1631729 -46.63 0.0007475616    1.125    0.111
        44  -9.4091    178.9087     93.1769   5.4324161968e+01   2.7310891551e+01    0.2315353    0.1993492 -76.03  0.001239076    1.224    0.183
        45 -10.4827      2.5472     87.1275   1.0820852215e+02   5.8081324127e+01    0.7426313    0.1982203 -69.08  0.002696153    3.336    0.700
        46 -11.7132      4.4623     76.1289   1.0532646441e+02   6.0517258289e+01    0.6122046    0.4354608  49.71  0.003607505    1.903    0.475
        47 -12.5383     14.8281     73.1528   1.0026626485e+02   6.0559692820e+01    0.9574256    0.6972933  27.58  0.005764435    1.605    0.377
        48  -9.9203    144.8159     80.7669   5.8066711752e+01   3.7334988713e+01    0.3496734    0.3058518  33.01  0.001585356    1.214    0.176
        49  -9.8312    219.2984     77.2596   4.4101058054e+01   2.1347583399e+01    0.4201085    0.2290742  76.96  0.001907028    2.442    0.591
        50  -9.6533    193.9332     87.4976   5.0254992674e+01   2.5011873672e+01    0.2582346    0.2035208  89.57 0.0008926232    1.422    0.297
        51  -9.8144    169.7377     76.4254   5.1714924156e+01   3.2345707426e+01    0.2843529    0.2636479 -62.73 0.0009510519    1.040    0.038
        52  -9.4739    215.4856     79.4907   4.5115424585e+01   2.1773367710e+01    0.3385044    0.1467537 -43.38  0.001471373    2.021    0.505
        53 -10.1169     74.8991     69.5120   7.4810964210e+01   5.4011691309e+01    0.3447096    0.2729571  44.54  0.001665404    1.389    0.280
        54 -10.5965    215.0026     67.1897   4.2406785862e+01   2.3803511950e+01     0.327033    0.1563146 -38.13  0.001511902    1.949    0.487
        55 -10.8518     25.3487     65.3930   9.3616323975e+01   6.1408433446e+01    0.4545683    0.2153685 -50.74  0.001584102    1.791    0.442
        56  -9.1447    179.0003     66.4877   4.7487955499e+01   3.1840654333e+01    0.2135349    0.1340194  61.29 0.0008918063    1.588    0.370
        57  -9.5754     83.7947     68.8336   7.1476949642e+01   5.2546500669e+01    0.2595055    0.2333853   0.83  0.001175906    1.045    0.043
        58  -9.4257    100.8825     83.6617   7.0670974613e+01   4.6360990767e+01    0.2676227    0.2040112 -28.75 0.0008985677    1.357    0.263
        59 -10.2037    232.7025     64.2145   3.9647238762e+01   2.0652123277e+01    0.2697924    0.1675699  65.58   0.00151616    1.736    0.424
        60  -9.8257    218.8957     61.4972   4.0655153685e+01   2.3844913999e+01    0.1862067    0.1227907  69.15 0.0009917918    1.576    0.366
        61 -10.0071    209.1428     59.4525   4.1398212451e+01   2.6202771927e+01    0.2871661    0.1416554 -52.27  0.001329231    1.953    0.488
        62  -8.8217    200.0056     63.9752   4.3668969209e+01   2.7509247066e+01    0.1680496    0.1463954 -60.43  0.001007499    1.046    0.044
        63 -11.1006    173.9991    238.2392   8.5862498479e+01  -4.5739696715e-01    0.3436675     0.258225 -45.68  0.002034901    1.542    0.351
        64  -9.5542    138.3227     56.4030   5.2374163626e+01   4.2902976095e+01    0.2745679     0.183116 -39.35  0.001349028    1.560    0.359
        65  -9.8484    196.8022     55.6548   4.2125331630e+01   2.9450589370e+01    0.3566477    0.1895686  42.46  0.001559333    2.637    0.621
        66  -9.6616    164.9089     53.7036   4.6481450167e+01   3.7047746171e+01    0.3025907    0.2096889 -12.73  0.001461472    2.031    0.508
        67  -9.4336     66.5642     53.8394   7.2444771443e+01   5.8293700569e+01    0.3118812    0.1247716 -49.27  0.001143877    3.294    0.696
        68  -9.6949     34.4823     52.8592   8.5524951355e+01   6.2999364957e+01    0.3557428    0.1587272  25.64  0.001645543    2.294    0.564
        69  -9.5737    215.4902     50.1497   3.8543013165e+01   2.6180382490e+01    0.2025578    0.1730799  55.87 0.0009882554    1.390    0.281
        70 -10.6610     81.1789     37.5907   6.1141687296e+01   5.8132923494e+01    0.4455186    0.3090315 -22.19  0.002434315    1.518    0.341
        71 -10.6285     85.2080     47.9645   6.3712531212e+01   5.5835459533e+01    0.8236415    0.6051687 -47.85   0.00439666    1.637    0.389
        72  -8.8234    242.2908     43.3681   3.4431020089e+01   2.1695104852e+01    0.1044711    0.0944114   5.52  0.000702523    1.713    0.416
        73 -11.0296      3.1917     40.6844   9.6790582062e+01   6.8014530969e+01    0.3906642    0.3679442  63.28  0.002671499    1.587    0.370
        74 -10.9199    185.3333     40.6675   4.0009791543e+01   3.4097249170e+01     0.479177    0.1782443 -47.72  0.001867193    2.695    0.629
        75  -9.3134     10.6632    233.6754   1.2052179466e+02   2.2333960203e+01    0.1064734    0.0845519 -48.34 0.0007051229    1.718    0.418
        76 -10.4406    159.4864    232.0192   8.7962134823e+01   2.7858553682e+00    0.1909344    0.1308754 -45.24  0.001033645    1.595    0.373
        77  -9.6757      3.2015    230.3964   1.2180876986e+02   2.3718403321e+01    0.1652744   0.08196568  45.71 0.0009512637    1.706    0.414
        78 -12.3625    209.7391    215.8511   7.4826733787e+01  -1.8299121305e+00    0.8958765    0.5196944  -8.71   0.00424417    2.190    0.543
        79 -10.4716    198.2472     33.9949   3.6828287738e+01   3.2040809798e+01     0.284123    0.1964411 -36.43  0.001651049    1.514    0.339
        80 -11.0446    191.7243     39.8594   3.8991565411e+01   3.2753525444e+01    0.2971091    0.2370332  -3.66  0.001706959    1.822    0.451
        81  -8.9891     97.2215     36.5988   5.5914556136e+01   5.4966379446e+01    0.1999941    0.1115091  43.12 0.0009528677    1.629    0.386
        82  -9.8045     12.0891     34.0560   8.9771815967e+01   6.8606842051e+01     0.385862    0.1445841 -48.08  0.001860052    2.292    0.564
        83 -10.6330    181.9919     40.9905   4.0538448705e+01   3.4820007889e+01    0.3382467    0.2260358 -71.81  0.001788608    1.596    0.374
        84 -10.2978     86.0798     31.8663   5.7397400093e+01   5.7900095097e+01     0.252672    0.1888138 -25.08  0.001066008    1.426    0.299
        85  -9.4891     89.9453     28.6933   5.5040371083e+01   5.7486699409e+01     0.341767    0.2421615  24.67  0.001897522    1.434    0.303
        86 -10.1452     66.7123     29.6014   6.2941381993e+01   6.1936843404e+01    0.2689512    0.1474345 -16.32  0.001280406    2.208    0.547
        87  -8.8838    228.6366     29.3130   3.2803657312e+01   2.6175214307e+01    0.1313996   0.07173099 -67.09 0.0007040452    1.758    0.431
        88 -10.0483    149.0356     27.7060   4.1848446119e+01   4.4149503594e+01    0.3641737    0.1840327 -67.98   0.00141033    3.294    0.696
        89  -9.7445    248.8706    223.4599   6.9038439488e+01  -8.1020940562e+00    0.2086349    0.1809507 -31.07  0.001477163    1.488    0.328
        90 -12.8706    184.6546    217.3541   8.0155823006e+01   1.6097666677e+00    0.7933835    0.4016716  42.48  0.003615217    2.160    0.537
        91 -10.2727    158.9849    224.7148   8.6904632371e+01   4.2110520622e+00    0.1991165    0.1678053  19.74  0.001171518    1.064    0.060
        92  -9.8881     67.5021    216.9883   1.0689072068e+02   1.9556483896e+01    0.1982978     0.126936 -71.05  0.001032778    1.591    0.372
        93  -9.1929    102.9942     26.3000   5.0658071322e+01   5.4950926075e+01    0.1974341    0.1550456  51.26 0.0009338487    1.132    0.116
        94  -8.8095    224.3052     22.6659   3.1812910153e+01   2.7848779767e+01    0.1281511   0.07068579 -64.56 0.0007039051    1.665    0.400
        95  -8.4931      9.3219    211.6463   1.1949027893e+02   2.7256735476e+01    0.1346774   0.07008859  64.47 0.0007047012    1.756    0.430
        96  -9.1626    111.4118     16.7946   4.5362839553e+01   5.4050445352e+01    0.1833986    0.1702153  53.95  0.001205655    1.076    0.071
        97 -11.3790    172.8755     20.6727   3.6571573163e+01   3.9342367525e+01    0.2737303    0.2391649  65.73  0.001687235    1.167    0.143
        98  -8.9902    141.2931    206.6510   8.7901883247e+01   1.0641307909e+01    0.1407362    0.1125747  72.91 0.0007030335    1.672    0.402
        99  -9.0259    123.9658    205.9813   9.1893615053e+01   1.3628033681e+01    0.1946321    0.1843672  36.26            0    1.026    0.025
       100  -9.8398     93.9752     17.0886   4.9531338863e+01   5.7886573465e+01    0.3471766    0.2261841  82.03  0.001728933    2.269    0.559
       101 -10.4270    247.9166     16.1438   2.8784972206e+01   2.3968993198e+01    0.1866792    0.1156105 -65.04  0.001176483    1.290    0.225
       102 -10.6325    243.0268    201.4470   6.6097611881e+01  -4.0374268347e+00    0.3819588       0.2555 -40.30  0.002265355    1.476    0.322
       103  -9.2245    202.7622    197.4123   7.2795148890e+01   2.4260275124e+00    0.1853799    0.1223409  21.00 0.0009465913    1.573    0.364
       104 -10.5377    203.8561    192.6046   7.1655783389e+01   3.1315626629e+00    0.4210044    0.2174655  21.92  0.001782542    2.457    0.593
       105 -10.8650    195.8322    186.0082   7.1980730191e+01   5.6623057544e+00    0.3857456    0.2962996  44.04    0.0020795    1.497    0.332
       106 -10.0276    226.9788     15.2411   3.0097416583e+01   2.8151514017e+01    0.2883466     0.139403  79.80  0.001584948    1.956    0.489
       107  -9.4947     37.0160    185.4974   1.1086372663e+02   3.0735064988e+01    0.1917554     0.131921  29.16 0.0008778485    1.592    0.372
       108  -9.4545     62.6695    171.6621   1.0234084949e+02   3.1172650180e+01    0.1496761    0.1058929 -33.41 0.0007051969    1.737    0.424
       109  -8.8794     33.5034    161.4621   1.0903846051e+02   3.7161300264e+01    0.1375004    0.1209713 -79.18 0.0008094421    1.008    0.008
       110 -10.8372    219.1579    156.0957   6.1380409841e+01   7.3890904629e+00    0.4704219    0.3582881  53.85   0.00257312    1.657    0.397
       111 -12.3790     10.6944    141.6078   1.1318848302e+02   4.4173185602e+01    0.7712874    0.3200487 -78.50  0.003281888    2.237    0.553
       112 -10.0267     39.9938    140.6395   1.0422095876e+02   4.1875597187e+01    0.3570349    0.2862224 -81.80  0.001966806    1.213    0.176
       113  -9.6415     53.6698    143.4418   1.0047448129e+02   3.9601759194e+01    0.2729062    0.2218727 -73.84   0.00117502    1.178    0.151
       114  -8.2071     24.2975    141.6133   1.0914955492e+02   4.3114073740e+01    0.1445181   0.09335268  71.97 0.0007015895    1.778    0.438
       115 -11.9924    243.0459    109.4587   4.7840337968e+01   1.1525521637e+01     1.130681    0.6083446 -62.85  0.005004151    2.628    0.620
       116  -9.0363     23.4835    125.9955   1.0717368849e+02   4.7178363310e+01    0.2114739   0.07494165 -48.60 0.0008096718    2.518    0.603
       117 -10.7951     11.2107    124.8665   1.1096651839e+02   4.8371108986e+01    0.2592005    0.1422573 -32.43  0.001252425    2.103    0.524
       118  -9.3608     58.5195    124.5109   9.5356667186e+01   4.3868174850e+01    0.1472512    0.1354596 -53.55 0.0008102421    1.012    0.012
       119 -10.1973      4.1155    124.6334   1.1318547784e+02   4.8869489278e+01    0.2359652    0.1592883 -83.60  0.001326743    1.361    0.265
       120 -10.9409    189.8453    115.5057   5.7731495135e+01   2.0734082260e+01    0.7901673    0.3871648 -23.73  0.002480077    3.908    0.744
       121 -10.0319     64.2256     16.0859   5.8073638950e+01   6.3993843552e+01    0.2173661    0.1676621  74.80   0.00124471    2.080    0.519
       122  -9.1340    104.7942     11.5825   4.4949285660e+01   5.6022243885e+01    0.1805976    0.1124355  72.05 0.0009494498    1.688    0.408
       123 -10.6218     17.8090    127.2610   1.0918802187e+02   4.7300631209e+01    0.2798038     0.172838  64.87  0.001375649    1.992    0.498
       124  -9.4025    148.3934    111.6184   6.5639820097e+01   3.0450553438e+01    0.3054706    0.1322755 -55.08 0.0009558781    3.133    0.681
       125  -9.7046     95.6269    111.5833   8.0240448484e+01   4.1243812696e+01    0.3084305     0.255982 -18.96  0.001523523    1.303    0.233
       126 -10.7467    195.3297     35.3291   3.7475931218e+01   3.2522641014e+01    0.2363129    0.2113688 -35.97   0.00140256    1.297    0.229
