#   1 NUMBER                 Running object number                                     
#   2 MAG_AUTO               Kron-like elliptical aperture magnitude                    [mag]
#   3 X_IMAGE                Object position along x                                    [pixel]
#   4 Y_IMAGE                Object position along y                                    [pixel]
#   5 X_WORLD                Barycenter position along world x axis                     [deg]
#   6 Y_WORLD                Barycenter position along world y axis                     [deg]
#   7 A_WORLD                Profile RMS along major axis (world units)                 [deg]
#   8 B_WORLD                Profile RMS along minor axis (world units)                 [deg]
#   9 THETA_WORLD            Position angle (CCW/world-x)                               [deg]
#  10 FWHM_WORLD             FWHM assuming a gaussian core                              [deg]
#  11 ELONGATION             A_IMAGE/B_IMAGE                                           
#  12 ELLIPTICITY            1 - B_IMAGE/A_IMAGE                                       
         1 -12.8808     86.1217     23.8339   9.3710337918e+00   6.0267143220e+01    0.4916072    0.2598321  58.73  0.001290739    1.728    0.421
         2 -13.2836     72.3182      7.4051   5.1501501302e+00   6.5437507574e+01    0.3549359    0.2866526 -17.23  0.001177383    1.380    0.275
         3 -12.2818     83.2028      7.1163   2.2401576872e+00   6.2814154685e+01     0.227173    0.2094346 -67.75 0.0003456581    1.148    0.129
         4 -11.4486     38.6531      4.1850   1.5977389941e+01   7.3313282426e+01    0.3761384    0.1408259  47.38  0.001371949    2.317    0.568
         5 -11.0783    110.7282      1.9849   3.5502866545e+02   5.6355791650e+01    0.1752992     0.161436 -85.07 0.0003055066    1.062    0.059
         6 -10.9533     25.1436      2.1329   2.2466196617e+01   7.6145548149e+01    0.1908834    0.1503535  14.36   0.00064102    1.200    0.166
         7 -12.0115    178.0767    246.1458   4.1781479326e+01   1.5877686502e+00    0.2765646    0.2486204 -53.21  0.001448136    1.787    0.441
         8 -12.4034    238.5009    250.5053   3.2240768873e+01  -4.7248606988e+00    0.1618486   0.09404956  16.17 -0.0004071928    1.476    0.322
         9 -12.2780    139.5947    248.9786   4.9594186268e+01   5.4144365877e+00    0.2663588     0.261063 -38.85  0.001316822    1.405    0.288
        10 -11.6176    114.3678    248.4134   5.4759270680e+01   8.3820241819e+00    0.2545533    0.2046433 -80.49  0.001344156    1.786    0.440
        11 -10.4233     87.4978    250.5186   6.0731251959e+01   1.1075582602e+01    0.1204811   0.09543927  31.53  0.000126361    1.022    0.021
        12 -11.6735     51.2789    249.6507   6.8580419633e+01   1.5124725421e+01    0.3943512     0.134185  24.94  0.001757289    2.551    0.608
        13 -13.6132     30.3011    246.9919   7.3022422152e+01   1.7690144191e+01      1.20989     0.254593  37.20  0.005176021    2.730    0.634
        14 -14.6749     24.0305    214.6975   7.2863402621e+01   2.4862514410e+01    0.9728003     0.946478 -66.49  0.006869759    1.261    0.207
        15 -13.6873     35.6200    230.7896   7.0986884577e+01   2.0350011978e+01    0.6088923     0.315799 -56.81  0.003231712    2.322    0.569
        16 -12.6751     13.9503    210.3376   7.5126693003e+01   2.6730327719e+01    0.3323523     0.217993  48.47 0.0002731815    1.246    0.197
        17 -13.6915     14.8955    229.1930   7.5694010402e+01   2.2611619188e+01    0.8683248    0.4538048  63.02  0.004856383    1.718    0.418
        18 -13.6691     17.7897    238.0188   7.5389509859e+01   2.0576386120e+01    0.5972672     0.344299  81.55  0.001927705    1.781    0.439
        19 -14.1207     10.3537    239.4613   7.7080935338e+01   2.0942595728e+01    0.5457057     0.425203 -38.27  0.002598737    1.814    0.449
        20 -15.2622      4.7885    246.9861   7.8501218136e+01   1.9960681372e+01     1.236559    0.4128425  25.94  0.004817416    2.440    0.590
        21 -14.6201      5.5872    235.5522   7.8004292796e+01   2.2117912508e+01    0.5899385    0.4832339 -31.38  0.004092392    1.722    0.419
        22 -11.1652     99.3322    246.7837   5.7818597478e+01   1.0379299190e+01    0.2081489    0.1453593  23.15  0.000599609    1.196    0.164
        23 -10.5512    246.1555    245.1724   3.0360426568e+01  -4.7804435719e+00    0.1197187   0.09039165 -10.97 0.0002357339    1.276    0.216
        24 -10.5615    132.0341    245.0398   5.0680777439e+01   6.8895819880e+00     0.145646     0.114138  17.60 0.0006594652    1.026    0.026
        25 -11.3678    142.9551    243.4066   4.8244425513e+01   5.8854233525e+00     0.218376    0.1618558 -28.81  0.001365042    1.425    0.298
        26 -11.0560    205.2002    243.4492   3.6605088621e+01  -8.4193695201e-01    0.1405258   0.08640134  29.95  0.000945224    1.693    0.409
        27 -11.2339    185.1572    242.0067   3.9928878946e+01   1.4000660530e+00    0.2036625    0.1851541  53.79  0.001509277    1.924    0.480
        28 -10.8851    127.8017    242.8277   5.1306232781e+01   7.7358806721e+00    0.1571233    0.1223001  39.37  0.000340076    1.334    0.251
        29 -10.8870     54.1520    242.8857   6.7507747536e+01   1.6085112185e+01      0.36467    0.1233625  21.65  0.001476947    3.062    0.673
        30 -10.4383    193.0105    242.7380   3.8621259605e+01   4.8098856662e-01    0.1288568   0.07830947  20.25   0.00030123    1.397    0.284
        31 -11.4898    117.0757    241.5274   5.3436564141e+01   9.2091571967e+00    0.1962295    0.1682121  73.43 0.0008329839    1.586    0.369
        32 -10.6207    180.1823    240.6278   4.0651691295e+01   2.1218185046e+00    0.1655101   0.08678639  15.19 0.0009414557    1.778    0.438
        33 -11.8091    101.9253    238.4998   5.6415759484e+01   1.1520539077e+01      0.19888    0.1827005 -50.70 0.0005234506    1.309    0.236
        34 -10.9508    137.8149    236.1556   4.8403947820e+01   7.6366975182e+00    0.1808479    0.1443886  34.38 0.0007541611    1.276    0.216
        35 -12.0721     71.7732    233.3857   6.2764504890e+01   1.5977271548e+01    0.4557879    0.2349081 -43.17  0.002254904    2.570    0.611
        36 -11.3546     73.1066    229.4051   6.2104949602e+01   1.6599861312e+01    0.2948821    0.1865848  89.81 0.0007402439    2.068    0.516
        37 -11.6629    165.8811    234.4009   4.2510715509e+01   4.6151687197e+00    0.1879897    0.1639094  27.69 0.0003707886    1.362    0.266
        38 -10.9516     47.4931    235.4878   6.8529902253e+01   1.8206908491e+01    0.1254894   0.09775452  44.57 9.195265e-05    1.051    0.049
        39 -11.2311    158.5203    233.4560   4.3829346930e+01   5.6130682843e+00    0.1972029    0.1634221  -0.19 0.0005189363    1.065    0.061
        40 -11.3123    207.4861    236.4738   3.5234052680e+01  -1.7987626183e-01    0.2020849   0.09057266  26.45  0.001114138    2.033    0.508
        41 -11.1896    110.9824    233.3366   5.3846273927e+01   1.1352740079e+01    0.1763013    0.1329224  26.41 0.0003345028    1.109    0.098
        42 -12.3291    106.0441    226.3577   5.4157986970e+01   1.3226839457e+01    0.2883336    0.2508455 -62.41  0.001898246    1.381    0.276
        43 -10.2055     51.6470    233.7315   6.7453426927e+01   1.8118822593e+01    0.1156524   0.09025957  -7.56 0.0002682831    1.629    0.386
        44 -12.4009     23.9537    232.7799   7.3777353738e+01   2.1062843991e+01    0.3653782    0.2162443  25.94  0.001421109    1.526    0.345
        45 -12.4173    152.5384    229.9961   4.4563734470e+01   6.8651797135e+00    0.2740191     0.253304 -49.59  0.001488721    1.449    0.310
        46 -10.4502    216.7006    231.3209   3.2950715042e+01  -4.4348331262e-01   0.08940663    0.0826814  -1.81 0.0003477979    1.623    0.384
        47 -10.5102    123.6759    231.7121   5.0867132337e+01   1.0090808623e+01    0.1239653   0.08583941  -4.13 0.0004157403    1.606    0.377
        48 -11.1538     61.3269    231.1430   6.5008714193e+01   1.7585490623e+01    0.1792571    0.1384198  26.47 0.0006223475    1.173    0.147
        49 -11.3521    194.7628    228.6806   3.6314910583e+01   2.1993521499e+00     0.221173    0.1330627 -36.11  0.000799891    1.630    0.387
        50 -11.9800    138.3478    227.9050   4.7232101323e+01   8.9370879482e+00    0.2256088    0.2067459 -28.49 0.0005401731    1.249    0.200
        51 -12.6245     30.1399    226.6861   7.2039640493e+01   2.1727112908e+01    0.2896728    0.1806045  47.49  0.001010096    1.306    0.234
        52 -12.1965     33.4539    224.0487   7.1108104574e+01   2.1955037714e+01    0.2201346    0.1775072 -39.85 0.0009636072    1.606    0.377
        53 -12.1606    115.6659    225.7889   5.1914980268e+01   1.2132402828e+01    0.3055249    0.2619137  30.44  0.001296347    1.098    0.089
        54 -12.0258    114.7607    220.9671   5.1525110352e+01   1.3133817207e+01        0.386    0.1529058 -47.70  0.001706868    2.749    0.636
        55 -11.1669     84.9849    227.2099   5.9116265293e+01   1.5634318961e+01    0.2089143    0.1371568  -4.30  0.001082592    2.034    0.508
        56 -11.7913     80.5817    226.6335   6.0091753220e+01   1.6270887868e+01    0.2568019    0.2123636  84.54  0.001634436    1.419    0.295
        57 -11.1695      1.9721    226.9415   7.8558733118e+01   2.4162574837e+01    0.1915072    0.1715935  85.32  0.001120375    1.260    0.206
        58 -10.7731      9.4999    203.9657   7.5956723615e+01   2.8541417406e+01    0.2401439    0.1416119  68.16  0.001037663    1.526    0.345
        59 -11.4966      4.2083    207.1962   7.7398057298e+01   2.8239841142e+01    0.1986361    0.1327829  78.41 0.0006279382    1.371    0.271
        60 -14.0693      3.9229    200.7559   7.7233686510e+01   2.9724263176e+01     1.047752    0.5027779 -86.08  0.005259027    2.026    0.506
        61 -13.3068      3.9496    220.6838   7.7915596633e+01   2.5315022466e+01    0.3193466    0.2514671 -69.78 0.0006166287    1.483    0.326
        62 -13.5457      1.7875    217.0757   7.8308067803e+01   2.6259829974e+01    0.5924145    0.3464834 -46.79  0.001376097    2.385    0.581
        63 -13.1787    160.4123    223.1873   4.2022109887e+01   6.9992376786e+00    0.4061296    0.3307969  12.34  0.002751927    1.063    0.059
        64 -12.8588    147.7252    223.9992   4.4733065229e+01   8.4299585338e+00    0.3266927    0.2874525  42.98  0.000658694    1.399    0.285
        65 -13.0943    144.6679    215.7355   4.4212886005e+01   1.0223100596e+01    0.5268304     0.391023  60.63  0.002007371    2.074    0.518
        66 -10.8762    136.1428    206.1611   4.4674812307e+01   1.3075062180e+01    0.1892545    0.1574055   4.38 0.0002487384    1.118    0.105
        67 -11.5893     92.0758    224.7508   5.7203889260e+01   1.5253703589e+01    0.2039463    0.1823412 -43.26  0.000493516    1.284    0.221
        68 -12.8290    172.6762    220.4936   3.9209404914e+01   5.9362822885e+00    0.4342996    0.3452398  29.65   0.00292649    1.349    0.259
        69 -13.4055     32.3243    239.8564   7.2227616743e+01   1.8866084352e+01    0.8185089    0.3547724  37.94  0.001939428    1.710    0.415
        70 -13.4135    127.5129    214.4026   4.7781335032e+01   1.2700493978e+01    0.6546766    0.3298677  40.69   0.00232042    1.955    0.488
        71 -13.1354    124.8869    221.8163   4.9357021481e+01   1.1687253089e+01    0.5580025    0.2647855  37.65   0.00271955    1.917    0.478
        72 -12.3810    121.8188    217.3240   4.9456736001e+01   1.2903148801e+01    0.2191632    0.1885907  80.93  0.000802924    1.568    0.362
        73 -10.7206     61.0900    223.5096   6.4446496773e+01   1.9151982157e+01    0.1921837    0.1102574  27.49 0.0006386538    1.526    0.345
        74 -10.7007    213.5291    221.1140   3.1949236931e+01   1.2179951371e+00    0.1531026   0.09226781 -31.95 0.0004880094    1.482    0.325
        75 -12.5276     13.4768    216.6727   7.5516396399e+01   2.5379502196e+01    0.5235965    0.3146088  65.48  0.003021906    1.487    0.328
        76 -12.0008    190.4174    220.0133   3.5805784629e+01   3.9207559161e+00    0.2381188    0.1352378  20.58 0.0003974178    1.628    0.386
        77 -13.9303    194.0533    212.0196   3.3913608455e+01   4.6754565236e+00     0.355787    0.2480168 -28.29 0.0009920576    1.293    0.227
        78 -10.9043     77.1259    219.8118   6.0245435453e+01   1.8047850688e+01    0.1988431    0.1501757  47.22 0.0005673683    1.223    0.183
        79 -12.7030     49.0378    217.9847   6.6934271932e+01   2.1635174532e+01    0.4398904    0.2468378 -88.97  0.002246351    2.093    0.522
        80 -11.2764     64.9567    218.9803   6.3119931301e+01   1.9650148672e+01    0.2175574    0.1267377  53.79 0.0006350752    1.709    0.415
        81 -10.7056     62.6283    215.2188   6.3354887951e+01   2.0710955531e+01    0.2116027    0.1211919 -71.89 0.0005095911    1.972    0.493
        82 -12.6264    250.4665    215.6337   2.5403115795e+01  -1.7503814382e+00     0.216969     0.101375 -33.63  0.000576346    1.740    0.425
        83 -11.5865     92.5709    217.1709   5.6252657291e+01   1.6684350550e+01    0.3219856    0.1552704  32.81 0.0009627204    1.748    0.428
        84 -12.4615    108.3731    214.4014   5.2176026795e+01   1.5208231882e+01     0.325866    0.2821211 -65.02   0.00144215    1.366    0.268
        85 -10.5471     52.9853    215.9733   6.5805038882e+01   2.1635907729e+01    0.1835491    0.1477585 -20.04 0.0003874937    1.583    0.368
        86 -11.3143     84.5610    214.5538   5.7895312290e+01   1.8217649754e+01    0.3967565    0.1997492  50.87  0.001816925    2.162    0.538
        87 -11.5087    156.9539    213.9750   4.1379204936e+01   8.9428883745e+00    0.1857045    0.1595435   3.79 0.0003514906    1.040    0.038
        88 -12.0455    115.1363    213.8994   5.0535571168e+01   1.4421307062e+01    0.1899949    0.1614445  41.53 0.0003103143    1.198    0.165
        89 -11.5681     41.5814    211.7161   6.8321694955e+01   2.3785498418e+01    0.3358414    0.2496354 -21.55  0.001897466    1.823    0.451
        90 -13.4601     36.8392    206.5846   6.9158280931e+01   2.5419409425e+01    0.4866055    0.4506082  13.99  0.001865246    1.232    0.188
        91 -11.1326     72.8595    212.1422   6.0522657732e+01   2.0158200560e+01     0.196152    0.1531132  47.44 0.0003063107    1.173    0.148
        92 -11.3755    172.5350    211.6833   3.7902732537e+01   7.3444654684e+00    0.2126566    0.1067725 -37.75 0.0007939208    1.945    0.486
        93 -11.2415     97.0751    209.9356   5.4316407520e+01   1.7572030643e+01    0.3576821    0.1925427 -72.08   0.00154766    2.551    0.608
        94 -13.4846    180.1961    207.6602   3.5792509034e+01   7.0272528648e+00    0.3185914    0.2434515 -14.50  0.000784875    1.149    0.130
        95 -12.6488    161.5510    208.0682   3.9537914176e+01   9.3452727647e+00    0.4684902    0.2718119 -50.51  0.002236836    2.011    0.503
        96 -10.9217    157.3474    208.7095   4.0501369161e+01   9.7856187266e+00    0.2220205    0.1038468  30.64 0.0008561174    1.975    0.494
        97 -11.6328     53.1446    209.7397   6.5251125435e+01   2.2973431041e+01    0.3307868    0.2487393  56.99  0.001944835    1.241    0.194
        98 -11.1606    187.0401    209.4840   3.4795175975e+01   5.8979382549e+00     0.166285    0.1056185  25.75 0.0003490249    1.490    0.329
        99 -10.6226    124.0022    208.0154   4.7690930708e+01   1.4369690626e+01    0.1561675    0.1375216  15.92            0    1.002    0.002
       100 -11.1485    103.7705    205.6076   5.2144192312e+01   1.7573546271e+01    0.2067686    0.1751873 -40.04 0.0006778551    1.286    0.222
       101 -12.1463    140.3330    207.9756   4.4017788797e+01   1.2175417662e+01     0.282437     0.247666  73.23  0.001174092    1.599    0.374
       102 -11.2095    115.4108    204.2560   4.9169237448e+01   1.6271693937e+01    0.2208119    0.1257207 -50.43  0.000590002    1.884    0.469
       103 -10.9650     21.0290    204.1386   7.3045237461e+01   2.7500941704e+01    0.2202878    0.1691872  88.92 0.0009394586    1.291    0.225
       104 -11.8595    228.7617    203.5078   2.6725802039e+01   1.9659287726e+00    0.3452992    0.1751315   9.41  0.001852473    2.507    0.601
       105 -13.0765    146.3342    202.1121   4.1817180436e+01   1.2429526925e+01    0.5874059    0.3762386  56.47  0.002845487    2.468    0.595
       106 -12.8648     91.4336    198.5632   5.4293950235e+01   2.0713060112e+01    0.8908547    0.2742239 -53.23  0.003205381    3.283    0.695
       107 -12.9466     84.2037    199.4582   5.6249303990e+01   2.1474475183e+01    0.5644227    0.4114065 -55.02  0.002083008    1.494    0.331
       108 -11.1816     86.6827    193.2159   5.4827998255e+01   2.2528862663e+01    0.2626074    0.1794549  30.55 0.0007518631    1.341    0.254
       109 -10.7768    214.3066    202.0448   2.8807220805e+01   3.7736379287e+00    0.1636419    0.1280643  69.75 0.0008956334    3.399    0.706
       110 -13.1762    122.4920    197.3653   4.6497064082e+01   1.6666928268e+01    0.4973573    0.3179446 -40.72  0.002573287    1.662    0.398
       111 -12.2584    172.8251    198.0162   3.5660835271e+01   9.5558278974e+00    0.3422283    0.1981045 -34.58  0.001846357    1.655    0.396
       112 -11.5822    176.9937    198.5127   3.4926419825e+01   8.9207046872e+00    0.1803038    0.1511974   5.19 0.0008178046    1.069    0.064
       113 -11.4646    182.6845    198.8428   3.3888981048e+01   8.1239129973e+00    0.2661748    0.1504534  30.22  0.001354074    1.731    0.422
       114 -10.2304    102.3093    199.3194   5.1665839795e+01   1.9077625468e+01    0.1368422     0.101063 -14.91 0.0007033971    1.641    0.391
       115 -13.6341     21.7451    196.3638   7.2418413928e+01   2.9238842778e+01    0.7109203    0.4968175   1.98  0.003889901    1.812    0.448
       116 -12.6343     13.5959    194.7587   7.4477664285e+01   3.0334275125e+01    0.2985664    0.2309431 -82.82 0.0003218259    1.300    0.231
       117 -12.5642      7.1271    191.6488   7.6035835798e+01   3.1601427865e+01    0.6222364    0.1581378  31.72  0.002457506    2.838    0.648
       118 -12.5472     12.2838    189.8996   7.4579939490e+01   3.1601257755e+01    0.3082321    0.2519378  18.01 0.0008051559    1.353    0.261
       119 -12.0340    150.2743    199.0423   4.0482029270e+01   1.2445959810e+01    0.5981839     0.164012 -45.21  0.002165697    3.601    0.722
       120 -10.1639     53.6924    198.2769   6.4092453310e+01   2.5497242040e+01    0.1411064   0.08726353  54.04 0.0001806575    1.552    0.356
       121 -12.7212     35.5999    195.8647   6.8705134393e+01   2.8018796504e+01     0.531943    0.2361543  41.31  0.002426376    1.884    0.469
       122 -10.6891    188.7655    191.6210   3.1533077674e+01   8.5003458457e+00    0.1578461    0.1098493  37.53 0.0004752813    1.626    0.385
       123 -12.6642    193.1057    193.8948   3.1124926380e+01   7.5729628191e+00    0.2494917    0.1898759 -27.64 0.0007069592    1.178    0.151
       124 -11.1514    164.0335    191.7984   3.6394485602e+01   1.1831828386e+01    0.1918001    0.1452785  55.56 0.0008095679    1.900    0.474
       125 -12.2679    133.3333    190.9280   4.2960780769e+01   1.6395987696e+01    0.3615903    0.2360054 -20.31  0.001774219    1.878    0.468
       126 -10.9867     52.5620    192.5482   6.3852951895e+01   2.6964112257e+01    0.1350301    0.1221227  50.48 0.0001193275    1.020    0.020
       127 -10.5341     50.2661    190.3431   6.4266655455e+01   2.7749583096e+01    0.1831186    0.1142021  39.29  0.000350722    1.416    0.294
       128 -12.9045    118.1517    188.4402   4.6176192475e+01   1.9121927725e+01    0.4192539    0.2701798  28.70  0.002111159    1.464    0.317
       129 -13.0132    110.7009    189.0314   4.8105959920e+01   2.0081477795e+01    0.4252798    0.2531336 -65.71  0.001977077    2.075    0.518
       130 -11.2428    245.6547    190.3018   2.2047818005e+01   1.9271535527e+00   0.09403186   0.08146006 -42.01 0.0007038904    1.684    0.406
       131 -11.1154    174.8070    188.7180   3.3698910047e+01   1.0869576733e+01    0.2026267     0.143773   7.68  0.000739397    1.434    0.303
       132 -12.7415     21.0782    188.1056   7.2096038694e+01   3.1272125484e+01    0.5885016    0.1553429  32.09  0.001740043    2.823    0.646
       133 -11.5256    226.0277    186.5067   2.4320692668e+01   4.6353404265e+00    0.2041553    0.1406183 -40.75 0.0006731123    1.521    0.342
       134 -11.0141    187.0178    186.7174   3.1009755911e+01   9.5353269911e+00    0.1713835    0.1440863  -1.90 0.0004144289    1.058    0.055
       135 -11.1359    165.8339    186.7845   3.5166773267e+01   1.2470823804e+01    0.2228085    0.1796458  71.15   0.00111912    2.049    0.512
       136 -10.5543    163.5570    182.7615   3.4932288921e+01   1.3526555685e+01    0.2015311    0.1243278 -43.02 0.0008752652    1.593    0.372
       137 -12.8735    127.3351    185.8663   4.3548611923e+01   1.8300347630e+01    0.4921945    0.2364957  42.15  0.002120633    2.121    0.529
       138 -11.1158    209.2939    186.2973   2.6988221838e+01   6.6967917993e+00    0.1213173   0.07844265  -9.99 0.0001917464    1.564    0.361
       139 -11.4318    156.3192    184.8372   3.6819658660e+01   1.4202882757e+01    0.2531854    0.1210635 -54.05  0.001075618    2.578    0.612
       140 -11.3867     33.2501    184.4478   6.8464907409e+01   3.1004042769e+01     0.293057    0.1505317  78.94  0.001284421    2.185    0.542
       141 -11.9538     15.6448    183.8152   7.3332491529e+01   3.2795395650e+01    0.3186491    0.1565151 -54.69  0.001112523    2.310    0.567
       142 -13.2816      4.5922    168.6967   7.5655682691e+01   3.7451026037e+01    0.7512468    0.4572092 -50.72  0.003822652    1.892    0.472
       143 -12.2814      2.5207    184.3869   7.6957246221e+01   3.3699263238e+01    0.2908517    0.2173859 -84.15  0.000858827    1.295    0.228
       144 -12.4661      1.8034    179.5787   7.6952873888e+01   3.4927033437e+01     0.589614    0.1770277 -81.39  0.001804205    3.102    0.678
       145 -12.2999    105.0960    183.0447   4.8613455478e+01   2.2202322831e+01     0.263648    0.1957836 -46.24 0.0005904196    1.415    0.294
       146 -12.4794     26.0501    183.1706   7.0388097020e+01   3.2020220261e+01     0.448487    0.2192797  27.47  0.002074595    1.903    0.474
       147 -10.5556    205.5135    183.5107   2.7141785943e+01   7.6057842391e+00    0.1218702   0.09964298 -15.83 0.0002410621    1.030    0.029
       148 -12.0153     94.7745    180.4706   5.0926080584e+01   2.4288643966e+01    0.4419097    0.2352153 -59.25  0.001298467    1.990    0.497
       149 -11.3817     59.0166    180.2724   6.0774111021e+01   2.9151838146e+01    0.2069523    0.1904328  62.39  0.000249806    1.030    0.029
       150 -11.7093     56.0045    177.7815   6.1350577171e+01   3.0131867188e+01    0.2077058    0.1897759  57.26  0.001208326    1.007    0.007
       151 -10.6456    161.0399    179.5254   3.4882399762e+01   1.4493887979e+01    0.1844959     0.125063  31.79   0.00030451    1.464    0.317
       152 -10.5637    156.8669    179.1885   3.5707373448e+01   1.5181585329e+01    0.1792621    0.1424498  -6.30 0.0002584234    1.263    0.208
       153 -12.7635    116.2408    178.1308   4.4991588640e+01   2.1611366373e+01    0.4407255    0.2294146  18.08  0.001656681    2.543    0.607
       154 -11.0104     25.8892    179.2073   7.0145289821e+01   3.3019210165e+01      0.21994    0.1583978  52.14 0.0006602038    1.239    0.193
       155 -13.9062    128.3917    175.3822   4.1524011326e+01   2.0323394130e+01    0.6058944    0.4735721 -51.64   0.00239434    1.344    0.256
       156 -11.0791    229.1953    177.3430   2.2245853587e+01   5.5750049155e+00     0.140532    0.1050006  39.90 0.0009406811    1.766    0.434
       157 -11.2871    191.3975    177.2533   2.8515190226e+01   1.0504544817e+01    0.1691879    0.1104062 -44.81 0.0006475674    1.574    0.365
       158 -12.7418    137.5421    176.4345   3.9536047176e+01   1.8680327440e+01    0.3975288    0.3038879  64.39  0.001892002    1.806    0.446
       159 -11.4057     63.5105    176.7246   5.9073583424e+01   2.9461567240e+01    0.2659912    0.2100428 -16.87  0.001063034    1.577    0.366
       160 -12.0450     30.8154    175.8926   6.8464880109e+01   3.3377198889e+01     0.407096    0.2542861 -63.62  0.001287608    1.633    0.388
       161 -10.7144    216.3835    175.8195   2.3972589230e+01   7.3912577766e+00    0.1701038   0.09234401 -28.47 0.0002977636    1.621    0.383
       162 -11.2556    153.6797    176.1385   3.5846508686e+01   1.6247085321e+01    0.2157422    0.1825716  36.28 0.0006491608    1.250    0.200
       163 -12.6959    106.9174    175.4026   4.6931092004e+01   2.3638392028e+01    0.3034111    0.2468873  31.97 0.0007664094    1.169    0.145
       164 -13.0625     20.3838    173.7881   7.1344485770e+01   3.4886379144e+01    0.4467819    0.3892021 -85.71  0.002030484    1.135    0.119
       165 -12.4388     14.1072    171.0424   7.2998758002e+01   3.6119859735e+01    0.2384713    0.2214161  83.92  0.001491183    1.107    0.096
       166 -13.3775     15.8087    166.8204   7.2216910892e+01   3.7062003470e+01     0.598377     0.389149  51.95  0.001880507    1.393    0.282
       167 -11.7274     12.2082    161.2231   7.2934594314e+01   3.8805663434e+01    0.2664448    0.2289614  69.08  0.000541057    1.023    0.022
       168 -12.6193      7.7102    175.6725   7.5112955017e+01   3.5457521163e+01     0.412438    0.1963642 -43.18   0.00148967    2.868    0.651
       169 -11.1690     35.9931    174.7821   6.6856815122e+01   3.3134522713e+01    0.2451793    0.1908205 -79.47 0.0007474368    1.273    0.214
       170 -11.6416    149.1183    173.5409   3.6377723654e+01   1.7458413922e+01     0.219881    0.1852333 -49.80 0.0003757424    1.281    0.220
       171 -11.7728    143.7208    173.0287   3.7500132826e+01   1.8405438439e+01    0.4112405    0.2042198  51.95  0.001584768    2.995    0.666
       172 -13.2696     91.0297    171.6876   5.0604615861e+01   2.6886144062e+01    0.4912344    0.3372096 -44.78   0.00138088    1.563    0.360
       173 -12.6282     79.0041    173.0338   5.4168739849e+01   2.8293730555e+01    0.4651084    0.2459215  39.05  0.001711113    1.749    0.428
       174 -12.4429      3.5122    161.3430   7.5597274864e+01   3.9415833467e+01    0.6029157    0.2674394 -41.84  0.002274082    3.076    0.675
       175 -10.5398    163.9828    172.0160   3.2895283365e+01   1.5449567969e+01    0.1632432    0.1429787 -21.33 0.0004354982    1.049    0.047
       176 -11.3751    158.3506    171.6809   3.4020622304e+01   1.6382429580e+01    0.2136522    0.1716673  47.55  0.001100789    1.458    0.314
       177 -11.9374    153.4412    170.1574   3.4798197580e+01   1.7445046032e+01    0.3134544    0.2669674 -75.70  0.001153142    1.583    0.368
       178 -12.0728    152.9516    165.3379   3.3993857293e+01   1.8470953513e+01    0.4070567    0.2698588  64.85  0.001789767    2.619    0.618
       179 -12.5920    197.4356    170.4758   2.6187614154e+01   1.0782513609e+01    0.4397214    0.2087788  35.69  0.002162766    2.277    0.561
       180 -11.8233     39.2791    169.9095   6.5421392160e+01   3.4029862899e+01    0.4425387    0.2024341  67.67  0.001655086    2.792    0.642
       181 -12.8999    120.2473    168.5291   4.2327140361e+01   2.3089417083e+01    0.4684704    0.2634296  20.22  0.001952682    2.181    0.542
       182 -10.9524     50.4918    174.0343   6.2531322885e+01   3.1723419602e+01    0.2030279    0.1371423 -76.95 0.0003772824    1.516    0.341
       183 -12.5509     30.5862    168.1848   6.7872643240e+01   3.5367565883e+01    0.4194681    0.1926253  35.20  0.001823291    1.937    0.484
       184 -10.6205    160.6330    168.1601   3.2874160920e+01   1.6699031037e+01    0.1895305    0.1167159 -34.32 0.0003814216    1.597    0.374
       185 -11.7564      7.6178    163.1824   7.4456062798e+01   3.8645815346e+01    0.3039649    0.1664258  31.03 0.0005367387    1.727    0.421
       186 -12.1967    127.3263    166.7602   4.0239182027e+01   2.2335129276e+01    0.2461866    0.2062595  22.42  0.000877735    1.179    0.152
       187 -12.1309     80.4055    163.2228   5.2297682778e+01   3.0502226942e+01    0.2830573    0.1634376  42.10 0.0006239697    1.662    0.398
       188 -10.6166     67.3216    167.3178   5.6742879284e+01   3.1306222811e+01    0.1476039    0.1104357 -26.83 0.0007042881    1.665    0.399
       189 -12.8168    109.6859    164.9774   4.4428107921e+01   2.5579510235e+01     0.384284    0.2600459  25.12  0.001826918    1.531    0.347
       190 -12.9387    112.3589    160.5061   4.2911131997e+01   2.6173742317e+01    0.5653449    0.2739602 -52.93  0.001520265    2.084    0.520
       191 -10.3827     64.3207    166.3228   5.7497206687e+01   3.1954943269e+01    0.1481025    0.1099953 -28.32 0.0007045495    1.675    0.403
       192 -11.3999    218.0403    164.7826   2.1699180325e+01   8.8634252219e+00    0.1964192    0.1428063 -30.51 0.0003709662    1.135    0.119
       193 -12.9756     83.6894    166.9790   5.1934592586e+01   2.9098677830e+01    0.3771915    0.2572778  75.28  0.001329535    1.892    0.471
       194 -12.9760     93.5293    163.2370   4.8539872751e+01   2.8530282117e+01    0.3987821    0.2696282  53.59 0.0009681332    1.613    0.380
       195 -12.8800     37.6468    160.6044   6.4967892679e+01   3.6620223929e+01     0.560106    0.2251173  36.40  0.001682727    2.201    0.546
       196 -12.6500    170.1254    160.5211   2.9435509600e+01   1.6638337657e+01    0.3300263    0.1766874 -35.97  0.001537085    1.800    0.444
       197 -11.7968     49.2748    160.9561   6.1383133794e+01   3.5220154877e+01    0.3035495    0.1964701  27.81  0.001149934    1.534    0.348
       198 -11.4374    192.8745    160.1136   2.5031191066e+01   1.3186261121e+01    0.1882854    0.1663683 -41.59  0.000497639    1.241    0.194
       199 -12.0074     25.3721    159.7486   6.8730970778e+01   3.8067106612e+01    0.2842962    0.2310472  30.37  0.000761166    1.252    0.201
       200 -12.1854    104.5357    157.8780   4.4537333053e+01   2.8064832019e+01    0.4368125    0.2670279  72.31  0.001631292    2.905    0.656
       201 -11.0792    151.4249    158.6079   3.3020124269e+01   2.0064286727e+01    0.2754987    0.1156456  50.13 0.0009566041    3.410    0.707
       202 -12.5898    118.6376    156.8492   4.0574993351e+01   2.5966091819e+01    0.3522326    0.2421983 -22.56  0.001594639    1.855    0.461
       203 -11.6133     69.0254    163.0480   5.5634741774e+01   3.2153904311e+01    0.1787131    0.1686581  53.33 0.0008943749    1.012    0.012
       204 -13.1216     60.7272    156.1761   5.7182105179e+01   3.5034214067e+01    0.3197966    0.2932428  -5.93  0.001011784    1.233    0.189
       205 -11.1911    249.2305    157.4214   1.5880253754e+01   5.9897998623e+00    0.2269954    0.1109516  43.80  0.001304328    2.719    0.632
       206 -12.8778    133.0356    155.2388   3.6632904370e+01   2.3878069085e+01    0.4991077    0.2798337 -35.91  0.001562839    1.972    0.493
       207 -12.7822     42.8373    155.5309   6.2756691902e+01   3.7391800050e+01     0.310846     0.259397  57.46 0.0004519509    1.136    0.120
       208 -11.9111    103.0504    165.5049   4.6298417637e+01   2.6509659479e+01    0.2276217    0.1401762  32.10 0.0009532719    1.580    0.367
       209 -11.6490    141.2935    155.9524   3.4802269381e+01   2.2316777693e+01     0.197829    0.1760646 -37.27  0.000316454    1.095    0.086
       210 -13.2319     11.6803    143.6149   7.1834833789e+01   4.3527375048e+01    0.6945623    0.2987659 -69.30  0.002701386    2.085    0.520
       211 -12.1395      1.4868    152.0240   7.5725326612e+01   4.1986795676e+01    0.4357334    0.1209055 -81.33  0.001496985    3.260    0.693
       212 -13.0973      4.9688    149.9652   7.4492326191e+01   4.2301854799e+01    0.4457532    0.4230191 -76.58  0.001529768    1.142    0.124
       213 -13.9788     74.6844    150.7178   5.1992548212e+01   3.4501238406e+01    0.6142449    0.4324333  54.26  0.001946622    1.487    0.327
       214 -12.4644     84.3643    150.0472   4.8922075463e+01   3.3204893364e+01    0.3873391    0.2914281  11.67 0.0009857833    1.569    0.363
       215 -12.5820     80.9797    152.4909   5.0369711865e+01   3.3107794020e+01    0.3590862    0.2579096  80.55  0.001035323    1.720    0.419
       216 -11.0214    140.2372    151.1883   3.4086051181e+01   2.3503062953e+01    0.2491979     0.155226  -8.85 0.0009554505    2.801    0.643
       217 -11.0464    123.4635    151.4959   3.8277374606e+01   2.6351436979e+01    0.1452851    0.1416049 -10.94 6.522358e-05    1.004    0.004
       218 -11.9687     27.7712    150.3414   6.7075164242e+01   4.0346398878e+01    0.3682055    0.2413581 -28.31   0.00115274    1.992    0.498
       219 -12.0770    109.2836    149.3742   4.1615326503e+01   2.9281735236e+01    0.3357219    0.2754639  49.85  0.001043192    1.262    0.207
       220 -12.0977     96.0006    148.9330   4.5277148052e+01   3.1617457334e+01     0.229001    0.2229147  63.37 0.0005153777    1.026    0.025
       221 -10.9182     20.8791    148.4809   6.9172323874e+01   4.1473602570e+01    0.2106078    0.1328349  28.36  0.001022459    1.588    0.370
       222 -11.3667    182.1259    145.3416   2.4032561007e+01   1.7482652846e+01    0.2156308    0.1638368 -30.02  0.000308871    1.196    0.164
       223 -11.0944     42.2484    146.5727   6.1840069209e+01   3.9853939813e+01    0.2065588    0.1437926   5.31 0.0004646881    1.770    0.435
       224 -11.5105    170.9120    145.1875   2.6161733421e+01   1.9395724924e+01    0.1996896    0.1909495 -75.41  0.000995253    1.250    0.200
       225 -10.6259    121.8283    145.6177   3.7498574370e+01   2.7966870372e+01    0.2047246     0.135794  47.79 0.0004085379    1.602    0.376
       226 -12.6411    102.9696    142.8175   4.2068470207e+01   3.1933082236e+01    0.5026193    0.3402268  80.21  0.001320668    2.272    0.560
       227 -11.6289     61.8381    144.9166   5.5122358411e+01   3.7843888905e+01    0.2356512    0.2005609 -32.90 0.0007344827    1.324    0.245
       228 -11.5716     53.7315    143.9382   5.7642344650e+01   3.9177951973e+01    0.2850139    0.2294448  83.10 0.0002542477    1.272    0.214
       229 -10.7073     47.2270    141.9687   5.9539182132e+01   4.0515663563e+01    0.2150983    0.1820328 -73.83   0.00065101    1.145    0.127
       230 -11.5198     50.3553    141.7191   5.8443497199e+01   4.0200268853e+01    0.2711868    0.2134695  58.96 0.0006458192    1.271    0.213
       231 -11.0372     37.7149    142.9898   6.2912002447e+01   4.1325239576e+01    0.2038523      0.17727 -82.43 0.0003263854    1.094    0.086
       232 -11.1099    165.1579    140.9051   2.6414621270e+01   2.1214316802e+01    0.1993527    0.1905099 -65.28 0.0006964242    1.188    0.158
       233 -10.1421    150.6863    141.6723   2.9678609740e+01   2.3639222094e+01    0.1482504    0.1101689 -10.02 0.0007043369    1.670    0.401
       234 -12.7082     72.8599    139.1639   5.0548146790e+01   3.7770848520e+01    0.3340243    0.2694342  61.98 0.0003131631    1.301    0.231
       235 -12.9425     68.6348    137.0979   5.1554366883e+01   3.8945455917e+01    0.3290257    0.3077058  24.02 0.0004141851    1.123    0.110
       236 -11.9948      1.5990    138.3681   7.4886087817e+01   4.5623008390e+01    0.4047318    0.1436072 -80.99  0.001248305    2.527    0.604
       237 -11.9814    133.2758    136.9016   3.2720520082e+01   2.7836780530e+01    0.4576139     0.292114 -34.22  0.002042765    1.703    0.413
       238 -11.7506     91.8757    139.6523   4.4686848859e+01   3.4602603648e+01    0.2262075    0.1315752  44.84 0.0005534576    1.743    0.426
       239 -11.6657     52.9616    138.7494   5.7105468394e+01   4.0671855450e+01    0.2057032     0.191641  51.10 0.0003334426    1.063    0.059
       240 -11.8231     41.2132    137.4363   6.0968287833e+01   4.2450382019e+01    0.4030738    0.2562391  56.97  0.001830743    1.648    0.393
       241 -12.3580     19.3934    138.5717   6.8744330739e+01   4.4289343564e+01    0.3057145    0.2380408 -25.84 0.0005775247    1.539    0.350
       242 -11.7083     84.2951    145.0103   4.8026710361e+01   3.4489837018e+01    0.3177092    0.2006249  -2.12  0.001196823    2.675    0.626
       243 -10.9021    239.6834    135.9840   1.3149930261e+01   1.0272546593e+01    0.1669618    0.1199554 -32.80 0.0005000007    1.074    0.069
       244 -10.7321     32.0377    136.2966   6.4043832522e+01   4.3746215078e+01    0.1974915    0.1891451  54.51 0.0005464384    1.079    0.073
       245 -13.1809    126.3131    134.2183   3.3874414945e+01   2.9729117525e+01    0.4973262    0.3570403  43.08   0.00132944    1.427    0.299
       246 -12.3744     13.0162    134.2947   7.0590485940e+01   4.5963423709e+01    0.3046055    0.2485239  79.28 0.0009217501    1.126    0.112
       247 -10.5449    196.5391    134.4869   1.9208660771e+01   1.7017093719e+01    0.1325463    0.1137508 -34.69 0.0008087977    1.047    0.045
       248 -11.6575     45.1153    133.6687   5.9047125593e+01   4.3024758002e+01    0.2916937    0.2389649  75.99  0.001089085    1.230    0.187
       249 -11.2786      6.8870    134.6068   7.2787121771e+01   4.6308525477e+01    0.1968291    0.1113491  37.65  0.000494862    1.720    0.419
       250 -10.5741    160.3548    132.7497   2.5621243491e+01   2.3677879211e+01    0.2019823    0.1242535 -34.94  0.000504407    1.607    0.378
       251 -11.9360    102.7053    133.4498   4.0173574625e+01   3.4251809664e+01    0.2988102    0.1432206  41.82  0.001132319    2.083    0.520
       252 -13.4361     82.1277    130.5097   4.5860280198e+01   3.8548563145e+01    0.7095255    0.4907779  -0.94  0.002549239    2.139    0.532
       253 -12.7300     19.7493    132.0073   6.7949508790e+01   4.6060195277e+01    0.3406676    0.2701359  45.01 0.0004445206    1.251    0.200
       254 -11.7650    107.9502    132.4712   3.8449212063e+01   3.3538094222e+01    0.2331982    0.1503943  38.33 0.0006076418    1.563    0.360
       255 -11.4446     67.8758    131.1348   5.0699879086e+01   4.0635708390e+01    0.2085119    0.1799525 -28.53 0.0005474361    1.301    0.232
       256 -12.0503     50.6289    130.3532   5.6560949040e+01   4.3246512252e+01    0.3720894    0.2696122 -21.99  0.001226614    1.761    0.432
       257 -13.0646     57.0560    127.3835   5.3755837246e+01   4.3197522402e+01    0.5832696    0.3846923 -16.26    0.0024157    2.211    0.548
       258 -11.8943    122.2663    128.3351   3.3585557063e+01   3.1824297484e+01    0.3482439    0.2847051 -54.96   0.00175207    1.223    0.182
       259 -11.9465    101.1300    128.9025   3.9631620928e+01   3.5643005575e+01     0.263964    0.2210532  41.65 0.0005709389    1.201    0.168
       260 -10.6244    218.8273    128.3770   1.4482495971e+01   1.4461327768e+01    0.1483145    0.1153668  25.30 0.0002213129    1.546    0.353
       261 -11.8740    110.0892    127.8360   3.6796362725e+01   3.4245604675e+01    0.2330673    0.2097049  80.81 0.0004769992    1.216    0.178
       262 -10.5482     35.5021    126.5476   6.1473063922e+01   4.6069873400e+01    0.1468849    0.1386553 -77.19 0.0001747123    1.040    0.038
       263 -12.4041     76.1328    123.8639   4.6435791138e+01   4.1253642237e+01    0.2439199    0.2135598  75.53 0.0007450238    1.204    0.170
       264 -10.9730     23.1095    124.1028   6.5799374250e+01   4.7955048505e+01    0.1957573    0.1554452  63.26 0.0002661162    1.248    0.199
       265 -12.8653      4.5344    123.0017   7.2720652584e+01   4.9630919986e+01    0.3646916    0.2702737 -40.09  0.001949119    1.482    0.325
       266 -10.6887    179.0267    121.9821   1.9533614436e+01   2.2289277457e+01    0.1660416    0.1486968 -35.77 0.0003716633    1.005    0.005
       267 -13.9955     13.5212    119.2812   6.8925238617e+01   5.0061544817e+01    0.7256878    0.3723415  36.28  0.002082502    1.931    0.482
       268 -11.6134    194.7766    121.6288   1.6734729187e+01   1.9530909411e+01     0.170857    0.1293875  61.47 0.0009539403    1.675    0.403
       269 -11.3560    105.2013    121.2287   3.6654550110e+01   3.6741760220e+01     0.215726    0.1813911  72.64 0.0006636617    1.348    0.258
       270 -11.4768     54.8278    121.1618   5.3401806206e+01   4.5186233994e+01    0.2135254     0.174672 -35.46 0.0004124961    1.346    0.257
       271 -11.4872     28.1063    120.5069   6.3412829485e+01   4.8491397825e+01    0.3301851    0.2080131  48.59 0.0007099283    1.624    0.384
       272 -12.9659     95.4521    118.2421   3.8881562668e+01   3.9298367826e+01    0.5889732    0.4066487 -61.85  0.001624032    1.515    0.340
       273 -10.3077    144.2923    119.7350   2.6110434265e+01   2.9396955337e+01    0.1407086    0.1162446 -86.40 0.0001857233    1.504    0.335
       274 -11.3713     51.2784    119.7744   5.4454282536e+01   4.6041300430e+01    0.2320052    0.1300886  12.38 0.0007424986    2.376    0.579
       275 -11.9597    121.9979    117.9365   3.1166199596e+01   3.4232291667e+01    0.2422748     0.214812 -49.39 0.0003003025    1.097    0.088
       276 -11.1635    211.4791    118.9182   1.3571392307e+01   1.7146706816e+01    0.1961006    0.1076354 -37.11 0.0004298081    1.516    0.340
       277 -12.4336     21.7104    117.9031   6.5556063928e+01   4.9794607192e+01    0.4211161    0.1744278  49.20  0.001427376    2.632    0.620
       278 -12.5281    201.6976    114.2862   1.4024585451e+01   1.9567327007e+01    0.2364371    0.2006297 -44.54 0.0003520951    1.085    0.078
       279 -11.4467    169.6991    115.0426   1.9662787302e+01   2.5333976854e+01    0.2019551    0.1658781 -40.07 0.0002002838    1.106    0.096
       280 -13.2579     62.2550    110.8347   4.8508644924e+01   4.6878260962e+01    0.6064605    0.3302379 -60.37  0.001136652    1.784    0.439
       281 -10.3932     68.2968    115.3288   4.7299552773e+01   4.4750359927e+01    0.1591395    0.1180919 -28.20 0.0005802457    1.635    0.388
       282 -11.8900     68.3947    110.1217   4.6078320871e+01   4.6099112550e+01    0.2923772    0.1407019 -54.73 0.0007860755    1.985    0.496
       283 -12.9163      8.4855    110.4747   6.9988560556e+01   5.2838016313e+01    0.5125169    0.1661877  27.99  0.001901593    2.900    0.655
       284 -10.3018     36.6036    110.2520   5.8421016709e+01   5.0443825413e+01    0.1588383    0.1026046  54.90 0.0006212449    1.691    0.409
       285 -12.2298      1.4879    108.7930   7.2694088801e+01   5.3702345234e+01    0.4653547    0.1651187 -74.61  0.001776795    2.395    0.582
       286 -12.4397      4.5242    105.4513   7.1108083532e+01   5.4457233253e+01    0.2721156    0.2188149  84.14 0.0006830679    1.171    0.146
       287 -10.6175    123.2207    108.2462   2.8378970672e+01   3.6142869805e+01    0.2679221    0.1846881 -88.33  0.001070898    2.312    0.567
       288 -13.3924     75.2959    114.3080   4.4593293708e+01   4.3871735525e+01    0.5737801    0.3957745  41.30  0.001464276    1.457    0.313
       289 -10.7882    139.4444    107.2562   2.4111237171e+01   3.2977067433e+01     0.214711    0.1372342 -54.69 0.0009415768    1.628    0.386
       290 -13.1480     82.3334    117.9786   4.3045928185e+01   4.1725226441e+01    0.4989636    0.4361205 -42.67  0.001278716    1.176    0.149
       291 -10.5947    104.9642    102.4501   3.1927498512e+01   4.1214204920e+01    0.2314412     0.153031  44.58 0.0003804435    1.538    0.350
       292 -12.1960     55.9332    101.1829   4.8724157869e+01   5.0382445151e+01    0.2838042    0.2351371 -59.90  0.000433444    1.165    0.142
       293 -11.6386     57.9111     97.5027   4.7035910952e+01   5.1048405905e+01    0.2693583    0.2461583  33.28 0.0007470672    1.129    0.114
       294 -12.5663      6.5746    100.0955   6.9637603793e+01   5.5810895230e+01    0.6257607    0.2761805  19.28  0.002624439    2.397    0.583
       295 -12.3369      5.0256     95.4670   6.9780308029e+01   5.7165378932e+01     0.320424    0.2884105 -60.70    0.0014685    1.063    0.060
       296 -10.4280    155.0254     99.9839   1.8829035927e+01   3.1160174793e+01    0.1769224    0.1588902 -47.18 0.0003780224    1.033    0.032
       297 -11.7178     94.2093     98.6206   3.4197753378e+01   4.4279988193e+01    0.2956973    0.2416464 -87.98 0.0007059928    1.441    0.306
       298 -11.2828     64.5179     98.4915   4.4685064813e+01   4.9745030592e+01    0.1537874    0.1481616 -86.87 -9.313309e-06    1.035    0.034
       299 -11.7170    178.1284     96.4151   1.3641729115e+01   2.7054908501e+01    0.2969884    0.1586664 -52.18 0.0009075403    1.927    0.481
       300 -10.8350    104.0168     96.7416   3.0624240133e+01   4.2716189473e+01    0.2078273    0.1987391  40.88 0.0001860849    1.083    0.076
       301 -11.6400     98.3904     96.8297   3.2370291759e+01   4.3855437606e+01    0.2455213    0.2119434  60.46 0.0004963257    1.206    0.171
       302 -12.6038     82.6744     94.0248   3.6771196390e+01   4.7630412094e+01    0.5291103    0.3564322 -17.69   0.00209138    2.333    0.571
       303 -11.5958     26.7620     92.2551   5.9308911847e+01   5.6390902169e+01    0.3597453    0.2631139   4.23  0.001787002    1.564    0.361
       304 -11.0254     57.9267     91.5156   4.5482096513e+01   5.2591648939e+01    0.2238057    0.2018111 -55.43 0.0004596109    1.077    0.072
       305 -11.6188    121.1072     89.8531   2.3857032432e+01   4.0544025278e+01    0.3497565    0.2206043 -55.69 0.0009747845    1.683    0.406
       306 -11.3657    125.1761     87.9764   2.2272658715e+01   4.0029264446e+01    0.3802568    0.2157372 -43.56  0.001063947    1.710    0.415
       307 -12.6495     73.4323     90.0638   3.8982965732e+01   5.0317474282e+01    0.3575104    0.2934164 -49.99  0.001123831    1.199    0.166
       308 -11.5395    154.6237     90.1817   1.6328456367e+01   3.3097278574e+01     0.214649    0.1332921 -31.11 0.0009521525    1.741    0.426
       309 -12.4212      2.7673     87.2894   6.9826543414e+01   5.9504619472e+01    0.4966803    0.2276193 -88.94  0.002026151    2.279    0.561
       310 -12.2847      7.0112     86.7535   6.7708267955e+01   5.9420788429e+01    0.2547881    0.2392868 -44.97 0.0004812321    1.088    0.081
       311 -12.2820     54.7077     85.4318   4.5165269045e+01   5.4641720387e+01    0.4939663    0.4419664 -36.10  0.002621481    1.137    0.120
       312 -10.7917    205.8576     87.1304   7.3071497551e+00   2.3202845821e+01    0.1647632    0.1415193 -22.67 0.0002508026    1.258    0.205
       313 -12.1225    188.0208     84.5602   9.1664750177e+00   2.7068503308e+01    0.2899912     0.211364  27.89  0.001509118    1.950    0.487
       314 -11.6883    164.8134     85.1743   1.3082328563e+01   3.1800950375e+01    0.1930808    0.1728922  -2.34 0.0006885459    1.348    0.258
       315 -10.7033    134.6626     85.1942   1.9191147986e+01   3.8460713896e+01    0.2168405    0.1368822 -34.64 0.0009456174    1.667    0.400
       316 -11.7689     94.9234     83.5232   2.9517079270e+01   4.7590708250e+01    0.2781753     0.222434 -51.11 0.0003459711    1.240    0.193
       317 -11.4832     64.7588     81.9845   3.9968585962e+01   5.3832780055e+01    0.3790235    0.2517864  18.01  0.001618755    1.924    0.480
       318 -11.2518     10.4818     81.9599   6.5253463810e+01   6.0496438743e+01     0.267079    0.1548398 -62.74 0.0009898107    1.511    0.338
       319 -11.3635      9.3439     76.9656   6.4977217170e+01   6.1900407319e+01    0.2834185    0.1901513 -73.77 0.0008948459    1.386    0.279
       320 -11.2692     88.8190     79.5733   3.0273713665e+01   4.9746169304e+01    0.3687501    0.2235777 -37.64  0.001537559    1.802    0.445
       321 -11.5897      5.0106     79.9902   6.7706882179e+01   6.1349485630e+01    0.2361242    0.1509585  62.00  0.001145409    1.772    0.436
       322 -11.9282    108.4437     78.6869   2.3912104615e+01   4.5674324059e+01    0.3693369    0.2465562  47.56 0.0004231838    1.518    0.341
       323 -10.3383      1.6267     78.2596   6.9187919565e+01   6.1980786458e+01    0.1400609   0.09368916  51.36 0.0006976235    1.655    0.396
       324 -10.9132    105.2309     73.0662   2.3018680780e+01   4.7539490905e+01     0.249887    0.1693837 -68.01 0.0005981808    1.885    0.469
       325 -10.7245     45.7603     73.6491   4.5735955029e+01   5.8931090393e+01    0.2081215    0.1298637  41.70 0.0009292415    1.671    0.402
       326 -11.6467     52.7483     71.6497   4.1868297599e+01   5.8341796566e+01     0.355246    0.2468143 -13.64  0.001117214    1.984    0.496
       327 -11.1468      2.4937     72.4963   6.7867590895e+01   6.3463904070e+01    0.1378715    0.1215645 -58.82  8.35164e-05    1.016    0.016
       328 -11.9112     71.7444     69.2674   3.3019121137e+01   5.5484025776e+01     0.520767    0.3423735 -10.73  0.001997521    2.693    0.629
       329 -10.1184    154.3145     68.2897   1.0308227965e+01   3.7037044747e+01    0.1363331    0.1139068  18.88 0.0002433933    1.590    0.371
       330 -12.1710     61.9178     67.6601   3.6475729408e+01   5.7696793197e+01    0.3654629    0.2571718  58.88  0.001472821    1.702    0.413
       331 -12.3388     49.0033     65.9675   4.1715570009e+01   6.0283503995e+01    0.3575779    0.2843539 -40.99 0.0004680094    1.243    0.196
       332 -11.7024     46.9550     62.7921   4.1601828358e+01   6.1344616140e+01    0.3627188    0.1935755  35.08 0.0006754757    1.886    0.470
       333 -11.9323      7.8388     67.1489   6.3950559782e+01   6.4565503645e+01    0.2074507    0.1436906 -41.91  0.001086752    1.358    0.264
       334 -12.7053     23.7154     55.3895   5.1617814106e+01   6.6177709745e+01    0.5663554    0.3007416 -29.98  0.002391035    2.273    0.560
       335 -13.9754     17.7929     61.5828   5.6928165493e+01   6.5239637701e+01    0.4248345    0.3719016 -14.20   0.00100781    1.155    0.134
       336 -11.9800     12.5810     59.7764   5.9528238871e+01   6.6119692121e+01    0.2777954    0.2198258 -53.09 0.0004561199    1.140    0.123
       337 -11.1023    136.4781     61.5148   1.1665150745e+01   4.2342064456e+01    0.1481236     0.134639 -71.48 0.0001070854    1.038    0.037
       338 -12.2055     34.1593     58.9082   4.6856720522e+01   6.4095287290e+01    0.4471987    0.3289736 -87.61  0.001732079    1.826    0.452
       339 -12.6059     37.4328     54.0078   4.3317765997e+01   6.4780339981e+01    0.4449072    0.2378923 -54.09  0.001722341    1.839    0.456
       340 -11.3915     27.6088     60.4408   5.0982871046e+01   6.4529503509e+01    0.2336757    0.2051861  29.49 0.0004209812    1.194    0.162
       341 -11.7351     42.1345     59.3946   4.2808209042e+01   6.2865134197e+01    0.2543572    0.1897086 -40.33 0.0006295056    1.322    0.244
       342 -10.3960    153.3998     57.5189   7.3349351711e+00   3.8988022543e+01    0.1407938    0.1281851 -60.07  0.000109295    1.034    0.033
       343 -10.2551    179.7039     56.2850   3.1128447711e+00   3.3205095165e+01    0.1384921   0.09043019 -63.42 0.0002162713    1.545    0.353
       344 -11.5378    111.2216     55.8162   1.5498241676e+01   4.9364470517e+01    0.3475438    0.2065041 -60.46  0.001432339    2.105    0.525
       345 -12.2750    110.0088     50.9890   1.4081317225e+01   5.0471250383e+01    0.3166105    0.2438154  55.73 0.0006489865    1.273    0.214
       346 -11.1570    106.2702     51.0054   1.5043748045e+01   5.1369373688e+01    0.2213331    0.2098016  71.70 0.0002084788    1.028    0.027
       347 -11.0992     96.9099     56.4754   1.9675340219e+01   5.2628161268e+01     0.222749      0.14407  53.29 0.0004517701    1.518    0.341
       348 -10.6367     41.8383     54.3630   4.1098683587e+01   6.4049622649e+01    0.2025832    0.1337089  20.71 0.0006299908    1.677    0.404
       349 -10.7283    146.9525     52.9715   7.0620062067e+00   4.1213301916e+01    0.1708221    0.1528678 -58.82 0.0003315435    1.044    0.042
       350 -10.9871    122.3249     52.2007   1.1611484708e+01   4.7284929653e+01    0.2873782    0.1406406 -26.81  0.001079706    2.602    0.616
       351 -10.6600    195.4805     52.5015   2.6062893169e-01   3.0373877977e+01    0.1314496     0.109271 -54.85 0.0001371889    1.004    0.004
       352 -11.0542    151.5015     51.4659   5.8457103547e+00   4.0359750804e+01    0.1412927    0.1282772 -69.16 1.417273e-05    1.012    0.012
       353 -12.8014     30.2408     49.9503   4.5853838767e+01   6.6675254102e+01    0.3893083    0.2614549 -13.53   0.00186718    1.825    0.452
       354 -11.8204     16.1990     50.0138   5.4508237562e+01   6.8206679152e+01    0.2247437    0.1903598  25.91 0.0002966422    1.251    0.201
       355 -12.5148     97.9342     47.4823   1.5979664864e+01   5.3951011281e+01    0.5349486    0.3145366 -71.84  0.001971345    2.976    0.664
       356 -11.3159    128.8959     47.3264   8.5835300318e+00   4.6443674703e+01    0.3167138    0.1865632 -29.72  0.001417252    1.854    0.461
       357 -10.6175     44.2222     48.4135   3.7470987671e+01   6.4962036265e+01    0.1897224    0.1304875  45.59 0.0005942758    1.549    0.354
       358 -11.1476      2.7416     45.9752   6.2293536071e+01   7.0162550522e+01    0.3876548   0.06814168 -55.38  0.001103272    3.407    0.707
       359 -11.6321    142.2527     45.9691   5.6860496981e+00   4.3388538022e+01    0.1965193    0.1759078 -52.30 0.0003222279    1.090    0.082
       360 -10.3604    182.4404     45.5591   3.5994435199e+02   3.4111888362e+01     0.132569    0.1128815 -59.36 8.249842e-05    1.009    0.009
       361 -10.9872     49.7209     44.0900   3.2803918667e+01   6.4899361729e+01    0.1916963    0.1761796 -23.90 0.0004697322    1.078    0.073
       362 -12.2675     93.8035     40.3477   1.4322088245e+01   5.6083334134e+01    0.2836843     0.235159  18.51 0.0003831144    1.454    0.312
       363 -13.6254     32.0280     40.2846   4.0817499214e+01   6.8535760461e+01    0.6568418     0.315165  39.64  0.002756762    2.151    0.535
       364 -11.8058    120.9613     39.5423   7.4807918946e+00   4.9545987758e+01    0.2426874    0.2047159 -39.23 0.0001472375    1.220    0.180
       365 -11.8922     80.4496     38.0037   1.7431746030e+01   5.9592096435e+01    0.3744289    0.2392838 -39.26   0.00143158    1.623    0.384
       366 -12.3021     17.2780     34.6411   4.8037864612e+01   7.1586398179e+01    0.3304035    0.2053529  41.17    0.0011458    1.837    0.456
       367 -11.8955     10.0897     36.9227   5.4179343036e+01   7.1772630897e+01    0.2111879    0.1792115   2.71 0.0003428442    1.169    0.144
       368 -11.9520      4.6932     36.2109   5.7962242346e+01   7.2341673354e+01    0.2841289    0.1966148 -79.12  0.001544998    1.681    0.405
       369 -11.5932     86.2838     34.4187   1.4027047721e+01   5.8775933959e+01    0.2863711    0.1243529  52.36  0.001133396    2.131    0.531
       370 -11.8707     42.5626     34.0902   3.1810068884e+01   6.8074211273e+01     0.262221    0.1915358  29.35  0.000762875    1.356    0.263
       371 -12.6385     77.4972     30.4809   1.5024689958e+01   6.1417120929e+01     0.344837    0.2879396  86.42 0.0007642515    1.356    0.263
       372 -12.1099     63.3790     32.3881   2.1112148289e+01   6.4286821822e+01    0.3863334     0.180206  44.29  0.001240439    2.069    0.517
       373 -11.2344     72.1827     30.9170   1.7049242814e+01   6.2572315321e+01    0.2038829    0.1866077 -82.85 0.0004595151    1.211    0.175
       374 -12.1042     29.6863     31.3683   3.8050370864e+01   7.0668323204e+01    0.4551128    0.1104855  37.99  0.001468943    3.962    0.748
       375 -10.8920     96.6788     30.6979   9.5736662547e+00   5.6788988249e+01     0.144564    0.1051979  32.12 0.0003942581    1.629    0.386
       376 -11.1443      2.2191     30.4246   5.7873980703e+01   7.3812781845e+01     0.227728    0.1200098   6.06 0.0007802719    1.999    0.500
       377 -11.3639     61.4014     29.2174   2.0352582431e+01   6.5207540764e+01    0.2655314    0.1711097 -63.53 0.0005995799    2.390    0.582
       378 -11.5107     45.5824     25.8007   2.5859639986e+01   6.8957244759e+01     0.188294    0.1270358 -48.90 0.0009535514    1.712    0.416
       379 -11.2971    124.8976    247.4117   5.2435755011e+01   7.3346459289e+00    0.3042119    0.1310979 -60.69   0.00144233    3.420    0.708
       380 -10.8358     98.4961     24.5502   6.5598460958e+00   5.7136142176e+01    0.1396163    0.1285058  74.96 7.483434e-05    1.006    0.006
       381 -10.6366     19.4523     23.9237   4.1227146257e+01   7.3512302180e+01     0.182784    0.1238681 -50.06 0.0007995554    1.526    0.345
       382 -10.8700    113.3996     23.2647   2.9308024531e+00   5.3559100457e+01    0.1844348    0.1226667 -43.81 0.0003515448    1.517    0.341
       383 -11.5994     70.6234     21.0751   1.2768044322e+01   6.4298747004e+01    0.2208399    0.1859286  68.08 0.0006250075    1.196    0.164
       384 -10.7152     61.6422     21.3083   1.6156070863e+01   6.6301515852e+01    0.1371327    0.1069681 -80.88 0.0007041735    1.731    0.422
       385 -10.7105    141.3237     18.9675   3.5709702432e+02   4.7061188665e+01    0.1801785    0.1633312 -66.77 0.0004466649    1.072    0.067
       386 -10.6765      1.4108     25.2923   5.6579887383e+01   7.4995696741e+01    0.1592605    0.1186598 -72.30 0.0005416228    1.517    0.341
       387 -10.9646    132.8055     17.0982   3.5758174218e+02   4.9375401711e+01    0.1759525     0.152226  48.50 0.0004128934    1.308    0.235
       388 -11.6486    162.5239    247.5788   4.4897574755e+01   3.0660718997e+00    0.1972184     0.159544  16.35 0.0004966177    1.156    0.135
       389 -11.3448     68.0201    246.8228   6.4698777725e+01   1.3875509970e+01    0.2299416     0.165658  76.49   0.00146692    1.650    0.394
       390 -11.2455     58.4223    248.0891   6.6909908680e+01   1.4669292358e+01    0.2293522      0.13078  34.00 0.0008031278    1.360    0.265
       391 -11.0682    231.2249    247.0813   3.2881841425e+01  -3.7122743867e+00    0.1560582   0.09871449  -6.44 0.0004907761    1.183    0.154
