#   1 NUMBER                 Running object number                                     
#   2 MAG_AUTO               Kron-like elliptical aperture magnitude                    [mag]
#   3 X_IMAGE                Object position along x                                    [pixel]
#   4 Y_IMAGE                Object position along y                                    [pixel]
#   5 X_WORLD                Barycenter position along world x axis                     [deg]
#   6 Y_WORLD                Barycenter position along world y axis                     [deg]
#   7 A_WORLD                Profile RMS along major axis (world units)                 [deg]
#   8 B_WORLD                Profile RMS along minor axis (world units)                 [deg]
#   9 THETA_WORLD            Position angle (CCW/world-x)                               [deg]
#  10 FWHM_WORLD             FWHM assuming a gaussian core                              [deg]
#  11 ELONGATION             A_IMAGE/B_IMAGE                                           
#  12 ELLIPTICITY            1 - B_IMAGE/A_IMAGE                                       
         1 -17.0237    243.9958    185.6622   9.0165810238e+01   7.0517902752e-01     4.205533     2.840745  20.82   0.01702522    1.218    0.179
         2  99.0000    228.2861    130.4305   8.1409434848e+01   1.0705642624e+01     2.645649    0.7162719 -33.17  0.008924246    3.445    0.710
         3  99.0000    204.6226     58.5246   6.6899422758e+01   2.6393627052e+01     1.807015    0.9759291  54.71  0.007855625    1.839    0.456
         4 -17.8498    144.1154     43.8654   7.3626247435e+01   4.3813130691e+01     4.115327     2.884948  33.31   0.01779311    1.470    0.320
         5  99.0000    188.7689     21.5706   5.8282421233e+01   3.4929722131e+01     4.237858     2.399502 -58.81   0.01801302    2.165    0.538
         6 -12.1644    146.8161     16.1933   6.2984201594e+01   4.6548167758e+01     0.639192    0.3112414 -11.49   0.00249718    2.490    0.598
         7 -13.6528     15.9814    169.9784   1.3670157376e+02   3.7342098598e+01    0.3888531    0.1582291  80.14  0.001938886    2.530    0.605
         8 -16.5432    131.1132    111.7934   9.7950038268e+01   3.4354922351e+01     1.801848     1.603922  26.24  0.006535383    1.103    0.094
         9 -17.7927     94.6537    127.1493   1.1146691845e+02   3.7648381012e+01     3.487442     2.413984  85.85   0.01316885    2.034    0.508
        10 -18.6504     98.3424    167.8856   1.1738005009e+02   2.8294492612e+01     7.761536     4.272213  82.41   0.02937442    3.787    0.736
        11 -15.4208    228.7259    176.2707   9.1027926480e+01   4.3138700845e+00     1.070586    0.6973457  25.36  0.005267715    1.329    0.248
        12 -15.1754     28.2339    231.8345   1.3749759313e+02   2.4814681711e+01    0.8679337    0.2919858  50.42  0.004478537    2.097    0.523
        13 -18.5641    123.9395    141.4447   1.0650304322e+02   2.9540412442e+01      9.88286     4.559175 -67.22   0.02782354    5.542    0.820
        14 -12.7619    208.3415    141.4687   8.7555291988e+01   1.2947311851e+01    0.5583851    0.3303358 -29.84  0.002091901    1.676    0.404
        15 -11.2592    209.2018    136.2184   8.6205346236e+01   1.3587225951e+01    0.3453407    0.1929532  56.70  0.001452339    2.443    0.591
        16 -12.4580      2.9959    133.0100   1.3744109197e+02   4.6114909781e+01    0.1813069     0.115173 -51.00  0.001150494    1.741    0.426
        17 -13.1475    183.5211    145.5623   9.3469052755e+01   1.7199083463e+01    0.4519958    0.3421949  -3.79  0.001472476    1.420    0.296
        18 -10.6517    213.2400    116.6127   8.0823267129e+01   1.5790129925e+01    0.5757754    0.1990288 -42.58  0.001910205    3.418    0.707
        19 -11.5254    168.1564    113.4673   8.9239077378e+01   2.6111073991e+01    0.2530881    0.1925098 -80.38  0.001035497    2.140    0.533
        20 -15.6113      6.4612    246.9796   1.4162430198e+02   2.4399555845e+01    0.9047435     0.390408  47.10   0.00612262    1.573    0.364
        21 -10.7597    217.6800    101.3594   7.6249632600e+01   1.7161550138e+01    0.1455711    0.1116367 -59.91 0.0007043783    1.766    0.434
        22 -11.3527    196.0922     84.8998   7.5759997769e+01   2.4569696047e+01    0.3155867    0.2106034 -36.80  0.001179254    1.484    0.326
        23  99.0000    196.2385     91.5228   7.7541898028e+01   2.3489920846e+01     0.765044    0.5030647  55.62  0.003510834    1.630    0.386
        24  99.0000    204.2581     89.1719   7.5433189532e+01   2.2006483657e+01     1.861559     1.044946  54.31   0.00643609    1.871    0.466
        25 -15.1547     85.5388     89.4258   1.0563519804e+02   4.7661241976e+01     1.006238    0.5359619 -46.48  0.003812436    1.783    0.439
        26 -14.4319      7.7818    186.1992   1.3923705925e+02   3.4783994226e+01    0.8814132    0.4928741 -27.00  0.004365406    4.623    0.784
        27 -12.9967    178.4280     84.4586   7.9097904197e+01   2.8844555341e+01    0.5362777    0.3336641  41.04  0.001538642    1.610    0.379
        28 -11.8786    172.0487     80.3170   7.9235117682e+01   3.1072838719e+01    0.3852941    0.2777223  53.13  0.001371065    1.412    0.292
        29 -11.0071    172.3237     76.7091   7.8109999019e+01   3.1605753035e+01    0.2442825    0.1936014  88.52 0.0007017073    1.710    0.415
        30 -14.9274    163.7942     80.8198   8.1189264010e+01   3.2980765742e+01    0.8530261    0.6532025  -9.06  0.002986463    1.448    0.310
        31 -11.1105    147.4163     81.2636   8.5193999865e+01   3.6798110375e+01    0.2099401    0.1465785 -45.47 0.0008358161    1.536    0.349
        32 -11.7524    191.0745     83.2082   7.6232935361e+01   2.6024270425e+01    0.3268453    0.1854542  40.92  0.001365111    1.811    0.448
        33 -10.5813    209.0000     73.9448   7.0494886025e+01   2.3175721649e+01    0.2533226   0.08030135 -29.65  0.000814675    3.028    0.670
        34 -12.4195    189.6528     66.1535   7.1605170584e+01   2.8989090965e+01    0.6271656    0.5183362  76.67   0.00300883    1.402    0.287
        35 -16.0479      3.3867    221.1381   1.4135724145e+02   2.8827052180e+01     1.689921    0.6355764 -84.35   0.01041431    2.444    0.591
        36 -14.4297    118.2289     59.2826   8.5866328873e+01   4.7525836594e+01    0.8807932    0.7075751  61.47  0.003495491    1.460    0.315
        37 -12.5960     35.9820    191.3159   1.3382109353e+02   3.1291207976e+01    0.2221318     0.123752  69.17  0.001354676    1.647    0.393
        38 -13.4371     25.3940    174.4393   1.3493781597e+02   3.5633637245e+01    0.3278819    0.1821422 -71.75  0.001731004    1.684    0.406
        39 -14.4077     92.6665     71.0792   9.7924222864e+01   5.0429486919e+01    0.7462228    0.5049421  52.23  0.002055418    1.760    0.432
        40 -12.6432    102.8525     63.8518   9.2175500351e+01   4.9938617110e+01    0.4094732    0.2749588 -17.04  0.001364756    1.803    0.445
