#   1 NUMBER                 Running object number                                     
#   2 MAG_AUTO               Kron-like elliptical aperture magnitude                    [mag]
#   3 X_IMAGE                Object position along x                                    [pixel]
#   4 Y_IMAGE                Object position along y                                    [pixel]
#   5 X_WORLD                Barycenter position along world x axis                     [deg]
#   6 Y_WORLD                Barycenter position along world y axis                     [deg]
#   7 A_WORLD                Profile RMS along major axis (world units)                 [deg]
#   8 B_WORLD                Profile RMS along minor axis (world units)                 [deg]
#   9 THETA_WORLD            Position angle (CCW/world-x)                               [deg]
#  10 FWHM_WORLD             FWHM assuming a gaussian core                              [deg]
#  11 ELONGATION             A_IMAGE/B_IMAGE                                           
#  12 ELLIPTICITY            1 - B_IMAGE/A_IMAGE                                       
         1 -13.5447    219.3442      6.9967   3.7471778862e+01   2.9557231521e+01     1.306954    0.9951659  55.87  0.005327027    1.455    0.313
         2 -14.3257    193.6505     37.5694   4.8263955073e+01   3.2192681312e+01     2.592111     1.671401  16.83   0.01123269    2.517    0.603
         3 -10.5768    189.6128     14.6860   4.2459237850e+01   3.5906000359e+01    0.2610084     0.219598 -77.68 0.0009557793    1.124    0.110
         4 -11.0778     66.4645      3.5118   6.3639824128e+01   6.5503356564e+01    0.3245885    0.1990386  26.87  0.001838708    1.477    0.323
         5  -9.7209     56.2917    217.7767   1.1880663703e+02   2.2248271323e+01    0.2425617    0.1288692  77.09 0.0009942318    2.001    0.500
         6 -11.9769    248.9657    245.2282   8.5551379412e+01  -1.0971380311e+01    0.8419548    0.2937472 -29.40  0.004136926    2.984    0.665
         7  -9.7418    168.1441    233.0265   9.8394236154e+01   2.6460995491e+00    0.2571467    0.1541115  44.07 0.0008185548    1.486    0.327
         8  -9.6937     72.0798    250.1752   1.1852711304e+02   1.4187279691e+01    0.1406759    0.1061085  78.79 0.0003928125    1.220    0.180
         9  -9.5138    169.2750    213.4155   9.5147892584e+01   5.6331401130e+00    0.2625757    0.1150107  36.22  0.001135823    2.082    0.520
        10  -9.7957     56.6724    209.8599   1.1803463987e+02   2.3805861948e+01    0.2693807    0.1602203 -62.00  0.001094388    1.764    0.433
        11 -10.3664    183.9954    212.0068   9.1954634844e+01   3.3540276580e+00    0.2119035    0.1494055   4.96 0.0006737844    1.675    0.403
        12 -10.3403     59.0335    230.1501   1.1930920984e+02   1.9494664938e+01    0.1725067    0.1336949  84.92 0.0003543524    1.169    0.144
        13 -10.6514     50.3141    224.6526   1.2050887331e+02   2.1625428893e+01    0.1995365    0.1254062  79.63  0.000716495    1.436    0.304
        14 -12.8645     32.4980    206.6335   1.2255591252e+02   2.7279875518e+01    0.3410209    0.1587557  55.36  0.001292506    1.869    0.465
        15  -8.7976    224.2150    206.4028   8.3231914054e+01  -2.4522448081e+00     0.168285    0.1129165  41.60 0.0004119629    1.577    0.366
        16 -11.0282    194.0668    198.2249   8.7505849479e+01   3.8813393732e+00     1.304148    0.5860058 -54.92  0.004540262    4.315    0.768
        17 -10.7596     66.1170    204.5938   1.1559637163e+02   2.3689320118e+01    0.2602717    0.1634503 -58.76 0.0001604436    1.719    0.418
        18  -7.3702     41.5530    205.9777   1.2072425767e+02   2.6414027299e+01    0.2250357    0.1761208   1.45  0.001394559    2.222    0.550
        19  -9.7992     95.9882    202.2791   1.0898792618e+02   1.9926709511e+01    0.5434715    0.2650118 -42.78  0.002298564    3.042    0.671
        20 -10.2994    204.3395    199.7536   8.5765330003e+01   1.8505901435e+00    0.3137574    0.1408396  33.42  0.001353898    2.178    0.541
        21 -10.3112    150.4146    196.2979   9.6253306789e+01   1.2023734519e+01    0.3037048    0.1902796 -61.73  0.001441529    2.033    0.508
        22  -9.3371     34.5672    197.1042   1.2141111805e+02   2.9057858618e+01     0.143168    0.1101068  84.87  0.000637664    1.059    0.056
        23  -9.5181     82.0187    194.7065   1.1108275302e+02   2.3602383622e+01    0.2383043    0.1861754  74.33 0.0006478367    1.194    0.163
        24  -8.6408     70.5220    199.9465   1.1417936710e+02   2.4083625580e+01    0.1695922    0.1150231 -71.07 0.0006250346    1.439    0.305
        25 -10.9217     99.0645    181.4230   1.0541157195e+02   2.3928498391e+01    0.4493051    0.2795496 -47.49  0.001634431    1.800    0.444
        26  -8.7491     97.0032    190.7731   1.0723304999e+02   2.2206009294e+01    0.1868983    0.1607332  61.38 0.0003602608    1.054    0.052
        27  -9.9999     94.7890    187.6907   1.0730376600e+02   2.3219065090e+01    0.3020461    0.2456094 -30.87 0.0007780406    1.643    0.391
        28  -8.5881    156.5151    189.9252   9.3824232601e+01   1.2147182195e+01    0.1961354    0.1398053 -46.15 0.0005138895    1.511    0.338
        29 -10.3330    149.8717    188.1006   9.4952257429e+01   1.3717133364e+01    0.3095269    0.1886771  34.28  0.001455664    1.612    0.380
        30 -10.0709    140.7150    187.4220   9.6862960301e+01   1.5514601553e+01    0.2756678     0.125225  44.11 0.0009279396    2.061    0.515
        31 -10.8850    124.5091    186.0014   1.0027433004e+02   1.8682980509e+01    0.2330415    0.1849246  42.62  0.001237786    1.188    0.158
        32 -10.9347    130.5259    180.9622   9.8048764219e+01   1.8684752922e+01    0.3253467    0.1731876 -38.68  0.001103875    2.362    0.577
        33 -10.4811    150.7043    179.2990   9.3166351521e+01   1.5326070814e+01    0.4442918    0.2850552 -71.44  0.001846867    2.391    0.582
        34 -11.6167    144.1420    179.0062   9.4591882072e+01   1.6609397086e+01    0.5817645    0.3888323 -71.08  0.002202371    2.056    0.514
        35 -10.5259    139.5623    171.9108   9.4320194600e+01   1.8950589195e+01    0.3992615    0.2926869  59.56  0.001211284    1.509    0.337
        36 -10.5500    188.6471    176.4227   8.4396755333e+01   8.6805575964e+00    0.7656538    0.3941679 -56.90  0.002399329    3.175    0.685
        37  -9.9537     58.3287    176.0398   1.1417206448e+02   3.0967339656e+01    0.2226391    0.1644189  55.40  0.000475478    1.286    0.223
        38  -7.2325     76.5848    224.4956   1.1545377675e+02   1.8275267843e+01    0.1198797   0.09916529  66.46  0.000804325    1.029    0.028
        39 -10.7678     43.6499    172.2380   1.1713098564e+02   3.3578374122e+01    0.5818064    0.2312387  50.03  0.001551027    2.507    0.601
        40  -9.0854     65.0000    223.9036   1.1765026641e+02   1.9933168661e+01    0.1618201   0.06263747 -69.21 0.0007584192    2.646    0.622
        41  -9.6260    240.4552    169.0393   7.2964114531e+01   5.2471531460e-01    0.1967957    0.1185564 -30.66 0.0004298282    1.510    0.338
        42  -8.8382    230.3161    166.6365   7.4259486792e+01   2.6703641631e+00    0.1307916    0.1095808 -65.47 0.0007040862    1.766    0.434
        43  -9.4605     37.7892    176.4854   1.1889423873e+02   3.3249773464e+01    0.3358922    0.1464563  48.32     0.001511    2.180    0.541
        44  -9.4244     36.5483    223.9380   1.2301245243e+02   2.3363976251e+01    0.1715297    0.1090866  64.70 0.0005066581    1.257    0.205
        45 -11.5520     94.7893    151.6331   1.0153536761e+02   3.1486323874e+01    0.6858838    0.4983945 -40.72  0.003428276    1.545    0.353
        46  -9.8337    187.4808    152.2013   7.9476742364e+01   1.3479295428e+01    0.3106883    0.2512473  65.24  0.001548927    1.545    0.353
        47 -10.8263    133.8085    145.6870   9.0374933142e+01   2.5821782789e+01     1.310099    0.3220906 -53.94   0.00310244    5.701    0.825
        48  -9.2537    112.9530    150.9086   9.6726518945e+01   2.8553116655e+01    0.2400922    0.1781316  80.09 0.0007156504    1.690    0.408
        49  -8.8511    139.4121    150.5444   9.0047916785e+01   2.3630265475e+01    0.1473057    0.1465937 -46.31 0.0001092475    1.013    0.013
        50  -9.8306    174.4121    148.5917   8.1478884195e+01   1.6890897823e+01    0.3663923    0.2606058 -68.28  0.001597757    2.003    0.501
        51  -9.2800    109.0421    147.1044   9.6973785372e+01   3.0139432383e+01     0.219061    0.2054377  88.42 0.0002971862    1.051    0.049
        52  -9.6466    143.5010    145.5284   8.7957058425e+01   2.3921108951e+01    0.2874642    0.1459817 -58.35  0.001039325    2.474    0.596
        53  -9.3458     87.3120    143.9655   1.0209131895e+02   3.4511446325e+01    0.2741521    0.1888737  66.71  0.001300116    1.717    0.417
        54 -10.7374    106.8732    138.0930   9.5687954019e+01   3.2651640137e+01    0.5264333    0.3337878 -36.46  0.002022121    1.852    0.460
        55 -11.6598     94.7427    137.7218   9.8878779808e+01   3.4821942090e+01    0.2851213    0.2568748 -50.43 0.0005779139    1.108    0.097
        56 -10.5184    105.8998    130.6338   9.4331925258e+01   3.4594311772e+01    0.3918492    0.3226638 -62.50  0.001189706    1.199    0.166
        57  -9.9432    135.7058    128.9771   8.6057592516e+01   2.9207159452e+01    0.5048897    0.1769819 -52.17  0.001533866    3.217    0.689
        58 -10.4982    114.6779    129.0946   9.1600890501e+01   3.3342032182e+01    0.3813211    0.3365602  44.84  0.001373977    1.165    0.142
        59 -10.8203    119.9350    123.8897   8.8954430995e+01   3.3541763892e+01    0.6643117    0.2658921 -37.67  0.002060246    3.281    0.695
        60 -10.4150    101.9259    124.8717   9.4130919566e+01   3.6669849312e+01    0.3165434    0.2636653 -16.14 0.0008012396    1.443    0.307
        61  -9.5528    135.1365    120.8491   8.4195439996e+01   3.1147079259e+01     0.403353    0.1046314 -46.36  0.001095931    3.789    0.736
        62  -9.4176    109.8903    118.2298   9.0328189997e+01   3.6783107340e+01    0.2445601    0.2083338 -51.11 0.0003503116    1.127    0.113
        63 -10.0194    231.1738    113.6963   6.2171393469e+01   1.1461092474e+01    0.2750123    0.2660303  64.95 0.0008059523    1.178    0.151
        64  -9.0834    167.4573    112.4637   7.4180289570e+01   2.5810733305e+01    0.3520821    0.2430096 -79.46  0.001364436    2.408    0.585
        65 -11.2925    118.2375    110.3282   8.5996523568e+01   3.6982959060e+01    0.6691968    0.4811684  75.64  0.002861055    2.022    0.505
        66  -9.4510    205.4494    110.1938   6.5792465929e+01   1.7605459448e+01    0.3122981    0.2147514  40.45  0.000886276    1.569    0.363
        67  -9.7875    134.4919    105.1031   8.0211339470e+01   3.4750427698e+01    0.4330791    0.1524134 -43.99  0.001374497    2.774    0.640
        68  -9.4508     66.0763     99.9982   9.9071775202e+01   4.8227591593e+01      0.26579    0.2027214  31.61 0.0009337845    1.464    0.317
        69 -19.5174     16.0334    144.9498   1.2088278269e+02   4.2590684097e+01     19.07638     4.521231 -75.96   0.06548788    3.951    0.747
        70  -8.5752    155.3153     82.2791   6.8493798031e+01   3.4608190758e+01    0.1562503    0.1217633  15.82 0.0002002413    1.571    0.364
        71  -9.5043     55.3505    222.9413   1.1941970524e+02   2.1344076786e+01    0.1612055    0.1156617  69.84  0.001066681    1.146    0.127
        72  -9.1450     67.4590     71.0663   9.0692306786e+01   5.4547576166e+01    0.1972476    0.1810857   5.67 0.0005070688    1.139    0.122
        73  -9.9094     72.3630    245.3805   1.1809347724e+02   1.4986551404e+01     0.270602    0.1383594  65.20   0.00142288    1.945    0.486
        74 -12.8934    178.2433     51.9298   5.4787868197e+01   3.4044580937e+01    0.7989382    0.6954856   8.51 0.0008396856    1.333    0.250
        75  -7.9536     84.2395    245.7173   1.1596301034e+02   1.3332046210e+01    0.1112774   0.07093059  66.01            0    1.451    0.311
        76 -10.0473    168.0221    220.2809   9.6494110215e+01   4.6999370868e+00    0.2580723    0.1578156 -15.39  0.001179881    2.684    0.627
        77  -9.1580     61.4455    220.0199   1.1799729491e+02   2.1152545113e+01    0.1485684    0.1036201 -65.07 0.0005247386    1.551    0.355
        78  -9.7851     48.7025    218.1761   1.2030726257e+02   2.3094027812e+01    0.2653695    0.1538967  64.83  0.001582056    1.512    0.339
        79  -9.4381     80.8257     15.4613   6.4447096959e+01   6.1531123868e+01    0.2413023    0.1247317  54.58  0.001136496    2.115    0.527
        80  -9.7070    158.4707    234.8425   1.0053447332e+02   3.9201365594e+00    0.2229824    0.1548844  50.79  0.001312247    1.423    0.297
