#   1 NUMBER                 Running object number                                     
#   2 MAG_AUTO               Kron-like elliptical aperture magnitude                    [mag]
#   3 X_IMAGE                Object position along x                                    [pixel]
#   4 Y_IMAGE                Object position along y                                    [pixel]
#   5 X_WORLD                Barycenter position along world x axis                     [deg]
#   6 Y_WORLD                Barycenter position along world y axis                     [deg]
#   7 A_WORLD                Profile RMS along major axis (world units)                 [deg]
#   8 B_WORLD                Profile RMS along minor axis (world units)                 [deg]
#   9 THETA_WORLD            Position angle (CCW/world-x)                               [deg]
#  10 FWHM_WORLD             FWHM assuming a gaussian core                              [deg]
#  11 ELONGATION             A_IMAGE/B_IMAGE                                           
#  12 ELLIPTICITY            1 - B_IMAGE/A_IMAGE                                       
         1 -13.8700    218.2334      8.6016   3.6505202007e+01   2.9386169070e+01     2.318229      1.27721  43.02   0.01114516    2.522    0.603
         2 -13.2118    177.7510     53.0784   5.3497140543e+01   3.3817950008e+01      1.78437     1.140103  27.68  0.004045054    2.193    0.544
         3 -13.4979    192.3543     40.2317   4.7546854904e+01   3.1940709172e+01     1.058604     1.031948  19.53  0.004058814    1.166    0.142
         4 -12.8382    197.7449     34.1975   4.5172625779e+01   3.1381257061e+01    0.7059643    0.6543363  62.65  0.001140097    1.136    0.120
         5 -10.2652    189.6770     14.7559   4.0929253931e+01   3.5630262168e+01    0.2224621    0.1983218  48.11 0.0007528798    1.243    0.196
         6  -9.1292    167.8932    231.1378   9.6738748058e+01   2.7508773216e+00    0.1831603    0.1559263  44.12 0.0004460893    1.184    0.155
         7 -11.2400    248.8687    249.8990   8.4677924200e+01  -1.1800708859e+01    0.4490452    0.1970698  36.86  0.002495582    2.091    0.522
         8 -19.5209     17.1848    145.6590   1.1981085850e+02   4.2593133304e+01     19.31126     4.700634 -75.74   0.06613559    3.892    0.743
         9 -10.9826    193.0385    195.3242   8.5551736166e+01   4.3401978011e+00    0.9111087    0.4665593 -58.91  0.003151518    4.365    0.771
        10  -8.7940    186.8273    186.5938   8.5153533952e+01   7.0018814274e+00    0.2186258    0.1322012  40.85 0.0007853153    1.572    0.364
        11 -12.2992     56.1341    196.9461   1.1594936053e+02   2.6701943865e+01    0.6586913     0.260674 -52.15  0.002810488    3.070    0.674
        12 -10.6766    203.9724    200.0354   8.4248482703e+01   1.6356906193e+00    0.2299173    0.1533604   5.39  0.001153782    1.739    0.425
        13  -9.3094     50.4573    224.5329   1.1957897529e+02   2.1671612408e+01    0.1753714   0.09379099  86.31 0.0007164931    1.925    0.480
        14  -9.3472     34.4276    197.1228   1.2057941900e+02   2.9201999668e+01    0.1428075    0.1080597  84.15 0.0004002486    1.083    0.077
        15  -9.0778     81.8703    194.7491   1.1000357565e+02   2.3685177055e+01     0.186835    0.1767644  64.76  0.001197801    1.151    0.131
        16 -10.1471     54.5030    221.9344   1.1858254572e+02   2.1687756931e+01    0.2529395    0.1290944  49.66 0.0003649235    1.637    0.389
        17 -11.2995    149.6319    188.2180   9.3540588129e+01   1.3642860397e+01    0.4910153    0.3491614 -78.52  0.002121114    2.104    0.525
        18  -9.5342     96.9743    190.7017   1.0601752930e+02   2.2272950489e+01    0.1976569    0.1613928  51.97 0.0006602004    1.127    0.113
        19  -9.6781     60.9671    187.9680   1.1391918477e+02   2.8072762933e+01    0.1864701    0.1628947  84.12  0.001193569    1.055    0.052
        20 -12.1573     67.4036    183.0331   1.1185922596e+02   2.8337659968e+01    0.7377337    0.5967177 -61.15  0.003175377    1.297    0.229
        21  -9.7449     94.0714    186.8362   1.0613907114e+02   2.3581844008e+01    0.2292506    0.2028394  76.15 0.0004710778    1.049    0.047
        22 -11.5390     98.7561    181.4712   1.0423865646e+02   2.4034307551e+01    0.5910412    0.3969842 -58.06  0.001893504    1.519    0.342
        23  99.0000     57.2650    219.1538   1.1780039509e+02   2.1897821228e+01     0.460988    0.2057825  59.27  0.002257696    2.187    0.543
        24 -11.1908    143.5789    178.2157   9.3081676502e+01   1.6821236182e+01    0.3918978    0.2548028 -37.43  0.001255026    1.738    0.425
        25 -10.0957    188.3860    176.7027   8.2849764518e+01   8.5084122598e+00    0.3714454    0.3483322 -86.80   0.00211914    1.364    0.267
        26  -9.7173    149.3036    177.0522   9.1538687860e+01   1.5976097406e+01    0.2395873    0.1981651 -68.71 0.0004160729    1.421    0.296
        27 -11.6053     63.2865    250.2355   1.1917044544e+02   1.5259348508e+01    0.2481238    0.1200028  50.10   0.00144959    1.599    0.375
        28  -9.7614     57.8254    175.9156   1.1324198656e+02   3.1224593518e+01    0.2205687    0.1663995  54.43  0.000414453    1.264    0.209
        29 -10.8464    237.7193    174.1435   7.2751735666e+01  -2.9899370373e-02    0.3774476    0.1091193 -35.29  0.001328718    3.265    0.694
        30  -8.7191     48.5869    217.5129   1.1938021018e+02   2.3302264836e+01    0.1878079    0.1126704  30.36 0.0006851083    1.964    0.491
        31 -10.7412     43.3838    172.2709   1.1623873322e+02   3.3792297780e+01    0.6001706    0.2310849  48.82   0.00180026    2.571    0.611
        32  -8.9561    194.1774    171.8233   8.0633151951e+01   8.2929799799e+00    0.2068557    0.2015022  42.22 0.0006904025    1.194    0.163
        33 -10.5147    138.9504    170.7067   9.2736169518e+01   1.9295423100e+01      0.36878    0.2826905  54.90  0.001126045    1.353    0.261
        34  -9.3769    185.4996    169.9505   8.2059659094e+01   1.0328838720e+01    0.2139668     0.142615 -40.16  0.000526462    1.530    0.346
        35  -9.4703     84.0628    173.7059   1.0661346639e+02   2.8105950324e+01    0.1880609    0.1684152  68.37  0.000354387    1.044    0.042
        36 -10.5275    230.7512    168.1310   7.2748158588e+01   2.1378541570e+00     0.355408     0.144949 -47.67  0.001274192    3.394    0.705
        37 -10.0492    184.3107    212.8007   9.0481760125e+01   2.9469261907e+00    0.2183666    0.1680367 -40.55  0.001261907    1.473    0.321
        38  -9.0279    187.6029    162.7839   8.0082888546e+01   1.1275516778e+01    0.2065521    0.1383737 -50.07 0.0005893831    1.682    0.406
        39 -10.9020    133.8251    145.6207   8.8790391580e+01   2.5865279011e+01     1.314465    0.3285872 -53.89  0.003063979    5.777    0.827
        40 -11.6021     95.0393    151.0705   1.0002687552e+02   3.1728432198e+01    0.6466309    0.5659633 -40.08  0.003532597    1.243    0.195
        41  -9.7488    187.2691    151.9288   7.7747295653e+01   1.3437818949e+01    0.2179348    0.1963163 -20.31 0.0008996773    1.077    0.072
        42  -9.4868    112.8072    150.9423   9.5327516185e+01   2.8666819248e+01    0.2491463    0.1746099 -87.62  0.001080735    1.954    0.488
        43  -9.5360    174.8234    149.1318   7.9818261124e+01   1.6592174604e+01    0.2298867    0.2136389 -85.72 0.0006321564    1.267    0.211
        44  -9.3492    109.2054    147.4821   9.5570050251e+01   3.0134735227e+01    0.2511695    0.2021592 -60.05 0.0002742744    1.234    0.190
        45  -9.5023    143.4717    145.4989   8.6351787737e+01   2.3931814351e+01    0.2847133    0.1482984 -58.00  0.001036002    2.391    0.582
        46 -10.7924    106.8687    137.5050   9.4099389627e+01   3.2926842605e+01    0.4967282    0.3432909 -30.48  0.001733224    1.793    0.442
        47 -10.6668    105.8075    130.7116   9.2886674194e+01   3.4738457437e+01    0.3989345    0.3388017 -57.27  0.001386989    1.149    0.129
        48 -11.7714     94.9314    137.2852   9.7342286432e+01   3.5068206144e+01    0.3027067    0.2666849 -45.75 0.0003729352    1.146    0.128
        49 -10.4996    136.0000    129.4896   8.4473880969e+01   2.9069521597e+01    0.7983479    0.1417043 -48.42  0.001732577    6.098    0.836
        50 -10.4303    114.4251    128.9203   9.0088310866e+01   3.3548199422e+01    0.3470522     0.278422 -33.14 0.0007860883    1.337    0.252
        51  -9.3930    160.7829    127.8563   7.7945012138e+01   2.4055781153e+01    0.3013217    0.2219003 -60.94  0.001335919    1.606    0.378
        52 -10.3993    102.0218    124.6197   9.2553473416e+01   3.6876429636e+01     0.303064      0.24549 -15.39 0.0006784069    1.509    0.337
        53 -10.6989    120.0811    122.8546   8.7072075082e+01   3.3852367301e+01    0.4396142     0.312463 -14.96  0.001849013    1.994    0.498
        54  -9.2899     58.7725    250.6907   1.2000865832e+02   1.5752204712e+01   0.08904359   0.08293058 -72.63 0.0003595974    1.482    0.325
        55  -9.3961    109.9114    118.0839   8.8723581336e+01   3.6952288856e+01    0.2222539    0.2185988 -54.58 0.0003369243    1.019    0.018
        56 -13.0194     32.4201    206.6514   1.2173469539e+02   2.7393604778e+01    0.3376277     0.165315  55.33   0.00141121    1.776    0.437
        57 -10.0411    231.2414    113.7432   6.0421501046e+01   1.1254766135e+01    0.2652312    0.2628193 -21.36 0.0007225175    1.111    0.100
        58  -9.2337    167.9080    112.7998   7.2414679045e+01   2.5565609180e+01    0.3034354    0.2067876 -67.12  0.001219501    2.069    0.517
        59  -9.9002    135.0000    107.0122   7.8899203693e+01   3.4267318566e+01    0.3896833    0.1603235 -46.66  0.001313499    2.454    0.592
        60 -11.3740    117.8179    109.9150   8.4372062481e+01   3.7269218410e+01    0.8790464    0.5382441  69.16  0.003135994    2.880    0.653
        61  -9.5116    205.4569    110.1697   6.4020143875e+01   1.7446549950e+01    0.3152033    0.2166975  40.98   0.00105888    1.563    0.360
        62 -10.9825     65.6158    204.7373   1.1471003181e+02   2.3797957048e+01    0.3569464    0.1956998 -70.31  0.001257745    1.799    0.444
        63  -8.6436     69.9088    199.5057   1.1322220493e+02   2.4340591130e+01    0.1784843    0.1188894  38.49 0.0009944292    1.496    0.332
        64  -8.7715    184.3185     77.0420   5.9166971763e+01   2.8349508472e+01    0.2164396     0.196233 -36.23 0.0006777317    1.095    0.086
        65  -8.9889     93.7439    205.4334   1.0871307124e+02   1.9628862129e+01    0.2245718    0.1668227 -30.64 0.0008033729    2.001    0.500
        66  -8.4382     75.6289    247.5480   1.1671409398e+02   1.4111636882e+01    0.1127184   0.09075733  61.55 0.0002312112    1.055    0.052
        67 -10.3377     71.8588    245.1304   1.1720858775e+02   1.5046751208e+01     0.256544    0.1485659 -72.11  0.001566894    1.869    0.465
        68 -10.4014    249.5023    231.0130   8.1428456941e+01  -9.7184091074e+00    0.1699614    0.1009187 -24.41 0.0006430715    1.592    0.372
        69  -9.2375     44.3724    230.1136   1.2115164401e+02   2.1313837965e+01    0.1493922   0.08686915  82.71 0.0008974664    1.604    0.377
        70  -9.6747     96.4784    202.0252   1.0767428511e+02   1.9921282429e+01    0.2777748    0.1760875 -57.17 0.0009694927    1.686    0.407
        71  -9.5757     58.4629    228.6945   1.1837517804e+02   1.9860489940e+01    0.1370483    0.1017513  89.31 0.0007298228    1.253    0.202
