#   1 NUMBER                 Running object number                                     
#   2 MAG_AUTO               Kron-like elliptical aperture magnitude                    [mag]
#   3 X_IMAGE                Object position along x                                    [pixel]
#   4 Y_IMAGE                Object position along y                                    [pixel]
#   5 X_WORLD                Barycenter position along world x axis                     [deg]
#   6 Y_WORLD                Barycenter position along world y axis                     [deg]
#   7 A_WORLD                Profile RMS along major axis (world units)                 [deg]
#   8 B_WORLD                Profile RMS along minor axis (world units)                 [deg]
#   9 THETA_WORLD            Position angle (CCW/world-x)                               [deg]
#  10 FWHM_WORLD             FWHM assuming a gaussian core                              [deg]
#  11 ELONGATION             A_IMAGE/B_IMAGE                                           
#  12 ELLIPTICITY            1 - B_IMAGE/A_IMAGE                                       
         1 -15.8706     94.9317    181.5494   8.7711076346e+01   2.5782108808e+01      3.10077     2.197225 -50.19   0.01771008    1.689    0.408
         2 -14.4623     90.7160    140.0167   8.2629335102e+01   3.5288487710e+01     1.285526    0.8994728  71.77  0.006243015    1.643    0.391
         3 -14.7956     74.7950    159.5074   9.0033437201e+01   3.3415006282e+01     1.356156     1.038105 -85.09  0.007631454    1.380    0.275
         4  -9.0633     22.4836      6.4402   6.8530720941e+01   7.7182814061e+01    0.1268775    0.1154479 -13.95  0.000113372    1.007    0.007
         5  -8.9088     24.7142      4.3119   6.4958414822e+01   7.7207217327e+01    0.1692962    0.1170614  27.09 0.0003989699    1.521    0.342
         6  -9.1592      6.6711      3.2847   8.1713447224e+01   7.9715778258e+01    0.1144876   0.09454994  62.62 0.0002115372    1.610    0.379
         7 -10.2532    115.8680    242.6735   8.9828046881e+01   1.2674505916e+01    0.2817273    0.1471543  35.98  0.001697311    1.386    0.278
         8 -10.5742    169.6203    248.4906   8.0607615964e+01   5.2006703172e+00    0.2537125    0.1586893   5.70  0.001733844    1.742    0.426
         9  -9.3859     95.1509    249.6727   9.4420158090e+01   1.4262423209e+01    0.1557626    0.1065764  35.19 0.0008021896    1.081    0.075
        10 -11.0187     90.0806    246.5806   9.5166542708e+01   1.5322218493e+01    0.3972551    0.2830668 -48.74  0.002884452    1.972    0.493
        11  -9.8597     86.7861    241.9503   9.5463391339e+01   1.6410054792e+01    0.1694484    0.1220435  41.59 0.0005080956    1.025    0.024
        12  -9.3425     81.9398    239.7911   9.6268931458e+01   1.7329013052e+01    0.2118755   0.06907956  31.00 0.0007812657    2.503    0.601
        13  -9.6866     82.3449    250.6299   9.6964399170e+01   1.5656303303e+01    0.2253588   0.07878873  33.10  0.001168287    2.070    0.517
        14  -9.4979     82.1832    246.8624   9.6732546697e+01   1.6229779514e+01    0.2197103    0.1382779  61.07  0.001495785    1.642    0.391
        15  -9.2434     77.3694    244.3100   9.7503177920e+01   1.7185770330e+01    0.2112437    0.1276117  34.03  0.001140119    1.262    0.207
        16  -9.6321     77.5104    240.9815   9.7243258961e+01   1.7679273116e+01    0.1727164    0.1301274  70.51   0.00127303    1.454    0.312
        17  -9.7742     75.9951    250.3886   9.8179774470e+01   1.6435777445e+01    0.1540215   0.09598796  37.44 0.0004890055    1.143    0.125
        18  -9.3429     71.4899    250.1264   9.9039244630e+01   1.6996227453e+01    0.1276973    0.1042646 -88.80 0.0009395084    1.542    0.352
        19 -10.8646     66.9812    247.6239   9.9767570349e+01   1.7891476847e+01     0.409317    0.2160002 -71.05  0.002653871    2.464    0.594
        20  -8.9495     70.5563    242.4549   9.8734902300e+01   1.8273940820e+01    0.1112949   0.08189318  40.47 0.0001048947    1.059    0.056
        21 -14.0624      8.9011    163.6457   1.0866540072e+02   4.0124864719e+01     2.738532     1.084138 -86.13   0.01039527    2.386    0.581
        22 -12.8059     52.9767    208.0737   1.0018886363e+02   2.6257042273e+01     1.477554    0.2974722  38.71  0.005933715    2.920    0.658
        23 -13.0236     15.0662    198.8544   1.0845891705e+02   3.2076369907e+01     1.215176    0.4862207 -77.75  0.006296715    2.599    0.615
        24 -13.4929      4.6377    195.9109   1.1079366784e+02   3.3598382744e+01     1.157922    0.4103401 -75.39  0.005722491    2.937    0.659
        25 -13.5772      7.9406    208.9336   1.1038524601e+02   3.0760882856e+01    0.5909162     0.471689 -32.36  0.002642406    2.014    0.503
        26 -14.5830     37.7648    230.4696   1.0476654024e+02   2.3914897324e+01     1.586142     1.162455 -60.21   0.01141225    1.880    0.468
        27 -15.5789     33.8417    210.9688   1.0468766456e+02   2.7848895064e+01      4.01422     1.617218  64.82   0.02005848    2.420    0.587
        28 -14.0813      2.5268    246.5562   1.1227337384e+02   2.4616117579e+01    0.6751616    0.2945741  66.90  0.004430266    1.885    0.469
        29 -15.2113     15.7763    243.3515   1.0965672721e+02   2.3938737619e+01     0.790917    0.6154102  41.89  0.004143452    1.224    0.183
        30 -10.9867    100.4807    244.7594   9.2993108784e+01   1.4311123207e+01    0.4192754    0.2976341 -83.64  0.002982967    2.006    0.501
        31 -10.9572    102.1275    227.0147   9.1086189252e+01   1.6761210042e+01    0.3958029    0.2103208  63.36  0.001447701    2.702    0.630
        32 -10.3222     99.0494    234.5136   9.2398522876e+01   1.6004516852e+01    0.2868414    0.1715023  29.67 0.0009584752    1.395    0.283
        33 -11.2327     94.7623    231.7829   9.3028033554e+01   1.6972057766e+01    0.3202014    0.2657627  21.62 0.0004436133    1.290    0.225
        34 -11.2360     93.3074    225.1837   9.2743482609e+01   1.8205777345e+01    0.3259175    0.2620614  42.24   0.00139263    1.063    0.059
        35 -10.6144    105.2788    236.6637   9.1345279189e+01   1.4885886658e+01     0.213177    0.1307003  32.92 0.0005906388    1.251    0.200
        36 -10.9881    103.9309    233.2915   9.1306299718e+01   1.5562421045e+01    0.2260225    0.1734713  46.00 0.0003237217    1.143    0.125
        37  -9.4765    220.2547    245.7017   7.2056205039e+01  -4.0229093456e-01    0.1495582    0.1196794 -34.24   0.00125136    1.965    0.491
        38  -9.9574    152.2298    243.8235   8.3151734370e+01   7.9008822044e+00    0.2115399    0.1815473  -6.47  0.001443905    1.343    0.255
        39  -9.2750    194.8315    245.1842   7.5988449329e+01   2.5350666173e+00    0.1381842   0.08995237  12.82 0.0004010845    1.260    0.206
        40 -10.1349    159.8421    244.1638   8.1826871050e+01   6.9032515845e+00    0.1482814    0.1036591  12.06 0.0009424979    1.349    0.259
        41 -11.6328     90.9858    237.8226   9.4300083035e+01   1.6518117132e+01     0.543555    0.2765337  51.64  0.002860814    1.803    0.445
        42 -10.1151    163.0110    250.0154   8.1923388784e+01   5.8349179864e+00    0.1563969    0.1076893  46.22  0.000848445    1.673    0.402
        43  -9.0254    128.4847    243.4785   8.7500952582e+01   1.0960557804e+01    0.1123186   0.08201706  32.68 0.0008101002    1.004    0.004
        44  -9.4038    144.7920    239.7321   8.4061090924e+01   9.3593707393e+00    0.1785164     0.106203  23.91 0.0006978717    1.439    0.305
        45 -10.1354    217.0898    238.6200   7.1621733051e+01   6.1287428087e-01    0.1470028    0.1181316   2.69 0.0005959406    1.270    0.213
        46  -9.2846    160.6634    239.3100   8.1123822039e+01   7.3784786534e+00    0.1039374   0.07227936  47.94 0.0007043962    1.682    0.406
        47  -9.2402    225.5025    228.5291   6.8972965950e+01   6.2432316636e-01    0.1629256    0.1094268  -4.17 0.0007779005    1.272    0.214
        48  -9.8887    231.3183    237.8384   6.9371965537e+01  -8.9468237751e-01    0.1863335    0.1254453  28.75 0.0008101681    1.415    0.293
        49 -11.0462    227.4735    234.9749   6.9558424020e+01  -2.0915443528e-01     0.330005    0.1583537 -23.32  0.001081413    2.118    0.528
        50 -11.0728    245.1286    235.9790   6.7126958543e+01  -2.2021425998e+00    0.2447656     0.134077   2.76  0.001212861    1.613    0.380
        51  -9.9355     75.2029    234.5502   9.7252428771e+01   1.8969726772e+01     0.298733    0.1301838  53.50  0.001083672    2.137    0.532
        52  -9.5943     71.4900    234.4785   9.8009359609e+01   1.9428012586e+01    0.3227882    0.1475981 -69.22  0.001839674    2.779    0.640
        53  -9.9056    188.5583    235.0582   7.5755325410e+01   4.3616036326e+00    0.2385648    0.1551468  46.76  0.001230545    2.012    0.503
        54  -9.6338    124.7640    235.6122   8.7417453103e+01   1.2512718466e+01    0.1868528    0.1185706  54.10  0.001183035    1.767    0.434
        55 -10.1593    123.2551    231.4026   8.7276009571e+01   1.3307827545e+01    0.2043442    0.1692857 -82.29  0.001439312    1.709    0.415
        56 -10.6812    112.8138    235.6183   8.9755773049e+01   1.4068222012e+01    0.2624001    0.1246765  39.68  0.001511676    1.564    0.361
        57 -10.5559    176.5624    234.1117   7.7687502260e+01   5.9708264433e+00    0.3781931    0.1563459  28.36  0.001434855    2.050    0.512
        58  -9.9225    206.9105    231.8272   7.2318568522e+01   2.4726587441e+00    0.1871798    0.1396551 -26.63  0.001031108    1.578    0.366
        59  -9.1442     81.2851    233.3207   9.5912997761e+01   1.8423183551e+01    0.1431777    0.1211307  45.86 0.0003023867    1.150    0.130
        60 -10.3393     82.0251    229.4291   9.5455190870e+01   1.8957119240e+01     0.346179    0.1599749  27.07  0.001802031    2.067    0.516
        61 -10.6164    235.7988    230.9359   6.7775561847e+01  -7.5605473176e-01    0.1975241    0.1090981  26.34 0.0006392974    1.437    0.304
        62  -9.9775    168.4303    230.7953   7.8706432336e+01   7.4098203969e+00    0.1377878   0.09471179 -16.39 0.0009419043    1.684    0.406
        63  -9.4184     69.3773    230.7755   9.8188421428e+01   2.0286162488e+01    0.2251366   0.08788729  39.67  0.001190907    1.777    0.437
        64 -10.0225    192.0848    229.8679   7.4487452516e+01   4.4954261533e+00     0.153531    0.1209733  27.10  0.000446177    1.243    0.196
        65  -9.9128    143.2587    230.1882   8.3274783953e+01   1.0812069105e+01    0.1810775    0.1063878   3.64  0.000943649    2.703    0.630
        66  -9.5654    118.5089    229.4802   8.8015453928e+01   1.4217668582e+01    0.1573177    0.1132209 -81.68 0.0007638543    2.115    0.527
        67  -9.3042     75.7198    229.3472   9.6762321370e+01   1.9751682202e+01    0.1794461    0.1226829  76.41 0.0005283669    1.686    0.407
        68 -10.1731    196.7323    227.6047   7.3409697630e+01   4.1645442985e+00     0.145085     0.136958 -44.01 0.0006874841    1.767    0.434
        69  -9.1227     64.6701    227.8736   9.8975115337e+01   2.1333105888e+01    0.1387392   0.09338697  76.47            0    1.631    0.387
        70 -13.4897     30.5292    248.5181   1.0694410869e+02   2.1672976451e+01     0.786702    0.2739555  26.20  0.003948116    2.786    0.641
        71 -10.7481    208.8263    226.8406   7.1334759230e+01   2.7592953135e+00    0.1738453    0.1309451  17.34 0.0003030944    1.096    0.087
        72  -9.0270    149.3327    227.6958   8.1832689444e+01   1.0332646777e+01    0.1099981   0.07599174  50.51 0.0003962336    1.660    0.397
        73  -9.8829    186.2680    225.3811   7.4877297573e+01   5.7414618016e+00    0.1514906     0.142166 -62.16 0.0009729245    1.796    0.443
        74 -10.0275    170.1255    225.5306   7.7733597060e+01   7.8335090792e+00    0.3284733     0.121067  35.39  0.001676429    2.137    0.532
        75 -10.4140    107.8350    223.0856   8.9525785790e+01   1.6617816738e+01     0.311138    0.1952441 -59.86  0.001951916    2.066    0.516
        76 -10.9874    242.9465    223.6890   6.5724771646e+01  -8.7702404383e-01    0.2259393    0.1014471  30.02  0.001215025    1.861    0.463
        77 -10.6631     71.1915    219.3516   9.6963149028e+01   2.2002588130e+01    0.2692496     0.166732  54.17 0.0004828009    1.388    0.280
        78 -10.2352     75.1719    223.1559   9.6402941469e+01   2.0853637945e+01    0.3135179    0.1589537  43.53   0.00154889    1.470    0.320
        79  -9.1447     78.2995    221.3188   9.5587025893e+01   2.0773301504e+01    0.1823676    0.1007365  29.45 0.0003284012    1.601    0.376
        80 -10.7471     62.7892    222.7060   9.9022534665e+01   2.2442300831e+01    0.4373257    0.1831147  39.99  0.002355179    1.694    0.410
        81 -10.2890    230.5858    222.2427   6.7323523754e+01   6.4900225787e-01    0.1729139   0.08732176 -31.85  0.001143148    2.115    0.527
        82 -10.2789    122.6841    221.2001   8.6288620889e+01   1.4888060852e+01    0.3916359    0.1949794 -50.97  0.002192807    2.539    0.606
        83 -13.2654     26.7294    232.6821   1.0713677872e+02   2.4668950844e+01    0.5440567    0.3987982 -64.06  0.002809292    1.866    0.464
        84  -8.7278    115.5096    222.4568   8.7884649805e+01   1.5677672386e+01    0.1193738   0.09189659  35.33 8.849697e-05    1.015    0.015
        85  -9.8153     87.5308    221.4682   9.3628581412e+01   1.9565623061e+01    0.2191068    0.1232819  62.79 0.0007649995    2.058    0.514
        86 -10.4479    198.0391    218.2890   7.1905069514e+01   5.0387847087e+00      0.30876    0.1791165  -4.55  0.001867802    2.044    0.511
        87  -9.2354     82.4185    220.5286   9.4638198209e+01   2.0382944579e+01    0.2018129    0.1006128  23.58  0.001007788    2.224    0.550
        88  -9.5671    222.1178    216.5185   6.7781651047e+01   2.2208829022e+00    0.3315412    0.1437443  20.01  0.001753049    2.576    0.612
        89  -8.9935    139.4448    216.4740   8.2374882403e+01   1.3256855573e+01    0.1187591   0.09373735  31.28 0.0001076572    1.013    0.013
        90 -10.0160     88.8482    215.5469   9.2807708234e+01   2.0392786655e+01    0.2324884    0.1834985  43.82  0.001590715    1.026    0.025
        91 -10.5006    234.0050    214.4341   6.5679719153e+01   1.0163638053e+00    0.3801106    0.1354745  31.69  0.002029135    2.452    0.592
        92  -9.9938    166.4571    213.2307   7.6765397095e+01   9.9117014191e+00    0.2775673    0.1504833 -43.40  0.001624509    2.253    0.556
        93  -9.6144     70.1009    214.3957   9.6813397168e+01   2.3012533307e+01    0.1876006    0.1635094 -46.23  0.001083997    1.559    0.359
        94  -9.3653    176.9865    213.9977   7.4949158700e+01   8.3546048748e+00    0.1748707    0.1132647  11.62 0.0004240935    1.553    0.356
        95  -9.4078    104.1288    213.7142   8.9335734139e+01   1.8634408985e+01    0.1831475    0.1305713  46.94 0.0006068877    1.196    0.164
        96  -9.4762    185.2706    213.3087   7.3382385417e+01   7.3126525399e+00     0.239272     0.118373  22.41   0.00129045    2.040    0.510
        97  -9.2630     73.8425    213.0459   9.5875671791e+01   2.2781310970e+01    0.1736429    0.1237143  53.44 0.0002772609    1.188    0.158
        98  -9.1317    216.4442    212.4930   6.8074838424e+01   3.3419679616e+00    0.1071414   0.08170779  10.71 4.760707e-05    1.039    0.038
        99  -9.3601    102.6313    220.2438   9.0322772955e+01   1.7769873349e+01    0.1317664    0.1109193 -42.47 0.0003215612    1.550    0.355
       100 -14.2901     69.0404    182.2681   9.4173869338e+01   2.9336347736e+01     1.690338    0.9982148  28.01  0.008812794    1.691    0.409
       101 -14.2479    117.3189    176.0320   8.1633811410e+01   2.3341980882e+01     1.249272    0.5741953  35.30  0.004394431    1.948    0.487
       102 -12.7350     75.2707    193.2150   9.3748720174e+01   2.6298417452e+01      0.86165     0.464659 -85.39  0.004272009    2.469    0.595
       103  -9.7849    142.1143    249.1492   8.5550802807e+01   8.5176053259e+00    0.1647068     0.116391  20.43 0.0007555144    1.226    0.184
       104 -10.4904    241.4499    204.1432   6.3037756292e+01   1.1608199521e+00    0.2485027    0.1401872  -4.89  0.000861273    1.704    0.413
       105 -11.2532    235.1092    203.0321   6.3789492823e+01   2.0334079066e+00    0.2845284    0.1701812 -10.01  0.001943314    1.532    0.347
       106  -8.7275    183.0000    203.9747   7.2423537996e+01   8.8005502968e+00    0.1562636   0.06388899 -39.12 0.0004456776    2.762    0.638
       107  -9.1419    190.5687    203.5529   7.1025455418e+01   7.7946751110e+00    0.1149913   0.09029783  14.87 9.072468e-05    1.019    0.018
       108  -9.1757    161.7075    200.9557   7.5926954950e+01   1.2288205825e+01    0.1643372    0.1367786  22.25 0.0004796329    1.028    0.027
       109 -11.4537    122.2352    199.7725   8.3817616796e+01   1.8363726269e+01     0.461534    0.1692493  48.87  0.001834322    3.078    0.675
       110  -9.4952    241.0203    199.4821   6.2373729958e+01   1.6806469526e+00    0.1473161   0.08672623  29.98 0.0005066065    1.532    0.347
       111 -10.3025    157.0701    199.0360   7.6547334180e+01   1.3255723811e+01    0.2015703    0.1566127  13.98 0.0003765718    1.226    0.184
       112 -14.2301    119.4776    189.5840   8.3072954132e+01   2.0532773590e+01     1.532575    0.8282403  23.38  0.007218545    2.184    0.542
       113  -9.1942    184.1078    198.0919   7.1333494594e+01   9.4086475964e+00    0.1407464    0.1222828  28.71 -0.0009232552    1.232    0.188
       114 -10.4114    211.2683    194.6852   6.6160683488e+01   6.0223620631e+00    0.2703972     0.186161  28.78  0.001847312    1.280    0.219
       115  -9.6083    230.8077    195.8473   6.3298517086e+01   3.3228765895e+00     0.168378    0.1162252   4.97 0.0006077506    1.201    0.167
       116  -9.3222    203.5733    195.0419   6.7484374449e+01   7.0375880692e+00     0.179076     0.119343  -4.18 0.0006392632    1.506    0.336
       117 -10.6625    247.4764    190.4928   6.0021635722e+01   1.8144150971e+00    0.2047166    0.1591876  22.96 0.0009200266    1.329    0.248
       118 -10.6915    242.5746    190.0764   6.0645703107e+01   2.4584929220e+00    0.2992173    0.1754179  -0.40  0.001346106    1.656    0.396
       119 -12.1018     69.4960    200.3402   9.5775042138e+01   2.5685670342e+01     1.063279    0.4102878 -78.65  0.004413083    3.809    0.737
       120  -9.0554    149.5639    197.4781   7.7810836192e+01   1.4617945313e+01    0.1227735    0.1021118  28.94 5.640411e-05    1.020    0.019
       121 -11.9370    146.5513    186.3434   7.6769502730e+01   1.6834939580e+01    0.3314823    0.2383838  19.05  0.001602407    1.412    0.292
       122  -8.9486    227.7763    186.9532   6.2308359358e+01   4.6946511853e+00    0.1351992   0.07917049 -25.04 0.0003262649    1.592    0.372
       123 -12.1008    138.1639    185.3006   7.8376803619e+01   1.8339010019e+01    0.4384074    0.2243943 -37.31  0.001929314    2.468    0.595
       124  -9.7894    214.8724    182.2741   6.3534375331e+01   7.0073925966e+00    0.1786269    0.1403366 -26.16 0.0005501445    1.342    0.255
       125  -9.2349    203.6896    183.5947   6.5590545868e+01   8.4461563299e+00    0.2179113   0.09742411  34.85  0.001121433    2.045    0.511
       126 -10.4097    190.9608    183.0277   6.7688429006e+01   1.0406203056e+01     0.188703    0.1483374  22.72 0.0003215781    1.094    0.086
       127  -9.3183     40.3351    182.8664   1.0147654366e+02   3.2772795467e+01      0.25122    0.1065656 -89.22  0.001119452    2.737    0.635
       128 -11.0276     45.1068    180.5293   1.0008889122e+02   3.2721545545e+01    0.3097562    0.1688268 -74.01   0.00157615    1.947    0.486
       129  -9.1424     35.5736    181.5412   1.0259616145e+02   3.3583661981e+01    0.2086517    0.1372289  55.63 7.804693e-05    1.225    0.183
       130  -9.1632     36.5275    178.5542   1.0215124220e+02   3.4120774246e+01    0.1992774     0.144537  78.83 0.0007155496    1.287    0.223
       131 -15.2931      7.0375    226.7604   1.1100761492e+02   2.7567071262e+01    0.9152611    0.7852857  22.47  0.004731966    1.499    0.333
       132 -13.9040     10.2838    235.9764   1.1055913975e+02   2.5677477079e+01    0.5690087    0.4240538 -32.46  0.004025058    2.412    0.585
       133  -9.7685      2.0404    179.9250   1.1099664232e+02   3.7119340516e+01    0.3405829    0.1331711  87.45  0.001076619    2.393    0.582
       134 -10.5382    145.8427    177.7389   7.5561841674e+01   1.8366751881e+01    0.2176404    0.1526517  19.72  0.001202162    1.507    0.336
       135 -10.0089     42.0378    177.9838   1.0068488325e+02   3.3624172012e+01    0.1743512    0.1513286 -29.70 0.0004961793    1.619    0.382
       136  -9.5536    206.8603    176.2872   6.3810853489e+01   8.9137477298e+00    0.1613025    0.1252731  14.24 0.0003156562    1.106    0.096
       137 -10.2332     52.1996    176.1819   9.7896902331e+01   3.2802216615e+01    0.3515586    0.1253417  39.71  0.001527548    2.149    0.535
       138 -14.0856     91.9797    202.6004   9.0831286119e+01   2.2242756523e+01     1.779597     1.001219  28.41  0.009526446    1.685    0.407
       139 -10.5153     40.7977    173.0864   1.0063564762e+02   3.4834607543e+01    0.4947647    0.1149863  45.58  0.001831127    3.085    0.676
       140 -13.1922     13.4770    175.7938   1.0795621115e+02   3.7030123034e+01      1.43498    0.8334994  -7.96  0.006775947    3.370    0.703
       141 -12.1315     66.7629    168.3555   9.3273960275e+01   3.2604760505e+01    0.4911495    0.2435913  26.86  0.001517813    2.159    0.537
       142 -10.5390    121.5030    246.5416   8.9115729840e+01   1.1435537809e+01    0.4260263    0.2549208  58.15  0.002657306    2.160    0.537
       143 -10.9823    151.7097    165.4237   7.2233633076e+01   1.9463786095e+01    0.3512244    0.1764472 -52.10  0.001369609    2.475    0.596
       144 -11.4372     77.8729    204.6384   9.4232515045e+01   2.3784380596e+01    0.4532588     0.296332  39.38  0.002361386    1.213    0.176
       145 -10.4259    234.1137    166.0099   5.7749180856e+01   6.2343029977e+00    0.1789373    0.1403358  15.11  0.001279013    1.148    0.129
       146 -12.1470     38.0328    162.1986   1.0051991655e+02   3.7595456286e+01     0.562309    0.2704293 -64.04  0.002706022    2.190    0.543
       147 -12.2038     36.8335    153.3339   1.0010925128e+02   3.9791903923e+01    0.4720742    0.2394274  79.28   0.00217274    2.101    0.524
       148 -10.8780     32.0807    150.9527   1.0130137571e+02   4.0874949563e+01    0.1961012    0.1553272 -38.15 0.0009781411    1.702    0.413
       149  -9.1103    215.5529    165.5134   6.0479848842e+01   8.9927390013e+00    0.1186027   0.09817423   1.22 0.0001025269    1.007    0.007
       150  -8.9164    177.6321    248.2814   7.9215951627e+01   4.2547397489e+00   0.09892021   0.06736111  43.54 0.0007014634    1.690    0.408
       151 -13.0735     55.5622    151.3768   9.4443029313e+01   3.7970633129e+01    0.6756571    0.3674264  71.74  0.002924233    2.110    0.526
       152 -12.1461     20.2698    160.4005   1.0536463283e+02   3.9850251846e+01    0.4783128    0.2999882  38.75  0.002449562    1.392    0.282
       153 -12.1889     25.5490    154.2749   1.0346723625e+02   4.0762758033e+01    0.4800355     0.285258 -64.87  0.001715892    1.795    0.443
       154  -9.8067     93.7660    219.7628   9.2147703065e+01   1.9031976288e+01    0.2201533    0.1384933  38.05  0.001147798    1.216    0.178
       155  -9.9330    207.1414    158.4599   6.0531991244e+01   1.1219705862e+01    0.2015969    0.1513773 -23.73 0.0001154573    1.255    0.203
       156 -10.5317    246.3174    154.7025   5.3981337631e+01   5.8346022711e+00    0.1660435    0.1372675 -17.32 0.0004853579    1.184    0.156
       157 -10.2378    227.4569    153.7781   5.6472634785e+01   8.6761118036e+00     0.334107    0.1756955   9.76  0.001512698    3.058    0.673
       158 -10.5445    173.1384    154.5591   6.5869044220e+01   1.7515461844e+01    0.2389462    0.1826143 -23.63 0.0004569403    1.355    0.262
       159 -10.7344    238.0868    153.3812   5.4866898546e+01   7.1547875863e+00    0.3312544    0.2177822  72.30  0.001497121    4.718    0.788
       160 -11.4016     44.0079    151.2931   9.7815234181e+01   3.9444406957e+01    0.2623963    0.2040459  38.04 0.0008112142    1.239    0.193
       161 -11.7866     93.9704    148.0173   8.3092737367e+01   3.2945785492e+01    0.4109169     0.243852  40.33  0.001468253    1.525    0.344
       162 -13.2815     45.8710    195.3837   1.0098077642e+02   2.9555937029e+01     1.109582    0.8142117  58.57  0.005308012    1.120    0.107
       163  -9.4058    226.7917    149.7633   5.5805789611e+01   9.2791233718e+00    0.1472773    0.1298118 -30.67 0.0003335658    1.314    0.239
       164  -9.2252    211.6355    150.5670   5.8290524796e+01   1.1563432693e+01    0.2546629    0.1148198  44.85  0.001233712    2.299    0.565
       165 -10.1488    226.6987    161.9408   5.8105990223e+01   7.7830039704e+00    0.3142344    0.1466244  37.42 0.0008285342    2.120    0.528
       166 -10.7834    137.9725    156.2301   7.3581040754e+01   2.3522385322e+01    0.2381802    0.1749148 -28.34 0.0008601939    1.615    0.381
       167 -10.1107     47.6563    150.7234   9.6683392048e+01   3.9135392569e+01    0.1968473      0.13042 -72.70  0.000260787    1.529    0.346
       168 -11.2850    119.3784    146.7899   7.6249915558e+01   2.8738028575e+01    0.2423284    0.1847496 -41.66 0.0008348756    1.470    0.320
       169 -12.5695     29.4662    144.8878   1.0158029903e+02   4.2604254529e+01    0.4727064     0.356089  33.88  0.002758943    1.327    0.246
       170  -9.1228    208.9740    144.4539   5.7511967652e+01   1.2835349694e+01    0.1758971     0.117661  42.24 0.0006240255    1.546    0.353
       171 -11.5181     51.3870    143.0171   9.4692096371e+01   4.0506397688e+01    0.2894231    0.2497015 -13.07  0.001308098    1.565    0.361
       172 -10.1055     36.1944    141.2067   9.9171551677e+01   4.2776134799e+01    0.2270389   0.07173721  38.24 0.0008779509    2.523    0.604
       173 -11.2485     20.0448    140.6678   1.0415510121e+02   4.4551087952e+01    0.3271305    0.2296752   1.09  0.001563545    1.977    0.494
       174 -11.9865     26.7105    138.1052   1.0186131815e+02   4.4539433798e+01     0.543254    0.1401263  35.00  0.002046748    2.918    0.657
       175 -11.2257     41.2765    140.0011   9.7463253901e+01   4.2488563475e+01    0.2815174    0.1706778  44.09  0.001246904    1.458    0.314
       176  -9.8133    142.5885    138.5198   6.9069064239e+01   2.5994053460e+01    0.2550414    0.1724589 -14.18  0.001134227    2.223    0.550
       177 -11.6867    246.3858    169.4029   5.6614613051e+01   4.1830129474e+00    0.3647688    0.2127152   6.41  0.002228812    1.831    0.454
       178  -9.8293    170.5349    169.0544   6.9062444056e+01   1.5674990440e+01    0.1994663    0.1555033  30.89 0.0006007871    1.151    0.131
       179 -11.2043    117.4016    167.8687   8.0361049460e+01   2.4883775598e+01     0.243838    0.1680502  47.68 0.0006311439    1.329    0.247
       180 -10.7924      3.7771    136.3442   1.0898935159e+02   4.6937525235e+01    0.4405554    0.2489229 -30.00  0.002099619    2.830    0.647
       181 -12.7940     47.6073    159.2059   9.7562446637e+01   3.7159391232e+01    0.6378176    0.2833243  39.91  0.002455946    1.862    0.463
       182 -11.6767     66.5255    134.8034   8.8914278986e+01   4.0389626467e+01    0.4522029    0.1766665  39.78  0.001760073    2.255    0.557
       183 -11.0074     40.7885    135.1258   9.7075858732e+01   4.3746362341e+01    0.2288726    0.1625371  63.40 0.0009598137    1.277    0.217
       184 -11.6479    132.6084    133.4090   7.0328999496e+01   2.8937791869e+01    0.4587993    0.2059142  49.77  0.001773925    2.285    0.562
       185 -10.6732    155.4623    130.9710   6.4609963074e+01   2.4867706694e+01    0.2522354    0.1923443  19.86 0.0006893148    1.500    0.333
       186 -10.2718      5.0396    130.5050   1.0830620549e+02   4.8274939206e+01    0.3638901    0.1538344  44.83  0.001422676    1.976    0.494
       187  -9.6681      6.7523    126.9160   1.0754972859e+02   4.9039668154e+01    0.2508065    0.1881583 -66.80 0.0008143264    1.397    0.284
       188 -10.4298     11.3186    125.9954   1.0596260615e+02   4.8924644010e+01    0.3634974    0.2487847 -24.43  0.001931493    2.087    0.521
       189 -12.2233     98.4761    129.1465   7.8390445991e+01   3.6388818238e+01    0.4739364    0.3541399  11.47  0.001215213    1.881    0.468
       190 -12.8896     28.2804    128.2406   1.0044171595e+02   4.6837441163e+01     0.796097     0.312529  32.34  0.002207098    2.296    0.564
       191 -11.2831     20.8776    127.6736   1.0287305414e+02   4.7692876450e+01    0.2640744    0.2152086 -58.11 0.0006392886    1.384    0.277
       192 -11.9403     18.8996    121.0372   1.0297837801e+02   4.9547548164e+01    0.5720463    0.2168442 -75.07   0.00206523    2.374    0.579
       193 -12.0400    127.7773    127.6100   7.0255972452e+01   3.1070184003e+01    0.4513073    0.3667854  11.83  0.002021193    1.518    0.341
       194  -9.8027    148.3268    127.6742   6.5434038663e+01   2.6909724456e+01    0.1443686    0.1145065  88.11 0.0007049757    1.697    0.411
       195 -10.3028    233.6333    209.1078   6.4938153461e+01   1.5922543101e+00    0.1713549    0.1202087  27.97 0.0007588816    1.355    0.262
       196 -14.1895     89.7119    153.5319   8.5129359159e+01   3.2432440031e+01     1.067887    0.6799228  33.41  0.005271862    1.524    0.344
       197 -11.2244     93.4088    122.5362   7.8509592429e+01   3.8836534576e+01    0.3394225    0.2807252 -50.69 0.0007211706    1.299    0.230
       198 -11.1643     39.6521    122.5280   9.5927378580e+01   4.7042925500e+01    0.2787369    0.1685268 -79.96 0.0009880873    1.601    0.376
       199 -10.0434    248.9447    122.1547   4.7345968354e+01   9.2524639085e+00    0.2879601    0.1505473  31.79   0.00154875    2.322    0.569
       200  -9.5969      3.1526    122.1517   1.0850486686e+02   5.0478082091e+01    0.1874976     0.166167 -70.75 0.0007947921    1.246    0.197
       201  -9.1445    228.7105    121.6111   4.9853350933e+01   1.2583727261e+01    0.1439554    0.1203685  58.01 0.0006622864    1.516    0.340
       202  -9.1886    221.6724    209.6954   6.6840042933e+01   2.9892186684e+00    0.1116347   0.06564533   7.67  0.000703502    1.649    0.394
       203  -9.8037     61.7755    121.3948   8.8256542270e+01   4.4391297654e+01    0.1926275    0.1397576  23.36 0.0006182633    1.603    0.376
       204 -10.4663    129.9482    119.9907   6.7991828655e+01   3.2190291454e+01    0.2246687     0.213449  52.14 0.0004049316    1.013    0.013
       205  -9.5056     53.6716    118.3024   9.0480618151e+01   4.6328366560e+01    0.1550539   0.09799573  63.80 0.0003075514    1.646    0.392
       206 -10.3717     11.1152    117.6751   1.0545008025e+02   5.1039258297e+01    0.2279392    0.1387904  49.98   0.00120435    1.477    0.323
       207  -9.4484    139.8150    117.1991   6.4954628824e+01   3.0686598180e+01     0.200995    0.1756082   4.91 0.0008292816    1.326    0.246
       208 -10.4388    100.4664    207.8843   8.9507139867e+01   2.0128106541e+01    0.2561581     0.158038  34.97 0.0006512813    1.316    0.240
       209 -11.5834     28.3419    113.5740   9.8831087922e+01   5.0572731521e+01    0.3228987    0.2248047  38.17 0.0009978153    1.402    0.287
       210 -10.3873    129.5666    207.0832   8.3201130502e+01   1.6096198560e+01    0.2701448    0.1550338  34.17 0.0009656586    1.417    0.294
       211 -10.6401    109.6799    206.1063   8.7301907661e+01   1.9129772465e+01    0.2410015    0.1577419  30.53 0.0008303512    1.332    0.249
       212  -8.6823    242.9299    130.0000   4.9681555549e+01   9.2368235964e+00    0.1743381    0.0660112  48.93 0.0008134624    3.019    0.669
       213 -11.9620     58.2015    167.3219   9.5456272029e+01   3.3980674691e+01     0.304532    0.2498974  36.76  0.001842265    1.203    0.169
       214 -10.7783      9.7045    104.7742   1.0496229497e+02   5.4448956959e+01    0.4109184    0.2759593 -70.00  0.001288823    1.394    0.283
       215 -11.4632     45.8548    165.9861   9.8683017027e+01   3.5825701623e+01     0.355891    0.1476135  39.68  0.001436832    1.936    0.483
       216  -9.1977     89.2692    109.6389   7.6944340178e+01   4.2634922655e+01    0.1564886    0.1141889  82.37  0.000375491    1.648    0.393
       217  -9.0731    104.8881    108.0918   7.1856232051e+01   3.9927574742e+01    0.1952042    0.1795664  16.78            0    1.256    0.204
       218 -10.3180     39.2307    112.5772   9.4717073177e+01   4.9641315834e+01    0.1824894    0.1393097  13.60 0.0007153005    1.610    0.379
       219 -10.9332    139.8577    105.8398   6.2128582438e+01   3.2909538413e+01    0.2348866    0.2145196  10.24  0.001252541    1.225    0.183
       220 -10.8277    111.8777    105.3123   6.9168242123e+01   3.9095987880e+01    0.2920933    0.2266138 -40.84  0.000681963    1.392    0.282
       221 -10.7291     62.2367    204.7092   9.7821063112e+01   2.5773844456e+01      0.27327    0.1896722  58.03 0.0007882979    1.247    0.198
       222  -9.5063    187.6917    105.6867   5.2511177953e+01   2.2583378425e+01    0.1396097    0.1052167   9.57 0.0002739402    1.626    0.385
       223 -10.2010    163.5020    109.9979   5.8044087872e+01   2.6972868466e+01    0.2208676    0.1395805 -37.91 0.0007716838    1.571    0.363
       224 -10.0909    120.5537    100.7578   6.5613144858e+01   3.8208121774e+01    0.2843344    0.2071681  48.76 0.0008873834    1.343    0.256
       225 -11.3625    238.7679    173.5040   5.8400892140e+01   4.7401525470e+00    0.2809896    0.1681221  10.92  0.001739797    1.714    0.417
       226 -10.6059     91.8619     96.5384   7.2881374499e+01   4.5216808144e+01    0.2527344    0.2089951 -43.04 0.0005860545    1.312    0.238
       227  -9.3332    202.6713     96.3247   4.7858748725e+01   2.0929792371e+01     0.137943    0.1000308 -61.43 0.0002539468    1.699    0.411
       228  -9.5762    111.4752     93.4544   6.6109385651e+01   4.1771446737e+01    0.3039758    0.1468883  50.99 0.0008041667    2.082    0.520
       229 -11.2242    174.6525     91.7594   5.1266067187e+01   2.7642959722e+01    0.2717861    0.2359514 -87.51 0.0006072023    1.309    0.236
       230 -10.3543    165.2010     90.5234   5.2678719102e+01   2.9994439631e+01    0.3560838    0.2244712   6.44   0.00130925    3.123    0.680
       231 -10.4649     92.7296     90.7026   7.1014090175e+01   4.6394721200e+01    0.3193162    0.1905791 -74.41  0.001182095    2.503    0.600
       232  -9.6997     49.5258     91.4691   8.6991964482e+01   5.3779937634e+01    0.1459372    0.1349182  89.27 9.811053e-05    1.016    0.015
       233 -11.2044    152.1804     85.1757   5.3781366633e+01   3.3970715786e+01    0.2982921     0.241107 -71.01 0.0009733936    1.389    0.280
       234  -9.7277    139.3010     89.6850   5.7887837340e+01   3.6174200935e+01    0.1554505     0.118775 -78.23 0.0003780158    1.614    0.380
       235 -10.2327    108.8022     87.3202   6.5113519789e+01   4.3691935078e+01    0.3296318    0.1371698  54.03  0.001099317    2.643    0.622
       236 -10.1133     17.5751     85.2342   9.9544060700e+01   5.8951806619e+01    0.2623374    0.1465498  37.86  0.001270106    1.778    0.438
       237  -9.6987    177.3442     82.6944   4.8375712289e+01   2.8502390556e+01    0.1500875    0.1085741 -68.49 0.0007041955    1.690    0.408
       238 -10.0199    120.2988     81.5176   6.0177205302e+01   4.2262705971e+01    0.2700477    0.2003114 -17.77  0.001183333    1.832    0.454
       239  -9.7019     45.8255     79.7771   8.5857982457e+01   5.7294239620e+01    0.2543772    0.1464065 -28.34 0.0009615186    2.896    0.655
       240 -11.1628    154.6913     77.3627   5.1009201829e+01   3.4743326439e+01    0.3509227    0.2436809  40.21  0.001615918    1.621    0.383
       241 -10.3731     10.9512     77.6726   1.0158220845e+02   6.1422110763e+01    0.3502543    0.1735334  43.88  0.001029086    2.022    0.505
       242 -11.0594    147.4594     72.2306   5.0926617167e+01   3.7407106536e+01    0.4595212    0.1538371 -33.87  0.001436676    3.156    0.683
       243 -10.1571     55.9986     73.9744   7.9895523247e+01   5.7235439133e+01    0.1823206    0.1647063 -70.90 0.0003922795    1.056    0.053
       244 -10.2162     33.9237     70.9617   8.9195498374e+01   6.1069269716e+01     0.216962    0.1966189  85.26 0.0004483689    1.063    0.060
       245 -10.0093     24.5517     67.5145   9.3074892008e+01   6.2956737789e+01    0.1383961     0.125039 -77.70  0.000259979    1.005    0.005
       246  -9.0593      1.7924     59.1663   1.0387637409e+02   6.6734726490e+01    0.1766476     0.131102 -51.02   0.00043431    1.315    0.239
       247  -9.0689    119.0413     56.9384   5.2304157315e+01   4.7295923556e+01    0.1868655    0.1775092 -84.11 0.0004211219    1.007    0.007
       248  -8.6893    125.3108     54.2827   4.9825504833e+01   4.6152878286e+01    0.1526847     0.121245  26.75 0.0002579614    1.569    0.363
       249 -10.8766    111.0176     43.8030   4.9349737105e+01   5.1633037883e+01    0.4330968    0.2474782 -36.33 0.0006590053    1.760    0.432
       250  -9.3161     88.3832     48.2102   5.7858742028e+01   5.6479479709e+01    0.2209982    0.1384676 -51.20 0.0009439766    1.672    0.402
       251  -8.8807    165.2775     46.6843   3.9724540401e+01   3.6918792394e+01    0.1551036    0.1031229 -59.80  0.000266123    1.569    0.363
       252  -9.1501     16.1635     46.1448   9.2619554230e+01   6.9126035719e+01    0.1852975    0.1478857  61.11  0.000588548    1.374    0.272
       253  -9.4101    101.0140     43.0295   5.1750018616e+01   5.4327890704e+01    0.2420672    0.1790972 -73.04 0.0003537922    1.611    0.379
       254  -8.5513      8.4875     43.4805   9.6932809827e+01   7.0349176460e+01    0.1304143    0.1166826 -70.02 0.0008101664    1.019    0.018
       255  -9.5645    206.2936     41.9889   3.3353945962e+01   2.7537504784e+01    0.1914854    0.1556206 -36.80 0.0003723045    1.103    0.094
       256  -9.5085    192.1989     34.4240   3.2657310172e+01   3.1768023607e+01    0.1850939    0.1261535 -83.39  0.000380492    1.562    0.360
       257 -10.4975    199.2004     28.9206   3.0418567514e+01   3.0729741763e+01    0.2143828    0.1893553  85.70 0.0002404695    1.187    0.157
       258  -9.2766    189.2923     23.9494   2.9881689360e+01   3.3691438475e+01    0.1933598    0.1611879 -46.78 0.0002733886    1.068    0.064
       259  -9.0562     67.4963     24.4943   5.4272888821e+01   6.5525569608e+01    0.1419767    0.1388252 -83.51 -8.583948e-05    1.058    0.055
       260  -9.5440     45.5637     24.4831   6.4797577788e+01   7.0057946670e+01    0.1359728    0.1308832 -25.15 0.0001415297    1.017    0.017
       261  -8.7954    230.7177     22.7203   2.6414352555e+01   2.4343231760e+01    0.1104576   0.09500214  18.36 0.0001964968    1.511    0.338
       262 -10.3559     79.8243     21.8909   4.8336443355e+01   6.2998700613e+01    0.2517418    0.1549256 -55.58 0.0007771731    1.964    0.491
       263 -10.2832     28.7672     19.4915   7.2567048098e+01   7.3796609643e+01    0.2279459    0.1932348 -57.37 0.0003572027    1.244    0.196
       264 -10.0235     14.6216     18.4409   8.3188848792e+01   7.5765760166e+01    0.2701363    0.1991872 -24.55  0.001453827    1.412    0.292
       265  -9.1891     88.3334     18.3038   4.3856245464e+01   6.1340574135e+01    0.1542185     0.107698  32.36 0.0005344177    1.661    0.398
       266  -9.6431     51.0009     15.9971   5.6687719165e+01   7.0468744742e+01    0.1730331    0.1547479 -27.79  0.001002571    1.109    0.098
       267  -9.1774     43.5089     15.4695   6.0397352543e+01   7.2044311645e+01    0.1333996    0.1285126  -6.42  0.000601809    1.026    0.026
       268  -8.7775     15.4407     14.4676   8.0249396255e+01   7.6527716018e+01    0.1283114    0.1128184 -33.30 0.0002683532    1.032    0.031
       269 -10.5818    156.9123    247.3538   8.2702170799e+01   6.8926074740e+00    0.1570946    0.1362771  31.85 0.0008252193    1.303    0.233
       270  -9.8215    112.7640    246.4626   9.0769735486e+01   1.2541896177e+01    0.2121887    0.1623794 -76.56 0.0008134795    1.890    0.471
