#   1 NUMBER                 Running object number                                     
#   2 MAG_AUTO               Kron-like elliptical aperture magnitude                    [mag]
#   3 X_IMAGE                Object position along x                                    [pixel]
#   4 Y_IMAGE                Object position along y                                    [pixel]
#   5 X_WORLD                Barycenter position along world x axis                     [deg]
#   6 Y_WORLD                Barycenter position along world y axis                     [deg]
#   7 A_WORLD                Profile RMS along major axis (world units)                 [deg]
#   8 B_WORLD                Profile RMS along minor axis (world units)                 [deg]
#   9 THETA_WORLD            Position angle (CCW/world-x)                               [deg]
#  10 FWHM_WORLD             FWHM assuming a gaussian core                              [deg]
#  11 ELONGATION             A_IMAGE/B_IMAGE                                           
#  12 ELLIPTICITY            1 - B_IMAGE/A_IMAGE                                       
         1 -14.5267    237.9845     41.0934   3.8555381025e+01   2.1837055273e+01     1.804744    0.3030074 -35.81  0.005787245    4.552    0.780
         2 -14.3911    246.8078     46.2385   3.8822196475e+01   1.9330132353e+01     2.105695     1.154681 -18.25   0.00925953    3.223    0.690
         3 -13.9490    243.1310     24.4160   3.4580253227e+01   2.2875746976e+01     1.537705    0.4295154 -41.03  0.006630031    2.721    0.632
         4 -13.4229    249.5460     15.8541   3.2372307639e+01   2.2580662829e+01     2.018321    0.4705833 -40.99  0.008593684    2.995    0.666
         5 -12.3056    246.4675     34.0431   3.6300941806e+01   2.1000005280e+01     0.674785    0.3650539 -42.65  0.003263193    1.571    0.363
         6  -9.2359    160.6534      8.6828   3.9006930821e+01   4.3463857496e+01    0.1358299   0.08700486  43.37 0.0007048408    1.724    0.420
         7  -9.8109    189.6990      6.9876   3.5315804832e+01   3.6672627587e+01     0.171347    0.1456109 -61.06 0.0005425668    1.147    0.128
         8  -9.6502    110.6598      5.1880   4.5856809599e+01   5.5699012735e+01    0.1610718    0.1157391   4.18 0.0003486899    1.615    0.381
         9  -9.7208    153.5250      3.9961   3.8564616550e+01   4.5607784520e+01    0.1766958    0.1258572 -30.23  0.001023079    1.579    0.367
        10  -9.5728    139.6731      9.2843   4.2141800017e+01   4.8493451493e+01    0.1309825   0.09301937 -73.89 0.0002084914    1.605    0.377
        11  -9.7708     50.8138      3.2845   6.1906127871e+01   6.8066556990e+01     0.164452    0.1109877  17.45 0.0004267417    1.317    0.241
        12 -10.3654    193.2105    238.4038   8.7534413100e+01  -2.8084665760e+00    0.2549026    0.1763787  58.85  0.001352937    2.370    0.578
        13 -10.8056    194.1204    249.5433   8.9079098082e+01  -4.5585373564e+00    0.2157274    0.1899599  46.43  0.001487206    1.473    0.321
        14 -10.3840    189.5827    234.7998   8.7666567563e+01  -1.7157676455e+00    0.2390812    0.1635675 -52.83  0.001344201    1.995    0.499
        15  -9.4881    244.5070    236.5011   7.7841322071e+01  -9.6644844189e+00    0.1175082   0.09022897   0.86   0.00081059    1.018    0.017
        16 -10.4676    216.3447    234.5180   8.2530876535e+01  -5.6140868615e+00    0.2283194    0.1976929  29.39  0.001561994    1.339    0.253
        17 -10.5321    203.5396    232.9342   8.4671567009e+01  -3.5296734632e+00    0.2110505    0.1584129  40.83 0.0004087418    1.460    0.315
        18 -10.1334    235.7381    229.8635   7.8244293019e+01  -7.6466885170e+00     0.203734    0.1595679 -40.05  0.001279391    1.647    0.393
        19  -9.8077    229.8444    228.7822   7.9106998934e+01  -6.6974549341e+00    0.1497935    0.1387534   1.98 0.0007933013    1.370    0.270
        20  -9.9268    185.0058    228.0060   8.7473086953e+01   6.0317878987e-02    0.1857884    0.1577551  64.50   0.00101425    1.661    0.398
        21 -10.2721    199.2231    227.0706   8.4527388190e+01  -1.9936125841e+00    0.1803995    0.1535293 -75.79  0.001074414    1.971    0.493
        22 -10.4426    206.0192    225.5394   8.2962829789e+01  -2.7889614848e+00    0.2241458    0.1765501 -49.08  0.001363066    1.680    0.405
        23  -9.9859    190.5201    225.9756   8.6045908877e+01  -4.7772055940e-01    0.1823242    0.1238013 -37.89 0.0009749779    1.579    0.367
        24 -10.1205    217.3439    223.3994   8.0462377440e+01  -4.1499929000e+00    0.2208214    0.1507445 -56.37  0.001163711    2.473    0.596
        25 -10.8097    241.4282    222.1705   7.5917881561e+01  -7.3592793142e+00     0.307008    0.2490066  52.11  0.001955147    2.012    0.503
        26 -10.5671    248.4914    218.5755   7.4071983184e+01  -7.8064242676e+00    0.2708337     0.213145  45.65  0.001754084    1.869    0.465
        27 -10.7883    226.7038    213.6604   7.7022186390e+01  -4.0713232951e+00    0.4097202    0.2331213 -54.26  0.001845251    3.233    0.691
        28 -10.5218    193.5296    219.3584   8.4333271584e+01   1.1511750637e-01    0.2549332    0.2163642  88.73  0.001242394    1.957    0.489
        29  -9.1861    138.3099    214.6872   9.5115182236e+01   1.0091518737e+01    0.1363026    0.1019787  66.66 0.0003359181    1.628    0.386
        30 -10.7130    217.3839    212.2034   7.8477310026e+01  -2.4591488525e+00    0.1761366    0.1152414 -43.78 0.0009613757    1.746    0.427
        31  -9.8647    220.1794    217.4045   7.8886921010e+01  -3.6726997095e+00    0.1671257    0.1111766  40.71 0.0008157053    1.648    0.393
        32  -9.5193    193.3244    210.6496   8.2850611789e+01   1.5917178409e+00    0.1249138    0.1080928  77.35 0.0006905267    1.754    0.430
        33 -10.0028    247.7111    207.5851   7.2227926863e+01  -6.1637273310e+00    0.1910471    0.1376269 -43.72 0.0008374827    1.720    0.419
        34 -10.1160    206.4858    207.9818   7.9783303845e+01  -9.0326272820e-02    0.1690556    0.1169943 -62.79 0.0008102955    2.544    0.607
        35  -9.8056    217.4755    204.9313   7.7132273927e+01  -1.3298103634e+00    0.1925382    0.1187691 -35.05  0.001012051    1.570    0.363
        36  -9.3264    171.6734    208.3040   8.6878647657e+01   5.6251208943e+00    0.1315483    0.1074276  67.65 0.0007033712    1.646    0.392
        37  -9.9387    197.4827    204.0280   8.0823818541e+01   2.0324439184e+00    0.2016757    0.1273177 -38.31  0.001037395    1.605    0.377
        38  -9.8705    187.3991    203.1923   8.2701952678e+01   3.8667864225e+00    0.1865156    0.1286447 -52.84 0.0009496465    1.782    0.439
        39  -9.5425    173.2549    203.6386   8.5721297390e+01   6.2094178841e+00    0.1282092    0.1103714  88.98 0.0003105949    1.621    0.383
        40  -9.6017    250.5666    201.7956   7.0682017775e+01  -5.7233930834e+00    0.1569955     0.104252 -37.60 0.0005767871    1.518    0.341
        41 -10.1264    244.0012    202.0076   7.1832511819e+01  -4.8347633640e+00    0.1720608    0.1608229 -64.90  0.001145028    1.707    0.414
        42 -10.7434    228.8459    201.3774   7.4379968589e+01  -2.5159104419e+00    0.2165126    0.1614133 -36.19   0.00129156    1.373    0.272
        43 -10.8642    231.1433    194.1489   7.2599976695e+01  -1.7321815397e+00    0.4497671    0.1441113 -36.71   0.00174917    2.930    0.659
        44 -10.0431    202.1550    197.1762   7.8621545691e+01   2.4306427780e+00    0.1743754    0.1671414 -61.31 0.0007340514    1.361    0.265
        45  -9.3305    176.3004    197.6165   8.3983371638e+01   6.7972148450e+00    0.1360434    0.1126459  85.39 0.0007020292    1.778    0.437
        46 -10.5098    246.7857    193.4981   6.9761341400e+01  -3.9634861861e+00    0.2658926    0.1877158 -65.01  0.001290329    3.124    0.680
        47  -9.3286    209.6376    194.7061   7.6695544437e+01   1.6088027564e+00    0.1414522   0.09607288   2.68 0.0007030116    1.706    0.414
        48 -10.4947    224.5615    192.7747   7.3525531626e+01  -4.8546033811e-01    0.1755902    0.1178875 -43.29 0.0005213015    1.601    0.375
        49  -9.6977    241.5076    191.5242   7.0282705478e+01  -2.8892600380e+00    0.1272119    0.1072406 -12.88 0.0008094789    1.058    0.054
        50  -9.9863    199.0000    191.0028   7.8064550806e+01   4.0460645962e+00    0.2201321   0.07523245 -41.76 0.0007977323    2.910    0.656
        51  -9.3596    185.6523    190.3139   8.0645771862e+01   6.5062210406e+00    0.1355407    0.1137087  77.80 0.0007046965    1.719    0.418
        52 -10.0201    236.9125    187.1365   7.0230625347e+01  -1.5081382878e+00    0.1894064    0.1712335 -28.67 0.0009034126    1.255    0.203
        53  -9.8307    215.3549    187.1290   7.4136925578e+01   1.9481112471e+00     0.188743    0.1181246 -46.21 0.0007592381    1.754    0.430
        54 -10.2599    223.9303    183.6975   7.1869672667e+01   1.1118029431e+00     0.263333    0.1656578 -49.58  0.001214317    1.917    0.478
        55 -10.3365    197.5143    182.5100   7.6691942536e+01   5.8367832041e+00     0.281686    0.1326062 -41.31  0.000931196    2.090    0.521
        56 -10.3385    241.7013    181.5382   6.8313598459e+01  -1.3560444930e+00     0.245821    0.1883779 -54.33  0.001409258    1.777    0.437
        57  -9.4177    183.3080    182.6605   7.9638968438e+01   8.3713017691e+00    0.1375847    0.1163234  89.10 0.0007043145    1.684    0.406
        58  -9.6597    235.6213    180.8620   6.9225435620e+01  -3.0076488709e-01    0.1852167    0.1110503 -43.92 0.0009421394    1.732    0.423
        59 -10.1772    227.0183    176.8369   6.9941847490e+01   1.7550059503e+00    0.3804851    0.1669628 -20.08  0.001117823    5.181    0.807
        60 -10.3263    210.4768    182.9931   7.4246098917e+01   3.4861551948e+00    0.2124785    0.1267083 -37.71  0.001036056    1.602    0.376
        61  -9.8944    197.6541    176.5485   7.5460509046e+01   6.9096907525e+00    0.2448472    0.1272792 -41.31 0.0009612734    1.878    0.468
        62  -9.6180    169.3225    177.6795   8.1651399588e+01   1.1949602213e+01    0.1438436    0.1181161  82.11 0.0003723162    1.674    0.403
        63  -9.8689    210.6160    175.7904   7.2767378751e+01   4.7341061792e+00    0.1966736     0.123822 -46.61 0.0009502989    1.690    0.408
        64  -9.8910    223.6270    172.8078   6.9736627299e+01   3.0088058850e+00    0.2010668    0.1166908 -46.18 0.0009540062    1.823    0.451
        65  -9.7655    228.1479    171.8959   6.8739674877e+01   2.4022083189e+00    0.2073857    0.1499432 -59.65  0.001056962    1.986    0.496
        66  -9.5807    187.7029    172.3475   7.6628335845e+01   9.5411121622e+00    0.1400943    0.1172652 -82.27 0.0007034599    1.678    0.404
        67  -9.3695    197.6767    170.2948   7.4165757476e+01   8.0734622177e+00    0.1345753     0.116261 -88.37 0.0007019307    1.619    0.382
        68 -10.7504    245.8552    168.5984   6.5047859460e+01   6.9362679490e-02    0.2674703    0.1689005 -39.81  0.001451781    1.459    0.315
        69 -10.2905    218.9632    168.5030   6.9702567393e+01   4.5615999140e+00     0.268924    0.1864109 -49.62  0.001378084    1.617    0.382
        70  -9.7173    212.1566    169.1594   7.1108622913e+01   5.6481866031e+00    0.1889088    0.1616369 -52.50  0.001061942    1.359    0.264
        71 -10.5342    191.4880    165.4641   7.4402846065e+01   1.0156517532e+01    0.3044485     0.138097 -42.37  0.001200991    2.144    0.533
        72 -10.4879    240.8638    164.2258   6.4985914203e+01   1.5837778425e+00    0.3013615    0.1676185 -48.25  0.001437227    2.007    0.502
        73 -10.4085    213.0706    163.2242   6.9691858829e+01   6.5547462353e+00    0.3203029    0.1892107 -42.56  0.001514962    1.627    0.385
        74  -9.4581    199.4794    164.4972   7.2585389708e+01   8.8299307153e+00    0.1430627    0.1331011 -16.46 0.0001780199    1.031    0.030
        75 -10.3596    245.7637    157.4748   6.2801461569e+01   1.8975180161e+00    0.3046053    0.1548111 -38.13  0.001323995    1.702    0.412
        76 -10.6633    205.4872    161.4767   7.0764290443e+01   8.2715409142e+00    0.3101025     0.132862 -40.54   0.00122172    2.204    0.546
        77 -10.4540    237.4801    158.6452   6.4401044249e+01   3.0768191645e+00    0.2658027     0.204275 -45.37  0.001092769    1.344    0.256
        78 -10.2760    197.3036    157.4062   7.1492974979e+01   1.0594582314e+01    0.2974512    0.1774645 -43.52  0.001348087    1.628    0.386
        79  -9.9233    216.5894    156.3100   6.7566388448e+01   7.1641452493e+00    0.2726254    0.1245214 -43.15  0.001123311    2.080    0.519
        80  -9.6435    187.6329    155.2071   7.2977850099e+01   1.2915295289e+01    0.2172393    0.1327837 -32.11 0.0009474657    1.699    0.411
        81 -10.0343    233.6037    153.8604   6.4051159088e+01   4.5546917500e+00    0.2737317    0.1544831 -48.56  0.001278494    1.903    0.475
        82  -9.9771    241.7094    153.0587   6.2541951791e+01   3.3035308437e+00    0.1978646    0.1496401 -31.66 0.0009931125    1.138    0.121
        83  -9.7252    205.5249    153.5018   6.9032027662e+01   9.7559727659e+00    0.1446906    0.1321077 -19.79 0.0008101555    1.007    0.007
        84  -9.8110    221.4720    151.9818   6.5753524848e+01   7.0481044550e+00    0.2178648    0.1261499 -38.47  0.001022868    1.566    0.361
        85  -9.5429    202.5251    151.4860   6.9167628707e+01   1.0714807643e+01    0.1454758    0.1339369 -21.00 0.0008099895    1.002    0.002
        86 -10.3868    244.5395    149.7199   6.1391585332e+01   3.3853748328e+00    0.2613207     0.200376 -47.86  0.001508554    1.358    0.264
        87 -11.5166    235.4885    147.2207   6.2329643787e+01   5.3662756940e+00    0.4164999    0.2858768 -48.37  0.001420841    1.497    0.332
        88 -10.1280    223.9803    146.7948   6.4189424621e+01   7.5139394168e+00    0.2563545    0.1717734 -50.52   0.00127394    1.596    0.374
        89  -9.8655    207.6301    145.1954   6.6796383359e+01   1.0909311127e+01    0.2152684    0.1275105 -30.80 0.0009529546    1.707    0.414
        90  -9.4713    200.6592    145.3106   6.8153582059e+01   1.2259954724e+01    0.1448902    0.1171005 -79.14 0.0006321457    1.694    0.410
        91  -9.2537    219.3116    144.6315   6.4537872339e+01   8.7723726994e+00    0.1430441    0.1087287 -66.81 0.0007036609    1.768    0.434
        92  -9.5058    214.4694    142.9529   6.5035077145e+01   1.0000696783e+01    0.2045619    0.1153513 -57.78 0.0008092602    2.517    0.603
        93 -10.2080    147.7516    142.9751   7.9166402826e+01   2.3663368816e+01     0.211306    0.1311088 -45.69 0.0008880756    1.594    0.373
        94  -9.6558    215.5918    148.8296   6.6127307533e+01   8.7096314580e+00    0.2108093    0.1232369 -48.16 0.0009504477    1.768    0.434
        95  -9.9250    181.9894    141.9816   7.1170905162e+01   1.6716456428e+01    0.2725844     0.156153 -60.92  0.001014711    2.555    0.609
        96 -10.7286    243.5359    140.9792   5.9712165041e+01   5.0220308754e+00    0.2924554    0.1709018 -41.93  0.001228072    1.516    0.340
        97 -10.8209    242.3473    133.9376   5.8395983726e+01   6.4200802696e+00    0.4579319    0.1548062 -44.05  0.001716094    2.723    0.633
        98  -9.7346    224.1612    139.8149   6.2631895563e+01   8.7261459482e+00    0.1951756    0.1549743 -15.42 0.0006637234    1.311    0.237
        99  -9.9601    218.5243    137.9648   6.3200624235e+01   1.0132172496e+01    0.2247685    0.1288801 -38.57  0.001028089    1.579    0.367
       100 -10.7157    234.9074    136.0023   6.0012160291e+01   7.4066691672e+00    0.3074451    0.1618281 -50.33  0.001357878    2.063    0.515
       101  -9.8739    188.0000    135.9677   6.8524766458e+01   1.6671115106e+01    0.2526197   0.08245347 -41.44 0.0007990219    2.919    0.657
       102  -9.2941    155.5249    135.4997   7.5545968970e+01   2.3674829409e+01     0.154354    0.1513594 -49.72 0.0002307503    1.023    0.022
       103 -10.0941    179.5160    132.5130   6.9466164701e+01   1.9162551584e+01    0.1518764    0.1458055 -43.64 1.626738e-05    1.034    0.033
       104  -9.4422    198.3041    131.6701   6.5478832414e+01   1.5363107337e+01    0.1489039    0.1158201 -71.82 0.0004350109    1.653    0.395
       105  -9.9124    225.4783    133.4987   6.1011714035e+01   9.6036212464e+00    0.2506067    0.1168283 -47.15  0.001023159    2.141    0.533
       106 -10.8216    248.8611    130.1248   5.6603218668e+01   5.9112207271e+00    0.3017513     0.208155  56.38  0.001662063    1.804    0.446
       107  -9.7066    192.3636    129.2034   6.6053987961e+01   1.7087293885e+01    0.2227193    0.1312327 -49.07 0.0008507622    1.723    0.420
       108  -9.5285    211.7037    128.3559   6.2229587638e+01   1.3241544609e+01    0.1478451    0.1097594 -66.29 0.0004969935    1.696    0.410
       109 -11.1700    240.7606    126.0919   5.6945694394e+01   8.0373580995e+00    0.4416147    0.1719089 -40.86  0.001804238    2.199    0.545
       110 -10.0779    227.6034    124.8146   5.8723833019e+01   1.0734383562e+01    0.2096582    0.1162382 -46.66 0.0009499737    1.709    0.415
       111 -10.1986    179.5561    124.2730   6.7463374748e+01   2.0822598140e+01    0.3052157     0.141931 -45.42  0.001140305    2.099    0.524
       112  -9.3428    164.6685    124.3335   7.0706376993e+01   2.4079054434e+01    0.1606089    0.1242148 -82.40  0.000705219    1.728    0.421
       113 -10.3248    235.4903    122.9556   5.7064527785e+01   9.5523113656e+00    0.2165165    0.1202825 -39.10 0.0009858923    1.563    0.360
       114  -9.5095    188.3154    122.6858   6.5290606030e+01   1.9231590979e+01    0.1523451    0.1185861 -75.59  0.000609319    1.643    0.391
       115  -9.7520    194.3938    121.1786   6.3737845590e+01   1.8212071387e+01     0.220575    0.1318831 -48.97 0.0009477568    1.677    0.404
       116 -10.0099    231.5163    120.0150   5.7028150773e+01   1.0818289024e+01    0.2157768    0.1220123 -39.85  0.000709569    1.547    0.354
       117 -10.1500    248.3033    118.8931   5.4286974160e+01   7.8746180882e+00    0.2241538    0.1442894 -48.97  0.001181098    1.460    0.315
       118  -9.5793    209.3500    118.2326   6.0288364018e+01   1.5594034026e+01    0.2085155    0.1231735 -46.57 0.0005247362    1.612    0.380
       119  -8.9965    173.6605    114.2940   6.6212633321e+01   2.4136893137e+01    0.1560928    0.1217898 -82.22 0.0007028771    1.652    0.395
       120  -9.7356    247.6171    112.7550   5.3062552104e+01   9.0144363168e+00    0.1924088    0.1060527 -44.80 0.0005556645    1.578    0.366
       121  -9.6548    195.0000    113.0312   6.1641208198e+01   1.9637016548e+01     0.252884   0.08104257 -39.49 0.0008012638    2.934    0.659
       122 -10.4858    218.5041    109.5061   5.6697054648e+01   1.5265463048e+01    0.3327131     0.154793 -44.46   0.00106067    1.967    0.492
       123  -9.4895    201.4559    109.4818   5.9592415242e+01   1.8892095098e+01    0.1476802    0.1367078 -45.98  8.78991e-05    1.006    0.006
       124  -9.5098    189.6915    108.3434   6.1484191376e+01   2.1700137292e+01    0.1564049    0.1151885 -70.86 0.0007044025    1.695    0.410
       125  -9.7534    222.4552    105.0147   5.5025052166e+01   1.5236479423e+01    0.2270338    0.1259964 -39.57 0.0007229876    1.608    0.378
       126  -9.6016    205.6307    104.8287   5.7730934202e+01   1.8835365430e+01    0.2167608    0.1233452 -47.38 0.0007095644    1.683    0.406
       127  -9.2511      7.4997    105.4837   1.1322003300e+02   5.3440955576e+01    0.1268672    0.1028404 -67.34 8.680754e-07    1.021    0.020
       128 -10.4804    229.8228    102.5862   5.3351481747e+01   1.4149794051e+01    0.2884326    0.1753007 -44.45  0.001117642    1.456    0.313
       129  -9.3856    200.6981    103.3041   5.8216015037e+01   2.0192252868e+01    0.1487854    0.1109964 -69.89 0.0003692908    1.593    0.372
       130  -9.9965    141.2315    103.2272   7.0724192817e+01   3.3755133919e+01    0.2579706    0.1199699 -52.08 0.0008858654    2.467    0.595
       131  -9.2875    209.3107     99.6486   5.5858221569e+01   1.8962221400e+01    0.1527385     0.106136 -66.55 0.0007044793    1.721    0.419
       132 -10.1438    221.4243     97.7677   5.3495003348e+01   1.6700779483e+01    0.2648665       0.1214 -41.32 0.0007812791    1.930    0.482
       133  -9.4035    202.6783     98.3102   5.6643800670e+01   2.0655864396e+01    0.1506855    0.1096273 -70.42  0.000703658    1.648    0.393
       134 -10.0011    194.9562     97.5279   5.7796735979e+01   2.2525060783e+01    0.2723046    0.1836844 -57.52  0.001253093    1.601    0.375
       135 -10.9476    244.6095     97.2561   5.0100426322e+01   1.2118400386e+01    0.1876538    0.1152405 -31.04 0.0006072263    1.593    0.372
       136  -9.4530    241.2705     97.6179   5.0624205048e+01   1.2705910755e+01    0.1427255   0.09019201 -58.75 0.0005686087    1.699    0.411
       137  -9.4679    176.2244     96.9833   6.1196681446e+01   2.6924703653e+01    0.1996989    0.1217465 -40.05   0.00044412    1.587    0.370
       138  -9.4057    135.7132     97.3515   7.0473219590e+01   3.6215170921e+01    0.1589339    0.1231864 -77.06 0.0006349503    1.664    0.399
       139 -11.3366    236.5114     89.9732   4.9559273945e+01   1.4894152054e+01     0.405789    0.1824174 -36.12  0.001275594    2.016    0.504
       140 -12.1706    234.7196     85.4516   4.8779022073e+01   1.5987293026e+01    0.4762739    0.2253582 -28.03  0.001943286    2.550    0.608
       141 -11.3952    235.0571     95.0473   5.0897134423e+01   1.4357042443e+01     0.397077    0.2299823 -56.25  0.001454889    1.837    0.456
       142 -11.4296    231.4801     90.5606   5.0374261044e+01   1.5820971778e+01    0.3743126    0.2031057 -40.69  0.001118357    1.607    0.378
       143  -9.3483    206.6993     94.3217   5.4992453659e+01   2.0471414102e+01    0.1494687    0.1063338 -67.11 0.0005950911    1.628    0.386
       144  -9.5892    164.4880     93.9777   6.2813595731e+01   3.0237062091e+01    0.2277869     0.123974 -59.46 0.0008103234    2.555    0.609
       145 -10.5114    242.1985     92.6176   4.9397536674e+01   1.3336632282e+01    0.2648517    0.1628211 -40.76  0.001162059    1.391    0.281
       146  -9.9193    171.5298     90.9075   6.0519419434e+01   2.9159995677e+01    0.2338891    0.1458845 -40.42 0.0009602929    1.561    0.359
       147  -9.6793    157.7746     89.9843   6.3164922364e+01   3.2576475870e+01    0.2100055    0.1252145 -39.21 0.0008769762    1.663    0.399
       148 -10.1078     25.1215     90.1464   1.0435230772e+02   5.5819628831e+01    0.1981988    0.1489704 -41.71 0.0003633889    1.196    0.164
       149 -11.7372    249.1926     87.9033   4.7486483763e+01   1.2730915021e+01    0.2742474    0.1644892 -46.89 0.0007834708    1.419    0.295
       150 -12.2478    243.0904     82.6734   4.7095088194e+01   1.4742406136e+01    0.3231054    0.1909078 -54.06 0.0008384821    1.606    0.377
       151  -9.8349    226.2117     87.9127   5.0499583495e+01   1.7349654702e+01    0.1905844   0.09986363 -39.84 0.0006883087    1.689    0.408
       152  -9.6428    151.0000     88.0017   6.4122911913e+01   3.4548257434e+01    0.2567755   0.08677316 -39.30 0.0008025321    2.943    0.660
       153  -9.6087    164.0000     86.9745   6.0992054394e+01   3.1668418337e+01    0.2513984   0.08549967 -38.37 0.0007970876    2.905    0.656
       154 -13.9339    239.1318     74.1013   4.5682738530e+01   1.6868689662e+01     1.237306    0.4837419 -36.20  0.005192854    2.307    0.566
       155  -9.8465    224.4302    248.2798   8.3290769998e+01  -8.5769403345e+00    0.1405603    0.1062983 -35.28  0.000941671    1.594    0.372
       156 -13.4992    247.6018     75.3758   4.4969518116e+01   1.4977011156e+01       1.6017    0.4357728 -35.88  0.005709825    3.298    0.697
       157 -12.0733    249.7896     53.8344   4.0138545911e+01   1.7687025369e+01     1.076862    0.1959766 -36.31   0.00347188    4.398    0.773
       158  -9.7835    210.7917    248.0193   8.5728607304e+01  -6.6998974708e+00    0.1641225    0.1225913  42.28  0.001049247    1.601    0.375
       159 -10.4616    175.8295    246.8476   9.2198393794e+01  -1.4742253167e+00    0.1665557    0.1394458  46.07  0.001088322    1.342    0.255
       160  -9.8009    170.5045     83.5122   5.8712424746e+01   3.0752677854e+01    0.1511513    0.1430705 -71.78 0.0008102899    1.036    0.035
       161 -10.1544    225.5684     81.7699   4.9163488769e+01   1.8486764478e+01    0.2012129    0.1116473 -47.96 0.0008430511    1.638    0.389
       162  -9.3260    200.3343     82.6995   5.3146634812e+01   2.3905250696e+01    0.1506991    0.1066115 -71.19 0.0003975536    1.655    0.396
       163  -9.7226    150.5077     79.4962   6.1784456852e+01   3.6248216837e+01    0.1510077    0.1465055 -82.10 0.0008104407    1.031    0.030
       164  -9.9755    174.5532     77.2998   5.6228752387e+01   3.0877743993e+01    0.2851627    0.1363988 -41.50 0.0008593703    2.019    0.505
       165  -9.5995    167.0000     78.0169   5.7886412709e+01   3.2564312955e+01    0.2499812   0.08431005 -36.97  0.000803522    2.950    0.661
       166  -9.8151    211.3721     76.2290   4.9848426231e+01   2.2479387144e+01    0.2051755    0.1166848 -46.02 0.0008921458    1.614    0.381
       167 -10.6866    157.5957     75.3298   5.9042423586e+01   3.5294818003e+01     0.297699    0.1379033 -41.48  0.001137814    2.131    0.531
       168 -11.0942    195.8345     72.1816   5.1194921588e+01   2.6689662512e+01    0.3443843    0.1947398 -41.53  0.001089211    1.662    0.398
       169 -10.0345    214.4106     70.1950   4.7956269341e+01   2.2760372160e+01    0.2061832    0.1117083 -48.14 0.0008672213    1.712    0.416
       170 -10.0693    203.4812     66.5028   4.8595713046e+01   2.5817404512e+01    0.2651297    0.1079252 -46.04  0.001028065    2.333    0.571
       171  -9.5644    218.7008    248.3598   8.4336013131e+01  -7.8236337291e+00    0.1006247   0.09388112  51.26 0.0007035416    1.713    0.416
       172 -10.0549    202.4773    242.9863   8.6489640024e+01  -4.8327519283e+00    0.1452661    0.1109461 -67.76 0.0008100739    2.563    0.610
       173  -9.8998    218.4868     68.4647   4.6991230767e+01   2.2124746654e+01    0.2570772    0.1021796 -46.25  0.001021249    2.306    0.566
       174  -9.1692    208.3017     63.6518   4.7205950631e+01   2.5150937778e+01    0.1494012   0.09587725 -64.65 0.0004661253    1.690    0.408
       175  -9.5816    221.8459     71.0127   4.7149279150e+01   2.0993281825e+01    0.2359547     0.125887 -55.97 0.0007749354    1.957    0.489
       176  -9.9254    158.0000     61.9529   5.5065140579e+01   3.7430496290e+01     0.237107   0.08345029 -34.65 0.0007522614    2.908    0.656
       177  -9.5501    221.3174     59.6829   4.4557360165e+01   2.2826145723e+01    0.1435018   0.09107505 -65.50 0.0004922218    1.654    0.395
       178 -10.0204    206.5781     58.7684   4.6237990309e+01   2.6281395938e+01     0.258268    0.1327679 -31.35  0.001132021    2.056    0.514
       179  -9.7392    153.0000     59.0409   5.5197581855e+01   3.9107539152e+01     0.233397   0.08345022 -34.22 0.0007440211    2.884    0.653
       180 -11.9043    226.9671     56.5277   4.3152940295e+01   2.2052414400e+01    0.2994649    0.1916198 -34.92  0.001230275    1.536    0.349
       181 -13.1380    232.0430     48.4994   4.0777347609e+01   2.2093689675e+01    0.6425827    0.2615102 -30.22  0.002670643    2.749    0.636
       182 -10.7985    228.4718     37.0993   3.8597211458e+01   2.4388603771e+01    0.1904361    0.1131858 -39.08 0.0007958416    1.562    0.360
       183 -10.5796    226.6780     29.9041   3.7167724106e+01   2.5690546892e+01     0.231332    0.1173292 -25.61 0.0009976747    2.463    0.594
       184 -10.0794    125.8631     30.1308   5.1571149423e+01   4.9653060924e+01    0.2076039    0.1852264 -74.06  0.001020874    1.258    0.205
       185 -12.1183    230.4300     27.8313   3.6369793649e+01   2.5133767517e+01     0.385156    0.1182955 -49.77  0.001542611    2.924    0.658
       186 -10.3228    209.9642     25.9934   3.7897708984e+01   2.9896923638e+01    0.2074252    0.1277336 -66.97 0.0004157721    1.589    0.371
       187 -10.0878     30.2969     28.3929   8.3061728630e+01   6.7792152066e+01    0.1460907     0.106584  27.57 0.0004637418    1.465    0.317
       188  -9.5707     68.4848     24.4982   6.5267166610e+01   6.2597301050e+01    0.1284147    0.1110475  14.18 0.0002246207    1.033    0.032
       189 -11.7316    234.1487     19.6880   3.4304705453e+01   2.5312717021e+01    0.2764969    0.1364273 -63.84  0.001401416    1.963    0.491
       190  -9.1981    147.6827     20.3382   4.4331779003e+01   4.5473044274e+01    0.1400177   0.09580493 -68.31  0.000704874    1.704    0.413
       191  -9.3377     23.5038     15.4931   8.0594194930e+01   7.0517271482e+01     0.118758   0.09065782  -8.29 -1.300476e-05    1.018    0.017
       192 -11.5272    230.0582     80.3588   4.8235192941e+01   1.7766181191e+01    0.6087868     0.191439 -46.50  0.002178128    2.955    0.662
       193 -10.2016    183.7971    240.4458   8.9681136440e+01  -1.7025096608e+00    0.3182361    0.1885163  60.72  0.001345564    3.676    0.728
       194  -9.5505    220.1726    240.3964   8.2793907818e+01  -6.9617000507e+00    0.1568276   0.09975353  38.16 0.0009295312    1.627    0.386
       195  -9.4256    176.3146    239.6525   9.1031599025e+01  -4.4035526419e-01    0.1194156   0.09644378  62.66 0.0007047285    1.720    0.419
       196 -10.5084    231.1736    237.3284   8.0309322203e+01  -8.0385197907e+00    0.2471344    0.1953088  63.48  0.001440854    2.693    0.629
       197 -10.3434    207.3259    237.5343   8.4706160025e+01  -4.7535486926e+00    0.2403158    0.1887577  55.49  0.001460064    1.934    0.483
