#   1 NUMBER                 Running object number                                     
#   2 MAG_AUTO               Kron-like elliptical aperture magnitude                    [mag]
#   3 X_IMAGE                Object position along x                                    [pixel]
#   4 Y_IMAGE                Object position along y                                    [pixel]
#   5 X_WORLD                Barycenter position along world x axis                     [deg]
#   6 Y_WORLD                Barycenter position along world y axis                     [deg]
#   7 A_WORLD                Profile RMS along major axis (world units)                 [deg]
#   8 B_WORLD                Profile RMS along minor axis (world units)                 [deg]
#   9 THETA_WORLD            Position angle (CCW/world-x)                               [deg]
#  10 FWHM_WORLD             FWHM assuming a gaussian core                              [deg]
#  11 ELONGATION             A_IMAGE/B_IMAGE                                           
#  12 ELLIPTICITY            1 - B_IMAGE/A_IMAGE                                       
         1 -10.6944     37.1932      9.4622   1.0001466964e+02   6.9609290386e+01    0.8217024    0.3575637 -41.77  0.002350862    2.556    0.609
         2 -10.6869     20.1934      7.1672   1.0738707422e+02   7.1921504014e+01     1.369648     1.066271 -73.37  0.007968358    3.220    0.689
         3 -10.3831     10.0484     18.8659   1.1807095507e+02   7.0984995079e+01     1.272964    0.4542822 -23.25  0.004344784    5.867    0.830
         4  -9.4648      2.3378     14.5900   1.2053639587e+02   7.2230622493e+01    0.4016235    0.2189375 -65.52  0.002057736    2.756    0.637
         5 -10.4173      5.0160      4.6372   1.1466229783e+02   7.3643301578e+01    0.4401147    0.3328197 -16.50  0.001403106    1.069    0.064
         6 -10.5396     23.4974     34.3851   1.1727938686e+02   6.7180744252e+01    0.8099731    0.4164047 -37.38   0.00269943    1.647    0.393
         7 -10.1852      4.4876     41.9358   1.2846537536e+02   6.7116722482e+01    0.8561205    0.2925116 -63.43  0.003699919    2.699    0.630
         8 -10.4643     89.4084     38.2971   9.2581612925e+01   5.6901756421e+01    0.9662536    0.3708815  34.73  0.003348269    3.399    0.706
         9 -10.6846    133.9459     30.9943   7.8051335525e+01   4.7777217246e+01    0.4983104    0.3077751  -4.08            0    2.222    0.550
        10 -10.4932     35.8699     38.0041   1.1298566432e+02   6.5299462037e+01     0.647186    0.3556278 -19.52 0.0003996807    2.225    0.550
        11  -9.2199    110.3048     33.1317   8.4485358240e+01   5.3157564230e+01     0.616564    0.2414581 -36.36  0.002124879    2.648    0.622
        12  -8.9694    112.1155     15.5626   7.7290531313e+01   5.4811675987e+01    0.4256448    0.1939953 -34.75   0.00136324    2.373    0.579
        13  -9.1986    114.3308      9.8210   7.4560898769e+01   5.4855008632e+01    0.4133454    0.2052599  38.92 0.0004713925    1.990    0.498
        14  -8.8837    115.1270      4.0711   7.2171132845e+01   5.5177353004e+01    0.3406827    0.1963919 -35.83 0.0009406178    1.973    0.493
        15 -10.0687     60.7264     31.3979   9.9949544912e+01   6.3074072695e+01    0.8810351    0.4176384 -26.21  0.003521444    2.387    0.581
        16  -9.0551     63.6425      8.6345   8.8580902248e+01   6.5604052615e+01    0.3231894     0.298686  85.32  0.001200942    1.648    0.393
        17  -9.5848     63.8312      2.9152   8.5729350614e+01   6.6171195093e+01      0.36625    0.2453093 -43.08  0.001632472    2.038    0.509
        18 -10.0764     64.1235     13.8463   9.0871910529e+01   6.4918115500e+01    0.5543026    0.3236585   2.71  0.002644803    2.138    0.532
        19 -10.1763     76.2049     31.8349   9.4404122399e+01   6.0373928535e+01    0.6720091    0.4734895  88.84  0.002837095    3.633    0.725
        20 -10.2529     79.3590     24.2289   9.0136755723e+01   6.0832293872e+01    0.8743274    0.2989262  38.40   0.00298735    3.109    0.678
        21 -10.1176     51.7972     14.2620   9.5913184077e+01   6.6891427955e+01    0.8462684    0.4380629  10.38  0.003662148    3.093    0.677
        22 -10.1770     46.1914     29.4664   1.0510832966e+02   6.5492315899e+01    0.5073676    0.2983764 -46.75  0.001091357    1.856    0.461
        23  -9.1294     91.0579     25.9201   8.7115052180e+01   5.8282858277e+01    0.4711531    0.2848074 -34.49   0.00139926    1.743    0.426
        24  -9.3642    103.1322     21.8910   8.2039893611e+01   5.6173538640e+01    0.5387072    0.2925953 -24.96  0.001441038    1.960    0.490
        25  -8.5276    104.7421     14.6638   7.8730288646e+01   5.6604478032e+01    0.3728214    0.2129983   9.38   0.00166541    2.374    0.579
        26  -9.4082    119.0376     20.4486   7.7547258682e+01   5.2652739441e+01    0.5694145    0.2912543  -8.57  0.001554467    2.754    0.637
        27  -8.3767     72.0160      8.4777   8.5569231812e+01   6.4086932486e+01    0.2547842    0.1731853 -14.66 0.0009397612    1.464    0.317
        28  -9.8608     73.4354     18.4554   8.9636754352e+01   6.2680796012e+01    0.8349717    0.2296825 -29.38  0.002980954    3.813    0.738
        29  -8.4990     77.3023      7.0943   8.3206152367e+01   6.3206895420e+01    0.3336241    0.1916891  -7.29  0.001699678    1.952    0.488
        30  -8.6473     78.7036      3.1040   8.0933336464e+01   6.3310705916e+01    0.2545215     0.173393 -41.38 0.0008855082    1.876    0.467
        31  -9.0832    132.5152     17.3749   7.3562267551e+01   4.9683491012e+01    0.2780213     0.233395  25.69  0.000931059    1.242    0.195
        32  -7.8931    132.3809     10.7028   7.1225149635e+01   5.0375791733e+01    0.2544246    0.1569167 -63.13  0.001162538    2.229    0.551
        33  -8.7590     95.7478     16.7653   8.1968098432e+01   5.8376007694e+01    0.3381818    0.1703909 -33.14 0.0005676766    2.114    0.527
        34  -8.1553     96.7588     12.2548   7.9814047732e+01   5.8632338694e+01     0.278961    0.1744472   2.21  0.001400543    1.889    0.471
        35  -9.5496    232.3745     14.0654   5.9531525867e+01   2.4785086315e+01     0.347482     0.226928 -34.70  0.001345814    1.546    0.353
        36  -9.4390     85.1474     13.0036   8.3434881382e+01   6.1017439271e+01    0.3780119    0.2385548 -50.52  0.001663104    2.347    0.574
        37  -8.0855    120.8186      5.8332   7.1681849168e+01   5.3659505210e+01    0.3554502    0.2143591 -83.61  0.001572327    2.523    0.604
        38  -8.7208    124.9074     13.0825   7.3543485940e+01   5.1995500894e+01    0.4174054     0.187841 -43.06  0.001493665    2.701    0.630
        39  -8.4760    126.8704      8.8929   7.1622248624e+01   5.1909140399e+01      0.29263    0.1725894  55.47 0.0005691674    1.444    0.307
        40  -8.7268    125.9715      4.7241   7.0274811553e+01   5.2497433204e+01    0.3997002    0.2270837  22.94  0.001352284    2.191    0.544
        41  -7.9783     80.4552     12.5992   8.4703460123e+01   6.2008193871e+01    0.2316908    0.1590554 -50.80  0.001223778    2.113    0.527
        42  -7.8907    141.5237     12.0943   7.0062793778e+01   4.7940982634e+01    0.1926948    0.1384148 -24.25  0.000738682    1.559    0.359
        43  -8.4404     85.3722      5.3962   8.0008337807e+01   6.1733879900e+01    0.4304956    0.2213845 -16.46  0.002121301    2.115    0.527
        44  -8.5081     89.0501      3.0412   7.7940622511e+01   6.1171655708e+01     0.384649    0.2049772 -39.65  0.001227175    2.333    0.571
        45  -9.1459     96.4631      4.8163   7.6763258258e+01   5.9404978086e+01    0.3934713    0.3421181 -41.49  0.001897384    1.396    0.284
        46  -8.6200    102.1739      8.4807   7.6861110636e+01   5.7795108242e+01    0.2700202    0.2062271 -71.69 0.0008347342    1.859    0.462
        47  -8.4615    103.8575      2.7607   7.4118592357e+01   5.7919026936e+01    0.4729023    0.2075146  27.81  0.001872816    3.001    0.667
        48  -7.4801    204.4765      8.5284   6.0741331769e+01   3.2132207647e+01    0.1335344    0.1162966  87.36 0.0001624934    1.048    0.046
        49  -9.0675    110.4036      6.5838   7.4168162619e+01   5.6074918798e+01    0.4070952    0.2029498 -10.00  0.001816744    2.489    0.598
        50  -8.1787    131.2293      6.0122   6.9771501786e+01   5.1086694373e+01    0.2712829    0.1575267  44.39 0.0004839395    1.602    0.376
        51  -8.3739    134.0000      3.5618   6.8419310095e+01   5.0604465202e+01    0.2986869    0.1592201 -32.29  0.001428852    2.060    0.515
        52  -7.7841    136.4808      1.4349   6.7264257690e+01   5.0157647893e+01    0.2808194    0.1355893  53.95  0.000782915    1.732    0.423
        53  -7.6907    143.1669      5.1953   6.7461877988e+01   4.8153428299e+01    0.1830546    0.1497828 -72.95 0.0003864434    1.344    0.256
        54  -7.2113    176.3841      1.4210   6.1801948624e+01   3.9947423893e+01    0.1329364    0.1152169  86.19 0.0001269595    1.028    0.027
        55 -10.2103     78.0771    113.0032   1.1904803799e+02   4.4013443412e+01    0.5234056    0.3221003 -80.09  0.001610131    2.297    0.565
        56 -10.8188    199.7437    249.3171   1.1534264984e+02  -3.7303968582e+00    0.5185702    0.2885371  45.34  0.002997867    1.656    0.396
        57  -7.6554      1.2541    115.5434   1.4224863479e+02   5.1480617913e+01    0.2132222   0.07913121 -73.34 0.0009821756    2.099    0.524
        58  -8.8867    158.4546    122.8164   9.9895852158e+01   2.5800676591e+01    0.3617559    0.2552866 -79.14  0.001489512    2.129    0.530
        59  -7.7322    167.3699    114.1570   9.5690814597e+01   2.5456176880e+01    0.2207818    0.1426696 -51.63 0.0003584133    1.691    0.409
        60  -8.7609     64.2420    101.6337   1.2075540956e+02   4.8655857215e+01    0.4418169    0.2856441   8.51  0.002048283    2.313    0.568
        61 -10.1765     66.0365    109.5665   1.2194435540e+02   4.6582980596e+01    0.9016482    0.3985395 -54.69    0.0017058    2.040    0.510
        62  -9.5138     59.7029    109.8555   1.2395124914e+02   4.7369219543e+01    0.5297884     0.303407 -74.91   0.00177651    2.062    0.515
        63 -10.3351     62.7328     95.5828   1.1983378342e+02   5.0236322618e+01    0.5607575    0.3494973 -84.33  0.001602307    2.505    0.601
        64  -8.6790     64.0310     86.5723   1.1716024775e+02   5.2063821932e+01    0.6760953    0.3975118  -5.23  0.002579297    3.510    0.715
        65  -7.7554     23.0981     68.9272   1.2751483178e+02   6.0362113716e+01    0.2152779    0.1654149  80.71 0.0002894902    1.702    0.413
        66 -10.8441     20.7544    101.2325   1.3457384648e+02   5.3388339807e+01     1.357798    0.6531476  76.34  0.004430934    3.736    0.732
        67  -9.9948     19.6395     86.2897   1.3238344450e+02   5.6836804730e+01    0.9729581    0.2037188 -58.55  0.003087711    3.092    0.677
        68 -10.3705     25.6675     78.2125   1.2864268455e+02   5.8149395086e+01    0.6575208    0.4029376  71.39  0.001736196    2.599    0.615
        69 -10.3546     32.0507     64.3727   1.2290903930e+02   6.0552119705e+01     1.145105    0.5231886 -33.19  0.004314248    2.562    0.610
        70 -10.0400     34.4735     90.6842   1.2817171102e+02   5.4600891465e+01    0.5707138    0.2703536 -78.03   0.00161898    2.952    0.661
        71 -10.1102     36.7605     81.1346   1.2530540099e+02   5.6506612494e+01    0.7309634    0.3755133 -19.28  0.002984174    3.493    0.714
        72  -9.4405     14.0695    111.2195   1.3806029685e+02   5.1614797875e+01    0.4124844    0.2101604  79.34  0.001637978    2.494    0.599
        73  -8.3487     14.0453    104.9853   1.3721764189e+02   5.3032181613e+01    0.2264012    0.1240774 -52.93 0.0006960544    1.605    0.377
        74  -8.5938    158.8351    112.0666   9.7085313043e+01   2.7877156171e+01    0.2378825    0.2087733 -72.36 0.0005750952    1.262    0.208
        75  -8.6880     35.9195    111.6314   1.3157380839e+02   4.9667706559e+01    0.2376808    0.1469369 -57.34 0.0007735504    1.403    0.287
        76  -8.0272    149.8121    110.1625   9.8714127407e+01   3.0366465583e+01    0.2116746    0.1845883  -9.43 0.0004202913    1.322    0.244
        77 -10.8567     44.7487    102.4342   1.2714804266e+02   5.0876745523e+01    0.8830922    0.4804875  76.23  0.003440772    3.561    0.719
        78  -9.3874      6.4720    104.0399   1.3938886215e+02   5.3745284263e+01    0.4050975    0.2062647  75.01  0.001997745    2.510    0.602
        79  -9.5813    139.3001    104.5645   9.9812794896e+01   3.3931165640e+01    0.5086156    0.2913984 -55.43 0.0007416194    2.059    0.514
        80  -9.0794    139.3580    100.3293   9.8646473080e+01   3.4783386811e+01    0.4460566    0.2652739  26.26  0.001643057    2.505    0.601
        81  -7.8715     78.1321    105.2390   1.1725408676e+02   4.5786314152e+01    0.3184172    0.2046205 -13.65  0.001294323    2.781    0.640
        82  -8.5017    165.9733    104.2094   9.3405580160e+01   2.7721505125e+01    0.3301994     0.220762 -40.09 0.0006570288    1.524    0.344
        83  -9.6737    149.4684    103.3340   9.6979691340e+01   3.1824767678e+01    0.5436496    0.3219744 -53.68 0.0008644962    1.931    0.482
        84  -9.0844    150.0160     96.9982   9.5113808661e+01   3.2950156021e+01    0.4417061      0.23209  44.64  0.001716428    1.899    0.473
        85  -9.2381     36.0135    105.0485   1.3040905700e+02   5.1178992787e+01    0.2387395    0.1518703 -64.92  0.001323069    1.355    0.262
        86  -8.0229     73.5897    102.3166   1.1796866074e+02   4.7151313040e+01    0.3272396    0.1252799 -53.23  0.001074362    2.401    0.584
        87  -9.0772    159.0557    101.1225   9.4133917088e+01   2.9981591656e+01    0.3553952    0.2154016 -43.98 0.0005202341    1.686    0.407
        88  -9.4802     81.5213    100.4508   1.1504621976e+02   4.6327508348e+01    0.4293744    0.2968904 -85.10  0.001027754    2.085    0.520
        89  -8.1073     82.7560     93.8693   1.1297118437e+02   4.7588056229e+01    0.4672361    0.2931806 -10.66  0.001798981    3.046    0.672
        90 -10.1660     85.2512     86.5758   1.1018993672e+02   4.8747783748e+01    0.4779038    0.3490046 -70.71 0.0009461272    1.721    0.419
        91  -9.4362     94.3261     97.3355   1.1032287256e+02   4.4809267999e+01    0.3472492    0.2870438  84.36   0.00063914    1.476    0.323
        92  -8.8432     95.9591     90.9667   1.0808894985e+02   4.5886865385e+01    0.4671684    0.3076819  -7.33  0.001859672    2.661    0.624
        93  -7.2588    201.3952     96.4756   8.4279255978e+01   2.0563720467e+01    0.1480187    0.1420409 -52.34 8.992058e-05    1.029    0.029
        94  -8.1896    170.5310     95.5065   9.0071813583e+01   2.8259540726e+01    0.1546842    0.1508419  80.76 -2.054453e-05    1.024    0.024
        95  -9.1548    164.1761     94.5703   9.1193136545e+01   2.9991737268e+01    0.3359766    0.2932249  68.18 0.0009272706    1.180    0.153
        96  -9.6651    138.7766     92.6934   9.6656665224e+01   3.6449219391e+01     0.473386    0.3894421 -89.89   0.00117762    1.480    0.324
        97  -9.6238    140.3530     82.2822   9.3232291224e+01   3.8087403348e+01     0.627319    0.3413652 -31.26  0.001340798    2.096    0.523
        98  -8.8419    139.8466     75.0119   9.1163584670e+01   3.9550072262e+01    0.5240403    0.2974612 -43.88   0.00144881    1.831    0.454
        99  -9.3585    150.1624     89.7037   9.3025651401e+01   3.4324792241e+01    0.5809079    0.2660626 -32.72  0.001778216    2.541    0.606
       100 -10.2394      4.2103     89.4760   1.3809829282e+02   5.7126263765e+01    0.6362581     0.352957  73.57  0.001904664    2.349    0.574
       101  -9.5931      5.2988     79.1513   1.3610657408e+02   5.9333929571e+01    0.7631013    0.2565245 -36.53  0.003159686    3.716    0.731
       102  -9.2862    157.4859     90.7647   9.1629906814e+01   3.2343723390e+01    0.3508264    0.2319136 -22.83  0.001466579    1.878    0.468
       103 -10.3441     47.8347     84.5012   1.2219580816e+02   5.4582900196e+01    0.6015582    0.3788148 -78.29  0.001669886    2.092    0.522
       104  -9.2592     48.5609     77.3316   1.2013872543e+02   5.6064297462e+01    0.5431154    0.3392025 -11.05  0.002610179    2.331    0.571
       105  -9.2561    163.4011     86.9292   8.9230113873e+01   3.1598394600e+01    0.3845214    0.2309418 -51.50 0.0006881899    1.864    0.464
       106  -8.3338    174.4811     88.9167   8.7440161204e+01   2.8486664803e+01    0.2352127    0.1517044 -39.76 0.0007231838    1.566    0.361
       107  -8.1953     40.1627    106.9450   1.2945117892e+02   5.0324519453e+01    0.1958577    0.1550108 -89.10 0.0004784872    1.300    0.231
       108  -7.9199    116.4653     85.0627   1.0036736645e+02   4.2986479276e+01    0.2205687    0.1481116 -44.05 0.0003719749    1.500    0.333
       109  -9.5085    109.7453     63.8924   9.5616046264e+01   4.8464442141e+01    0.5152354    0.4000038 -43.73  0.002630826    1.337    0.252
       110  -9.0075    110.9124     57.8728   9.3245778767e+01   4.9262303890e+01    0.3681049    0.2686416  26.57 0.0008451876    1.502    0.334
       111 -10.2804    103.8414     82.5375   1.0326737097e+02   4.6120447749e+01    0.5418224    0.3069529 -53.43 0.0009139106    1.971    0.493
       112  -9.7446    104.7962     72.6856   9.9938469082e+01   4.7874558507e+01    0.8730688    0.5484964 -21.98  0.003386771    2.069    0.517
       113  -9.3536     87.7482     78.4912   1.0703408703e+02   5.0003003449e+01    0.5603244    0.3145885  25.16  0.001763661    2.375    0.579
       114  -9.1758    240.9109     83.8220   7.4974709414e+01   1.3509311642e+01    0.2703005    0.1907661 -49.66  0.001417973    1.357    0.263
       115  -8.8929    157.7314     83.6692   8.9551557690e+01   3.3597638992e+01    0.3551982    0.2050833 -42.34 0.0009252657    1.769    0.435
       116  -8.9411    157.1684     76.8584   8.7691035231e+01   3.4958832613e+01     0.508004    0.2558814 -49.97  0.001399279    2.308    0.567
       117  -9.0268    173.0542     79.1123   8.4992794911e+01   3.0570458530e+01    0.5141668    0.1889544  40.47  0.001454214    3.965    0.748
       118  -8.7556    118.9492     80.4771   9.8294501630e+01   4.3353459172e+01     0.359696    0.2399565 -65.81 0.0007257314    2.113    0.527
       119  -8.2844    120.0162     76.0219   9.6627513819e+01   4.3974365652e+01    0.2783174    0.2246504 -13.64 0.0008740636    1.424    0.298
       120  -7.7265     63.5071     81.7835   1.1606685085e+02   5.3179853198e+01    0.2601614    0.1178987 -48.10 0.0008826848    1.996    0.499
       121  -9.3366    149.7934     80.6097   9.0471325115e+01   3.6112070381e+01    0.5465661    0.2722395 -30.20  0.002010699    2.365    0.577
       122  -8.2197    148.3970     76.5121   8.9577185013e+01   3.7196316011e+01    0.2655707    0.2218036  68.67 0.0005760948    1.255    0.203
       123  -9.0508     74.0330     80.0609   1.1200707079e+02   5.1983053586e+01    0.4322681    0.2309676 -60.13  0.001203049    2.230    0.552
       124  -7.7315     76.0165     74.3041   1.0964002245e+02   5.2865337278e+01    0.2844912     0.138792  25.35  0.001090641    2.869    0.651
       125  -7.8986     68.8346     79.2820   1.1354666464e+02   5.2944840812e+01    0.3606682   0.08770395 -49.13  0.001131634    3.669    0.727
       126  -8.8985    166.0899     78.7811   8.6329996184e+01   3.2383163201e+01    0.2658019    0.2219893 -40.58 0.0005926568    1.224    0.183
       127  -7.9068    241.3006     78.3618   7.3642301466e+01   1.4244825333e+01    0.1367279    0.1069242  10.93 0.0007035772    1.721    0.419
       128  -8.4053    184.1954     77.8815   8.2487903313e+01   2.7968307255e+01    0.2323806    0.2081228  15.88 0.0005600487    1.273    0.214
       129  -8.3425    185.1824     74.2067   8.1289424994e+01   2.8328939533e+01    0.2344361    0.2070797 -16.00 0.0003931365    1.261    0.207
       130  -9.5561    127.4067     75.3054   9.4414327502e+01   4.2433466321e+01    0.4440356     0.293232 -60.23 0.0008139646    1.960    0.490
       131  -8.8439    129.5682     68.9342   9.1847272952e+01   4.3088902526e+01    0.4754615    0.2706498  24.58  0.001669291    2.892    0.654
       132  -8.5516    130.3938     64.2676   9.0138847633e+01   4.3709064025e+01    0.3932824    0.2300614 -36.91  0.001292299    1.760    0.432
       133  -9.8727     81.5041     72.3937   1.0720896018e+02   5.2336592602e+01    0.4066021    0.3090431 -74.16 0.0009220263    1.822    0.451
       134  -9.0774     83.1253     64.8812   1.0425731596e+02   5.3528499498e+01    0.5987192    0.3662081 -10.04  0.002404088    2.777    0.640
       135  -9.2567    162.7263     72.5480   8.5223084938e+01   3.4307118505e+01    0.4956195    0.2172852 -40.90  0.001813369    2.309    0.567
       136  -9.1456    115.3364     72.2749   9.6750546549e+01   4.5714024239e+01    0.5545691    0.2663464 -37.15  0.001680452    2.158    0.537
       137 -10.2380     62.3532     60.8770   1.1025285878e+02   5.7654661858e+01    0.8596244    0.3132509  32.78  0.003334265    3.073    0.675
       138 -10.6611     54.9178     70.8499   1.1605293128e+02   5.6657270278e+01    0.6745636    0.4450812  63.74  0.001202885    2.485    0.598
       139  -9.4956     55.0564     62.9940   1.1364789109e+02   5.8246217139e+01    0.4790201    0.2641848  22.31   0.00229481    2.170    0.539
       140  -9.3775    220.1328    248.4699   1.1162170773e+02  -6.7400631606e+00    0.2180247    0.1983318  38.32  0.001643425    1.472    0.321
       141 -11.0816    190.4213    247.7068   1.1679242344e+02  -2.0631257808e+00    0.5606971    0.3127367  48.15  0.003157269    1.747    0.428
       142  -9.7453     15.9135     70.5497   1.3060579810e+02   6.0544020180e+01    0.3917997    0.2002095 -61.09  0.001362698    1.586    0.370
       143  -9.9194     17.0019     61.2645   1.2807798633e+02   6.2432636511e+01    0.6953458    0.5966141  17.72  0.004967181    1.375    0.272
       144 -10.8153     21.9104     53.6059   1.2407797585e+02   6.3634843831e+01    0.7201846    0.4281069 -89.47  0.003019948    3.691    0.729
       145 -10.3191    175.8839    248.3227   1.1953077962e+02   1.8297163752e-01    0.3678485    0.1964865  51.56  0.001961103    1.949    0.487
       146 -10.2080    169.7776    245.2471   1.2024436173e+02   1.5927881015e+00    0.3629751    0.2240696  61.28  0.001944761    2.229    0.551
       147  -9.6067    159.9054    245.3992   1.2210412781e+02   3.1837597213e+00    0.2212067    0.1605607 -17.49  0.001343332    1.991    0.498
       148  -9.7207    154.5417    246.4579   1.2324206148e+02   3.9060627490e+00    0.2709824   0.09552406  41.25  0.001216035    2.198    0.545
       149 -10.2925     13.2223     45.3533   1.2549738400e+02   6.5914014418e+01    0.7246335    0.3490948 -20.00  0.002968219    2.635    0.621
       150  -7.7073    114.8021    244.3908   1.3046330337e+02   1.0599074361e+01    0.1603679   0.09605318  36.69 0.0002606748    1.536    0.349
       151  -9.2973      6.5255     32.5137   1.2474164565e+02   6.8797036551e+01    0.2201751    0.1627688 -37.11 0.0006854649    1.047    0.045
       152 -10.1535      7.1772     28.4573   1.2308916650e+02   6.9501874197e+01    0.3125786    0.2812429  54.78  0.001080891    1.634    0.388
       153  -8.2693    169.3289     71.4262   8.3538602528e+01   3.2819617902e+01    0.2590384    0.1421327 -36.12 0.0005512249    1.864    0.463
       154  -9.4522    146.9622     69.3094   8.7721008897e+01   3.8815435715e+01    0.4432394    0.2918804 -61.18 0.0009465825    1.969    0.492
       155  -7.8734    147.3058     63.8269   8.5942508398e+01   3.9655112909e+01     0.306895     0.183322  32.87  0.001127615    2.098    0.523
       156  -8.8171    156.8567     69.4197   8.5544008178e+01   3.6320827320e+01    0.4709516    0.2285762 -26.65  0.001688948    2.569    0.611
       157  -8.3281    157.5330     63.2687   8.3537265785e+01   3.7166523190e+01    0.2672164     0.202925 -55.52 0.0008565009    1.450    0.310
       158  -9.7376     94.6820     68.1707   1.0158430895e+02   5.0757017980e+01    0.4549519    0.2567494 -52.26 0.0009993506    2.036    0.509
       159  -9.4764     96.8198     58.9080   9.7803444785e+01   5.2043077426e+01    0.7833048     0.469743 -23.23  0.003436148    2.026    0.506
       160  -9.1356    121.3682     66.1202   9.3103336789e+01   4.5487871332e+01     0.432159    0.2760636 -56.44  0.001188302    1.986    0.496
       161  -8.3467    122.3058     61.3216   9.1274281856e+01   4.6107902362e+01    0.3563564    0.2261084  29.67  0.001203598    1.888    0.470
       162  -9.1840    138.1310     65.4024   8.8585745774e+01   4.1654080861e+01    0.5520529    0.2780435 -35.23  0.001279256    2.067    0.516
       163  -8.2326     75.6835     66.4686   1.0730612871e+02   5.4493656122e+01     0.243808    0.1203389 -45.15  0.000904917    1.931    0.482
       164  -8.5415    170.1411     65.6506   8.1693663170e+01   3.3558843292e+01    0.2634526    0.2090459 -46.11  0.001298988    1.295    0.228
       165 -10.0682    241.0364     62.6165   6.9979361663e+01   1.6599523654e+01    0.2759563    0.2689927  49.88 0.0004802111    1.183    0.155
       166  -9.5541    245.0840     58.6553   6.8584733494e+01   1.6254942298e+01    0.2994275    0.2382872  10.49  0.001009244    1.759    0.432
       167  -8.7877    164.6560     60.9384   8.1376329979e+01   3.5716881793e+01    0.3074184    0.1957923 -24.57  0.001010172    1.807    0.447
       168  -8.5544    152.5974     59.9766   8.3574355275e+01   3.8948835762e+01    0.4046729     0.153091 -31.70  0.001363066    2.890    0.654
       169  -9.2389     87.7641     57.3780   1.0016903729e+02   5.4074081233e+01    0.7260193    0.3324629 -30.43  0.002587832    2.630    0.620
       170 -10.0484     69.4210     40.5028   1.0032234009e+02   6.0221228031e+01    0.8020672    0.4133154 -37.05  0.002391986    1.870    0.465
       171 -10.2026     85.0873     48.0711   9.7710000074e+01   5.6190245554e+01    0.4166265    0.3344384 -78.68 0.0009838984    1.932    0.482
       172 -10.0887    163.2575    249.6443   1.2202989989e+02   2.0398587178e+00    0.5513035    0.1616203  36.08  0.002111953    3.260    0.693
       173  -9.0009    146.4932     58.9777   8.4599693358e+01   4.0647424784e+01    0.2875108    0.2793075 -38.32 0.0008283253    1.077    0.072
       174  -9.3595    147.3736     54.6445   8.3026595275e+01   4.1106360572e+01    0.3992399    0.2467349 -23.11  0.001724739    1.893    0.472
       175  -8.5389    129.9966     57.9968   8.8187016362e+01   4.4855084792e+01    0.3062654    0.2108598 -48.68 0.0005192443    1.614    0.380
       176  -8.1489    130.3262     54.3184   8.6881057955e+01   4.5368401361e+01    0.2910703    0.2041054  29.05  0.001289319    1.623    0.384
       177  -8.9342    144.0760     36.4213   7.7777523785e+01   4.4537866189e+01    0.2536671    0.2400691 -27.70 0.0005442239    1.139    0.122
       178  -9.4233    139.0669     56.2805   8.5430406855e+01   4.2925221688e+01    0.6402397    0.2685436 -38.29  0.001788519    2.435    0.589
       179  -9.2662    141.8961     47.5961   8.1943082013e+01   4.3543870130e+01    0.6963385    0.2848118 -27.15   0.00151706    2.878    0.653
       180  -9.5432    130.2841     46.3970   8.4210226523e+01   4.6590069564e+01    0.6985952    0.2907013 -26.02  0.001234782    2.936    0.659
       181 -10.2387    137.8967     37.9554   7.9592435041e+01   4.5894989260e+01    0.4400918    0.3391054 -61.77  0.001358529    1.549    0.355
       182  -9.1034    132.9995     36.2356   8.0079158673e+01   4.7342156857e+01    0.4561395    0.2199148 -38.41 0.0006696667    2.199    0.545
       183  -7.8089    120.2985    239.5101   1.2888719477e+02   1.0529759695e+01    0.1859912    0.1115887 -59.03  0.001074464    2.049    0.512
       184  -9.3588    118.2508     54.6045   9.0091618152e+01   4.8161165477e+01    0.5263643    0.3415594 -33.70  0.001636977    1.593    0.372
       185  -9.0346    121.0218     46.9075   8.6689477720e+01   4.8726466880e+01    0.3410503    0.2020863 -34.93  0.000476567    1.753    0.429
       186  -8.3196    122.8600     40.8489   8.4086782484e+01   4.9176339525e+01    0.4982361    0.2494978  26.14  0.001668754    3.530    0.717
       187  -7.4089    157.6514     56.2588   8.1362531476e+01   3.8242546110e+01    0.1523855    0.1157723 -82.66 0.0003788157    1.601    0.376
       188  -9.0949     53.0064     39.6575   1.0635005448e+02   6.2876859164e+01    0.7567028    0.2270669 -35.13  0.002567944    4.018    0.751
       189 -10.1376     49.9411     54.0007   1.1272540608e+02   6.0673022546e+01    0.5793195    0.3149614 -56.46  0.001755784    2.064    0.515
       190  -9.4719     55.5695     43.7584   1.0687683863e+02   6.1805527835e+01    0.6754904    0.3671512  -9.11  0.002633885    3.525    0.716
       191  -9.6628    162.8287     53.0380   7.9343796762e+01   3.7397529496e+01    0.4745052    0.2599501 -23.45  0.001806474    2.203    0.546
       192  -9.3403    105.4249     51.9427   9.2760169229e+01   5.1445223497e+01    0.5752391    0.2783057 -33.47  0.001730229    2.149    0.535
       193  -9.4447     44.1824     52.9537   1.1467821715e+02   6.1577161343e+01    0.3177205    0.2201767 -32.90 0.0007305164    1.307    0.235
       194  -8.2836    249.9260     52.8904   6.6733908841e+01   1.5981290486e+01    0.2264011    0.1368284 -62.56  0.001133518    1.733    0.423
       195  -8.8194    242.0737     51.4679   6.7255533940e+01   1.7915981379e+01    0.2398872     0.191006  -8.86  0.001013294    1.621    0.383
       196  -8.3455    235.5354     52.4978   6.8236690098e+01   1.9265105920e+01    0.1364866    0.1218388 -63.96 0.0008096198    1.003    0.003
       197  -9.1461    157.1254     47.9615   7.8887349524e+01   3.9611788327e+01     0.381199    0.2164709 -31.14   0.00164155    1.873    0.466
       198  -9.0588    153.0800     40.7832   7.7405924929e+01   4.1654753389e+01    0.3378688    0.3158548 -25.70  0.001176318    1.156    0.135
       199  -8.5627    149.7999     47.6944   8.0283500514e+01   4.1529108564e+01    0.2759911    0.2084914 -41.42 0.0006082355    1.396    0.284
       200  -9.9336    147.3675     41.7719   7.8867811255e+01   4.2984200337e+01    0.5056353    0.3338201 -51.89  0.002335709    1.746    0.427
       201  -8.6045    111.9894     46.8969   8.9093627499e+01   5.0803177551e+01    0.2646758    0.2043037 -42.38 0.0005221721    1.399    0.285
       202  -8.2874    112.9983     42.5075   8.7234645676e+01   5.1234617210e+01    0.3739329    0.1959607  24.16  0.001322467    3.199    0.687
       203 -10.1591     37.7595     42.1491   1.1366635307e+02   6.4342056520e+01    0.4864003    0.3354692 -74.79  0.001951679    2.637    0.621
       204  -7.3209     39.7420    238.0167   1.4367945294e+02   2.2140974270e+01    0.1247065   0.07975116 -87.99  0.000262247    1.442    0.307
       205 -10.2280     74.0034     55.9141   1.0435438355e+02   5.6779767139e+01     1.386401    0.5484454 -32.36   0.00416559    3.266    0.694
       206  -8.3832    225.3206     44.5908   6.7516749123e+01   2.2735424074e+01    0.2740481    0.1315729  73.50  0.001160157    2.226    0.551
       207  -9.0484    104.8134     40.9256   8.8925614687e+01   5.3292660931e+01    0.4236534    0.2157563 -41.09  0.001223829    2.125    0.529
       208  -8.2115    106.3246     36.2994   8.6762935691e+01   5.3622093205e+01      0.25398    0.2000867  43.72 0.0007373236    1.183    0.155
       209  -9.3005    100.8844     32.6143   8.6887004809e+01   5.5321113143e+01    0.5009668     0.208105 -30.59  0.001486932    2.505    0.601
       210  -7.2364    174.6342     60.3144   7.9282096550e+01   3.3244541520e+01    0.1616813    0.1140215 -74.37 0.0007039067    1.768    0.434
       211  -8.7175    153.3314     34.8539   7.5454440760e+01   4.2367324907e+01    0.2264016    0.1741744 -52.07 0.0007095322    1.422    0.297
       212  -8.7602    118.8473     34.5737   8.2824370756e+01   5.0985839375e+01    0.2861687    0.1932039 -29.53 0.0006565415    1.566    0.361
       213  -9.3765    188.1574    233.9673   1.1521141200e+02   1.2822336871e-01     0.227542    0.2123715 -53.58  0.001127027    1.447    0.309
       214  -8.4158    111.3876     22.1525   8.0017027262e+01   5.4264408745e+01    0.4513098    0.1565762 -28.02  0.001659904    3.020    0.669
       215  -8.6666     25.2549    231.5151   1.4583333775e+02   2.4968080492e+01    0.1980285    0.1370132  74.37 0.0005401014    1.092    0.084
       216  -7.2054    136.6335    216.7334   1.2278746692e+02   1.1684609025e+01    0.1279661   0.09588764  19.70 0.0006990806    1.655    0.396
       217  -7.7411     44.8303    209.0345   1.4067269440e+02   2.7022198272e+01    0.1606941    0.1248866  72.47 0.0005853903    1.018    0.017
       218 -10.0255    170.7145    206.8963   1.1434344241e+02   7.2732555834e+00    0.2308881    0.2095748  26.17 0.0003567486    1.083    0.076
       219 -10.1031     10.4274    207.4848   1.4716688408e+02   3.1047819237e+01    0.5678476     0.261234  28.15  0.003169114    2.817    0.645
       220  -8.9822    191.4192    193.2449   1.0781344505e+02   5.6835353856e+00    0.6168955     0.355837 -67.65  0.002028045    5.350    0.813
       221  -9.3961     63.2766     21.6098   9.4736299220e+01   6.4072323669e+01    0.3267108    0.2702919 -54.17  0.000772337    1.736    0.424
       222  -7.4697    171.8178    192.3679   1.1162743453e+02   9.5384880802e+00     0.186228    0.1174371  34.51 0.0001748549    1.486    0.327
       223  -9.8224    101.0044    175.9969   1.2460381975e+02   2.5879657617e+01    0.1963964    0.1735243  67.46  0.001156291    1.009    0.009
       224  -7.8761    230.1481    167.6880   9.5489397221e+01   2.4820173684e+00     0.195423    0.1732381  60.85 0.0009715338    1.444    0.307
       225  -9.1698     84.7140     21.9598   8.7429657642e+01   6.0071596819e+01    0.3011237     0.223855  14.82  0.001257833    1.340    0.254
       226  -7.8186     45.2546     15.6440   9.9363289680e+01   6.7674470253e+01    0.1768301    0.1202743  -7.08  0.001065368    1.410    0.291
       227  -8.7178     46.3947     19.8415   1.0081496222e+02   6.6925067732e+01    0.3088066    0.1593127 -25.73  0.001593221    1.930    0.482
       228  -7.2119     46.3391    168.2647   1.3649374741e+02   3.5488142043e+01    0.1124247   0.09565005 -37.93 0.0004604799    1.593    0.372
       229  -9.1360    117.4904    151.3080   1.1628539176e+02   2.8344709999e+01    0.2503217     0.225801  54.37 0.0003136216    1.055    0.052
       230  -8.4310     42.2392     28.0266   1.0622686439e+02   6.6237532386e+01    0.1865949    0.1529274  -8.91            0    1.039    0.037
       231  -8.5784    152.2352     30.0024   7.4091551611e+01   4.3251718898e+01    0.2058428    0.1563823 -26.85 0.0004180902    1.443    0.307
       232 -10.2695    150.5655     25.8516   7.3044584300e+01   4.4172042233e+01      1.00888    0.3653061  61.91  0.003731783    2.425    0.588
       233  -8.6060     91.6938     20.9911   8.4888080798e+01   5.8757589112e+01    0.3017316    0.1999125  12.31  0.001093758    1.722    0.419
       234  -7.8441    134.0368    149.2281   1.1178625000e+02   2.5540902692e+01    0.2194066     0.161935 -74.44   0.00061229    1.667    0.400
       235  -8.7588    128.3181     25.8127   7.7439910257e+01   4.9793205810e+01    0.2703059    0.2372585 -52.72 0.0009745315    1.292    0.226
       236  -9.9014     67.1654    144.2439   1.2805036031e+02   3.8321085035e+01    0.4873342    0.3595908  74.83  0.002165194    1.411    0.291
       237  -7.4696    133.4932    144.9085   1.1100750103e+02   2.6582619183e+01    0.2267779    0.1500098 -51.41   0.00102719    1.578    0.366
       238  -9.2066    140.0728     23.0183   7.4050983718e+01   4.7175802430e+01    0.2211418    0.1633273 -69.07 0.0004393501    1.656    0.396
       239  -8.5319    182.9419    144.0121   9.9503376790e+01   1.6133613495e+01    0.2168022    0.2058839  27.36 0.0002879269    1.011    0.011
       240 -10.3340    229.0441    137.2420   8.9160069401e+01   7.5214107069e+00    0.2586865    0.2376629  34.06 0.0003768709    1.122    0.108
       241  -8.8706    115.0249    136.0330   1.1377526382e+02   3.2228721758e+01    0.2479461    0.2027713  50.13 0.0003517116    1.192    0.161
       242  -8.2888    111.7155    133.4041   1.1407595556e+02   3.3457509204e+01    0.2967164    0.2000106 -85.25  0.001029795    2.134    0.531
       243  -9.0387    134.5616    131.6219   1.0778566893e+02   2.9235034444e+01    0.4713235    0.3302154  31.86  0.002134195    1.587    0.370
       244  -8.5871     40.9276     20.6932   1.0362217354e+02   6.7539975011e+01    0.2042854    0.1486115 -32.03  0.000234117    1.283    0.220
       245  -7.8496    139.6064     17.8043   7.2354824883e+01   4.7856156876e+01    0.1861461    0.1264417 -39.50 0.0004066371    1.622    0.383
       246  -9.6518     98.5273    128.7249   1.1662045991e+02   3.6962796678e+01    0.5802081    0.3542372  76.36  0.002196279    2.764    0.638
       247  -7.4719    134.3114     13.3254   7.1788993921e+01   4.9642021475e+01    0.2313607    0.1220824  57.83 0.0009215387    1.618    0.382
       248 -10.6993     70.2526    126.0844   1.2402753826e+02   4.2135482166e+01     0.647173    0.5923313 -20.49    0.0017867    1.297    0.229
       249 -10.0783     58.3627    124.8196   1.2720836688e+02   4.4047066605e+01    0.7007766    0.3885014  77.20  0.002438081    2.939    0.660
       250  -9.7108    117.3228    125.7636   1.1087423730e+02   3.4077235569e+01    0.6252934    0.4256278 -86.91  0.001516058    2.228    0.551
       251  -7.8284    154.2138     16.8010   6.9491066152e+01   4.4217564453e+01    0.2474064    0.1302436 -65.07 0.0009552496    2.821    0.645
       252  -9.8790    110.5754     90.2148   1.0354801157e+02   4.3174729719e+01     2.906875     1.047288  30.71  0.004771797   13.339    0.925
       253  -7.4107    188.8096     15.4345   6.4270776729e+01   3.5389404250e+01    0.1939933    0.1121573  59.14 0.0007249508    1.596    0.373
       254 -10.1761    108.5375    114.5675   1.1059831258e+02   3.8310719432e+01    0.8495988    0.4236113 -64.40  0.001495087    2.977    0.664
       255  -9.9263    127.6801    102.5273   1.0226400324e+02   3.6956577960e+01    0.6647028    0.4245222 -47.83  0.002212842    1.597    0.374
       256 -10.3590    131.3800    119.5383   1.0570197736e+02   3.2526695665e+01    0.8224087    0.5465279  88.04   0.00218066    2.616    0.618
       257 -10.6002    133.5623    109.3562   1.0254744182e+02   3.4223267890e+01     1.554121    0.4516256 -48.97  0.004382609    3.873    0.742
       258 -11.0516    121.0319    109.6242   1.0592307527e+02   3.6871221268e+01     1.770544    0.6985879 -46.56  0.005815748    2.553    0.608
       259 -10.7293    108.3837     99.6809   1.0681525021e+02   4.1614205482e+01     1.084884    0.7315668 -74.55  0.003008261    2.171    0.539
       260 -10.0676    123.6008     91.0772   1.0015855708e+02   4.0218770675e+01     0.596755     0.533589 -19.89  0.001822422    1.198    0.165
       261  -7.8076    129.3161    125.0216   1.0756456960e+02   3.1777220428e+01     0.250149    0.1204192 -29.03 0.0007048056    4.290    0.767
       262  -9.5057     41.0816    121.7338   1.3168682024e+02   4.6791555784e+01     0.483232    0.2289573 -77.56  0.001757184    2.330    0.571
       263  -9.6319     27.5200    123.0414   1.3576814049e+02   4.7814852875e+01    0.5196045    0.2478265  67.31  0.002124908    3.023    0.669
       264  -8.5007     99.3820    119.4673   1.1432729896e+02   3.8927559430e+01    0.4854196    0.3016428   0.14  0.001561333    4.293    0.767
       265  -9.7998    140.7347    118.4301   1.0305857341e+02   3.0715774477e+01    0.5261922     0.362249 -71.61   0.00117324    2.005    0.501
       266  -8.8795    140.0011    112.5156   1.0173489060e+02   3.2122527879e+01    0.3854558    0.2224978  46.11  0.001585038    1.697    0.411
       267  -9.4682    247.2278    118.6288   8.2060523541e+01   6.8268657985e+00    0.2406842    0.2083076 -24.81  0.000280199    1.063    0.059
       268 -10.2129     91.8412    113.1601   1.1502141300e+02   4.1708043333e+01    0.5980639    0.4131075 -82.13  0.001755968    1.950    0.487
       269  -9.0487     91.8045    103.7628   1.1274632464e+02   4.3838066191e+01    0.5115063    0.3717825  11.98  0.002400296    1.876    0.467
       270  -7.5251    232.5294    118.4648   8.4314295937e+01   9.8537593485e+00    0.1395287    0.1307451 -22.08 0.0001827496    1.002    0.002
       271  -9.4484    152.4029    115.0900   9.9371433936e+01   2.8763607720e+01    0.3974304    0.2851237 -74.50  0.001644156    1.931    0.482
