#   1 NUMBER                 Running object number                                     
#   2 MAG_AUTO               Kron-like elliptical aperture magnitude                    [mag]
#   3 X_IMAGE                Object position along x                                    [pixel]
#   4 Y_IMAGE                Object position along y                                    [pixel]
#   5 X_WORLD                Barycenter position along world x axis                     [deg]
#   6 Y_WORLD                Barycenter position along world y axis                     [deg]
#   7 A_WORLD                Profile RMS along major axis (world units)                 [deg]
#   8 B_WORLD                Profile RMS along minor axis (world units)                 [deg]
#   9 THETA_WORLD            Position angle (CCW/world-x)                               [deg]
#  10 FWHM_WORLD             FWHM assuming a gaussian core                              [deg]
#  11 ELONGATION             A_IMAGE/B_IMAGE                                           
#  12 ELLIPTICITY            1 - B_IMAGE/A_IMAGE                                       
         1 -14.7395    162.3264     38.5254   8.2249579642e+01   3.9585132829e+01     1.452527    0.9948098  -7.05  0.004075445    1.720    0.419
         2 -13.8816    175.3509      6.0616   6.9281535067e+01   3.9822801999e+01    0.9126316      0.82012  76.78  0.004592912    1.083    0.077
         3 -11.6207     84.5282      6.5347   8.7281943342e+01   6.3074782318e+01    0.1379591    0.1273321  10.52 -4.205987e-05    1.029    0.028
         4 -10.4892      7.4565    245.4155   1.5248103790e+02   2.5599671377e+01   0.09196431   0.06192354  55.93 0.0006422958    1.045    0.043
         5 -19.9060     75.6167    173.2184   1.3514208749e+02   3.0732937244e+01     15.54559     6.310368 -68.70   0.07293672    2.739    0.635
         6 -11.2203     15.8953    237.3405   1.5088884862e+02   2.6061583200e+01    0.2110954   0.08951714  51.62  0.001007365    1.556    0.357
         7 -13.1559    176.0114    195.2560   1.1721496292e+02   1.1728890778e+01    0.3256958    0.2660557  61.57  0.002132835    1.630    0.387
         8 -14.1810    179.3835    192.0661   1.1609705336e+02   1.1620846683e+01    0.5253637    0.4959904 -79.68  0.001917738    1.517    0.341
         9 -11.4240    158.0002    193.2066   1.2033032474e+02   1.4891926664e+01     0.183143     0.177317  71.40 0.0003145025    1.292    0.226
        10 -10.9526    125.6595    186.5224   1.2588717815e+02   2.1059600624e+01      0.34957    0.1770521  62.39 0.0009817927    3.311    0.698
        11 -10.9172     36.5694    186.4646   1.4477552011e+02   3.2722914970e+01    0.1786279    0.1344083  33.45 0.0007521919    1.432    0.302
        12 -13.1182    206.5069    181.5081   1.0945011305e+02   8.6070612500e+00    0.3893724    0.2414691  22.64  0.002246863    1.503    0.335
        13 -14.0110    210.7951    179.2600   1.0831114000e+02   8.1919172549e+00    0.8458368    0.4757263   7.50  0.004077754    2.401    0.584
        14 -12.4095     30.6113    183.3870   1.4583735383e+02   3.3896850115e+01    0.3262878    0.1672035  44.44 0.0008507681    1.573    0.364
        15  -9.8716    227.7943    231.9803   1.1373440105e+02   5.3454223161e-02    0.1155463   0.07567751 -18.30 0.0004126333    1.651    0.394
        16 -11.1354     22.7457    183.9502   1.4750938234e+02   3.4534196382e+01    0.2941411    0.1716786 -38.65   0.00162102    3.343    0.701
        17 -10.3754     26.9039    231.5396   1.4882526477e+02   2.5930530002e+01    0.1779153    0.1330462  10.68   0.00102387    2.209    0.547
        18 -11.8200     23.7486    229.4615   1.4929284850e+02   2.6557387959e+01    0.1958727    0.1370353 -85.87  0.001561961    1.519    0.341
        19 -11.7121      4.2008    180.4100   1.5116889509e+02   3.6785085864e+01     0.242428    0.1768046   9.15  0.001562624    2.058    0.514
        20 -13.1535    198.0735    175.9126   1.0997824255e+02   1.0717102055e+01    0.3603047    0.3289736 -28.75  0.001195573    1.357    0.263
        21 -11.2030    139.7093    249.5622   1.3039766080e+02   1.0055403923e+01     0.228992    0.1387681  46.88  0.001368478    1.367    0.268
        22 -11.7784     15.6439    219.9929   1.5037742923e+02   2.8828353173e+01    0.1496848    0.1112338  51.46 0.0005038811    1.160    0.138
        23 -12.1129    178.7871    173.4012   1.1313897584e+02   1.4340235731e+01    0.2082457    0.1632309 -35.51  0.001086398    1.452    0.311
        24 -12.7693    146.5700    170.9727   1.1920506149e+02   2.0252483162e+01    0.5288882    0.3612887  71.50  0.002675297    2.265    0.559
        25 -12.4362    137.8188    171.7346   1.2117438380e+02   2.1600416165e+01     0.385886    0.2427319  63.19  0.001924158    2.125    0.529
        26 -11.1865    125.0000    248.8306   1.3284382205e+02   1.2071713077e+01    0.2188395   0.06117129 -55.48   0.00105711    4.987    0.799
        27 -12.8919    203.5853    167.8141   1.0752608108e+02   1.0861178246e+01    0.5533628    0.4790346  54.46  0.002773165    1.506    0.336
        28 -12.2349    112.8838    169.0450   1.2621299810e+02   2.6136135291e+01    0.2839922     0.215727  56.49 0.0004718653    1.251    0.201
        29 -10.4774     10.8390    174.3042   1.4954582965e+02   3.7418138286e+01     0.156259    0.1066109  65.06 0.0006655567    1.124    0.110
        30 -10.9131    123.7698    166.8074   1.2345865075e+02   2.4796776380e+01    0.2412813    0.1439842  58.91 0.0006458061    1.952    0.488
        31 -11.3332    224.9955    165.9458   1.0347741359e+02   7.5038055331e+00    0.1663386    0.1576702 -72.51 0.0008498083    1.704    0.413
        32 -13.5292     35.8271    157.6175   1.4291442570e+02   3.8508338065e+01     0.779637    0.6148054   5.47  0.005153608    1.830    0.454
        33 -11.3846     32.4499    152.7067   1.4333678594e+02   3.9867408720e+01    0.2153353    0.1690751 -32.46 0.0006323889    1.854    0.461
        34  -9.8279     13.3122    163.3037   1.4848501635e+02   3.9387452780e+01     0.097945   0.07907861 -53.78 0.0002974795    1.614    0.380
        35 -10.9996     22.9878    155.4699   1.4580165274e+02   4.0164407615e+01    0.2500594    0.1447813 -83.17 0.0008342987    1.548    0.354
        36 -13.6593    133.9902    145.4215   1.1751741681e+02   2.6991243133e+01     1.060468    0.3120526 -55.28  0.003064779    5.500    0.818
        37 -10.3619    138.5983    215.4783   1.2697434796e+02   1.4646134187e+01    0.1320738    0.1095507  88.01 0.0005767806    1.630    0.387
        38 -11.9848    147.6985    147.8669   1.1489197469e+02   2.4037978427e+01    0.2502064    0.1803497  40.91 0.0006744717    1.261    0.207
        39 -12.9034    143.4972    144.5081   1.1518254917e+02   2.5420136860e+01    0.4162056    0.2867757 -75.79  0.001951413    2.320    0.569
        40 -11.6527    114.0484    250.1727   1.3483647458e+02   1.3309374347e+01    0.1456901    0.1097209  42.54 0.0005368935    1.063    0.059
        41 -10.8239      4.8781    137.8100   1.4914277382e+02   4.5331267412e+01    0.1598147    0.1334828 -85.19 0.0004480906    1.174    0.148
        42 -13.1999    135.4042    122.2972   1.1248131290e+02   3.1164412052e+01     0.672565     0.210894 -51.45  0.002087784    3.989    0.749
        43 -11.3996    112.6231    211.4752   1.3148732556e+02   1.8961490793e+01    0.2321514    0.1667411  39.87  0.001143225    1.127    0.113
        44 -10.3427     10.0567    211.4517   1.5109661633e+02   3.0743791728e+01    0.1037395    0.0857822  38.16  0.000406011    1.423    0.297
        45 -13.3187     11.6129    206.1695   1.5063500667e+02   3.1511836155e+01    0.4044782    0.2440451  27.79   0.00254297    1.857    0.461
        46 -10.2616      9.2285    202.0218   1.5093831703e+02   3.2438600691e+01    0.1355485    0.1064349  74.58 0.0003263902    1.167    0.143
        47 -10.8111    118.4714    244.5341   1.3359243023e+02   1.3468674988e+01    0.2129098   0.05986748  45.58  0.001004395    2.755    0.637
        48 -10.7275    205.4277    110.1352   9.4969039895e+01   1.8707695877e+01    0.2438907      0.17878  34.05 0.0006610021    1.342    0.255
        49 -10.9388    125.2116    242.9082   1.3227044162e+02   1.2796043696e+01    0.1223948    0.1062241  39.43 0.0003383695    1.198    0.165
        50 -12.1845    169.6400    203.8743   1.1966367377e+02   1.1569869990e+01    0.2819597     0.207168 -71.40   0.00167859    2.462    0.594
        51 -10.6863    157.0376    106.0156   1.0356306567e+02   2.9768109926e+01    0.2136744    0.2037531  22.87  0.001197096    1.005    0.005
        52 -10.8630    150.8670    250.1981   1.2857020722e+02   8.5039981238e+00    0.1511501     0.105465  42.28 0.0004042494    1.162    0.140
        53 -12.2480    135.5086    196.0689   1.2515440085e+02   1.7993631740e+01     0.334226    0.2285069  77.88  0.001787424    2.309    0.567
        54 -10.1315    180.4250     76.5020   9.0723596499e+01   2.9442200679e+01     0.147415    0.1413672 -10.81 9.945316e-05    1.017    0.017
        55 -10.3889     13.5138     59.9331   1.3860199854e+02   6.2614664223e+01    0.1843491    0.1028193 -71.70 0.0004005186    1.495    0.331
        56 -13.9480    150.9945     53.7862   8.9634270474e+01   4.0250137866e+01    0.5634439    0.5215733  36.96  0.001010722    1.074    0.069
        57 -12.9146    170.0800    195.1068   1.1830290889e+02   1.2693597469e+01    0.3534647      0.21896 -38.46  0.001409167    1.924    0.480
        58 -12.7550    165.8244     30.7735   7.9008341383e+01   3.9675523078e+01    0.4087912    0.3424508   9.19 0.0009353959    1.306    0.234
        59 -11.3643     13.4706    244.5451   1.5149334490e+02   2.5197335509e+01    0.2463991     0.103111 -69.16  0.001677511    2.887    0.654
