#   1 NUMBER                 Running object number                                     
#   2 MAG_AUTO               Kron-like elliptical aperture magnitude                    [mag]
#   3 X_IMAGE                Object position along x                                    [pixel]
#   4 Y_IMAGE                Object position along y                                    [pixel]
#   5 X_WORLD                Barycenter position along world x axis                     [deg]
#   6 Y_WORLD                Barycenter position along world y axis                     [deg]
#   7 A_WORLD                Profile RMS along major axis (world units)                 [deg]
#   8 B_WORLD                Profile RMS along minor axis (world units)                 [deg]
#   9 THETA_WORLD            Position angle (CCW/world-x)                               [deg]
#  10 FWHM_WORLD             FWHM assuming a gaussian core                              [deg]
#  11 ELONGATION             A_IMAGE/B_IMAGE                                           
#  12 ELLIPTICITY            1 - B_IMAGE/A_IMAGE                                       
         1 -11.5655    205.0361     24.5780   3.8592121582e+01   3.1412216090e+01     1.654869    0.8718525 -17.71  0.007415614    2.821    0.646
         2 -15.4402    219.8828     81.1817   5.0396669474e+01   2.0002529480e+01     10.27082     5.993873 -69.99   0.03362722    2.470    0.595
         3 -13.7098    217.7409     30.0009   3.8549846030e+01   2.7871286525e+01      4.44798     1.277963 -33.07  0.004376085    3.294    0.696
         4 -13.7071    245.9510     13.1643   3.2499734517e+01   2.3834532327e+01     0.903827    0.5186577 -18.55  0.004727789    2.718    0.632
         5 -14.8908    244.4523     74.1111   4.5558073401e+01   1.6004841767e+01     4.028224    0.8802541 -44.47   0.01315837    3.788    0.736
         6 -14.1929    249.9955     37.3390   3.7118904348e+01   2.0088370028e+01     2.172096    0.4339282 -33.50  0.004354296    4.834    0.793
         7 -14.1134    232.4829     30.8623   3.7311082213e+01   2.4540361271e+01     1.690497     1.172524 -56.41  0.006946958    1.242    0.195
         8 -13.6467    197.9120     80.4140   5.3614588884e+01   2.5037566626e+01     6.546852     2.608478 -25.85   0.01955346    4.256    0.765
         9  -8.8103    171.4821     24.7649   4.2744623407e+01   3.9373537873e+01    0.4938416    0.1347064 -27.73  0.001663689    4.046    0.753
        10  -8.2211    238.5229     14.0137   3.3214547099e+01   2.5265265923e+01    0.2730748    0.1634516 -25.31  0.001532758    2.064    0.515
        11  -9.6427    118.8235      3.1940   4.4426873483e+01   5.4140105774e+01    0.2258383    0.1801014  27.82 0.0006854046    1.293    0.227
        12  -9.8004    115.9733     12.5232   4.8337395670e+01   5.3997555967e+01    0.3004445    0.2097982  57.98  0.001134588    1.261    0.207
        13 -11.3896    120.3101      8.9689   4.6190655514e+01   5.3310448402e+01    0.4431256    0.3795202  54.36  0.001574905    1.016    0.015
        14  -9.1475     79.7175     10.7623   5.6792540125e+01   6.2051987151e+01    0.2096447    0.1478963 -10.16 0.0007234287    1.467    0.319
        15  -9.9988    128.3851      8.9067   4.4666737163e+01   5.1413719468e+01    0.2689492    0.1959585 -28.96  0.001077333    1.539    0.350
        16 -10.4022    235.1097      3.1972   3.1229573275e+01   2.7149997016e+01    0.3007064    0.2398807  24.52  0.001812775    2.049    0.512
        17  -9.4535    239.5053      2.5027   3.0794732862e+01   2.6310501144e+01    0.2011115    0.1434307  46.24 0.0005990276    2.015    0.504
        18  -7.7070    230.3574     10.9636   3.3195505671e+01   2.7324906191e+01    0.2348631    0.1640438 -20.01  0.001406433    1.909    0.476
        19 -10.0931    228.2127      1.7894   3.1415309739e+01   2.8750991664e+01    0.3435295    0.1478548 -88.23  0.001302346    2.440    0.590
        20 -10.7198    206.8609      1.9598   3.3082660685e+01   3.3422090539e+01    0.1785984     0.172355 -36.21 0.0008223426    1.317    0.240
        21  -8.5979    158.5360      2.9920   3.8283939608e+01   4.4684214798e+01    0.1728726     0.129434 -20.75  0.001022597    1.581    0.368
        22  -8.2883    222.2215      1.3287   3.1747398035e+01   3.0085596956e+01   0.09841358   0.09072905  35.90 0.0004152828    1.510    0.338
        23 -12.2176     66.7075    142.5504   1.0209966892e+02   3.8103941152e+01     1.486217     1.019299  44.95  0.005506379    1.539    0.350
        24 -11.1411    236.4743    174.8184   6.8546809919e+01   6.5703601956e-01    0.4704966    0.3507921  56.82  0.002070362    1.961    0.490
        25 -10.8599    230.7969    167.9652   6.8149415059e+01   2.7377058224e+00    0.5538378    0.2479211 -45.39  0.002334111    2.337    0.572
        26  -8.5134     47.9783    176.2521   1.1199953668e+02   3.2094153741e+01     0.170289    0.1541439  75.59 0.0001908822    1.084    0.078
        27  -9.4437    200.7548    174.0890   7.5111813279e+01   6.8862009658e+00    0.2875101    0.1900096 -20.87  0.001080563    1.662    0.398
        28 -12.9564      5.7918    167.3091   1.2133079157e+02   3.8285661857e+01    0.9113615    0.5904884 -80.66  0.004414225    1.242    0.195
        29  -9.5939    214.1404    168.9339   7.1417596455e+01   5.4365893100e+00    0.4009483    0.2417557  45.60  0.001134745    1.851    0.460
        30 -10.7803    242.8513    165.7992   6.5620218205e+01   1.1238539463e+00    0.3816182    0.2204395 -45.56  0.001902419    1.802    0.445
        31  -8.5330    206.0019    242.2340   8.6504549668e+01  -5.2018894934e+00    0.1698275    0.1306824  18.07 0.0002033879    1.067    0.063
        32 -14.0986    174.8234     79.3710   5.7482363574e+01   3.0626747229e+01     3.031829     1.556882  55.81  0.001930278    1.977    0.494
        33  -9.0723    136.5281    242.5043   1.0034904022e+02   5.2120429939e+00    0.1274095    0.1076004  38.47 4.560004e-07    1.016    0.016
        34 -12.0740     51.7537    147.2015   1.0712839857e+02   3.8825226065e+01    0.7729307    0.4985849 -84.54  0.001940385    1.631    0.387
        35 -12.2767     37.7547    153.3831   1.1184707763e+02   3.8823541178e+01    0.5120368    0.4528536 -18.86  0.001525731    1.426    0.299
        36 -12.5717     44.9016    149.8243   1.0942210536e+02   3.8948863961e+01     0.888655    0.6516846 -83.32  0.002618263    1.280    0.218
        37  -8.7330    154.1837    151.9752   8.0567453731e+01   2.0393241627e+01    0.2294895    0.2067605 -86.99 0.0005184687    1.292    0.226
        38 -10.3682    133.6856    145.1348   8.4109790162e+01   2.6047582931e+01     1.237689    0.3203216 -54.51  0.002856016    5.721    0.825
        39  -8.8963    132.7150    135.0657   8.2034212772e+01   2.8572702358e+01    0.2655968    0.1939235 -38.49  0.001205445    1.397    0.284
        40 -10.0601    204.6673    153.4531   6.9927291353e+01   1.0041545423e+01    0.4767314    0.3388594 -65.60  0.002109386    2.056    0.514
        41  -9.1708    173.4990    150.0212   7.5672218002e+01   1.6895822110e+01     0.234444     0.146733 -42.51 0.0008023459    1.559    0.359
        42  -9.3713    222.6462    145.1978   6.4749149386e+01   8.1817998563e+00    0.2018828    0.1931686  63.56  0.000375978    1.262    0.207
        43 -10.7211    179.5905    143.3679   7.2811113858e+01   1.7028683343e+01    0.4291507    0.2648596 -48.01  0.001764581    1.640    0.390
        44  -9.8678    196.9364    143.1883   6.9155566026e+01   1.3532105560e+01    0.3510859    0.2608369  69.89  0.001286162    1.890    0.471
        45  -8.8102    192.1371    144.1279   7.0342783080e+01   1.4313351471e+01    0.2168644    0.2053037 -41.99 0.0004495106    1.093    0.085
        46  -9.7538    159.6723    143.0146   7.7225679626e+01   2.1231915539e+01    0.3759794    0.2704253  71.38  0.001609196    1.973    0.493
        47  -9.9798    146.3530    142.4264   8.0299104805e+01   2.4111296292e+01    0.4533275    0.2718538 -75.25  0.001462262    3.528    0.717
        48 -10.2351    211.0557    136.2904   6.4857830385e+01   1.2038528977e+01     0.316003    0.2301756 -19.82  0.001227611    1.481    0.325
        49 -11.1327    177.9165    133.9818   7.0963985446e+01   1.9311262586e+01    0.8263345    0.4463922 -65.03  0.002557728    3.882    0.742
        50 -10.5921    140.2091    131.9987   7.9367100063e+01   2.7735732764e+01    0.4681552    0.3328055 -77.62 0.0008559406    2.050    0.512
        51 -10.2234    136.0096    127.3590   7.9308783908e+01   2.9662728779e+01    0.5743136    0.2053987 -52.10  0.001738837    3.160    0.684
        52  -8.9276    223.9666    128.7077   6.0841485959e+01   1.0904245475e+01    0.2164942    0.1892089 -63.36 0.0005936697    1.295    0.228
        53 -11.0581    159.9130    129.3087   7.3888049174e+01   2.4149094937e+01    0.5552825    0.4026601 -26.79  0.002501706    1.535    0.348
        54 -11.9175    201.6666    126.9429   6.4449128177e+01   1.5711129117e+01    0.6374974    0.5651031 -41.48  0.001561461    1.070    0.066
        55  -9.9965    171.4520    125.4125   7.0294013538e+01   2.2473179858e+01    0.3612041    0.3041592   0.65  0.001776334    1.375    0.273
        56  -9.3657    142.4274    122.4102   7.6422358407e+01   2.9419353398e+01    0.4030705    0.2614616 -70.94  0.001532656    2.369    0.578
        57  -7.9987    218.5219    122.5350   6.0363146212e+01   1.3091268328e+01    0.1442585    0.1299929 -38.38 0.0008091098    1.025    0.024
        58  -9.6949    135.2121    119.7605   7.7600190326e+01   3.1546455287e+01    0.2982194    0.2257597 -45.58  0.001236602    1.295    0.228
        59 -11.0517    135.3915    110.7421   7.5187278264e+01   3.3507400438e+01    0.8048811    0.4078778 -35.51  0.002958898    2.199    0.545
        60  -8.8136    204.9691    224.9455   8.3855580817e+01  -2.5003206564e+00    0.1830006    0.1618235  68.82  0.001129552    1.806    0.446
        61  -8.8111    228.9517    220.9983   7.8655723352e+01  -5.4138154298e+00    0.2421679    0.1544431  45.87  0.001085233    2.082    0.520
        62 -10.0543    161.5806    113.1865   6.9414161039e+01   2.7195608398e+01    0.2852516    0.2381823  43.66 0.0005507019    1.230    0.187
        63 -10.5089    164.5488    116.6899   6.9642790993e+01   2.5805600455e+01    0.3983071    0.3104573  76.58  0.001829436    1.641    0.391
        64 -10.2532    168.9329    115.6636   6.8396476539e+01   2.5040981571e+01    0.4465407    0.3191492 -58.79  0.002002229    1.588    0.370
        65 -13.8692    227.1601     70.4294   4.6867605659e+01   2.0145838009e+01     1.334871    0.8914919 -46.22  0.001961596    1.325    0.245
        66 -10.0615    121.0682    112.4359   7.9502339420e+01   3.6147157261e+01    0.4108572      0.27343 -66.63  0.001685474    1.970    0.492
        67 -11.0402    114.4912     93.8596   7.6211623864e+01   4.1596943406e+01    0.4366742    0.3314702  20.88  0.001411443    1.526    0.345
        68 -12.5395    123.1150    103.2113   7.6432507980e+01   3.7776563666e+01     1.264113    0.8613359 -64.98  0.005342119    1.891    0.471
        69 -12.2277    119.6802     94.5462   7.4932359502e+01   4.0366752056e+01     1.372673    0.8097472 -23.16  0.005157585    2.433    0.589
        70 -11.4366    134.9455    100.8181   7.2586133020e+01   3.5739610620e+01    0.8441464    0.4114506 -49.01  0.003132232    2.145    0.534
        71  -8.0744     80.3838    106.4834   9.0200461222e+01   4.5015964749e+01    0.1481969    0.1356183 -50.16 9.093709e-05    1.043    0.041
        72 -10.1702    224.7713    218.3492   7.8955012974e+01  -4.4282164054e+00    0.2182709    0.1848023   3.33 0.0003736417    1.095    0.087
        73  -9.9421    148.9088    103.5655   6.9835594581e+01   3.2045573159e+01    0.3366898    0.2882265  14.91 0.0006395656    1.329    0.247
        74  -8.7795    193.0083    218.9875   8.5189423766e+01   2.9152451060e-01    0.1914368    0.1675723  13.29  0.001204718    1.060    0.056
        75  -9.0112    206.2673    102.5060   5.7721049956e+01   1.9290395381e+01    0.2855442    0.1654138 -50.29 0.0007851858    1.745    0.427
        76 -10.7393    159.6175     99.0480   6.6089504263e+01   3.0516582923e+01    0.6072755    0.3846276  32.10  0.002509237    1.947    0.486
        77 -13.6111    247.2791     58.5665   4.1863116310e+01   1.7739360926e+01    0.5520548    0.3351602 -85.60  0.001556326    2.000    0.500
        78 -11.5850    173.6304     93.2796   6.1502072361e+01   2.8380018500e+01     1.010559     0.714793  31.01   0.00457564    1.726    0.421
        79 -10.2752    142.5693     94.2922   6.8803912511e+01   3.5379683628e+01    0.3517659    0.3192153 -78.29  0.000767597    1.221    0.181
        80 -14.2070    246.6333     52.6035   4.0650311089e+01   1.8712215545e+01     1.745713    0.2908887  56.18  0.005436737    5.887    0.830
        81 -11.3322    157.6798     90.4149   6.4137460900e+01   3.2652441088e+01    0.3566591    0.2777449 -31.50 0.0005881047    1.322    0.244
        82 -10.4550    244.4485    156.1562   6.3367530910e+01   2.4638914249e+00    0.3360144    0.2224661  68.10  0.001559244    2.906    0.656
        83 -10.1267     97.5703     87.3483   7.9386623238e+01   4.6345760631e+01    0.2564839    0.2468154 -16.34 0.0003010512    1.026    0.026
        84  -8.0297    109.2745     86.3545   7.5511678382e+01   4.4247089785e+01    0.1559691    0.1176061  -8.94 0.0005732851    1.644    0.392
        85 -11.2163    127.3016     75.9556   6.7252486946e+01   4.2414870137e+01     0.446988    0.3429998  20.25  0.002129097    1.528    0.346
        86  -9.3545    158.8286    157.6696   8.0724387289e+01   1.8220115169e+01    0.4661164    0.3053148 -76.17  0.001766246    2.737    0.635
        87  -9.7142    137.3918     71.2561   6.3240368958e+01   4.0954388376e+01    0.2102647    0.1391314 -46.73 0.0003199262    1.585    0.369
        88 -10.1272    125.4552     69.8180   6.5807141546e+01   4.3955468879e+01    0.3335961    0.2465404 -55.17 0.0007341514    1.558    0.358
        89 -11.2835    144.5434     63.9834   5.9323372543e+01   4.0511598777e+01    0.3900405    0.3059846  46.38 0.0007334549    1.255    0.203
        90 -12.2283    143.6585     59.0947   5.8007889194e+01   4.1517336627e+01     0.664066    0.5416957  46.92   0.00263413    1.197    0.164
        91 -11.1663    134.9393     60.5362   6.0466487241e+01   4.3355797342e+01    0.4116738    0.3461263 -23.50  0.002171507    1.254    0.202
        92  -9.9439    125.1039     59.3458   6.2507408419e+01   4.5836163148e+01    0.2851019     0.210804 -44.34 0.0008948468    1.432    0.301
        93  -8.3587     72.5863     58.4602   7.8447322097e+01   5.6578839806e+01    0.1379978    0.1240999 -12.80 0.0001157974    1.032    0.031
        94 -10.5260    191.6113    153.4937   7.2563992809e+01   1.2564679686e+01    0.6065976    0.3498866 -42.84  0.002668205    1.674    0.403
        95 -10.9656    144.4778     50.6952   5.5203577572e+01   4.2608658011e+01    0.5682555    0.2372391  49.03  0.002179832    2.285    0.562
        96  -9.1925    194.1803    214.4974   8.4173452932e+01   8.4714344715e-01    0.2104333    0.1743378 -28.54 0.0002844141    1.242    0.195
        97  -8.6896    209.4149     44.7036   4.2982087702e+01   2.7847673468e+01    0.1691216    0.1277942 -28.37 0.0009325421    1.469    0.319
        98  -9.8476    103.3397     43.5579   6.2915876242e+01   5.3134080749e+01    0.2606645    0.1716375 -25.72 0.0006647356    1.596    0.374
        99 -11.3716    162.9864     39.3536   4.8241840045e+01   3.9669044636e+01    0.6732333    0.4510939 -24.09  0.002229128    1.701    0.412
       100  -8.7063    158.6674     35.2783   4.7768369507e+01   4.1250145100e+01    0.2157668    0.1671627 -60.57 0.0005292358    1.385    0.278
       101  -8.3477     24.4645     43.5504   9.3268363539e+01   6.5589309329e+01    0.1261878   0.09799761 -26.35 6.222633e-05    1.035    0.034
       102 -11.2486    122.9920     39.1218   5.6200506879e+01   4.9345300988e+01    0.3366967    0.2892342  13.96  0.001904349    1.229    0.186
       103 -10.7912    109.6042     40.1360   5.9934707941e+01   5.2254099555e+01    0.3821871    0.2647905 -39.53  0.001959495    1.565    0.361
       104  -8.9936    247.1207    211.4746   7.3719469036e+01  -6.5614022470e+00      0.17527    0.1087032  28.12 0.0008400145    1.573    0.364
       105 -10.7650    126.3894     29.5820   5.2139744679e+01   4.9753247713e+01    0.2581559    0.2208718  37.02 0.0005652497    1.126    0.112
       106 -10.5852    145.4740     29.4394   4.8298154268e+01   4.5185129850e+01    0.2648021     0.226331  15.13  0.001522516    1.342    0.255
       107  -8.8613    195.0440    209.6899   8.3145784130e+01   1.5151217197e+00    0.1870781    0.1541234  16.97 0.0003790859    1.083    0.077
       108  -9.8200    179.1355     24.2300   4.1562676599e+01   3.7579465766e+01    0.4166099     0.329704  83.72  0.002439202    1.165    0.142
       109  -8.8073    167.8090     26.3566   4.3719841245e+01   4.0086376616e+01    0.2327421    0.1537734  58.88 0.0007119176    1.401    0.286
       110  -9.3794     92.3920     25.0351   5.8989356719e+01   5.7911454442e+01    0.3050772    0.1483589 -26.94  0.001245388    2.177    0.541
       111 -12.1889     18.9361    153.7111   1.1685894992e+02   4.0495605138e+01    0.5648027    0.3844006  82.24  0.003273063    1.372    0.271
       112  -8.7179    169.7370    202.7416   8.7170975930e+01   7.0025871451e+00    0.2666915    0.2020966  75.82  0.000781261    2.117    0.528
       113  -8.8417    211.9813     16.4801   3.5980355048e+01   3.0752777776e+01    0.1692093    0.1110393  76.03 0.0004471101    1.406    0.289
       114  -8.4697    153.3515     16.2953   4.2923868313e+01   4.4700216876e+01      0.13992   0.08986236  41.28 0.0003324043    1.683    0.406
       115 -10.1418    162.0815    204.2496   8.9094813299e+01   8.0369229261e+00    0.2392682    0.2153024 -15.74 0.0003168967    1.137    0.121
       116 -10.3311    192.5217    194.0385   8.0759013217e+01   4.6756744426e+00    0.6702476    0.3605777 -62.85  0.002190689    4.821    0.793
       117  -8.2954    228.7054    199.3236   7.4739325048e+01  -2.0962112315e+00    0.1134211    0.1051576 -62.32 0.0007019296    1.619    0.382
       118  -8.0668    164.6425    198.3436   8.7487283135e+01   8.7282144080e+00    0.1427167    0.1116162  72.70 -3.173343e-06    1.829    0.453
       119  -8.9446     46.5895    191.8732   1.1403339076e+02   2.8562949146e+01    0.1794214    0.1681138  55.97 0.0004834741    1.210    0.173
       120  -9.4403     79.3580     18.1738   6.0108514451e+01   6.1349179709e+01    0.1724439    0.1130965 -33.58 0.0008733451    1.688    0.407
       121  -8.7031    184.0741    189.4506   8.1635874846e+01   6.9961266563e+00    0.1974792    0.1774728 -17.04  0.000135332    1.077    0.072
       122 -11.0450    210.1369    186.6952   7.5802284626e+01   2.9770852862e+00    0.6946456    0.3383092  39.43  0.003116116    2.082    0.520
       123 -10.0669    220.2157    184.4082   7.3420952695e+01   1.6910899948e+00    0.2361376    0.2140064 -24.76 0.0006638491    1.180    0.152
       124 -10.4466    216.6867    182.0075   7.3608543400e+01   2.6894790961e+00     0.245224    0.2343695   0.85 0.0009256307    1.203    0.169
       125  -8.7070    235.7758    187.4086   7.1170748517e+01  -1.2825414046e+00    0.1713127    0.1143696  21.57 0.0004590965    1.540    0.351
       126  -8.7521    247.3191    186.3285   6.8956811742e+01  -2.8499786154e+00    0.1341968   0.08651591  -5.31  0.000701219    1.685    0.406
       127  -9.9765    159.5363     26.6682   4.5066549719e+01   4.2072184799e+01    0.2587327    0.2258057 -84.50 0.0003587404    1.131    0.116
       128 -11.9755    226.3718    175.6098   7.0512269053e+01   2.1711087610e+00    0.7973216    0.5277138  14.17  0.004064281    1.752    0.429
