#   1 NUMBER                 Running object number                                     
#   2 MAG_AUTO               Kron-like elliptical aperture magnitude                    [mag]
#   3 X_IMAGE                Object position along x                                    [pixel]
#   4 Y_IMAGE                Object position along y                                    [pixel]
#   5 X_WORLD                Barycenter position along world x axis                     [deg]
#   6 Y_WORLD                Barycenter position along world y axis                     [deg]
#   7 A_WORLD                Profile RMS along major axis (world units)                 [deg]
#   8 B_WORLD                Profile RMS along minor axis (world units)                 [deg]
#   9 THETA_WORLD            Position angle (CCW/world-x)                               [deg]
#  10 FWHM_WORLD             FWHM assuming a gaussian core                              [deg]
#  11 ELONGATION             A_IMAGE/B_IMAGE                                           
#  12 ELLIPTICITY            1 - B_IMAGE/A_IMAGE                                       
         1 -14.8877     68.3789    144.2458   1.0001556769e+02   3.7604582082e+01     4.927613     2.648233  70.74   0.01322738    3.479    0.713
         2 -14.5281    203.1631     40.4453   4.1023691849e+01   2.9602119717e+01     1.929506     1.449815  33.39  0.006488562    1.822    0.451
         3 -14.3977    215.3454     28.7257   3.6918137398e+01   2.8311726580e+01      1.14727    0.9618374   9.95   0.00706918    1.751    0.429
         4 -12.7571    243.7371      4.9354   2.9613778496e+01   2.4979260446e+01    0.4819297    0.4502414 -39.66  0.003715239    1.422    0.297
         5 -12.6297    237.3454      4.3489   2.9910179487e+01   2.6336353379e+01    0.4879968    0.3347222 -51.66  0.003269201    1.256    0.204
         6 -10.3550     55.6929      5.4556   6.0063751884e+01   6.6841053536e+01    0.2207666    0.1102182  52.22  0.001127515    2.096    0.523
         7 -10.0191    110.5192    202.4793   9.8643935972e+01   1.7163541278e+01    0.2005222    0.1364374 -72.87 -2.727012e-06    1.738    0.425
         8 -10.4089    139.9865    249.9768   9.8857816813e+01   3.3747886812e+00    0.1983159    0.1380896  57.72  0.001134479    1.672    0.402
         9 -13.1927     67.7843    171.8992   1.0467886116e+02   3.0798192851e+01     1.281867     0.606208 -34.13  0.004074093    4.576    0.781
        10 -13.7510     82.2271    219.4169   1.0735773495e+02   1.7849121167e+01     1.762543     0.632138  40.78  0.002727716    2.380    0.580
        11 -14.9187     39.9983    198.9634   1.1467110333e+02   2.7828791373e+01     1.844725     1.063088  76.58  0.005472222    1.784    0.440
        12 -14.4384     49.8760    189.2774   1.1138237612e+02   2.8920808624e+01     1.754112     1.049653  77.63  0.008737256    1.822    0.451
        13 -14.1896     19.8452    220.3326   1.2063414784e+02   2.5291149732e+01    0.6949111    0.5118999  67.60  0.001753396    1.089    0.082
        14 -17.5582     18.9669    242.2353   1.2211299277e+02   2.0945347359e+01     8.160346     6.261473  59.06    0.0582732    1.119    0.106
        15 -10.3767    149.5400    187.4128   8.6919430234e+01   1.3629014340e+01    0.3054759    0.2329663  84.38  0.001081034    1.948    0.487
        16  -8.6883     76.2733    184.6498   1.0433691613e+02   2.6527682576e+01    0.1451276   0.09966037  73.84 0.0002960045    1.632    0.387
        17  -9.5460     79.8422    182.5693   1.0314457725e+02   2.6503509970e+01    0.2968984    0.1806813 -86.56  0.001313916    2.066    0.516
        18 -10.0110     99.3407    180.8379   9.7955252276e+01   2.3887402734e+01     0.256563    0.2073404  31.70 0.0006477818    1.280    0.219
        19 -10.6050    189.4442    177.5939   7.6155986147e+01   8.2749768060e+00    0.4513407    0.3300706 -63.33  0.002171445    1.927    0.481
        20 -12.8080     79.2694    160.1904   9.9755956683e+01   3.2039165784e+01    0.9375941    0.4842977  52.43 0.0005253598    2.233    0.552
        21 -13.6655     67.1536    155.7050   1.0234254272e+02   3.4897815598e+01    0.6564087    0.4840332 -50.49  0.001364425    1.350    0.259
        22 -16.2327      9.3677    208.0168   1.2196144032e+02   2.8934632118e+01     4.519731      1.35883 -67.43   0.01272648    2.830    0.647
        23 -11.4396     32.4260    156.0112   1.1193033844e+02   3.8921795696e+01    0.4223759     0.310692 -87.50  0.002039698    1.248    0.199
        24 -12.3749     86.6128    153.6020   9.6551846054e+01   3.2540395518e+01    0.6451957    0.4635031 -18.05  0.002929003    1.972    0.493
        25 -11.3014    133.6301    144.5902   8.1938347047e+01   2.6185801854e+01     1.211203    0.3156343 -54.03  0.002801473    5.669    0.824
        26  -9.3693    111.9813    150.1332   8.8883438046e+01   2.9040138596e+01    0.2563832    0.1724344  65.09  0.001071433    1.963    0.491
        27 -10.8101    174.5628    149.1427   7.3200328375e+01   1.6832037678e+01    0.3402777    0.2252593  33.72  0.001039385    1.608    0.378
        28  -9.5751    148.4269    175.2201   8.4820773590e+01   1.6429525609e+01    0.2402935    0.1870615 -66.87 0.0009297354    1.552    0.355
        29  -9.4098     35.8409    145.1073   1.0955918069e+02   4.1296535026e+01    0.1812459    0.1422881 -47.99  0.000405039    1.305    0.234
        30 -10.9208    204.6059    200.2023   7.7530459888e+01   1.5715990042e+00    0.2042088    0.1512748   2.83  0.001119966    1.361    0.265
        31 -10.9810    100.9201    139.3609   8.9630595250e+01   3.3647213241e+01    0.5633687    0.3670835 -20.89  0.002243864    2.328    0.570
        32 -10.1383    197.6625    139.1080   6.6077167969e+01   1.4144492556e+01    0.3173181    0.2260674 -62.13  0.001468074    1.792    0.442
        33 -12.4310     88.1540    138.9209   9.3207872984e+01   3.5934467588e+01     0.303166    0.2658298 -42.52 0.0004389478    1.143    0.125
        34 -10.5793     23.9975    136.7172   1.1182528202e+02   4.4494779814e+01    0.1754634    0.1625139 -75.99 0.0004546351    1.102    0.092
        35 -10.5751    105.8991    130.8865   8.6289442505e+01   3.4796096055e+01    0.3948017    0.3208796 -55.23  0.001469659    1.215    0.177
        36 -10.3555    110.3486    129.9781   8.4809144964e+01   3.4177882363e+01    0.3464773    0.2641078   6.48 0.0009075582    1.700    0.412
        37 -11.0556    135.5376    128.1819   7.7533490881e+01   2.9542197802e+01    0.4836645    0.2703769 -52.79  0.001900297    1.894    0.472
        38 -10.2454    146.3297    171.6680   8.4606260942e+01   1.7598279056e+01    0.2769487    0.1865829 -59.98 0.0009668228    1.731    0.422
        39 -10.0887    230.4687    166.5055   6.5959900448e+01   3.0733084545e+00    0.1364753    0.1174004 -19.90 0.0001284374    1.021    0.020
        40  -9.5737    160.6170    127.8014   7.1280466788e+01   2.4256736396e+01    0.2297354    0.1435573 -52.14 0.0009520093    1.702    0.413
        41 -11.4087     97.7187    125.9611   8.7505785541e+01   3.7471106121e+01     0.322534    0.2692271  -8.45 0.0008714219    1.407    0.289
        42 -10.2824     36.6159    161.8786   1.1153075615e+02   3.7044529382e+01    0.2956592    0.1996157  19.06  0.001142773    1.851    0.460
        43 -10.1990    116.9389    124.0367   8.1505893072e+01   3.4295951769e+01    0.2573029    0.1937899 -10.04  0.001127017    1.756    0.431
        44 -11.0895     30.7062    123.0132   1.0777640166e+02   4.7310936174e+01     0.402958    0.1619803  45.92   0.00160306    3.071    0.674
        45 -10.4631     26.2067    120.6408   1.0881792326e+02   4.8296397302e+01    0.2076211    0.1743904 -87.30 0.0007364735    1.187    0.157
        46  -9.8700    107.1162    118.9013   8.3014640226e+01   3.7411325859e+01     0.218534    0.2137399 -33.01 0.0002927664    1.010    0.009
        47  -9.5957     84.0160    118.2050   8.9815935917e+01   4.1698361500e+01    0.2223725    0.1971673  75.24 0.0005169486    1.287    0.223
        48 -10.2453     39.8924    113.1860   1.0305395601e+02   4.8851108690e+01    0.2031857    0.1767889  84.35 0.0004602354    1.264    0.209
        49 -10.2589    205.4189    110.1140   5.7789441171e+01   1.7997786518e+01    0.3003636    0.2200564  44.02 0.0008857794    1.494    0.331
        50  -8.6160    130.3335    159.6365   8.6073440756e+01   2.3356835524e+01    0.1613622    0.1218773  80.90 0.0007036594    1.816    0.449
        51  -9.8721    134.5685    105.2841   7.1788026729e+01   3.4779794967e+01    0.3118606    0.1495843 -47.27  0.001143079    2.119    0.528
        52 -11.2591     42.0079    103.3994   1.0033207927e+02   5.1013671563e+01    0.4926524    0.2089469  43.93  0.001237556    2.979    0.664
        53 -13.3119    245.3012     95.3333   4.8361622650e+01   1.2452028397e+01    0.8627444    0.3650255 -44.42  0.003814017    2.020    0.505
        54 -10.5406     52.8627     91.0661   9.3523985123e+01   5.2666048434e+01    0.2678456    0.1724938 -46.97 0.0006902146    1.376    0.273
        55  -9.3892     17.1646     90.1250   1.0652387683e+02   5.6362985479e+01    0.1609701    0.1443673  85.63 0.0003925042    1.294    0.227
        56 -10.4155    120.8775     98.8653   7.3667572841e+01   3.9111565544e+01    0.2424024    0.2149088   0.60 0.0006713881    1.221    0.181
        57  -9.7459    234.2950     86.3366   4.7818067037e+01   1.6047414660e+01    0.1280278    0.1046137  -1.04 0.0002899035    1.648    0.393
        58  -9.6490     73.4221     83.9334   8.4149046282e+01   5.1315296503e+01    0.2462305    0.1971667  53.94 0.0005849921    1.527    0.345
        59  -9.8329    159.7440     82.6379   5.9450646637e+01   3.3430696858e+01    0.2041072    0.1936663 -25.00 0.0007115795    1.091    0.083
        60  -9.6476    151.0759     82.8780   6.1416891941e+01   3.5438918292e+01    0.2345117     0.200609 -78.48 0.0006173557    1.333    0.250
        61  -8.6274     95.3242     68.6413   7.1914358344e+01   5.0443315098e+01    0.1452825      0.11889 -82.41 0.0007043963    1.776    0.437
        62 -10.6948     51.3960     64.0586   8.6161767806e+01   5.8681878583e+01    0.3492583    0.2368611  49.21  0.001157083    2.008    0.502
        63 -10.7333     13.4244     59.9744   1.0108628715e+02   6.3332069969e+01    0.2387045    0.1942634 -52.71  0.000448165    1.174    0.148
        64 -13.0665    193.7364     47.0553   4.3881938836e+01   3.0914893326e+01    0.6826031    0.5954121  40.82 0.0009454637    1.353    0.261
        65  -9.7693     90.0381    212.5829   1.0478297262e+02   1.8167879481e+01    0.2429736    0.1745545  87.51 0.0005671163    1.570    0.363
        66 -11.9209    193.3274    195.2471   7.8853156352e+01   4.3178551325e+00    0.9338342     0.524559 -63.72  0.003189216    4.528    0.779
        67  -9.7315     78.1490     57.2238   7.3672260238e+01   5.5763390362e+01    0.2421852    0.1894712  56.76  0.001235226    1.630    0.387
        68  -9.0676     60.9863     48.5029   7.6806620117e+01   6.0178213047e+01    0.1738487    0.1168112  58.81  0.000809913    2.504    0.601
        69 -10.3366    138.2242     44.1880   5.2452616263e+01   4.4737504612e+01    0.4472575    0.2793369 -82.60  0.001693514    2.631    0.620
        70 -10.8318    187.9835     31.0306   4.0530307945e+01   3.4337127416e+01    0.2084282    0.1836934 -85.29   0.00060323    1.007    0.007
        71 -10.2084    197.9538     23.7024   3.7535331191e+01   3.2855792622e+01    0.2508467    0.1890097  -5.16  0.001159799    1.904    0.475
        72 -10.1982      2.1109     24.9138   9.5451503919e+01   7.0821187198e+01    0.1582192    0.1357377 -28.35 0.0003931666    1.241    0.194
        73  -9.4298    189.6658     15.0164   3.6284287497e+01   3.5737756537e+01    0.1751166    0.1532787 -61.09 0.0006131503    1.134    0.118
        74 -10.4349    107.5694    203.7244   9.9521077762e+01   1.7370367078e+01    0.2435937    0.2220704  65.66 0.0006697277    1.066    0.062
        75  -9.6163    112.1973    205.4155   9.8692417058e+01   1.6257324337e+01    0.2021377    0.1886513 -72.32 0.0002881473    1.136    0.120
