#   1 NUMBER                 Running object number                                     
#   2 MAG_AUTO               Kron-like elliptical aperture magnitude                    [mag]
#   3 X_IMAGE                Object position along x                                    [pixel]
#   4 Y_IMAGE                Object position along y                                    [pixel]
#   5 X_WORLD                Barycenter position along world x axis                     [deg]
#   6 Y_WORLD                Barycenter position along world y axis                     [deg]
#   7 A_WORLD                Profile RMS along major axis (world units)                 [deg]
#   8 B_WORLD                Profile RMS along minor axis (world units)                 [deg]
#   9 THETA_WORLD            Position angle (CCW/world-x)                               [deg]
#  10 FWHM_WORLD             FWHM assuming a gaussian core                              [deg]
#  11 ELONGATION             A_IMAGE/B_IMAGE                                           
#  12 ELLIPTICITY            1 - B_IMAGE/A_IMAGE                                       
         1 -14.1035    236.1490     44.2294   8.7929149995e+00   2.8408867998e+01    0.6393705     0.401502 -67.24  0.002983021    1.067    0.063
         2 -12.1392      2.4471      2.6040   5.0400791616e+01   7.5895938594e+01     0.385618    0.2598961 -53.79  0.002595141    2.063    0.515
         3 -12.0430      5.6617     11.8843   5.2280651257e+01   7.4214203218e+01    0.3214537     0.166997  39.13  0.001173471    1.726    0.420
         4 -10.4742    183.6671      3.6675   5.6215839805e+00   4.1521046004e+01    0.3354529    0.1111073 -65.06  0.001472902    2.762    0.638
         5 -10.8832     71.9069      7.6303   2.1199951517e+01   6.3096691008e+01    0.2354984    0.1236423  74.40   0.00128622    1.837    0.456
         6 -12.5310    133.3939    230.3602   5.3382237599e+01   8.1447807368e+00    0.4371343    0.2749506 -29.94  0.002173005    1.577    0.366
         7  -9.5531     77.9597    250.4538   6.8881735483e+01   9.1920567699e+00    0.1945716    0.1198618  19.48 7.898505e-05    1.477    0.323
         8 -10.9980     75.1306    246.6529   6.9223870283e+01   1.0311350801e+01    0.5560377    0.1880964 -57.48  0.002197944    2.802    0.643
         9 -16.0434     57.6390    233.1642   7.2515085981e+01   1.5174792372e+01     5.763678     3.729579 -59.81   0.02891251    1.596    0.373
        10 -15.2884      8.7263    238.0092   8.6192230282e+01   1.8246339869e+01     2.514862     1.002174  14.34   0.01001103    2.509    0.601
        11 -16.2327      5.1470    216.2111   8.6036200168e+01   2.4118162644e+01     4.078949     1.992866  13.06   0.01729675    2.101    0.524
        12 -12.3780     72.0557    228.4371   6.8165898451e+01   1.4888082091e+01    0.6766122    0.4083412 -85.01  0.003074071    2.117    0.528
        13 -11.0085    176.2684    230.8019   4.4827308376e+01   4.0723164183e+00    0.2209371    0.1716455 -21.16  0.001056197    1.140    0.123
        14 -11.1340    148.4209    228.2956   4.9906835573e+01   7.0987966899e+00    0.2511974    0.1008691 -50.79  0.001151409    2.152    0.535
        15 -12.9367     96.9639    226.3636   6.1463888610e+01   1.2779970842e+01    0.5936781    0.3088378  27.98  0.002736708    1.821    0.451
        16 -12.8127    106.0092    228.6575   5.9507451581e+01   1.1305808949e+01    0.5452849    0.2350224  24.71  0.002334118    2.219    0.549
        17 -12.5825     88.7878    223.4856   6.3204127547e+01   1.4326143468e+01    0.5756078    0.3773551 -83.07  0.002752486    1.946    0.486
        18 -16.4896     21.8410    180.3966   7.8258939828e+01   3.2679702117e+01     9.030128     3.330769 -83.13   0.02934012    3.144    0.682
        19 -10.8764    164.5956    225.7885   4.6343023710e+01   6.0612810924e+00    0.1675439    0.1082796 -60.94 0.0007933445    1.694    0.410
        20 -10.6641    174.9384    223.5087   4.4091761648e+01   5.5460282226e+00    0.1577144    0.1122762  15.38 0.0003509216    1.528    0.346
        21 -10.1859    139.8344    221.8094   5.0846657163e+01   9.2835271573e+00    0.1957757    0.1523015 -29.09 0.0005246381    1.183    0.155
        22 -11.0807     95.1509    219.8344   6.1122971534e+01   1.4505788244e+01    0.2046325    0.1886657  54.03 0.0005834685    1.191    0.160
        23 -16.3971     32.7030    174.0510   7.3997864070e+01   3.3470156065e+01     8.092194     3.361169  64.31   0.02432124    3.786    0.736
        24 -15.2963      9.7731    206.9942   8.4126437763e+01   2.6250263746e+01     2.162392     1.180523  -3.52  0.003449394    2.239    0.553
        25 -10.1959    130.8732    202.4701   5.0114360511e+01   1.4456756703e+01    0.2928559    0.1875234 -67.07  0.001466301    1.733    0.423
        26  -9.8660    123.7451    201.4048   5.1600903769e+01   1.5538416607e+01    0.2364317    0.1604887 -68.75 0.0005755294    1.633    0.387
        27 -10.0878    210.8592    198.8602   3.4707768589e+01   6.7628274947e+00    0.1662462    0.1176601 -36.74 0.0004515579    1.166    0.142
        28 -10.2259    194.7353    197.4840   3.7025213500e+01   8.5329543996e+00    0.2459891    0.1217703 -60.66  0.001257163    2.223    0.550
        29 -10.9709     97.3323    197.9082   5.7665838621e+01   1.9570686687e+01    0.2765298    0.1374733 -71.33 0.0008401579    2.431    0.589
        30 -11.0938    101.8352    194.8098   5.6050901428e+01   1.9777573305e+01     0.228297    0.1916649 -26.85  0.001240113    1.230    0.187
        31 -11.6572     68.8666    193.4829   6.4982883856e+01   2.4141669045e+01    0.5676508    0.2969383  63.97   0.00205688    2.823    0.646
        32 -12.2928    107.8094    190.8880   5.3945567695e+01   1.9982030634e+01    0.3556944    0.2716207 -62.79  0.001871488    1.300    0.231
        33  -9.5628    206.7513    190.5607   3.4154590074e+01   8.6175541310e+00     0.123674    0.1084932  50.67 0.0009308339    1.541    0.351
        34 -10.4984     72.8972    188.2109   6.3113045656e+01   2.5054467587e+01    0.3063854     0.208438  88.88 0.0008222751    1.779    0.438
        35 -11.6612     79.6895    185.6910   6.0798561828e+01   2.4875640917e+01      0.59385    0.2885853  47.47  0.002288086    2.313    0.568
        36 -14.4824     13.2338    248.0078   8.5507656304e+01   1.5461044585e+01    0.9502186    0.6738833  21.24  0.003764387    1.298    0.229
        37 -13.7167      1.8771    249.5082   8.8527705009e+01   1.5960914756e+01    0.6589951     0.496837 -51.90  0.003792813    1.523    0.343
        38 -11.2254    100.5553    183.5530   5.4726622037e+01   2.2725220807e+01     0.358027     0.254125  62.21 0.0007357314    1.716    0.417
        39 -10.9963    116.0371    182.0159   5.0538432877e+01   2.1048007824e+01    0.2200727    0.2054078 -49.97 0.0007088963    1.011    0.011
        40 -12.3505     81.0937    132.3274   5.1589184332e+01   3.8531430307e+01    0.3111158    0.2765638 -61.93 0.0004455476    1.115    0.103
        41 -13.6825     71.7552    128.3951   5.3810410682e+01   4.0980700382e+01     1.748963    0.7916773  52.73  0.001458212    2.766    0.639
        42 -13.4024     54.8131    111.1677   5.6313099072e+01   4.7857661743e+01     1.103534    0.5288471 -64.22 0.0006680336    2.220    0.550
        43 -14.3994     56.0277    143.8505   6.1878865652e+01   3.9195821615e+01     2.054049    0.7054507 -55.07  0.006946402    2.697    0.629
        44 -12.2109     51.8886    161.8378   6.6026833154e+01   3.4792497123e+01    0.4865535    0.3391952 -16.28  0.002152487    1.787    0.441
        45 -11.9180     57.7448    157.8767   6.3503712921e+01   3.5156176446e+01    0.3939359     0.294785 -23.61 0.0005863602    1.583    0.368
        46 -12.6192     64.6526    154.5991   6.0733462901e+01   3.5140619837e+01    0.5569174    0.4243057  71.33  0.002658304    1.466    0.318
        47 -14.6888     69.2655    148.2623   5.8202966452e+01   3.6197598189e+01     2.322405     1.314415  76.07  0.003401823    2.830    0.647
        48 -13.3107     77.8926    144.2262   5.4774434875e+01   3.5998697507e+01     1.098089    0.7004498 -55.82  0.004994927    1.532    0.347
        49 -12.2130     72.7053    169.3263   6.0482609297e+01   3.0108357052e+01    0.7267705    0.3395678 -74.62  0.002587224    2.635    0.621
        50  -9.8285    167.4221    156.3303   3.5377145022e+01   1.9741797869e+01    0.1697477    0.1074791 -60.86 0.0005425403    1.456    0.313
        51  -9.3815     52.9952    172.0100   6.7058769514e+01   3.1843552861e+01    0.1794861     0.171682 -80.53 0.0003391658    1.039    0.038
        52 -10.1689    134.3403    148.8495   4.0693770493e+01   2.6128680252e+01    0.2792685    0.1215942 -62.45  0.001080031    2.524    0.604
        53 -11.0602    108.9517    145.4943   4.6165168192e+01   3.0867512550e+01    0.2738126    0.2556525  76.37  0.000651968    1.070    0.066
        54 -10.8899     36.8124    142.7460   6.8577895854e+01   4.1851685607e+01    0.3270543    0.2565155 -82.63 0.0007776353    1.321    0.243
        55 -12.1825     69.3856    164.3391   6.0748599285e+01   3.1884636129e+01    0.6062293    0.3988544  77.95  0.001585492    1.939    0.484
        56 -11.2781     19.5622    137.1150   7.4379558501e+01   4.5153237623e+01    0.2783529     0.211012  54.81  0.000388089    1.375    0.273
        57 -11.8005     94.6091    133.4854   4.7804105581e+01   3.6069524986e+01    0.5869326     0.411098 -64.83  0.002861159    1.418    0.295
        58 -11.8956     44.3008    131.6910   6.4067351248e+01   4.3985797525e+01     0.442637    0.2862768 -73.53  0.001980707    1.629    0.386
        59 -11.7514     34.5946    133.4606   6.8026510374e+01   4.4654557085e+01    0.2737851    0.2578938  53.50 0.0002407841    1.057    0.054
        60 -10.1292    110.5909    167.1487   4.9511841206e+01   2.5386938184e+01    0.2238792    0.1940894  55.68 0.0004710252    1.225    0.183
        61  -9.2200    118.4880    132.5143   4.1345478947e+01   3.2343432489e+01     0.142988    0.1275367 -85.22 0.0008093599    1.072    0.067
        62 -10.8009    105.4438    130.7911   4.4311880162e+01   3.4918347467e+01    0.3748936    0.2691249 -66.48  0.001067169    1.379    0.275
        63  -9.9548    106.4763    126.5301   4.3203239692e+01   3.5733080865e+01    0.2334994    0.2085171 -25.06 0.0007649086    1.361    0.265
        64  -9.6055    135.6492    130.2995   3.7018837038e+01   2.9988053546e+01    0.1401461    0.1002833  84.42 0.0007037059    1.692    0.409
        65 -11.4190     36.4411    126.6980   6.6237385009e+01   4.6274933327e+01    0.5063511    0.2848741  58.80  0.001363999    2.184    0.542
        66 -10.9097     38.8304    122.5873   6.4609456348e+01   4.7085376802e+01    0.3431994    0.1412034  24.41  0.001242801    2.418    0.586
        67 -11.2840     19.2191    123.8033   7.2725334410e+01   4.8846753812e+01    0.3320147    0.2175888  68.66 0.0006647705    1.789    0.441
        68 -11.1520     93.4442    121.8050   4.5824901558e+01   3.9051553702e+01    0.3320644    0.2796048  -5.79 0.0007073287    1.582    0.368
        69 -10.3173    101.8302    167.1943   5.1807037970e+01   2.6629711963e+01    0.1987835    0.1690087 -23.11 0.0003345508    1.314    0.239
        70 -11.3468     31.5676    120.8281   6.7204104288e+01   4.8396535943e+01    0.3288035    0.3082295  57.33  0.000831222    1.078    0.073
        71 -10.1766    113.4454    120.4461   4.0209661090e+01   3.5909531309e+01    0.3084339    0.1323006 -56.44  0.001148627    2.268    0.559
        72 -10.8145     25.3951    116.6054   6.9053549280e+01   5.0176349666e+01     0.346061    0.1877398 -84.58  0.001384113    2.282    0.562
        73 -10.1843     58.6427    166.0431   6.4410147441e+01   3.2804830004e+01    0.4072316    0.1785021 -44.45  0.001179162    2.576    0.612
        74 -10.2216     35.8651    117.8395   6.4958215697e+01   4.8689848830e+01    0.2228907    0.2139591  57.21 0.0003964793    1.043    0.041
        75 -10.3998     39.4152    115.7671   6.3162637508e+01   4.8795971089e+01    0.2656694    0.2033515  24.10 0.0005224037    1.295    0.228
        76 -11.7811     38.2760    111.5949   6.2845531522e+01   5.0009531662e+01    0.5350251    0.2721412  57.29  0.001339961    2.639    0.621
        77 -10.0694    104.2998    116.1620   4.1673824025e+01   3.8465403376e+01    0.2124442     0.190962  40.52 0.0003910096    1.221    0.181
        78 -10.3350    243.5060    114.4849   1.8551116876e+01   1.7461027161e+01    0.1053022   0.07128734 -59.08 -5.028505e-05    1.045    0.043
        79 -12.7627     19.3443    112.2709   7.0939117281e+01   5.1912994075e+01    0.6542481    0.4290656  53.59  0.001253806    1.687    0.407
        80 -10.9769     15.6384    109.1907   7.2081124705e+01   5.3055611712e+01     0.359842    0.1756278  32.47  0.001157217    1.941    0.485
        81 -10.2601    118.7409    109.5640   3.6703270060e+01   3.7324095294e+01    0.3020874    0.1567917 -44.19  0.001322707    2.146    0.534
        82 -10.2336     66.9089    109.4078   5.1594922874e+01   4.6417703002e+01    0.2360024    0.1959708 -85.93 0.0005368696    1.285    0.221
        83  -9.0275     96.5198    109.5038   4.2378672537e+01   4.1329673368e+01    0.1438228    0.1306209  83.24 0.0003856683    1.029    0.028
        84 -12.6135     25.6418    106.5210   6.7230988044e+01   5.2770803595e+01    0.6887108    0.4105812  53.51  0.001810002    1.926    0.481
        85 -11.0011     21.6715    101.3241   6.8058448107e+01   5.4500767822e+01    0.3034016    0.1957681  52.37 0.0009808484    1.730    0.422
        86 -10.4993     39.0535    106.2777   6.1501372472e+01   5.1252975783e+01    0.2448488    0.2108802 -86.98 0.0003951908    1.252    0.201
        87 -12.1623     54.0746     96.4452   5.3415498872e+01   5.1494206655e+01    0.5852103    0.3498171  40.15  0.002720751    1.569    0.363
        88 -11.1061     40.1016     97.8664   5.9339708368e+01   5.3176141790e+01    0.2805706    0.2126525  49.98 0.0005082256    1.346    0.257
        89 -10.2238     33.7029     93.9591   6.1249021115e+01   5.4942906350e+01    0.2765214    0.1927913  36.73 0.0007108365    1.363    0.266
        90 -11.2266     10.7933     91.6392   7.1433173041e+01   5.7916057152e+01     0.306158    0.1727914  44.06   0.00117551    1.897    0.473
        91 -11.7723     54.4717     89.2127   5.1577544777e+01   5.3075271725e+01    0.3994734    0.3234729 -85.34  0.002157887    1.403    0.287
        92  -9.8790     18.1959     82.3852   6.6020246990e+01   5.9442623286e+01    0.1990902     0.112533  33.47 0.0008966718    1.661    0.398
        93 -11.3261      6.6712     81.9857   7.1769952419e+01   6.0575605058e+01    0.2521733    0.1719364  41.65  0.000589222    1.542    0.352
        94 -11.5178     22.5732     80.3907   6.3442098549e+01   5.9434411276e+01    0.2463587    0.2177498  39.74  0.000405444    1.136    0.120
        95  -9.7197     28.8102     78.8521   6.0096095001e+01   5.9045711991e+01    0.1906933    0.1501712  49.42 0.0004469519    1.324    0.245
        96  -9.5141     16.5269     73.4774   6.4924360715e+01   6.1640651643e+01    0.1334297    0.1227871   9.89 4.948875e-05    1.008    0.008
        97  -9.8490     52.8592     72.0611   4.7861446698e+01   5.6975134650e+01    0.2076541      0.17005  64.41  0.000473874    1.284    0.221
        98 -12.5053    208.6636     60.9124   1.3562575188e+01   3.0229704084e+01     0.280497    0.2059729 -65.53  0.000993435    1.105    0.095
        99 -13.9915    218.5975     55.1555   1.1769830383e+01   2.9519260192e+01    0.7944899    0.6823859  82.48   0.00514733    1.563    0.360
       100 -12.3143    229.0311     48.4877   9.9278383098e+00   2.8875339685e+01    0.2607304    0.2258475 -88.65  0.001128733    1.576    0.365
       101 -10.5452    216.1526    249.1360   4.0511172945e+01  -2.0263878199e+00    0.1710609    0.1042961 -27.79  0.001022796    1.298    0.230
       102 -11.7091      5.6845     58.8441   6.7482328322e+01   6.5828822476e+01    0.4187243    0.1902456  35.76  0.001275564    2.122    0.529
       103  -9.4969     46.3168     50.7010   4.4367607065e+01   6.2080414755e+01    0.1290044   0.09433183  66.50 0.0003923136    1.614    0.380
       104  -9.4121    108.5163     39.5104   2.2539088920e+01   5.1706443877e+01    0.1233364    0.1010089  81.15 0.0008101842    1.031    0.030
       105 -11.0382     13.5431     60.7151   6.3470820826e+01   6.4695818545e+01    0.2384989    0.2219074  84.69 0.0008033796    1.283    0.220
       106 -11.5819      2.4117     22.9687   5.9020592234e+01   7.2864725302e+01    0.2120128    0.1934094  39.87 0.0009585136    1.309    0.236
       107 -10.5125     60.6290     21.6914   2.9271120724e+01   6.3771555848e+01    0.2315814    0.1632272  67.39  0.001234276    1.298    0.230
       108  -9.5075    202.7978     18.3891   6.9147786874e+00   3.6656864830e+01    0.1278198   0.07675727  73.73 0.0009541473    1.705    0.413
       109 -10.4362     97.2716    247.0179   6.3764699359e+01   8.1168405589e+00    0.1818613     0.162965 -32.13 0.0005965642    1.108    0.098
       110 -10.6128    146.9872    242.9577   5.2101031351e+01   4.3380257400e+00    0.1498847    0.1247338 -27.76 0.0006881861    1.039    0.037
       111 -13.0330    126.0818    230.0496   5.4971558746e+01   8.9404808107e+00    0.5435278    0.3165676  31.55  0.002819793    1.752    0.429
