#   1 NUMBER                 Running object number                                     
#   2 MAG_AUTO               Kron-like elliptical aperture magnitude                    [mag]
#   3 X_IMAGE                Object position along x                                    [pixel]
#   4 Y_IMAGE                Object position along y                                    [pixel]
#   5 X_WORLD                Barycenter position along world x axis                     [deg]
#   6 Y_WORLD                Barycenter position along world y axis                     [deg]
#   7 A_WORLD                Profile RMS along major axis (world units)                 [deg]
#   8 B_WORLD                Profile RMS along minor axis (world units)                 [deg]
#   9 THETA_WORLD            Position angle (CCW/world-x)                               [deg]
#  10 FWHM_WORLD             FWHM assuming a gaussian core                              [deg]
#  11 ELONGATION             A_IMAGE/B_IMAGE                                           
#  12 ELLIPTICITY            1 - B_IMAGE/A_IMAGE                                       
         1 -13.7609     68.6072    144.1297   1.0174675264e+02   3.7179162315e+01     2.765186      1.53683  72.70  0.004117099    3.196    0.687
         2 -12.2386    195.5678     42.4017   4.4128557222e+01   3.1100052626e+01    0.9242807    0.8406756  77.13  0.003391327    1.083    0.077
         3 -12.2804    203.4139     34.4729   4.1136769496e+01   3.0292671417e+01    0.6948002    0.6335102  50.21  0.001363047    1.259    0.206
         4 -11.5448    230.1564      8.2776   3.2564749631e+01   2.7366432699e+01    0.6963544    0.4546825 -23.10  0.004155089    1.906    0.475
         5 -11.6901    224.2305      7.1327   3.2776239152e+01   2.8749967233e+01    0.7065319    0.4460046 -23.29  0.004116325    1.950    0.487
         6 -11.5294     40.1693      8.3725   7.0228702728e+01   6.8724150771e+01    0.3703819     0.260645  -4.82  0.002403902    1.214    0.176
         7 -10.8026     38.7505      2.9246   6.8069872606e+01   6.9544219352e+01    0.3951929    0.2398586  27.20  0.002435348    1.417    0.294
         8  -8.9106     89.4878    211.6986   1.0656027375e+02   1.8337923726e+01    0.2672318    0.1972533 -68.64  0.001208481    1.413    0.292
         9 -10.6260    120.6041    245.8923   1.0415739802e+02   7.1103845218e+00    0.2931609    0.1508273  41.49  0.001386773    1.620    0.383
        10 -10.3989    124.8448    245.1256   1.0320853777e+02   6.6121614089e+00    0.4251191    0.1801436 -58.81  0.001945824    2.989    0.665
        11 -10.4076    116.1266    248.8924   1.0540712597e+02   7.2494349282e+00    0.2869858    0.2159755  48.45  0.001405729    1.156    0.135
        12 -10.0797    106.3468    250.0711   1.0748053356e+02   8.4600686360e+00    0.3335298    0.1716317  37.81  0.001739073    1.633    0.388
        13 -18.1906     12.7947    185.7429   1.2097815372e+02   3.3213168762e+01     17.36885     3.761935 -77.20   0.05886986    4.398    0.773
        14 -10.4748    133.8034    211.4239   9.6640270694e+01   1.1457836738e+01    0.3418928    0.2452555  35.09  0.001842111    1.281    0.219
        15  -9.7023     50.0876    188.1308   1.1276582697e+02   2.8846482489e+01    0.2813305     0.171615  41.48 0.0009213415    1.604    0.376
        16  -7.9537    146.7326    187.3621   8.9617747523e+01   1.4127570055e+01    0.1411807    0.1150807  84.44 0.0006991975    1.646    0.393
        17  -8.2486     91.2091    182.7630   1.0215879848e+02   2.4519012799e+01    0.1856835    0.1648224 -28.22 0.0007946116    1.326    0.246
        18  -9.1889     99.4283    180.8653   9.9833658073e+01   2.3675504082e+01    0.2623565    0.2041489  28.48 0.0007069496    1.371    0.271
        19  -8.5843     70.5266    210.5767   1.1061724917e+02   2.1229047309e+01    0.2247573    0.1172257 -82.91  0.001025776    2.343    0.573
        20  -9.3925    187.1020    175.5781   7.8323973848e+01   9.1078165981e+00    0.3284953    0.2896476 -33.54  0.001436288    1.149    0.129
        21 -10.8157     49.2200    170.9646   1.1096693202e+02   3.3007915297e+01    0.6575816    0.2046364 -50.48  0.002323402    3.521    0.716
        22 -10.2227     45.1544    169.6267   1.1181978053e+02   3.3793713311e+01     0.398758    0.2448086 -63.81   0.00181109    1.468    0.319
        23  -7.9652    148.2796    174.6942   8.6828254962e+01   1.6521655304e+01    0.1422292    0.1186594  81.22 0.0002729894    1.554    0.356
        24 -10.1929    112.3929    172.7889   9.5216996282e+01   2.3403196127e+01    0.2378181    0.1929861 -81.31  0.001072497    1.396    0.284
        25 -12.0916     52.5609    147.9449   1.0689123402e+02   3.8265496348e+01    0.9581074      0.59172  36.27  0.004822831    1.730    0.422
        26 -11.5288     85.0554    159.1451   9.9870575593e+01   3.1095909646e+01    0.9508939    0.6274595 -82.30  0.003159799    1.854    0.461
        27 -12.2756     73.8676    153.0795   1.0184645014e+02   3.4228389242e+01    0.7062287    0.5039151 -55.81 0.0009438986    1.319    0.242
        28  -9.3065    248.8167    245.1559   7.9415307975e+01  -1.1106501362e+01    0.2284839   0.07626009 -39.60  0.001026575    3.481    0.713
        29  -9.7441     50.5294    164.3349   1.0978185750e+02   3.4462836358e+01    0.3853374    0.1658502 -49.27  0.001598399    2.465    0.594
        30 -11.7202     75.4437    168.8492   1.0399252671e+02   3.0145571989e+01     1.012994    0.4993405 -36.74  0.002621137    3.224    0.690
        31 -10.7626     91.8419    151.4976   9.6634743252e+01   3.1904812742e+01    0.6552607    0.4238524 -27.32  0.002406784    2.154    0.536
        32 -10.1625    133.5433    143.1162   8.3721143487e+01   2.6388010527e+01    0.7202715    0.2178616 -52.80    0.0019978    3.915    0.745
        33  -8.6405    142.5234    208.5074   9.4243908560e+01   1.0580628782e+01    0.1375819    0.1257807  28.57 0.0008101789    1.005    0.005
        34  -9.8692    104.3740    138.2112   9.0434138123e+01   3.3023818782e+01    0.4521012    0.3050578 -20.04  0.001885445    2.109    0.526
        35 -10.7814     92.3921    137.3877   9.3636769460e+01   3.5269168309e+01    0.3129529    0.2681199 -37.45 0.0006953166    1.187    0.158
        36  -9.3652    105.9202    130.8695   8.8339825505e+01   3.4509988210e+01    0.3663775    0.3248604 -89.79  0.001469619    1.280    0.219
        37 -10.1664    113.1386    128.6283   8.5784686741e+01   3.3708103910e+01    0.4454447    0.3297476 -22.21  0.001401922    1.629    0.386
        38 -10.1099    119.2518    123.3877   8.2807621057e+01   3.3753999178e+01    0.4268639    0.2468153  28.17  0.001670493    2.103    0.524
        39 -10.5125    111.1502    203.2090   1.0050364237e+02   1.6832110390e+01    0.3773174    0.2272207  62.34  0.001706397    2.108    0.526
        40 -10.4261     67.1958    126.1807   9.8733881534e+01   4.1834184394e+01    0.3288432    0.2558429  13.67  0.001708301    1.519    0.342
        41  -9.2947    100.3159    124.8452   8.8530898695e+01   3.6953576715e+01    0.2726032    0.2334047  -8.16 0.0004934749    1.319    0.242
        42  -9.8661    135.0000    117.4908   7.7070889294e+01   3.1878090321e+01    0.5625592    0.1054613 -47.69  0.001224214    5.929    0.831
        43  -8.4025    108.9707    118.3062   8.4423350686e+01   3.6913409289e+01    0.2129547    0.1933098  34.39 0.0004006322    1.139    0.122
        44  -9.1413    231.6336    113.9066   5.6217416399e+01   1.1956128418e+01    0.2999056    0.2118355  47.41  0.001073811    1.601    0.375
        45  -9.9675    115.1267    110.4010   8.0607083721e+01   3.7533401259e+01    0.2712067    0.1811263 -50.46 0.0008609511    1.499    0.333
        46  -7.7012    142.2748    109.3055   7.3031841309e+01   3.2088308112e+01    0.1555304    0.1230723  -3.87 0.0002380841    1.545    0.353
        47  -8.3238    205.2382    110.3864   5.9811240852e+01   1.7961282461e+01       0.1935    0.1430082  65.58 0.0008406904    1.624    0.384
        48  -9.4947    134.9013    103.4860   7.3326502278e+01   3.4925321261e+01     0.408535    0.1725056 -45.75  0.001419083    2.370    0.578
        49  -8.8507    134.6837    164.9941   8.8155463705e+01   2.1189815108e+01    0.3105655     0.237515  85.29   0.00142511    1.826    0.452
        50 -10.1203    107.5005    203.4984   1.0138326982e+02   1.7349976157e+01    0.2457699    0.2287078  54.65 0.0007385109    1.008    0.008
        51  -9.9383    195.6693    200.0076   8.1372000837e+01   3.1439966807e+00    0.4697743    0.2460483 -59.84  0.001591445    4.640    0.784
        52 -11.0465     63.4802    198.3419   1.1082173238e+02   2.4853221070e+01    0.6880895    0.3480454 -46.16  0.002454963    2.532    0.605
        53 -11.8899    183.1703     52.4885   4.8608109938e+01   3.2651165485e+01    0.7154325     0.527352  29.24  0.002634875    1.733    0.423
        54  -9.8687    101.5596    244.8226   1.0786420106e+02   1.0079246216e+01    0.2658046    0.1229942 -64.53  0.001296712    2.615    0.618
        55  -9.2139     83.3878    245.1701   1.1151023329e+02   1.2553248649e+01     0.245198    0.1994765  45.99 0.0009666628    1.105    0.095
        56 -12.2411     60.9445    184.5563   1.0977982234e+02   2.8346542140e+01    0.8662509    0.7740842  -6.67  0.005304727    1.456    0.313
        57 -10.4327    121.5064    197.0926   9.7164556893e+01   1.6444637834e+01    0.4685686    0.2936051 -73.59  0.001363034    2.189    0.543
        58 -10.3757    111.2552    243.8248   1.0580104095e+02   8.8537819298e+00     0.316633    0.1900671 -30.66  0.001544333    2.828    0.646
        59 -10.2005    102.2534    238.9451   1.0707270653e+02   1.1056358023e+01    0.3274184     0.203988 -30.99  0.001627265    2.692    0.629
        60  -8.2268    168.0365    232.5377   9.2633926466e+01   2.0947770549e+00    0.1936498     0.111346  36.09 0.0004945992    1.516    0.340
