#   1 NUMBER                 Running object number                                     
#   2 MAG_AUTO               Kron-like elliptical aperture magnitude                    [mag]
#   3 X_IMAGE                Object position along x                                    [pixel]
#   4 Y_IMAGE                Object position along y                                    [pixel]
#   5 X_WORLD                Barycenter position along world x axis                     [deg]
#   6 Y_WORLD                Barycenter position along world y axis                     [deg]
#   7 A_WORLD                Profile RMS along major axis (world units)                 [deg]
#   8 B_WORLD                Profile RMS along minor axis (world units)                 [deg]
#   9 THETA_WORLD            Position angle (CCW/world-x)                               [deg]
#  10 FWHM_WORLD             FWHM assuming a gaussian core                              [deg]
#  11 ELONGATION             A_IMAGE/B_IMAGE                                           
#  12 ELLIPTICITY            1 - B_IMAGE/A_IMAGE                                       
         1 -13.0453    177.8260     38.8022   6.7280020961e+01   3.5375482269e+01     1.097616    0.9050714  24.01  0.004330195    1.511    0.338
         2 -12.5212    197.5752      6.3956   5.7367972042e+01   3.4431362760e+01    0.7839099    0.6284833  81.79  0.004511606    1.039    0.038
         3 -11.1178     13.5137    244.7288   1.4519522339e+02   2.1546964943e+01    0.3074653    0.1117383 -63.46  0.001606032    2.605    0.616
         4 -19.5033     43.0187    149.9908   1.2882708868e+02   3.9384992080e+01     20.98052     3.820825 -63.85   0.05534859    5.676    0.824
         5  -8.3221     17.4408    249.7877   1.4486360571e+02   2.0163201509e+01     0.134886    0.1049864 -81.12   0.00100596    1.253    0.202
         6 -10.8388     93.6855    205.5699   1.2502500130e+02   1.9588688488e+01    0.3944023    0.2707762 -46.41  0.001405668    1.588    0.370
         7 -11.1507     88.1265    203.5657   1.2599057609e+02   2.0886021062e+01    0.4485882    0.2811283  48.22  0.002258989    1.567    0.362
         8 -10.2701     94.8644    200.1389   1.2393533808e+02   2.0615508115e+01    0.4745789    0.2984127  83.00  0.002074707    2.344    0.573
         9 -10.4067     92.4379    195.4735   1.2377408264e+02   2.2047174661e+01    0.5475777    0.2592257  32.74  0.001916915    2.291    0.563
        10  -9.5470     25.4999    206.2957   1.3990844345e+02   2.8262666025e+01    0.1112435   0.09801858  80.68 0.0007715744    1.118    0.105
        11  -9.8244     11.8000    204.4427   1.4249099866e+02   3.0009588575e+01    0.3142234    0.1969385 -59.51  0.001955178    1.574    0.365
        12  -9.6001    167.5622    232.5079   1.1318328127e+02   1.8402070806e+00    0.3109532    0.2129914  33.31 0.0006579997    1.327    0.246
        13  -9.5306    250.0000    230.9860   9.6907426029e+01  -1.0609142502e+01    0.1946526   0.06138656 -37.50 0.0008041619    2.954    0.662
        14  -9.5719    192.7038    194.0648   1.0087248282e+02   4.5861556268e+00     0.487801    0.2498638 -61.49   0.00155788    4.445    0.775
        15  -9.2447    152.6239    192.6627   1.0929899141e+02   1.2241915850e+01      0.29093    0.2157231  80.04  0.001324818    2.050    0.512
        16  -9.7190     16.6716    219.4136   1.4278095730e+02   2.6346486016e+01    0.1118835    0.1090074 -49.72 0.0003298368    1.432    0.302
        17  -8.1970    151.6391    183.3173   1.0769212259e+02   1.4406306030e+01      0.15235     0.118671  77.04 0.0007042706    1.763    0.433
        18 -10.5328     99.4333    180.6676   1.1964111061e+02   2.4332265531e+01    0.2838569    0.2638846  15.91 0.0006038094    1.183    0.155
        19  -9.2891    167.4442    175.5184   1.0251193793e+02   1.3028621195e+01    0.4922705     0.296111 -72.65  0.001653098    3.699    0.730
        20 -11.7941    104.4600    172.6026   1.1693258070e+02   2.5371166844e+01    0.6899624    0.4096033  36.28  0.003102636    1.735    0.424
        21  -9.5072    173.2037    217.0020   1.0932055810e+02   3.7105544017e+00     0.211065    0.1457064  16.69  0.001045317    1.616    0.381
        22  -9.2286    141.6138    169.8397   1.0728491374e+02   1.9253016784e+01    0.2166622     0.142698 -60.12 0.0009243648    1.752    0.429
        23  -8.9582    201.4810    169.0246   9.3906085113e+01   7.7761201361e+00    0.2129486    0.1895578 -29.63 0.0007116306    1.063    0.059
        24  -9.8742    204.3850    165.2903   9.2528770496e+01   7.9458492231e+00    0.4084368    0.2753321 -51.27  0.001314662    1.613    0.380
        25 -10.0661    124.9926    172.2775   1.1179729745e+02   2.1825586052e+01    0.2088299    0.2006437  39.16 0.0009210957    1.046    0.044
        26 -10.0018    193.7856    166.5492   9.4938061548e+01   9.7336458091e+00    0.3183651     0.281893 -10.23 0.0007548574    1.116    0.104
        27  -9.4904    189.9603    160.8436   9.4488576236e+01   1.1616214760e+01    0.2821552    0.2125011 -44.82 0.0006157357    1.312    0.238
        28  -9.7328    189.5745    155.3694   9.3360071602e+01   1.2788997327e+01    0.4167096    0.2761868 -41.31  0.001565025    1.451    0.311
        29  -8.0656    113.2939    160.3119   1.1228239307e+02   2.6692295697e+01    0.1501618    0.1166361 -17.01 0.0002836205    1.593    0.372
        30 -10.2729     98.5290    158.7124   1.1575170462e+02   2.9618641217e+01    0.2859982    0.2488045 -36.81   0.00061649    1.173    0.147
        31  -9.4408    184.5025    214.1677   1.0643530921e+02   2.2790566512e+00    0.2439074    0.1823647  13.04  0.001293298    1.398    0.285
        32 -11.7587     87.9572    153.0751   1.1740376682e+02   3.2661162977e+01    0.4213286    0.3104671 -29.48  0.001054689    1.566    0.361
        33 -11.1924    102.8507    152.0615   1.1326262893e+02   3.0445024853e+01    0.6263351    0.4270934 -29.77  0.002038598    1.747    0.428
        34  -9.2051    164.2661    152.5292   9.8213971936e+01   1.8513800725e+01    0.2541045    0.2358499  58.10 0.0009439132    1.166    0.142
        35  -8.6171    175.3359    149.2789   9.5014181142e+01   1.6922375407e+01    0.1532152    0.1182885   4.05 0.0003325555    1.613    0.380
        36  -9.2524    133.0000    140.9865   1.0301488680e+02   2.7364774205e+01    0.3630195   0.08609089 -46.88 0.0009601024    4.142    0.759
        37  -9.2780    134.4910    148.9977   1.0448627001e+02   2.5286437139e+01    0.2270866    0.1478247 -56.95 0.0009753582    1.684    0.406
        38 -10.2484    111.8396    138.0437   1.0779625045e+02   3.2080172875e+01    0.4959961    0.2979909 -28.06  0.001989117    2.180    0.541
        39 -11.3210    101.1324    137.7514   1.1060387850e+02   3.4060132490e+01    0.3108906     0.270699 -19.46 0.0005401489    1.216    0.178
        40 -10.0579    105.9270    130.7764   1.0768648186e+02   3.4799953107e+01    0.3968768     0.320961 -59.74  0.001358226    1.309    0.236
        41  -9.4997    105.9226    125.1005   1.0632427509e+02   3.6069815816e+01    0.2781588    0.2060598 -35.03 0.0006089758    1.353    0.261
        42  -9.2681    117.5416    129.0772   1.0416029438e+02   3.3022414529e+01    0.2262103    0.2077039  23.76 0.0007629696    1.110    0.099
        43  -8.6617    112.4830    118.4558   1.0288189580e+02   3.6305455646e+01    0.1498525    0.1425121 -15.82 4.836797e-05    1.011    0.011
        44  -9.5022    168.1449    113.0150   8.7901011709e+01   2.5778980462e+01    0.3624285    0.2595664 -88.16  0.001533175    2.161    0.537
        45  -9.0236    205.5114    110.0092   7.9892074586e+01   1.8190725419e+01    0.2218938    0.1939576  54.08 0.0008044001    1.203    0.169
        46 -10.6617     82.5050    106.8034   1.0844759067e+02   4.4057925479e+01     0.321832     0.241506 -67.10  0.001117052    1.683    0.406
        47  -8.5002    150.0000     80.9214   8.3464788773e+01   3.5682585481e+01    0.2335498    0.0826029 -37.27 0.0007973456    2.907    0.656
        48  -8.6426    152.2335    211.0421   1.1277533361e+02   8.5433913767e+00    0.1743337    0.1178463 -45.89 0.0003462285    1.554    0.356
        49  -9.1269    176.7827     74.8849   7.6518226106e+01   3.0574196260e+01    0.2408552    0.2014424  78.86 0.0003562893    1.254    0.202
        50 -12.2893    163.8562     54.1365   7.3484891333e+01   3.6607371080e+01    0.7431539    0.5603922 -18.65  0.001627253    1.578    0.366
        51  -9.6639    249.6663    248.8680   1.0011616467e+02  -1.3037831991e+01    0.2361244   0.09038407 -29.27  0.001097134    2.623    0.619
        52 -11.8220    182.3323     31.8830   6.4952823120e+01   3.5165238290e+01    0.5177876    0.4272565  24.29  0.001644556    1.547    0.353
