#   1 NUMBER                 Running object number                                     
#   2 MAG_AUTO               Kron-like elliptical aperture magnitude                    [mag]
#   3 X_IMAGE                Object position along x                                    [pixel]
#   4 Y_IMAGE                Object position along y                                    [pixel]
#   5 X_WORLD                Barycenter position along world x axis                     [deg]
#   6 Y_WORLD                Barycenter position along world y axis                     [deg]
#   7 A_WORLD                Profile RMS along major axis (world units)                 [deg]
#   8 B_WORLD                Profile RMS along minor axis (world units)                 [deg]
#   9 THETA_WORLD            Position angle (CCW/world-x)                               [deg]
#  10 FWHM_WORLD             FWHM assuming a gaussian core                              [deg]
#  11 ELONGATION             A_IMAGE/B_IMAGE                                           
#  12 ELLIPTICITY            1 - B_IMAGE/A_IMAGE                                       
         1 -11.6645      9.1292     26.0338   1.1831673154e+02   6.8339499041e+01    0.4606339    0.1697712 -32.95  0.002269913    2.386    0.581
         2 -11.0113     23.9399     21.0332   1.0995020615e+02   6.7857780606e+01    0.3362847    0.1562896 -32.00  0.001059836    1.818    0.450
         3 -10.5406      3.9484     19.5119   1.1828881862e+02   6.9697033005e+01    0.3152364    0.1088798 -36.67  0.001706836    2.230    0.552
         4 -10.2904     50.2605     18.9142   9.8405773695e+01   6.5068992847e+01    0.1767452    0.1363384  12.51 0.0003187322    1.114    0.102
         5 -12.2642    131.3085     15.0535   7.4237332289e+01   5.0169107587e+01    0.5515725    0.4346811   7.76  0.003299942    1.447    0.309
         6 -11.0139     75.3308      4.8961   8.4077353341e+01   6.2592198365e+01    0.3386859    0.1911414  -7.44  0.001410174    1.928    0.481
         7 -10.8592     75.4519     17.3954   8.9094538459e+01   6.1326959397e+01    0.3354033    0.2000537   7.71 0.0008309791    1.955    0.488
         8 -11.4224     78.7903     11.7620   8.5825563563e+01   6.1326838957e+01    0.4810983    0.2817418   3.66  0.001913724    1.991    0.498
         9 -11.6554     81.3705      6.0794   8.2802931930e+01   6.1394213504e+01    0.2140531    0.1707724  21.91 0.0002596018    1.052    0.049
        10 -10.1728     20.1031     15.5832   1.0942404176e+02   6.8979526700e+01    0.1960574    0.1474902 -28.57 0.0003710036    1.252    0.201
        11 -12.2760     26.0072     13.5607   1.0598240219e+02   6.8668603060e+01    0.2534102    0.1579917 -15.48 0.0003429682    1.359    0.264
        12  -9.4439    119.7376     11.9449   7.5561317354e+01   5.3064143683e+01    0.1669368    0.1323534 -12.34 0.0003411919    1.402    0.286
        13 -10.7995     61.5009     11.1537   9.1108258445e+01   6.4301466901e+01    0.3099722    0.2338684  70.28  0.001347672    2.575    0.612
        14 -10.3952     99.2894     13.0221   8.0674564425e+01   5.7289988599e+01    0.2746024     0.194574 -41.06  0.001548267    1.743    0.426
        15  -9.9753     23.2809      9.0950   1.0524931185e+02   6.9517578128e+01      0.25952     0.131863 -32.95  0.001633222    1.706    0.414
        16 -12.3041     26.5133      3.7487   1.0142547249e+02   6.9812055099e+01    0.2594494    0.1820831  16.70 0.0005069919    1.269    0.212
        17 -11.1060     31.2813      2.4371   9.8772115941e+01   6.9410138135e+01    0.2164845    0.1727542  27.29 0.0009934623    1.475    0.322
        18  -9.4615    122.3517      9.1278   7.4070333882e+01   5.2741367049e+01    0.1620377    0.1121848 -36.59 0.0005007781    1.674    0.403
        19  -9.4079      2.7176      9.3879   1.1492755132e+02   7.1249482462e+01   0.08653954   0.07708994 -45.03 0.0007004699    1.741    0.426
        20  -9.6874     37.1130      8.4892   9.9090464486e+01   6.8026345637e+01    0.1476905   0.09275774  25.24 0.0003496557    1.449    0.310
        21  -9.9092      9.5003      7.5313   1.1089860181e+02   7.0986124340e+01    0.2745429    0.1249586 -12.52  0.001451245    2.771    0.639
        22  -9.5089    182.5492      7.5230   6.4051098664e+01   3.8682467806e+01    0.1308118    0.1098455  83.80 -2.739155e-05    1.026    0.025
        23  -9.7736     15.3246      6.0469   1.0751323474e+02   7.0671358067e+01    0.1907926    0.1242885  40.15  0.001276041    2.420    0.587
        24 -10.0656     18.8618      3.8300   1.0488484613e+02   7.0605586121e+01    0.1578855    0.1050544  -6.48 0.0003619963    1.184    0.155
        25 -10.3797    115.1567      4.7315   7.4052794373e+01   5.4698885608e+01    0.2224976    0.1773218   1.45  0.001417091    1.372    0.271
        26  -8.9792     58.3291      5.3234   8.9706827222e+01   6.5388985760e+01    0.1227663   0.07183782  15.63 0.0006191034    1.696    0.411
        27 -10.6585     98.3678      3.8397   7.7492712570e+01   5.8296073417e+01    0.2997094    0.1348411  51.24  0.001101499    1.820    0.450
        28 -10.3615     92.0288      4.0297   7.9133365187e+01   5.9543730039e+01    0.1822109    0.1435459  30.87 0.0003178187    1.063    0.059
        29  -9.2740    124.4610      1.4447   7.1105197512e+01   5.2915391268e+01    0.1249023     0.106027  54.36 -2.180777e-06    1.032    0.031
        30 -11.1660    181.2249    248.9735   1.1965118843e+02  -3.4037426240e+00    0.2966973    0.1639635 -44.20  0.001579036    2.163    0.538
        31 -11.0433    246.9966    250.0089   1.0780187033e+02  -1.3920749572e+01    0.3823233    0.1938665  26.01  0.002105138    1.833    0.455
        32 -11.1246    250.4816    244.5801   1.0628566365e+02  -1.3749520110e+01    0.5338052    0.1906142 -37.35  0.002357577    2.987    0.665
        33 -12.2882    231.6801    247.2904   1.1005936097e+02  -1.1328830382e+01    0.5185806    0.3277599  15.15   0.00304261    1.598    0.374
        34 -10.4221     31.4465    250.2423   1.4696918135e+02   1.9500624059e+01    0.2780917    0.1195632  78.42 0.0008818735    2.324    0.570
        35 -11.3948     14.3720    244.8946   1.4937296604e+02   2.2440089480e+01    0.3679519    0.1383832 -81.98  0.002021791    2.312    0.567
        36 -12.3601     21.2626    249.0221   1.4852292217e+02   2.0907998617e+01    0.5371383    0.2007993  46.58  0.003074362    2.178    0.541
        37 -11.6617     27.8782    246.4952   1.4730670478e+02   2.0621889805e+01    0.4487522     0.170511 -80.70  0.002373034    2.439    0.590
        38 -10.8001     10.7260    250.3636   1.5024078208e+02   2.1817069467e+01    0.3565384    0.1065521  43.16  0.001838981    2.758    0.637
        39 -11.2734      6.1430    245.2249   1.5067567057e+02   2.3248557507e+01    0.2979989    0.1490688  75.68  0.001083017    1.532    0.347
        40 -10.4558    190.3465    226.7687   1.1438662256e+02  -1.4807476626e+00    0.2865282     0.178361 -43.94   0.00106065    1.817    0.450
        41 -10.9911    115.8551    226.4235   1.2924823607e+02   1.1889028593e+01     0.306827    0.1509422 -64.74  0.001412847    2.339    0.572
        42 -10.3313    129.5626    226.6994   1.2653059880e+02   9.4643160073e+00    0.3870677    0.1730323  55.30  0.001611624    2.375    0.579
        43 -10.3135     88.1144    227.1328   1.3482526434e+02   1.6266669594e+01    0.1821602    0.1700973  66.44  0.001226092    1.282    0.220
        44 -10.6191     66.3645    226.3447   1.3892156069e+02   1.9644709966e+01    0.2724032    0.1635301  52.58  0.000985853    1.437    0.304
        45  -9.6242      6.6665    227.3092   1.4960009062e+02   2.6623277768e+01    0.1177593   0.05715797  69.00 0.0005383714    1.673    0.402
        46 -10.4488    180.8798    224.1182   1.1580947830e+02   6.6533687890e-01    0.2231729    0.1810925 -30.85 0.0006073922    1.397    0.284
        47 -10.2281     81.3770    224.6550   1.3586224047e+02   1.7800395339e+01    0.2509064    0.1565813  83.45  0.001163968    1.645    0.392
        48 -10.7625     13.1756    222.1112   1.4818618045e+02   2.6994385465e+01    0.1878914    0.1485036 -86.19 0.0003896868    1.264    0.209
        49 -11.2800    141.3746    221.4162   1.2336597413e+02   8.3704733039e+00    0.2963458    0.2360058  16.73  0.001324648    1.639    0.390
        50 -10.9757    123.2754    221.5343   1.2708439122e+02   1.1573210901e+01    0.2863776    0.2264672  56.89 0.0009386091    1.099    0.090
        51  -9.4765     51.5031    222.5538   1.4135690559e+02   2.2436757975e+01    0.1216416   0.09496339  77.68 0.0001300616    1.032    0.031
        52 -10.0432    174.1183    219.8873   1.1645661029e+02   2.6400997405e+00    0.2065396    0.1759396  59.51 0.0006106834    1.225    0.184
        53  -9.7776    250.3023    219.0890   1.0182191849e+02  -1.0349709478e+01    0.1719332    0.1404867 -11.02 0.0006026063    1.102    0.093
        54  -9.5151     50.3411    218.3012   1.4118694231e+02   2.3470446940e+01    0.1059996   0.09327251 -49.24 0.0006257718    1.672    0.402
        55 -10.8783     10.0420    217.0447   1.4839599263e+02   2.8336054114e+01    0.2739114    0.1539974  65.87 0.0009180853    1.449    0.310
        56 -10.4907    191.5172    216.9721   1.1247448432e+02  -4.9005984707e-02    0.2256497    0.1802053  17.80  0.001205907    1.294    0.227
        57  -9.3497     37.5804    217.5010   1.4350279420e+02   2.5223131810e+01    0.1193757    0.0905697  82.22 0.0001239771    1.029    0.028
        58 -10.1609     24.5299    216.8963   1.4583226637e+02   2.6845954728e+01    0.2446881    0.1072749  56.49  0.001333839    1.992    0.498
        59 -10.3135    234.8183    216.6066   1.0413932904e+02  -7.5377856425e+00    0.1774257    0.1137147  47.42 0.0009470982    1.761    0.432
        60 -10.4174    201.4098    215.9650   1.1034713957e+02  -1.6741852886e+00    0.2282059     0.170241  23.93  0.001264217    1.318    0.241
        61 -10.0550     30.9695    215.7081   1.4457236212e+02   2.6369608957e+01    0.1704216    0.1260072  73.46  0.001172072    1.077    0.071
        62  -9.4771    137.1608    215.6369   1.2335881080e+02   1.0260963141e+01    0.1991519    0.1205261  34.61 0.0009413573    1.753    0.430
        63 -10.0822    170.2104    213.1666   1.1611478386e+02   4.5861928309e+00    0.1902818     0.159183  67.72 0.0009263125    1.323    0.244
        64 -10.9054     20.7122    211.6515   1.4612906662e+02   2.8346034045e+01    0.3046995     0.157558  72.71 0.0009172318    1.714    0.417
        65  -9.4004    212.9009    211.8979   1.0737956920e+02  -3.0584872678e+00    0.1680561    0.1587128  62.38 0.0005394747    1.303    0.232
        66 -10.3509    208.9549    212.0532   1.0816948764e+02  -2.3802557275e+00    0.2033762    0.1827166  18.28  0.000479374    1.007    0.007
        67 -12.2170      4.1985    207.5116   1.4879609290e+02   3.0852933794e+01     0.474252    0.2669654 -89.39  0.003085497    1.351    0.260
        68  -9.5215    184.3138    209.3176   1.1256179457e+02   2.6330359488e+00    0.1394941    0.1056805   6.66 0.0007036706    1.647    0.393
        69 -10.4932    240.9549    211.0000   1.0198508705e+02  -7.6991700975e+00    0.2085336   0.06792564  41.26 0.0008096317    2.993    0.666
        70  -9.2946    218.6434    206.6639   1.0530470688e+02  -3.2204011432e+00    0.1433896   0.09795374   5.90 0.0007041657    1.804    0.446
        71  -9.2294    238.5090    201.4533   1.0061216800e+02  -5.8266371214e+00    0.1333203    0.1129591   2.30 9.101002e-05    1.068    0.063
        72  -9.4138    223.4950    201.5446   1.0340936219e+02  -3.2397274187e+00    0.1304703    0.1237663  15.28 0.0001777717    1.127    0.112
        73  -9.6764    218.2761    201.3470   1.0436318086e+02  -2.2724869893e+00    0.1381997   0.09973986  -0.91 0.0006951693    1.631    0.387
        74  -9.3067     34.6524    200.7516   1.4259636586e+02   2.9129770896e+01    0.1026447   0.08999337 -52.29 0.0002523819    1.582    0.368
        75 -10.0787    227.0070    196.9859   1.0186535937e+02  -3.1102982318e+00     0.208859     0.183042   3.44 0.0006770035    1.053    0.050
        76 -11.7590    192.2419    194.9601   1.0827744229e+02   3.7475991708e+00    0.3703991    0.2897301 -60.41  0.001942656    1.542    0.352
        77  -9.7507    202.9143    195.8884   1.0630716211e+02   1.5250439993e+00    0.2133408    0.1813334   6.03 0.0007174607    1.222    0.181
        78 -11.3245    215.4344    194.1199   1.0350561164e+02  -5.1808449744e-01    0.3647483    0.1867652 -39.02  0.001492273    1.985    0.496
        79 -11.0677    232.4702    191.4521   9.9759945102e+01  -3.1628982084e+00    0.3192292      0.19173  26.03  0.001532378    1.869    0.465
        80  -9.3338     56.6329    197.7176   1.3785721498e+02   2.7090201633e+01     0.114306   0.09850858 -38.51 0.0006447284    1.690    0.408
        81  -9.5375    250.4769    190.0349   9.6248891393e+01  -6.0331245413e+00    0.1965118    0.1182748 -35.53 0.0005370558    1.559    0.359
        82  -9.3684    205.5914    190.2202   1.0466340396e+02   2.0358683496e+00    0.1899079    0.1312718 -27.81  0.000599187    1.569    0.363
        83 -10.6007    225.6568    188.9604   1.0053212149e+02  -1.5136814830e+00    0.3160555    0.1755458   9.83  0.001080908    3.956    0.747
        84 -10.4736    167.8633    184.1143   1.1129574560e+02   1.0725172054e+01    0.4565126     0.240383  64.03  0.001562377    3.240    0.691
        85  -9.5197     61.6190    184.8039   1.3526764397e+02   2.9340034856e+01    0.1923521    0.1095745 -80.64 0.0009491559    1.720    0.418
        86 -10.9368    248.3709    182.6239   9.5135478665e+01  -4.4886513756e+00    0.3726006    0.1955495  16.31  0.001368516    3.697    0.729
        87 -10.0129      6.1538    183.6496   1.4672205250e+02   3.5731442870e+01    0.2884942    0.1094558  45.54  0.001523102    2.525    0.604
        88 -10.3355      2.1568    180.1430   1.4723118799e+02   3.6833285334e+01    0.2204817     0.136424  70.00 0.0005456469    1.432    0.302
        89  -9.6049    236.4784    182.4948   9.7226651021e+01  -2.3775749515e+00    0.1359502    0.1229534  -7.69 0.0008102738    1.004    0.004
        90 -11.8364     16.2402    183.0909   1.4467326266e+02   3.4932932847e+01    0.4052852    0.2015889  89.67  0.001744697    1.812    0.448
        91 -11.3902    244.6277    177.9028   9.4833156363e+01  -3.0585741964e+00    0.3058628    0.1572409 -26.72  0.001336997    2.155    0.536
        92  -9.5647     36.0837    178.5113   1.4008935029e+02   3.3919595868e+01      0.15761    0.1166484  46.87 0.0004643608    1.456    0.313
        93 -10.4823    200.1671    176.8096   1.0303062942e+02   5.6077517694e+00     0.202575    0.1699577   4.32 0.0005875891    1.325    0.245
        94  -9.4685     70.2128    177.5999   1.3238620156e+02   2.9811990976e+01    0.1575945    0.1312895  31.42 0.0004409646    1.492    0.330
        95 -11.3295    224.3425    178.3665   9.8626042255e+01   5.7886974158e-01    0.2796951    0.2652949  -6.57 0.0005458506    1.045    0.043
        96  -9.7075     59.6048    171.7337   1.3401194301e+02   3.2638871040e+01    0.1910796     0.112271 -78.75 0.0009474874    1.634    0.388
        97 -11.1567     12.8606    171.1649   1.4429492255e+02   3.7889413920e+01    0.2469278    0.1293286 -89.02 0.0009339309    1.676    0.403
        98  -9.6474     74.4974    171.4715   1.3050639132e+02   3.0627840465e+01    0.1379425    0.1202049 -86.89 8.975986e-05    1.021    0.021
        99  -9.8656      4.5258    168.0222   1.4575674577e+02   3.9293313680e+01    0.1881398   0.08856966 -76.06  0.001043263    1.625    0.385
       100  -9.6118    209.9995    166.3063   9.8848198343e+01   5.6204839470e+00    0.2033798    0.1861252  27.44 0.0004956054    1.093    0.085
       101 -10.4679     41.3188    165.4639   1.3740759521e+02   3.6338450268e+01    0.2174847    0.1309488  86.78 0.0005486173    1.683    0.406
       102 -10.6775     52.8346    163.1294   1.3441368461e+02   3.5524812307e+01    0.5667379     0.283342 -34.28  0.001967474    4.818    0.792
       103 -10.0583     10.1174    165.1672   1.4431662232e+02   3.9466656889e+01    0.1623346    0.1090294  82.37 0.0003932441    1.283    0.221
       104  -8.9186    229.4840    164.5374   9.4764827812e+01   2.0701593291e+00     0.141701    0.1304866 -12.20 0.0001509153    1.032    0.031
       105  -9.2021     21.6462    166.6838   1.4196797443e+02   3.8093682388e+01    0.1188204   0.08072864 -48.57 3.653384e-06    1.741    0.426
       106  -9.3971    200.0571    162.9621   1.0011173420e+02   8.3235795428e+00    0.1772498    0.1696104  34.60 0.0004286332    1.047    0.045
       107 -10.6871     36.4984    160.8612   1.3794927135e+02   3.7937987853e+01     0.532149    0.1290523 -62.12  0.002007795    3.076    0.675
       108 -10.5366    246.4955    162.4795   9.1306712892e+01  -7.7599447956e-01    0.1818937    0.1349121  56.54 3.375894e-05    1.645    0.392
       109 -11.1751    247.8130    158.8259   9.0310645063e+01  -3.8751003034e-01    0.3308838    0.2629498 -32.24  0.001874879    1.143    0.125
       110 -10.3428    238.8054    158.1368   9.1720523867e+01   1.4222745820e+00    0.2027903    0.1604502  -8.66  0.001081447    1.389    0.280
       111  -9.8643      8.9988    158.4420   1.4391214728e+02   4.1066612876e+01    0.1971914    0.1076471  36.09  0.001165595    2.120    0.528
       112 -11.0006     22.4829    155.9052   1.4060316465e+02   4.0476644289e+01    0.3323051    0.2635806  58.01  0.002240124    1.345    0.257
       113  -9.0817    235.6666    154.7042   9.1535338189e+01   2.6419766488e+00    0.1429862    0.1080661   3.57 0.0006212725    1.643    0.391
       114  -9.5517    217.0181    155.0000   9.5027470950e+01   6.3332317477e+00    0.2415433   0.08360141  47.27 0.0008096419    2.993    0.666
       115  -9.9818    205.4722    152.5065   9.6718127343e+01   9.2386339055e+00    0.2718874    0.1409281 -30.91  0.001032071    2.291    0.563
       116  -9.9862    197.4889    153.5169   9.8551083888e+01   1.0749273649e+01    0.1488832    0.1467602 -24.30 0.0001663003    1.000    0.000
       117  -9.3457    151.6727    153.3250   1.0856102798e+02   2.0738392116e+01    0.1614829    0.1219915  86.24 0.0006704993    1.696    0.410
       118  -9.3502     31.0655    153.0251   1.3824631248e+02   4.0319757666e+01    0.1444935    0.1221047 -84.63 0.0003784044    1.067    0.063
       119 -10.5146     12.4347    153.1208   1.4259896743e+02   4.1986556058e+01    0.2413586     0.145517  21.51  0.001427685    2.310    0.567
       120 -10.4372    178.1969    151.4364   1.0215043215e+02   1.5383941497e+01    0.3363584    0.2730713  77.47  0.001614163    1.459    0.315
       121  -9.4982     46.1290    151.1273   1.3433830781e+02   3.9154292575e+01    0.1771818    0.1344046  76.95  0.000426996    1.317    0.241
       122  -9.6086     92.9860    148.2338   1.2197985653e+02   3.3270998143e+01    0.1863685    0.1211809  41.31 0.0008474409    1.617    0.381
       123 -10.2633    207.0052    145.9877   9.4945406644e+01   1.0192630853e+01     0.226412    0.2229159  -4.27 0.0006582724    1.029    0.028
       124 -11.5922      9.2379    145.5448   1.4252064280e+02   4.3954856745e+01    0.3707325    0.1786571  46.32  0.002039831    2.301    0.565
       125  -9.7705    213.0156    141.3910   9.2735429035e+01   9.7939197053e+00     0.338616    0.2068742  -2.57  0.001089479    3.930    0.746
       126  -9.4570     38.3640    142.2737   1.3499391725e+02   4.2087009256e+01    0.1247946   0.08927465 -39.33 0.0007003586    1.664    0.399
       127 -10.4752    236.5155    138.7980   8.7897837362e+01   5.3606857223e+00     0.245496    0.2238549  87.61 0.0004954232    1.259    0.205
       128 -10.8587     57.5019    138.4895   1.2944036428e+02   4.0788158427e+01    0.3414354    0.2260869  75.73  0.001375317    1.843    0.458
       129  -9.3625     16.6355    139.6936   1.4006761423e+02   4.4699709534e+01    0.1226865   0.07674634 -45.57 0.0006495258    1.743    0.426
       130 -11.8019      3.5891    136.3177   1.4284322201e+02   4.6442106299e+01    0.5381793    0.1898909 -51.23  0.002319775    2.656    0.623
       131 -11.9991      9.0847    136.7826   1.4156390920e+02   4.5946932544e+01    0.2315245    0.1783577 -63.83 0.0002514451    1.159    0.137
       132 -10.2648     40.5605    135.6862   1.3343298250e+02   4.3401501191e+01    0.2007845    0.1735895  36.14  0.001010187    1.382    0.277
       133 -10.1712     21.6245    136.0204   1.3835465630e+02   4.5125312527e+01    0.2198835    0.1523678  58.73  0.001348281    1.607    0.378
       134  -9.9069    138.0498    135.4608   1.0777174034e+02   2.7677222049e+01    0.2403595    0.1535895  43.02  0.001026441    1.598    0.374
       135 -12.2863     36.4896    130.4674   1.3368651542e+02   4.5038108154e+01    0.4266036    0.3139916 -80.45  0.002565234    1.254    0.202
       136  -9.6336    123.6729    131.2893   1.1041062694e+02   3.1610317798e+01    0.1564028    0.1200293  83.00  0.000360219    1.615    0.381
       137  -9.9814     74.0175    129.3431   1.2327723096e+02   4.0732228960e+01     0.242683    0.1767854 -49.60 0.0007662129    1.294    0.227
       138 -10.2571    249.4780    129.7883   8.3773091154e+01   4.3888994055e+00    0.2435611    0.2046979  52.34  0.001265265    1.328    0.247
       139  -9.4591    243.0150    128.4737   8.4518088905e+01   5.9136389246e+00    0.1930882    0.1422326  52.78 0.0004219773    1.497    0.332
       140  -9.1945     60.4027    128.5172   1.2685927917e+02   4.2782361939e+01      0.13692    0.1169729 -63.94 9.180405e-05    1.022    0.022
       141  -9.9514      1.5778    126.6683   1.4222900993e+02   4.8730335121e+01    0.2134716    0.1224646 -81.46  0.001252382    1.478    0.323
       142 -10.3069    219.7316    124.4994   8.7586471416e+01   1.1576296439e+01    0.2714951     0.230049 -26.06 0.0005912354    1.239    0.193
       143 -10.7413     10.2822    102.5150   1.3651240631e+02   5.3519402798e+01     0.389688    0.1538831  37.31  0.001940441    3.067    0.674
       144 -11.3779     10.5708    122.8208   1.3943082178e+02   4.8989154317e+01    0.3281197    0.2630714 -35.91  0.002223842    1.453    0.312
       145 -11.5454     17.1349    116.8523   1.3681495765e+02   4.9853321472e+01    0.4330917    0.2204638 -52.16   0.00237957    1.652    0.395
       146 -10.1181     19.7915    112.9739   1.3547179848e+02   5.0522491704e+01    0.2216023    0.1345216 -65.11 0.0006771655    1.304    0.233
       147 -12.3954     16.7483    108.3103   1.3558308425e+02   5.1794171353e+01    0.3489292    0.3171733 -34.97            0    1.256    0.204
       148  -9.4581     20.5456    121.4960   1.3658409620e+02   4.8536838357e+01    0.1242515   0.09743522 -65.54 6.059392e-06    1.028    0.027
       149 -10.7231     42.1074    125.1276   1.3128223376e+02   4.5705957799e+01    0.3506229    0.1757015  31.04  0.001725168    2.335    0.572
       150 -10.1230    179.3657    116.3384   9.3495808614e+01   2.2469614300e+01    0.2656779    0.1867675  41.30 0.0005993778    1.519    0.342
       151  -9.2524     86.3257    116.6644   1.1707804418e+02   4.1815066916e+01    0.1475707    0.1112971  84.56 0.0007051452    1.718    0.418
       152 -11.4860     35.9600    111.0023   1.3049183933e+02   4.9570202978e+01    0.4940703    0.2416091 -58.16  0.002014964    1.641    0.390
       153  -9.2161     11.2683    113.6635   1.3795355589e+02   5.0990966302e+01    0.1161972   0.07943688  84.48 0.0003869248    1.594    0.373
       154  -9.4556    167.3797    109.1850   9.4268992853e+01   2.6765340541e+01    0.2213735    0.1440745 -52.13 0.0007166636    1.594    0.373
       155  -9.9982    242.1817    108.3739   8.0144430425e+01   9.6768385242e+00    0.1929921    0.1346805  72.60 0.0006135977    1.715    0.417
       156  -9.2637    117.4206    108.5693   1.0641831322e+02   3.7994995217e+01    0.1505518    0.1427336 -22.13 -0.0001541599    1.098    0.090
       157 -12.3241     62.0162    107.2514   1.2200237878e+02   4.7499694763e+01     0.287215    0.2237839 -51.68 0.0004634523    1.127    0.112
       158 -11.4849     23.8756    107.0089   1.3329884856e+02   5.1535206221e+01    0.2833279    0.2281664  66.69  0.001204663    1.482    0.325
       159 -11.0428      3.5852    100.6715   1.3816925851e+02   5.4332035583e+01    0.2614854    0.2096955 -88.62 0.0008930801    1.301    0.232
       160 -10.2982      6.4011    106.2047   1.3820404433e+02   5.2957806843e+01     0.231328    0.1537664 -54.79 0.0007120242    1.222    0.182
       161 -10.7506      2.8247    105.1804   1.3906389961e+02   5.3396502834e+01    0.3106155    0.1556347 -78.38  0.001447225    1.874    0.466
       162  -9.5503    133.4757    107.5215   1.0192721979e+02   3.4861593620e+01    0.1529007    0.1504579 -24.90  7.58967e-05    1.046    0.044
       163 -10.6228     76.3920    106.7144   1.1760020307e+02   4.5622032117e+01    0.2762407    0.1277737 -56.95  0.001129158    2.103    0.525
       164  -9.8184    223.3145    103.9619   8.2131125787e+01   1.4605350582e+01    0.2116698     0.177464 -46.93 0.0004901314    1.116    0.104
       165 -11.2410     70.5396    102.3471   1.1829346214e+02   4.7447515328e+01    0.3725886    0.2583794  13.36 0.0006105771    1.879    0.468
       166 -10.4489    247.6149    102.2053   7.7951183246e+01   9.6124738825e+00    0.1979576    0.1257632 -31.41 0.0007213492    1.638    0.390
       167  -9.6772    119.8640    101.3812   1.0384136884e+02   3.9051007927e+01    0.2182907    0.1416477  32.76 0.0009445992    1.757    0.431
       168 -11.2108     63.4976     98.9572   1.1961800471e+02   4.9158317368e+01    0.4692744    0.3031916  10.40  0.002290108    2.157    0.536
       169 -10.1975     35.9882    101.2210   1.2858359074e+02   5.1762018686e+01    0.2482619    0.1623371  37.13  0.001429252    1.809    0.447
       170 -10.1865     27.8515    100.9763   1.3101002683e+02   5.2546007127e+01    0.1777521    0.1432624 -53.83 0.0003112045    1.037    0.036
       171 -11.8782     50.5244     99.3273   1.2370788125e+02   5.0667888264e+01    0.2309918    0.2030677 -52.62 0.0002822667    1.034    0.033
       172 -11.3416     20.8579     96.1150   1.3222057663e+02   5.4172635574e+01    0.6397983    0.1514573 -63.63  0.002324935    3.532    0.717
       173 -10.0120     14.6545     97.3212   1.3433398856e+02   5.4359041194e+01    0.1156981   0.08377269  77.27 0.0007049728    1.732    0.423
       174 -10.2876      4.4154     85.8047   1.3544246647e+02   5.7456399336e+01    0.3006894    0.1918208 -21.98  0.001928165    1.822    0.451
       175 -10.7692      8.1960     94.8068   1.3585123411e+02   5.5322930947e+01    0.3134313    0.1736215 -41.00  0.001527912    1.700    0.412
       176 -11.2832     11.0993     91.0767   1.3430302331e+02   5.5940094224e+01     0.275136     0.183453  12.62   0.00114173    1.904    0.475
       177  -9.6921      7.2622     88.6974   1.3506837845e+02   5.6682676696e+01    0.1680104    0.1343281 -71.63 0.0002744792    1.190    0.160
       178 -10.2794      1.4703     94.1312   1.3776355652e+02   5.5856430485e+01    0.2532327   0.07119077 -61.09  0.001056256    2.338    0.572
       179  -9.5536    227.2361     93.4116   7.9004883341e+01   1.5607684208e+01     0.188867    0.1376887  76.44 0.0003989596    1.524    0.344
       180  -9.6650    171.1954     91.3199   8.8701482969e+01   2.9380902495e+01    0.2155654    0.2033499 -23.54  0.001131772    1.148    0.129
       181 -10.6921     96.5047     90.2308   1.0731789466e+02   4.5895572894e+01    0.3454182    0.2164214   0.90   0.00129981    3.098    0.677
       182  -9.2625     38.2132     90.3731   1.2556128130e+02   5.3918228835e+01    0.1313621   0.07499121 -41.64 0.0002160429    1.582    0.368
       183 -10.2760     73.0088     88.6973   1.1403460428e+02   5.0046405830e+01    0.1754154    0.1668101  -1.63 0.0002756644    1.104    0.094
       184 -10.2068     49.2999     88.0471   1.2143419075e+02   5.3252891882e+01    0.2544217    0.1504778 -57.35 0.0003928433    1.548    0.354
       185 -10.7569     46.3369     83.0978   1.2116805037e+02   5.4622399623e+01    0.5269849    0.2497781 -59.78   0.00243918    2.124    0.529
       186  -8.9261    103.6896     88.6985   1.0479517615e+02   4.4886999021e+01    0.1461707    0.1131018  -5.00 0.0006738924    1.605    0.377
       187 -11.3624     23.8430     85.8769   1.2921885987e+02   5.6139333522e+01    0.6943774    0.1329059 -48.44  0.002514879    3.618    0.724
       188 -11.4593     19.4382     81.3038   1.2968538767e+02   5.7432628402e+01    0.3422408    0.2584286  56.52 0.0007602586    1.812    0.448
       189 -11.5251     23.3028     80.3179   1.2818184558e+02   5.7345921070e+01    0.4007035    0.1236117 -55.75  0.001692015    2.397    0.583
       190 -11.0200     67.5335     84.8435   1.1472079617e+02   5.1632205073e+01    0.2508566    0.1900779 -21.63 0.0005692052    1.403    0.287
       191 -10.7460    117.9834     83.5371   9.9296101918e+01   4.3076769572e+01    0.2922202    0.2280763  20.21 0.0006734949    1.480    0.324
       192  -9.0050     14.3114     83.7029   1.3186904390e+02   5.7290171019e+01     0.107474   0.08515489  82.77 0.0003014873    1.598    0.374
       193 -11.1393     85.1656     80.7498   1.0800776288e+02   4.9776122343e+01    0.2977496    0.2006034 -36.74 0.0008512418    1.419    0.295
       194  -9.9853     29.9494     81.8625   1.2631479452e+02   5.6478587987e+01    0.1813207     0.147008 -48.62 0.0005943562    1.025    0.024
       195  -9.4433    103.3121     81.3092   1.0274770226e+02   4.6432687884e+01    0.1460563    0.1113271  -2.49 0.0006965421    1.625    0.385
       196 -10.3543     75.4821     80.4893   1.1096444617e+02   5.1364758761e+01    0.2867676    0.1612916 -42.37  0.001369268    1.633    0.388
       197 -11.6637     72.0049     78.5061   1.1150390690e+02   5.2280955516e+01    0.5607091    0.3268198 -18.65  0.001806021    2.571    0.611
       198 -11.1817     77.7996     71.9479   1.0769069107e+02   5.2677573843e+01    0.4925562    0.2441843  37.03  0.001604097    2.130    0.531
       199 -12.0385      3.1227     77.6263   1.3433548865e+02   5.9222780327e+01    0.3099244    0.2146822 -72.12  0.002086357    1.383    0.277
       200 -12.1475      7.3758     76.8872   1.3277734470e+02   5.9135987743e+01    0.4986719    0.2097827 -53.54  0.001086786    1.704    0.413
       201 -11.5583    150.9890     78.4531   8.9550844542e+01   3.6635258342e+01     0.304869    0.2696368 -67.21 0.0004611578    1.206    0.171
       202  -9.4047    136.6395     78.1048   9.2854231679e+01   4.0037382600e+01    0.2078355    0.1404347 -25.14 0.0004438683    1.727    0.421
       203  -9.9709     93.0091     78.0043   1.0480003732e+02   4.8970064223e+01    0.2650383      0.14722 -22.61  0.001033065    2.672    0.626
       204  -8.9373     12.3089     78.3045   1.3142157474e+02   5.8542617066e+01    0.1218743   0.06745788 -39.06  0.000701751    1.608    0.378
       205 -10.1622      2.4900     71.9175   1.3341532758e+02   6.0415233532e+01    0.2283977    0.1601247 -41.84  0.001079925    1.190    0.159
       206 -12.1448     61.6646     73.4119   1.1341665563e+02   5.4734843415e+01    0.6287496    0.4130763 -22.78  0.002690125    1.678    0.404
       207 -10.1298     54.5626     72.4071   1.1552132190e+02   5.5838643680e+01    0.1928901    0.1747317 -33.12 0.0004468781    1.088    0.081
       208  -9.9224    121.6055     76.2072   9.6135515659e+01   4.3702900361e+01    0.2041916     0.138779 -28.57 0.0009231577    1.597    0.374
       209 -10.1504    107.9718     76.0156   9.9819783303e+01   4.6542026895e+01    0.2193067    0.1697354   5.06 0.0003523678    1.555    0.357
       210 -11.7197     48.2875     71.8045   1.1749846551e+02   5.6697183598e+01    0.5935025     0.302141 -48.83   0.00250838    1.693    0.409
       211 -10.2300     50.7191     67.6658   1.1546930915e+02   5.7221176604e+01    0.1791737    0.1585893  -7.20  0.000441428    1.129    0.114
       212 -10.8761     40.5183     72.8072   1.2045718152e+02   5.7334443289e+01    0.3080389    0.2248218 -57.24 0.0006972344    1.350    0.259
       213 -10.8067     36.6423     68.6240   1.2068181101e+02   5.8547079328e+01    0.3483236    0.1972284 -36.38  0.001316155    1.582    0.368
       214 -10.3363    102.6492     72.9394   1.0040125065e+02   4.8150316863e+01    0.2446428    0.1873638  26.94 0.0006783681    1.374    0.272
       215  -9.9200     16.9062     72.3829   1.2855688932e+02   5.9440886531e+01    0.1915637    0.1373339 -64.35 0.0008198177    1.345    0.256
       216 -10.1171    175.0635     71.1261   8.2408315766e+01   3.2060831765e+01    0.2490214    0.2118465 -40.14 0.0004209626    1.214    0.176
       217 -10.0095    152.1963     72.3851   8.7523746144e+01   3.7423822236e+01    0.2141235    0.1412772  64.95 0.0009456614    1.646    0.393
       218  -9.8772    145.2747     71.6310   8.8876297099e+01   3.9196703256e+01    0.1530384     0.115253 -70.57 0.0007004699    1.678    0.404
       219 -10.1831     94.7399     71.1722   1.0218758907e+02   4.9952272999e+01    0.2141006    0.1720615 -56.75 0.0005458943    1.443    0.307
       220 -10.8728     68.6698     67.6835   1.0935968206e+02   5.4860615947e+01    0.3764029    0.1873161 -41.48 0.0008825762    1.834    0.455
       221 -10.2244    160.2133     69.4152   8.4928531236e+01   3.5997083568e+01    0.2228955     0.141937  67.98 0.0009633451    1.743    0.426
       222 -10.4635    130.2484     69.0880   9.1736146920e+01   4.3088045674e+01    0.3851332    0.2533648  23.19  0.001674069    2.028    0.507
       223 -10.1546    130.0000     64.0523   9.0248522169e+01   4.3999956536e+01    0.3263913    0.1536322 -46.37 0.0008566467    2.380    0.580
       224 -10.9783     31.3021     66.4462   1.2199012698e+02   5.9471552540e+01    0.2777232    0.1833349 -55.54 0.0008724614    1.407    0.289
       225 -10.6416      6.3901     67.8132   1.3119540034e+02   6.1021395787e+01    0.2180987    0.1604067 -51.10 0.0009068187    1.047    0.045
       226 -11.8340      4.0842     63.9984   1.3116233961e+02   6.1900853060e+01    0.2689942    0.2454695 -62.66 0.0004300026    1.275    0.216
       227 -10.7089     95.3743     66.5209   1.0053042501e+02   5.0680125628e+01    0.3348725    0.2368892  47.58  0.001031479    1.516    0.340
       228 -11.2523     21.1481     66.1406   1.2555138546e+02   6.0372529186e+01    0.2508545    0.1903637  17.59   0.00114954    1.540    0.351
       229 -10.2617    138.6212     65.7502   8.8676228514e+01   4.1752394375e+01    0.1986664     0.173899 -80.42 0.0002743537    1.313    0.239
       230 -10.5924    141.5256     63.5173   8.7319290651e+01   4.1447362492e+01    0.3013806    0.1799302  62.42 0.0005722201    1.828    0.453
       231  -9.9139    156.0000     65.0077   8.4547951399e+01   3.7754419394e+01    0.2464888   0.08507689 -35.74 0.0008131687    3.017    0.669
       232 -11.0989    120.8472     63.7074   9.2475383538e+01   4.6069754325e+01    0.5094275    0.3103668  -6.77  0.001980796    2.833    0.647
       233 -10.9412     83.7844     62.6889   1.0286466139e+02   5.3400087645e+01    0.4287585    0.3263639 -69.28  0.001754317    1.991    0.498
       234 -10.3120     86.0312     58.2511   1.0070015527e+02   5.3782924979e+01    0.3114598    0.1850726 -37.77 0.0003858118    1.627    0.386
       235 -11.0259     76.7486     65.1075   1.0589641011e+02   5.4114503821e+01     0.287231    0.1915229  53.93  0.001449563    2.017    0.504
       236 -10.5873    174.1571     63.8054   8.0561804149e+01   3.3493493999e+01    0.2647566    0.2266428 -76.22 0.0006785266    1.213    0.175
       237 -10.0898     41.4792     64.4438   1.1778757541e+02   5.8866657428e+01    0.1228542    0.1031709 -32.76 9.149047e-05    1.030    0.029
       238  -9.8949     56.5382     62.7036   1.1194420718e+02   5.7440486852e+01    0.1703341    0.1147525 -52.70  0.000940851    1.577    0.366
       239 -10.7040     51.6859     62.3472   1.1353489956e+02   5.8109671563e+01    0.2649433    0.1629343 -29.39   0.00144389    1.568    0.362
       240 -11.4900     11.1918     62.6825   1.2829028679e+02   6.1739243948e+01    0.2362017    0.1836064 -12.51 0.0003846602    1.358    0.264
       241 -10.0760     93.0960     61.2437   9.9512074102e+01   5.2018968634e+01    0.2254161    0.1739167 -22.86 0.0005354218    1.285    0.222
       242 -11.5538     37.9760     51.8533   1.1524898849e+02   6.1545155844e+01    0.6948085    0.3764956 -36.22  0.003894919    1.581    0.367
       243 -10.6023     44.7902     51.8611   1.1270898515e+02   6.0804869685e+01    0.2288464    0.1832605 -28.51 0.0003848729    1.050    0.048
       244 -10.6808     46.0688     47.0057   1.1061585748e+02   6.1488213166e+01    0.2103918    0.1525237 -38.68 0.0002929803    1.263    0.208
       245 -11.3088     33.5565     60.1321   1.1940767415e+02   6.0471544291e+01    0.3002668    0.2028072 -18.13 0.0005567679    1.506    0.336
       246 -11.0248     27.3176     61.2721   1.2202123646e+02   6.0816173995e+01    0.3224616    0.1812863  14.55  0.001845209    2.094    0.522
       247 -11.5766     64.8305     59.7439   1.0814345038e+02   5.6860563978e+01    0.5326072    0.2061988  42.02  0.002229371    2.960    0.662
       248 -11.2102    114.3171     58.0154   9.2388364096e+01   4.8393695398e+01    0.4283987    0.2937191  62.63  0.002079761    1.759    0.431
       249  -9.8505     18.4576     59.9730   1.2493686015e+02   6.1764981977e+01    0.1760721   0.09570526 -55.85 0.0008233193    1.587    0.370
       250 -10.5996     70.1532     58.7166   1.0600668242e+02   5.6267142679e+01    0.4200938    0.2291623 -39.59  0.001945369    1.700    0.412
       251  -9.5728    137.1248     57.8060   8.6596518137e+01   4.3387721574e+01    0.1936105    0.1613232  25.86 0.0002206326    1.281    0.219
       252 -10.7212    123.3994     57.0035   8.9688949615e+01   4.6608227611e+01    0.3320767    0.2441537 -88.74  0.001552556    2.088    0.521
       253 -12.0273    127.8654     51.8862   8.6942738331e+01   4.6406003952e+01    0.5236393    0.3184607 -22.88  0.001465957    1.918    0.479
       254 -11.2907     99.5476     56.1169   9.5901081358e+01   5.1667499561e+01    0.5717483     0.222697  46.47  0.002252277    2.558    0.609
       255  -9.5063     80.9769     57.0546   1.0190289997e+02   5.4842764608e+01    0.1572464    0.1391161 -13.44 0.0004340593    1.027    0.026
       256 -10.4924     45.1327     57.1337   1.1426747020e+02   5.9828634064e+01    0.3578371    0.1696927  25.87   0.00178643    2.366    0.577
       257 -11.0094      4.5355     53.0516   1.2837403794e+02   6.3967315539e+01    0.3451907    0.1430281 -25.51  0.001729056    2.836    0.647
       258  -9.9164     87.0788     52.5073   9.8437975080e+01   5.4547089221e+01    0.1962372    0.1617375  47.32 0.0009631409    1.359    0.264
       259 -10.3242     83.3659     51.2546   9.9173612822e+01   5.5393542184e+01    0.1982991    0.1896248  50.81 0.0006376174    1.294    0.227
       260 -10.5931     73.0194     51.6066   1.0265878384e+02   5.7033731615e+01    0.3320355    0.2701749  34.23  0.002039966    1.296    0.228
       261  99.0000     12.9878     50.7561   1.2450643361e+02   6.3870035094e+01    0.8612627    0.6066851  35.27  0.005896308    1.888    0.470
       262 -10.2660      7.0384     40.7453   1.2399259521e+02   6.6040789470e+01    0.3336267     0.112543 -45.68 0.0006157585    2.091    0.522
       263 -11.9098      9.2610     46.0010   1.2462777022e+02   6.4973874841e+01    0.3299461       0.2409  -3.50 0.0002363155    1.427    0.299
       264 -10.6497     11.0000     42.9968   1.2305206604e+02   6.5392574184e+01    0.2752918    0.1254882 -53.10 0.0006808994    1.861    0.463
       265  -9.8263    157.8853     51.9367   8.0337616206e+01   3.9333812805e+01      0.21408    0.1846296  34.68 0.0002621633    1.235    0.190
       266 -10.4392     50.8854     51.1346   1.1023146463e+02   6.0209061754e+01      0.36725    0.1922985 -13.62 0.0006780949    3.120    0.679
       267  -9.5812    104.3398     46.2929   9.1215982932e+01   5.2241903131e+01    0.1984869    0.1246725  31.79 0.0004985394    1.649    0.393
       268 -10.7551    100.7719     48.3787   9.2935825283e+01   5.2639396116e+01    0.3817591    0.2224191 -27.20   0.00184121    1.812    0.448
       269 -10.1883     98.3970     44.8474   9.2400825489e+01   5.3623920458e+01    0.3543657    0.2167538  16.71  0.001236317    2.176    0.540
       270 -10.2627    135.1654     49.9059   8.4587717835e+01   4.5038554271e+01    0.2233928    0.1932842 -83.33  0.001226922    1.361    0.265
       271 -10.5577    114.8176     49.0578   8.9316310513e+01   4.9674272564e+01    0.3135178    0.2223418 -21.35  0.001625143    1.520    0.342
       272  -9.4018    209.0009     48.7435   7.0930090012e+01   2.7185021580e+01    0.1756497    0.1133097  67.94  0.000374052    1.471    0.320
       273 -11.0854    142.6977     46.3054   8.1788427512e+01   4.3796124498e+01    0.2948725    0.2749783 -38.98 0.0008839612    1.147    0.128
       274 -10.0863     22.9467     46.3316   1.1929885903e+02   6.3915017003e+01    0.1520905    0.1192878 -23.52  0.000526898    1.072    0.068
       275 -10.0150     17.5497     45.1151   1.2106280159e+02   6.4555383907e+01     0.279905    0.1834365 -78.69 0.0007821372    3.223    0.690
       276  -9.3385    233.3555     45.2376   6.7009287979e+01   2.1920882805e+01    0.1785327    0.1106986 -48.49 0.0004739834    1.478    0.323
       277  -9.9590    151.3926     45.2007   7.9640359436e+01   4.1874105404e+01    0.2000127    0.1266536 -45.79  0.000697013    1.723    0.420
       278 -10.5907    123.0355     43.8824   8.5525450223e+01   4.8638074177e+01      0.33597    0.2930067  16.79  0.001955582    1.160    0.138
       279  -9.5563     86.2853     45.0043   9.6078129693e+01   5.5850522567e+01      0.22361    0.1294615  42.12 0.0008656692    1.697    0.411
       280 -10.7191    163.0196     42.2610   7.6540803257e+01   3.9444450016e+01    0.2191771    0.2042652 -45.84 0.0004401334    1.150    0.131
       281 -10.7567     80.9552     42.4958   9.6861300788e+01   5.7152390472e+01    0.1914251    0.1833351 -34.23 0.0006630871    1.287    0.223
       282  -9.9739     56.4758     42.2551   1.0512024758e+02   6.0944922381e+01    0.1686113    0.1533612 -77.95  0.001100821    1.745    0.427
       283 -10.1649     63.9371     41.3655   1.0214348752e+02   6.0029824377e+01    0.2483394    0.1594135 -41.83  0.001247131    1.627    0.385
       284  -9.5621     60.1992     41.6338   1.0355961171e+02   6.0527003889e+01    0.2178466    0.1083253  24.74 0.0009412951    2.325    0.570
       285  -9.1333     52.2992     42.3143   1.0666664150e+02   6.1487021852e+01    0.1255902   0.08214617 -10.53 0.0002554873    1.608    0.378
       286 -10.4321     23.8711     41.8046   1.1748597871e+02   6.4617870327e+01    0.2042424    0.1393922 -44.57  0.001358926    1.310    0.237
       287 -10.5146    226.3921     40.3215   6.6709050589e+01   2.4225800557e+01    0.2483749    0.1962224 -76.68 0.0004997737    1.128    0.113
       288 -10.5736     95.4408     40.2876   9.1656602143e+01   5.4842100586e+01    0.2948172     0.229018  69.92  0.001621989    1.805    0.446
       289 -10.3509     44.2158     40.0258   1.0888101904e+02   6.2845440815e+01    0.2698614    0.1723397 -47.85  0.001512612    1.731    0.422
       290  -9.5013    235.5631     40.5486   6.5714413505e+01   2.2073989456e+01    0.1320686    0.1140684 -77.30 0.0007040115    1.047    0.045
       291 -10.9263     88.0469     38.2857   9.3135387069e+01   5.6500639298e+01    0.3903468     0.281205 -81.05   0.00178843    3.170    0.685
       292 -11.7191     82.0119     36.6699   9.4410464101e+01   5.7800926114e+01    0.3483035    0.2747702  16.03 0.0009022254    1.175    0.149
       293  -9.2331     29.2687     40.3955   1.1485520093e+02   6.4368012740e+01     0.124887   0.06900799 -25.13 0.0003700045    1.727    0.421
       294  -9.8669    159.2742     39.0858   7.6306536338e+01   4.0785026397e+01    0.1852068    0.1763744 -66.39 0.0002983848    1.109    0.098
       295 -11.2476     70.3171     36.0649   9.7997342875e+01   5.9834257996e+01    0.5598158    0.2986937 -11.45  0.002489696    2.736    0.634
       296 -10.2077    135.9911     37.9763   8.0629980256e+01   4.6491795805e+01    0.1687226    0.1561361  45.71  0.001003047    1.012    0.012
       297  -9.9225     19.8455     37.7239   1.1777328306e+02   6.5639489902e+01    0.2535585    0.1567147  -2.28  0.001273348    1.704    0.413
       298 -11.1295     24.3553     35.4215   1.1513382958e+02   6.5632544285e+01    0.2353639    0.2168871 -49.83 0.0009955699    1.516    0.340
       299  -9.3917    160.9579    249.7786   1.2360594176e+02  -7.5186432923e-02     0.173188   0.08787862  41.75 0.0004520125    1.636    0.389
       300 -10.7024      1.7933     37.7830   1.2528027915e+02   6.6862452383e+01    0.2477832    0.1109223 -29.35 0.0005096268    2.040    0.510
       301 -10.0463    142.8624     36.5730   7.8740561922e+01   4.5061236390e+01    0.3376244    0.2053801  85.14 0.0009862344    2.478    0.596
       302 -10.1702    102.6724     36.8941   8.8415763644e+01   5.3885016318e+01    0.3559533    0.1709693  49.62  0.001281343    1.973    0.493
       303 -10.7181    106.1791     34.3466   8.6575661853e+01   5.3503733183e+01    0.2816604    0.2532483 -47.50  0.001303034    1.331    0.249
       304 -10.1645    111.0404     35.0227   8.5543324381e+01   5.2407053557e+01    0.1940092     0.177887  29.56 0.0003524815    1.035    0.034
       305 -10.5524     77.8616     32.4298   9.4152119197e+01   5.9091125201e+01    0.4374812    0.2004627 -18.20   0.00171193    3.124    0.680
       306  -9.6345     32.6502     33.9555   1.1123015772e+02   6.5070980252e+01    0.2655949    0.1380507  29.46  0.001542153    2.055    0.513
       307 -10.9751     13.7305     33.4467   1.1888982898e+02   6.6819981844e+01    0.1762477   0.09698374  25.54  0.001114217    2.062    0.515
       308 -10.4558     97.0305     32.1607   8.8293248000e+01   5.5613864318e+01    0.2318861    0.1298929  26.69  0.001088536    2.058    0.514
       309 -10.5368      1.4394     31.8315   1.2361448162e+02   6.7891532415e+01    0.1552738   0.08230926 -49.57  0.001000488    1.522    0.343
       310  -9.3803    178.5017     31.5111   7.0936373173e+01   3.7014820549e+01    0.1404598    0.1218399  89.56 -0.0001386743    1.084    0.077
       311  -9.0230    145.2951     31.7040   7.6749014466e+01   4.5087819459e+01    0.1335579    0.1034842 -75.47 0.0002093892    1.564    0.361
       312  -9.3436     90.1021     31.5314   9.0055495395e+01   5.7018142668e+01    0.1783749    0.1173168  44.79 0.0003322879    1.449    0.310
       313 -10.4424     55.5175     31.4730   1.0146182727e+02   6.2681474466e+01    0.2401666    0.1064306 -36.64  0.001141037    2.125    0.529
       314 -11.0777     71.0942     26.1865   9.3967286275e+01   6.1027950347e+01    0.4082003    0.2682984  21.28  0.001847235    1.473    0.321
       315 -10.6999    124.9442     27.9733   7.9814959450e+01   5.0237641751e+01    0.1960997    0.1708398  38.31  0.001188651    1.046    0.044
       316 -10.3657     50.4931     27.1468   1.0164445642e+02   6.3964898046e+01    0.2540869   0.09858302 -30.43  0.001172183    2.557    0.609
       317  -8.9655     14.2896     28.3356   1.1688127119e+02   6.7597335727e+01    0.1159771    0.0627863 -24.68 0.0002381757    1.634    0.388
       318  -9.7953     24.7207     27.0090   1.1192997190e+02   6.6910417217e+01    0.1521193    0.1142579 -23.94 0.0004029796    1.066    0.062
       319  -9.4269     90.5266     26.5530   8.8087590230e+01   5.7551437145e+01    0.1265357    0.1106234  20.26 4.289332e-05    1.031    0.030
       320 -11.4572     60.7413     23.6889   9.6524556320e+01   6.2966738473e+01     0.421222    0.2019527 -46.07   0.00194985    3.128    0.680
       321  -9.6695    112.9504     25.1160   8.1632739847e+01   5.3190290462e+01     0.188364    0.1697374  67.63 0.0007347109    1.247    0.198
       322  -9.4924    118.9017     23.8965   7.9812206958e+01   5.2037031911e+01    0.1694499    0.1540831 -61.43 0.0006337037    1.330    0.248
       323 -10.5874     54.2105     23.4204   9.8773973326e+01   6.3950722729e+01    0.2207103    0.1732628  -1.82 0.0005852818    1.047    0.045
       324  -9.0869     17.3565     24.2883   1.1406724530e+02   6.7972719830e+01    0.1152093   0.06522656 -16.77 0.0007024916    1.679    0.404
       325 -10.7849     84.3991     22.3817   8.8308292359e+01   5.9177221572e+01    0.2359222    0.1753408   9.94 0.0006405066    1.296    0.228
       326 -10.9139     35.0448     21.6994   1.0554337308e+02   6.6607933901e+01    0.3028686    0.1435298 -30.28  0.001074952    1.875    0.467
       327 -10.2141    137.0317    247.6834   1.2787353597e+02   4.3595153858e+00    0.1814167    0.1406536  48.59 0.0004277331    1.074    0.069
       328 -10.0985     27.7657     19.5845   1.0772874474e+02   6.7681207412e+01    0.1773012    0.1638553 -11.57 0.0007288849    1.481    0.325
       329 -10.2465    124.0224     21.9443   7.8010239146e+01   5.1114554441e+01    0.1937568    0.1727542  45.14 0.0003680266    1.020    0.019
       330 -10.3126    100.0011     21.9194   8.3761262633e+01   5.6231920021e+01    0.2728537    0.1727403  30.97  0.001481474    1.529    0.346
       331  -9.8889    104.2528     18.8378   8.1549633083e+01   5.5695436230e+01    0.2312821    0.1444585  13.47  0.001191087    1.919    0.479
       332 -10.9208     65.5702     21.6289   9.4022507994e+01   6.2476835356e+01    0.2735169    0.1761257  30.41 0.0006006303    1.416    0.294
       333  -9.7617      8.0473     21.2916   1.1708092952e+02   6.9146426621e+01    0.1459044    0.1097333 -19.68 0.0004076298    1.065    0.061
       334 -12.1264    226.1432    245.9697   1.1083958818e+02  -1.0307087546e+01    0.6116139    0.3640349   4.41  0.003171836    2.236    0.553
       335  -9.7650    137.0282     20.0172   7.4711439852e+01   4.8348852079e+01      0.19145    0.1514899 -77.83            0    1.535    0.348
       336  -9.4528    224.0631     18.9781   6.2155324399e+01   2.7518764753e+01     0.151204    0.1256416 -74.91  0.000947869    1.053    0.050
       337 -10.8051    217.5937     16.2817   6.2212344482e+01   2.9348187835e+01    0.4403563    0.1441918  57.24  0.001764648    2.907    0.656
       338 -10.0634     72.6627    250.0793   1.3999109504e+02   1.4121576043e+01    0.1728839    0.1620784  40.20   0.00126106    1.572    0.364
       339  -9.6661    115.4391    244.7148   1.3160585212e+02   8.5019307436e+00    0.1488332    0.1198676 -54.79 0.0006101133    1.528    0.345
       340 -11.6489      8.8831    242.1262   1.5008322575e+02   2.3543942913e+01    0.4660413    0.1935446  77.30  0.002625243    2.134    0.531
       341  -9.9631    127.8908    249.6605   1.2984914246e+02   5.5578949042e+00    0.1872512    0.1704458 -58.53 0.0009117246    1.360    0.265
       342 -10.3993    109.8919    243.2365   1.3248279278e+02   9.6808804194e+00     0.280346    0.1678031  77.36  0.001439599    2.041    0.510
       343 -10.3456     72.0385    243.9198   1.3954609425e+02   1.5369468150e+01    0.2192136    0.1815043  85.53  0.001083993    1.182    0.154
       344  -9.5899     18.4378     19.0000   1.1154633375e+02   6.8653884666e+01    0.2072805    0.1219503  18.04  0.001383934    1.703    0.413
       345 -11.6727     74.0977    238.3664   1.3865035695e+02   1.6141691476e+01    0.5638206    0.2872577  52.27  0.003085065    1.633    0.388
       346  -9.9820    108.0617     17.0833   7.9985128163e+01   5.5082745315e+01    0.1870855    0.1661601  40.57 0.0004372707    1.067    0.062
       347 -10.0584     10.0129     15.9129   1.1412262157e+02   6.9792649220e+01    0.1884304    0.1114123 -11.29 0.0008689553    1.538    0.350
       348 -11.7515    156.1087    241.4446   1.2336367836e+02   2.1336592762e+00    0.3275776    0.2162656  38.52  0.001649386    1.344    0.256
       349  -9.5719     70.9873     14.7674   8.9455219946e+01   6.2373572274e+01    0.1512854   0.08851433  42.13 0.0004140448    1.572    0.364
       350  -8.8823    151.6636     18.6829   7.1637139192e+01   4.5029416332e+01    0.1410982   0.09021638  37.64 0.0007048403    1.699    0.411
       351  -9.3996     51.3434     11.2910   9.4784164260e+01   6.5811904384e+01    0.1203465   0.07283573  10.76 0.0003566494    1.655    0.396
       352  -9.8483     81.8453     17.6643   8.7245271889e+01   6.0165537089e+01    0.2713418    0.1282666 -12.95  0.001216536    2.779    0.640
       353  -9.7333    116.2405     13.3558   7.6797230860e+01   5.3697701465e+01    0.2362872    0.1736049  53.43  0.001177153    1.198    0.166
       354 -11.5415     35.0898    241.5052   1.4578103767e+02   2.0715997305e+01    0.5690899    0.2091406  48.51  0.003038811    2.187    0.543
       355  -9.1654     90.2441     13.0073   8.3044655771e+01   5.9075136040e+01    0.1387535    0.0994015 -15.93 0.0003270752    1.446    0.308
       356  -9.5824     24.4556    232.4724   1.4695290389e+02   2.3714318091e+01    0.1878571    0.1159672  59.53 0.0009414768    1.321    0.243
       357 -10.6462     31.8069    237.3102   1.4604084703e+02   2.1919118402e+01    0.2823604    0.1536958  75.88  0.001075532    1.539    0.350
       358  -9.6525    107.7406     10.3422   7.7655069281e+01   5.5797131256e+01    0.1740113   0.09770875  49.39 0.0006688735    1.498    0.332
       359 -10.1966     29.0445    233.0088   1.4620919686e+02   2.3084664677e+01    0.2617328    0.1239524  52.59  0.001231055    1.752    0.429
       360 -12.0639     19.2679    239.1595   1.4824733084e+02   2.2993148578e+01    0.4731796    0.2919973  57.05  0.003320413    1.343    0.256
       361  -9.4070     50.3096    240.3184   1.4308449744e+02   1.9037265389e+01   0.09834367   0.08884612 -61.77  0.000350442    1.639    0.390
       362 -10.4541    174.4838    238.4878   1.1936112561e+02  -5.9460248793e-01    0.2921211     0.202588  23.74  0.001532336    1.581    0.368
       363 -10.6798    177.5409    234.9456   1.1821754374e+02  -5.5292760619e-01    0.2729176    0.2166975   3.42  0.001167419    1.529    0.346
       364  -9.8483    195.6752    238.5651   1.1529710879e+02  -4.2787188821e+00     0.248638    0.1079177  36.94  0.001119247    2.060    0.514
       365 -10.3884    159.9032    235.8509   1.2180948375e+02   2.4192315751e+00    0.2009072    0.1658672  27.20 0.0005859756    1.260    0.207
       366 -11.1515     73.7267    233.0012   1.3819473946e+02   1.7250720767e+01    0.2890421    0.1829139  62.21 0.0009898933    1.331    0.249
       367 -10.2446    167.0186    233.7919   1.2009981156e+02   1.5068919250e+00    0.2060408    0.1956635 -41.15 0.0008114137    1.222    0.181
       368 -10.6230    153.4537    233.7214   1.2276587715e+02   3.9354492754e+00    0.2373921    0.1931785  -2.23 0.0009237691    1.692    0.409
       369 -10.1269     86.2415    233.3810   1.3587287437e+02   1.5308821755e+01    0.2234688    0.1344499  83.96   0.00119253    1.804    0.446
       370  -9.6656    169.7683    229.3869   1.1887092448e+02   1.7691367767e+00    0.1916121    0.1128249  34.21 0.0009403756    1.641    0.391
       371  -9.9638     79.5687    231.2831   1.3691919624e+02   1.6732911454e+01    0.2227478    0.1446353  50.77 0.0006843404    1.342    0.255
       372 -10.3217     12.0254    238.0718   1.4935537483e+02   2.3983598045e+01    0.2028036    0.1157085  64.17 0.0007780749    1.340    0.254
