#   1 NUMBER                 Running object number                                     
#   2 MAG_AUTO               Kron-like elliptical aperture magnitude                    [mag]
#   3 X_IMAGE                Object position along x                                    [pixel]
#   4 Y_IMAGE                Object position along y                                    [pixel]
#   5 X_WORLD                Barycenter position along world x axis                     [deg]
#   6 Y_WORLD                Barycenter position along world y axis                     [deg]
#   7 A_WORLD                Profile RMS along major axis (world units)                 [deg]
#   8 B_WORLD                Profile RMS along minor axis (world units)                 [deg]
#   9 THETA_WORLD            Position angle (CCW/world-x)                               [deg]
#  10 FWHM_WORLD             FWHM assuming a gaussian core                              [deg]
#  11 ELONGATION             A_IMAGE/B_IMAGE                                           
#  12 ELLIPTICITY            1 - B_IMAGE/A_IMAGE                                       
         1 -10.4249    189.4960     19.6363   2.8967348869e+02   6.4605554867e+00   0.03796351   0.02391254   1.71  0.001718718    2.071    0.517
         2 -15.7500    241.1867     92.0811   2.8950756115e+02   5.3197232423e+00    0.3701095    0.0956697 -64.08   0.02334685    4.140    0.758
         3 -13.6822    183.7129      4.1556   2.8964770333e+02   6.6736015827e+00   0.09645003   0.04418264  48.79  0.007741998    2.648    0.622
         4 -13.2121    183.1664     80.5041   2.9011303139e+02   5.7913857046e+00    0.1940161   0.04976642 -69.74  0.008222068    9.600    0.896
         5 -14.6429    166.5571     51.6237   2.9013301124e+02   6.2229564459e+00    0.2860024   0.02889565  38.30   0.01409543    6.751    0.852
         6 -14.5814    205.6263     34.1263   2.8957283232e+02   6.1987458278e+00    0.1003973   0.07908551 -84.21   0.01123717    1.420    0.296
         7 -14.1735    214.7357     24.5892   2.8940942113e+02   6.2562691537e+00   0.06237519   0.04301811  52.66  0.004620155    1.613    0.380
         8 -11.7741    138.3057     20.8467   2.9027735836e+02   6.7439337032e+00   0.02108948   0.01172247 -74.28  0.001267687    2.136    0.532
         9 -11.6471    220.5788     12.7724   2.8927029392e+02   6.3591675547e+00   0.01193704   0.01148102  29.35 0.0005448571    1.047    0.044
        10 -10.2543    150.9057     11.4648   2.9007403659e+02   6.7795666016e+00   0.01617221  0.007482684 -66.99  0.001360528    2.327    0.570
        11 -12.1928    105.0574      2.1065   2.9055261274e+02   7.1540094521e+00   0.02573221   0.01286385  15.66  0.002178609    2.448    0.592
        12 -14.1415    120.7467      3.7393   2.9037934054e+02   7.0441398906e+00    0.1488152   0.05324708  15.71  0.008984581    4.908    0.796
        13 -10.2720    249.7122     10.8523   2.8891982394e+02   6.2116161675e+00   0.02333201   0.01211235  66.05  0.001716555    3.547    0.718
        14 -12.5097    248.2473      3.5589   2.8889293132e+02   6.3046196826e+00   0.03745026   0.02164402  42.10   0.00363417    1.774    0.436
        15 -10.3237    156.0164      5.9898   2.8998152407e+02   6.8133454988e+00    0.0130138  0.008553095  79.19 0.0006115807    2.097    0.523
        16 -11.7124    148.2014      5.5067   2.9006973583e+02   6.8643343257e+00   0.01753422    0.0102318 -43.04  0.001082885    1.795    0.443
        17 -11.2468    153.5609      2.1310   2.8998694027e+02   6.8723331873e+00   0.02047169  0.008640317  28.39  0.001711623    2.323    0.569
        18 -11.5207    143.7977      6.1687   2.9012506916e+02   6.8822304665e+00   0.01194453  0.009530835 -81.06 0.0008082274    1.372    0.271
        19  -9.8048     11.4393      9.5048   2.9169048995e+02   7.6090625317e+00   0.00650952   0.00642672 -53.26 6.396564e-05    1.013    0.013
        20  -9.8526    221.4092      6.9142   2.8922536087e+02   6.4221963493e+00  0.009881303  0.006374465 -62.55 0.0004516553    1.542    0.352
        21 -10.9682    237.5208      4.4643   2.8902314322e+02   6.3566787517e+00    0.0131637   0.01179732  23.83 0.0008189064    1.124    0.110
        22 -12.5768    233.5337      3.8841   2.8906603162e+02   6.3866399452e+00   0.03644198   0.03468515 -79.47  0.004555836    1.076    0.070
        23  -9.8768    222.5438      1.7701   2.8918118097e+02   6.4751701489e+00   0.01221809    0.0088823  26.84 0.0008029664    1.381    0.276
        24  -9.5634    215.9106      1.3445   2.8925582306e+02   6.5187437453e+00  0.009146311  0.006216976   9.10 0.0005766156    1.699    0.411
        25 -12.4403    215.0125    117.6839   2.8996563780e+02   5.1748428197e+00   0.02001241   0.01634343 -75.64  0.002295328    1.293    0.226
        26 -13.2113    220.6539    112.4735   2.8986875944e+02   5.2025290195e+00   0.03157034   0.01628036 -52.07  0.002225607    1.865    0.464
        27  -9.6819    167.2015    112.9972   2.9049387805e+02   5.5068741114e+00   0.01018771   0.00692762  51.28 0.0006237168    1.622    0.384
        28 -12.1851    204.8382    110.3380   2.9003989972e+02   5.3192260324e+00   0.02151093   0.01472055  -7.04  0.002151921    1.850    0.459
        29 -10.2489     37.9526    182.3051   2.9241386387e+02   5.4489253201e+00  0.009077732   0.00847101  14.50 0.0003349207    1.085    0.078
        30 -13.0783    170.4469     69.8355   2.9019708846e+02   5.9890635151e+00   0.04440305   0.03340068   8.78  0.002795824    1.465    0.318
        31 -12.0505    176.9298     62.7693   2.9007914362e+02   6.0334012085e+00   0.01488004    0.0124081  21.70 0.0003438018    1.217    0.179
        32 -12.1231    225.4934    176.4849   2.9019637356e+02   4.4313242761e+00   0.02322327   0.01156398 -40.47  0.002000567    2.285    0.562
        33  -9.5407     72.1861    105.1572   2.9155411845e+02   6.1481027907e+00  0.008846072  0.007436002  56.97  0.000334542    1.277    0.217
        34 -12.1573    197.5145    119.2229   2.9017841418e+02   5.2586289141e+00   0.02729914   0.01060581  45.68  0.002051797    3.009    0.668
        35  -9.5126    141.4447    100.4629   2.9071869893e+02   5.8017983553e+00  0.006499954  0.006448467  89.80 0.0001092315    1.026    0.025
        36 -10.2179    124.0031     99.8188   2.9091806714e+02   5.9103490378e+00   0.01154432  0.007471652 -16.17   0.00108792    2.052    0.513
        37 -10.9985    146.5553     94.2585   2.9062195743e+02   5.8442109856e+00   0.01555651   0.01068215 -38.43 0.0007379348    1.550    0.355
        38 -10.5744    133.3232     92.3961   2.9076496265e+02   5.9425443717e+00   0.01287284   0.01012302  69.46 0.0003711222    1.472    0.321
        39 -11.9955    154.2260     86.1739   2.9048410203e+02   5.8935812650e+00   0.02228139   0.01240862 -33.98  0.001402251    2.214    0.548
        40 -11.8257    157.4868     83.4815   2.9042996117e+02   5.9059165853e+00   0.01561609   0.01435996  63.70 0.0009780818    1.145    0.127
        41 -11.6686    139.9843     82.6013   2.9062859981e+02   6.0176546515e+00   0.01532573   0.01321376 -65.10 0.0006668342    1.164    0.141
        42 -12.8185    153.4055     72.3213   2.9041052950e+02   6.0591359176e+00   0.01643717   0.01370614 -57.40  0.000800468    1.181    0.153
        43  -9.6089     77.1467     72.4107   2.9130019019e+02   6.4997849646e+00  0.008863486  0.005911008  40.47 0.0002642077    1.518    0.341
        44  -9.9606    130.6255     66.2049   2.9063930450e+02   6.2622460369e+00  0.009785912  0.005756035 -51.97 0.0009477339    1.648    0.393
        45 -10.8724    134.8032    105.5776   2.9082673456e+02   5.7808952759e+00   0.02260279  0.009854383 -57.51  0.001937122    2.159    0.537
        46  -9.5431    119.1135    208.5015   2.9162506270e+02   4.6757905629e+00  0.009336377  0.006550705  24.66 0.0003889802    1.444    0.308
        47  -9.0156    184.5125     46.5171   2.8989317637e+02   6.1778653225e+00   0.00650949  0.006485489 -53.48 0.0001530213    1.014    0.014
        48 -14.4953     58.0065    185.7693   2.9220089769e+02   5.2930154754e+00   0.05283913   0.04938314  42.55   0.00265986    1.088    0.080
        49 -10.7499    232.2448     43.1595   2.8931742728e+02   5.9390750423e+00    0.0172959   0.01312279  26.32  0.001649303    1.326    0.246
        50 -12.3131    185.7566     53.7807   2.8992234382e+02   6.0863855274e+00   0.01703922   0.01230847 -29.50   0.00107992    1.556    0.357
        51  -9.9541    190.3079     36.5434   2.8976572351e+02   6.2598305283e+00   0.01183167  0.006073424  32.98  0.000591005    1.891    0.471
        52 -10.9177    249.1331     25.4915   2.8901470060e+02   6.0454211385e+00   0.01481725   0.01056261  33.94  0.001181203    1.393    0.282
        53 -10.1939    152.2940     26.1304   2.9014602638e+02   6.6014678800e+00   0.01320291  0.007945607   7.10  0.001213955    2.114    0.527
        54 -11.9865    124.3517     25.1125   2.9046573233e+02   6.7754041890e+00   0.01633443   0.01013788  49.89   0.00159964    1.795    0.443
        55  -9.0819    167.6480     24.3121   2.8995614446e+02   6.5333685840e+00  0.007107293  0.004907985  60.14 0.0007045293    1.726    0.420
        56 -10.6235    228.3382     22.2872   2.8923727742e+02   6.2037257125e+00   0.01142875  0.009088037  22.98 0.0007389967    1.277    0.217
        57 -10.4563    225.0448     19.8787   2.8926109971e+02   6.2508186901e+00   0.01434007  0.009923665 -35.34 0.0007620871    1.579    0.367
        58 -10.1309      5.1862    170.4043   2.9272479281e+02   5.7759850435e+00   0.00904392    0.0059479  38.69  0.000196913    1.525    0.344
        59 -10.1294     91.5281     22.5283   2.9083319340e+02   6.9955360486e+00  0.006501188  0.006473263 -48.41 3.940786e-05    1.014    0.013
        60  -9.9012    250.5087     19.5480   2.8896292511e+02   6.1062535593e+00   0.01299549  0.006471348 -62.46 0.0006712995    1.993    0.498
        61 -10.1968    129.5269     20.5434   2.9037791618e+02   6.7983819244e+00   0.00651136  0.006451636 -29.82 8.740885e-05    1.004    0.004
        62 -10.3842    221.5454     16.4845   2.8928139124e+02   6.3105296322e+00    0.0121266   0.01092408 -89.90  0.000523547    1.182    0.154
        63 -11.8324    229.2729    166.3969   2.9009200092e+02   4.5265045965e+00   0.01302933   0.01098495  87.02  0.000891933    1.316    0.240
        64 -12.5881    190.5302     49.1232   2.8983876487e+02   6.1126570228e+00   0.02274975   0.01373064 -31.53  0.002136174    2.020    0.505
        65 -10.2016     11.9097    162.4759   2.9259919600e+02   5.8294801851e+00   0.00999561  0.008800332 -59.01 0.0004542401    1.123    0.109
        66  -9.9497    202.1284    248.1428   2.9089657493e+02   3.7346551784e+00  0.009809246  0.008615091 -32.13 0.0003089676    1.168    0.144
        67 -14.2260     18.5610    225.1418   2.9289468096e+02   5.0624930851e+00   0.04523948   0.04468527 -59.82  0.004175635    1.015    0.015
        68  -9.2792    204.6639     11.2500   2.8944638972e+02   6.4694813074e+00  0.006755495    0.0048502  55.11 0.0001831972    1.562    0.360
        69 -13.3442    237.6862     57.6186   2.8934111033e+02   5.7397662138e+00    0.0766428   0.03385049  18.75   0.00129781    2.729    0.634
        70 -12.4096     67.7509    144.2856   2.9183976505e+02   5.7190236237e+00    0.0321654   0.01924337  54.58  0.002497061    2.016    0.504
        71 -15.1337     47.4240    197.1280   2.9239185905e+02   5.2219788631e+00   0.09407505   0.05965925 -26.67  0.007768536    1.968    0.492
        72  -9.7611     20.3754    139.0831   2.9236102465e+02   6.0526972865e+00  0.009030472  0.008122746 -62.07 0.0003651475    1.106    0.096
        73 -11.3405    183.9757    135.0939   2.9043111179e+02   5.1529490397e+00   0.02251434  0.009322789  34.97  0.001601785    2.300    0.565
        74 -12.4494    211.2981    133.8372   2.9010574465e+02   5.0089109759e+00   0.03042594   0.01251973  26.20  0.002489707    2.461    0.594
        75  -9.6493     15.8857    134.0896   2.9238359081e+02   6.1365980203e+00  0.008942462  0.007452563 -32.62  0.001023894    1.250    0.200
        76 -11.6120    218.3302    131.0739   2.9000739655e+02   5.0001383422e+00   0.01135234  0.009292477   4.81 0.0006232815    1.320    0.243
        77 -12.1273    211.2831    128.6167   2.9007460548e+02   5.0696032303e+00   0.02465798   0.00855352  22.32  0.001744692    3.353    0.702
        78  -9.9864    160.4754    127.4762   2.9065897902e+02   5.3777447235e+00  0.006520562  0.006472729 -42.07 0.0001453501    1.008    0.008
        79 -10.0854      1.4114    126.0775   2.9250461978e+02   6.3130355020e+00  0.009720316  0.006348065 -61.79 0.0003372046    1.512    0.339
