#   1 NUMBER                 Running object number                                     
#   2 MAG_AUTO               Kron-like elliptical aperture magnitude                    [mag]
#   3 X_IMAGE                Object position along x                                    [pixel]
#   4 Y_IMAGE                Object position along y                                    [pixel]
#   5 X_WORLD                Barycenter position along world x axis                     [deg]
#   6 Y_WORLD                Barycenter position along world y axis                     [deg]
#   7 A_WORLD                Profile RMS along major axis (world units)                 [deg]
#   8 B_WORLD                Profile RMS along minor axis (world units)                 [deg]
#   9 THETA_WORLD            Position angle (CCW/world-x)                               [deg]
#  10 FWHM_WORLD             FWHM assuming a gaussian core                              [deg]
#  11 ELONGATION             A_IMAGE/B_IMAGE                                           
#  12 ELLIPTICITY            1 - B_IMAGE/A_IMAGE                                       
         1 -14.4569    105.1100    103.9259   3.5591575478e+01   4.0923033070e+01       1.6603     1.486566 -79.32  0.008383014    1.176    0.150
         2 -15.1176      6.8446     71.0125   6.9799351982e+01   6.3664052726e+01     1.365121    0.9243073 -72.30  0.004740812    1.340    0.254
         3 -13.5546     32.9922     24.3872   3.7086244991e+01   7.2019062054e+01     2.964454     1.181208  22.62  0.008446363    5.560    0.820
         4 -14.2835     41.8850      6.0269   1.9696321348e+01   7.3224827891e+01     1.220306    0.9517242  35.06  0.007050084    1.152    0.132
         5 -13.5300      6.2260     43.0452   6.4399986351e+01   7.0797710481e+01     1.342222    0.8097612 -12.16  0.006851612    1.767    0.434
         6 -13.5730      8.7817      2.6867   4.3044115042e+01   7.9181813333e+01    0.9648856    0.6677669  35.64  0.003637642    1.565    0.361
         7 -13.7425     25.7318     13.8707   3.5812265434e+01   7.4999841953e+01    0.7493402     0.394734  27.86  0.003597698    1.947    0.486
         8 -15.9325     12.4465     21.2835   5.1242575965e+01   7.5259205752e+01     2.105009     1.125854 -24.96   0.00995141    2.135    0.532
         9 -13.9104    122.3671     36.7769   8.9146032648e+00   4.9822858311e+01    0.9702008    0.5057752  44.22  0.002596447    2.232    0.552
        10 -13.8857    166.8788     29.7469   3.5965014064e+02   3.9447284743e+01    0.9098175    0.6191587  79.90  0.003504699    1.421    0.296
        11 -13.8549    147.5438     29.6066   2.0951240400e+00   4.4289057642e+01     1.214019    0.5993127  73.93  0.003945732    1.998    0.499
        12 -12.6180    186.9970     13.9554   3.5332166110e+02   3.6482593618e+01    0.6496953    0.2738079 -22.57  0.002799506    2.795    0.642
        13 -13.2296    189.1498     25.6656   3.5624725263e+02   3.4680735752e+01    0.9973741    0.3853665 -52.71  0.003719482    2.368    0.578
        14 -15.1719     98.3285     12.3851   4.0448660559e+00   5.9063127990e+01      1.63761    0.8456351  62.59  0.005709301    1.691    0.409
        15 -11.7121     60.8215     15.4633   1.6823430057e+01   6.7957540590e+01    0.4335657    0.3147154  24.26  0.002282246    1.520    0.342
        16 -11.5206    175.9306     13.8564   3.5417488366e+02   3.9079837691e+01    0.2169415     0.160698 -55.72 0.0002612375    1.158    0.137
        17 -12.8764    214.9118     10.0347   3.5055087047e+02   3.0804603811e+01    0.3896898    0.2887794 -47.69  0.001314244    1.124    0.110
        18 -11.5983     74.2834     10.9175   9.4692590837e+00   6.5307528704e+01    0.3547194    0.2298507  26.82  0.001723454    1.843    0.457
        19 -10.7390    153.2515      8.5545   3.5464284333e+02   4.5179015740e+01    0.1866265    0.1120974  66.47 0.0009456406    1.592    0.372
        20 -11.8664    232.0001      2.4222   3.4803990820e+02   2.8170049896e+01     0.326409    0.1899085  46.38  0.001824795    2.887    0.654
        21 -11.6332    119.6868      3.0142   3.5649841720e+02   5.4344130748e+01    0.4942223    0.2130431 -79.31  0.001822563    3.009    0.668
        22 -10.9608     67.4679      2.9764   7.0998020317e+00   6.7759843689e+01    0.2813787    0.1545268  48.57  0.001360884    1.622    0.383
        23 -10.1068    192.7017      2.6758   3.5000512303e+02   3.6329066504e+01    0.1112305   0.09335463  43.35 0.0006836913    1.628    0.386
        24 -11.6217     80.7420      1.7417   2.8169527277e+00   6.4569043340e+01    0.6510694   0.09383512  62.18  0.001940884    4.070    0.754
        25 -11.9857     61.5091      1.4628   8.1144938006e+00   6.9329890765e+01    0.4269341    0.1202593  63.62  0.001478999    3.223    0.690
        26 -11.9821    200.8681    191.2342   3.2029955692e+01   6.5066767942e+00    0.2889345    0.2171073   4.28  0.001436247    1.193    0.162
        27 -11.6628     52.6927    250.0808   7.1136811300e+01   1.5389085357e+01    0.1616421    0.1314356  44.69 0.0008592179    1.084    0.077
        28 -13.8088     28.7069    245.9643   7.6147050656e+01   1.8582324190e+01    0.7751179    0.5296262  54.83  0.004392309    1.202    0.168
        29 -10.9662    122.6775    181.7216   4.7037902896e+01   1.9813030070e+01    0.2798226    0.1955265  67.09  0.001319301    2.054    0.513
        30 -11.1299     48.8022    181.7000   6.7014252721e+01   3.0247360364e+01    0.2941114    0.2036894 -41.38  0.001489856    1.810    0.448
        31 -11.4680    198.8757    181.0923   3.0612644274e+01   8.3409019367e+00    0.1808096    0.1686898 -27.23  0.001237989    1.323    0.244
        32 -13.3363     30.1715    168.8038   7.1317898915e+01   3.5468699439e+01    0.6764282    0.4477127 -46.79  0.003408712    1.808    0.447
        33 -12.7219     22.4589    180.8820   7.4406327867e+01   3.3196767208e+01    0.5264986    0.3585253  83.61  0.002460937    1.398    0.285
        34 -10.7637      2.2653    159.8086   7.9173261016e+01   4.0095684353e+01    0.2318061    0.1557261 -32.12  0.001208871    1.962    0.490
        35 -12.3885     77.1600    157.0463   5.5580534742e+01   3.2633431002e+01    0.5787531    0.3624451  30.20  0.001831688    1.555    0.357
        36 -12.7380     74.0009    153.4969   5.5994953875e+01   3.4002250951e+01    0.6927779     0.435425  24.04  0.002239181    1.687    0.407
        37 -12.5648    111.4601    155.5727   4.5394375258e+01   2.7433870179e+01    0.5702092    0.3939516  74.30  0.002469587    2.103    0.525
        38 -11.4456    103.6498    149.7026   4.6468116459e+01   3.0165279439e+01    0.3383664    0.2646206 -33.98   0.00121121    1.438    0.305
        39 -12.1728    189.8800    150.2185   2.6368538103e+01   1.4820619279e+01    0.2699452    0.1893957  33.11  0.001486933    1.506    0.336
        40 -11.5325     10.5901    149.5427   7.6032700898e+01   4.2169272034e+01    0.4509606    0.2454925  -9.17  0.001942484    2.696    0.629
        41 -12.6882    124.3102    166.7033   4.4055555446e+01   2.2749197005e+01    0.5937819    0.4134791 -69.53  0.002810841    1.860    0.462
        42 -12.1651    148.9163    141.3350   3.2975763770e+01   2.3765216646e+01    0.3312804    0.2640411 -58.83  0.001700811    1.398    0.285
        43 -10.2167     42.4877    139.4828   6.4321202533e+01   4.1884036136e+01    0.1477042    0.1367539  73.37 0.0008103085    1.005    0.005
        44 -10.3645     10.9115    134.0493   7.4864874421e+01   4.6284290920e+01    0.1607764    0.1435194  48.52 0.0003757151    1.123    0.109
        45 -12.1593    138.7135    131.6826   3.3261000240e+01   2.7761419759e+01    0.3691677    0.2649962   7.72  0.001629051    1.949    0.487
        46 -12.0739      2.7880    249.5279   8.1746428132e+01   2.0273583015e+01    0.3683472     0.209359  42.04  0.001803192    1.241    0.194
        47 -10.3063     58.9232    124.8602   5.6208791839e+01   4.3750552398e+01     0.209541    0.1686299  75.57            0    1.303    0.232
        48 -12.4400      4.4971    119.3652   7.6131187639e+01   5.0680084679e+01    0.6018156    0.3885597  -8.39  0.002655999    1.915    0.478
        49 -14.1556     18.3494    110.7928   6.9817467273e+01   5.2115242446e+01     1.109968    0.8943332  -0.74  0.004370144    1.431    0.301
        50 -14.6183     24.7685     94.0556   6.4637276141e+01   5.6196395370e+01     1.852627     1.078157   2.52  0.008069644    2.134    0.531
        51 -13.3023     20.2574     86.6054   6.5487115597e+01   5.8606447776e+01    0.7910144     0.473342   1.62  0.003591359    2.001    0.500
        52 -13.7696     10.8834    103.2131   7.2085370220e+01   5.4726248002e+01    0.8550189    0.6660984  38.47  0.004085421    1.331    0.249
        53 -13.8221      2.2957     96.8304   7.5192196846e+01   5.6938544770e+01     1.329675    0.4319018 -82.06  0.003973814    2.846    0.649
        54 -11.2335     88.6877    109.5833   4.2367287902e+01   4.2816842566e+01    0.3593325    0.1852743 -54.91  0.001369659    1.951    0.487
        55 -12.1374     85.0188    114.9765   4.4919844582e+01   4.2132442536e+01    0.8489873    0.3628316  33.17    0.0024281    2.479    0.597
        56 -11.6309     78.7531    111.0128   4.6153738103e+01   4.4268978483e+01    0.2917921    0.2511278  87.23 0.0008585131    1.246    0.197
        57 -12.0977     32.2176    112.9950   6.4458753127e+01   5.0270235239e+01    0.7535488    0.3587721 -61.01  0.003089828    1.917    0.478
        58 -11.1241    121.5549    111.8179   3.2899406338e+01   3.5654025026e+01    0.3239343    0.2529022  66.94 0.0007788826    1.468    0.319
        59 -11.7643     62.4022    108.1681   5.1542313695e+01   4.7724445923e+01    0.6736516    0.3627642 -73.40  0.002546691    2.227    0.551
        60 -10.8239     45.9144    110.2443   5.8467245303e+01   4.9474060074e+01    0.3086224     0.167807 -42.17  0.001225837    2.104    0.525
        61 -10.3227     42.7706    107.3481   5.9202129902e+01   5.0654932979e+01     0.194281     0.144476  12.09 0.0003622653    1.534    0.348
        62 -12.3755    136.6932    103.1599   2.6692363999e+01   3.4279028004e+01    0.6669974    0.3521857  56.47  0.001880309    2.167    0.539
        63 -13.0712    106.4378    123.5641   4.0124800777e+01   3.5966571404e+01     1.456849    0.7299936  32.12   0.00537505    2.247    0.555
        64 -10.5131     64.6632    101.7221   4.9166135083e+01   4.9073167434e+01    0.1561772    0.1213914 -18.84 0.0002351459    1.613    0.380
        65 -11.8000     60.9217     97.8801   4.9715041647e+01   5.0678360594e+01    0.5184891    0.3328656  60.81  0.002125939    1.908    0.476
        66 -11.6610     43.1190     90.6907   5.5594128859e+01   5.5127116319e+01    0.6017106    0.2467317 -69.39  0.002084929    2.679    0.627
        67 -11.5191     47.4472     99.7327   5.5722654184e+01   5.2136288399e+01    0.5202098    0.3495856  64.50  0.002302419    1.756    0.430
        68 -11.6034     52.3064     98.0143   5.3294559415e+01   5.1932286635e+01    0.4315737    0.2686405 -24.44  0.001479319    2.301    0.565
        69 -10.0966     75.2722    100.6524   4.4846233695e+01   4.7546531952e+01    0.1607491     0.121709  79.82 0.0006997244    1.625    0.385
        70 -11.9226    163.6590     97.5960   1.9293001666e+01   2.9466351764e+01    0.3566966    0.2684555  39.70 0.0009008579    1.490    0.329
        71 -12.0854    137.2590     95.0249   2.4335691290e+01   3.5835475098e+01    0.4479854    0.3225204  74.25  0.001231077    1.729    0.422
        72 -11.8436    102.2236    118.6220   4.0227689649e+01   3.7981844552e+01     1.116114    0.4463784  31.38  0.003435065    3.234    0.691
        73 -11.5050     83.2326    125.2704   4.7830113730e+01   3.9807606620e+01    0.4767918    0.2615233 -75.87  0.001698367    2.602    0.616
        74 -11.2062     49.1303     93.0423   5.3486614885e+01   5.3702215235e+01    0.3886898    0.2731744  75.30  0.001735435    1.760    0.432
        75 -12.2741     28.8064    121.8427   6.7032202525e+01   4.8158791958e+01    0.5192622    0.3636591 -49.93   0.00255773    1.482    0.325
        76 -12.0279     36.6548     92.8392   5.8983553508e+01   5.5326784863e+01    0.4894808    0.3157989   4.86  0.001541224    1.920    0.479
        77 -13.3768    188.2291     84.1064   1.1573415561e+01   2.6563825633e+01    0.5907336    0.3148417  49.27   0.00175472    2.126    0.530
        78 -12.9560    164.7651     71.0380   1.1908435687e+01   3.3929564270e+01    0.6196643    0.4098967  48.60  0.001936148    1.674    0.403
        79 -13.8563    169.5392     76.7923   1.2677527577e+01   3.1866450091e+01      1.48667    0.3933622  57.90  0.004594544    4.035    0.752
        80 -11.7474     39.9569     67.5214   5.0977642728e+01   6.1536904820e+01     3.546285    0.9090987  24.93  0.009472299    5.059    0.802
        81 -13.0696     65.8556     49.5961   3.1711663463e+01   6.1218241836e+01     1.334541    0.6705822 -32.79  0.005083349    2.505    0.601
        82 -12.8471     91.7019     58.0338   2.5210671884e+01   5.3906018041e+01    0.5720315    0.5417668 -82.03  0.002346967    1.079    0.073
        83 -13.4529     74.2710     73.6717   3.7261103510e+01   5.4331980616e+01     1.555238    0.8562413  20.06  0.005170442    3.256    0.693
        84 -12.9132     87.5148     65.3063   2.9345531132e+01   5.3393904754e+01    0.5619795    0.4557398  17.39  0.001027342    1.504    0.335
        85 -12.7764     55.7355     80.1910   4.7175488786e+01   5.6057923266e+01    0.7416504    0.5008709 -37.77  0.002247778    1.623    0.384
        86 -13.8969     61.2128     75.6842   4.3381532833e+01   5.6268188051e+01    0.9495779    0.6594435 -49.68     0.003392    1.423    0.297
        87 -12.7826    216.7280     80.4935   6.8593875667e+00   2.1437080963e+01    0.3956289     0.367314 -71.15   0.00192829    1.165    0.142
        88 -11.7326    114.3128     79.8726   2.5814165245e+01   4.4238702398e+01    0.4404157    0.3326007 -58.56  0.001314863    1.394    0.283
        89 -12.4777     56.9691    247.0123   7.0013419288e+01   1.5481042154e+01    0.3251709    0.2071543  30.74  0.002026003    1.256    0.204
        90 -14.2354      5.4391     63.5901   6.9360115284e+01   6.5675376405e+01    0.8652316    0.6164426  -4.45  0.003994772    1.523    0.343
        91 -12.4520    135.7409     79.3800   2.0170644273e+01   3.9288563226e+01    0.7074164    0.3402332  55.90  0.002020107    2.148    0.535
        92 -12.2987    180.8257    121.8779   2.1930222770e+01   2.1478515595e+01    0.5697418     0.295551 -38.05  0.002539403    1.785    0.440
        93 -11.7888     42.4568     77.9199   5.2713115689e+01   5.8569524392e+01    0.4938746    0.3013556 -70.45    0.0017303    1.769    0.435
        94 -11.6419     27.4085     76.5354   5.9895818513e+01   6.0666275808e+01    0.3830615    0.2679516 -89.60  0.001239354    1.619    0.382
        95 -13.1359    198.7545     70.1367   6.6190009161e+00   2.6554452987e+01    0.6334857     0.412453  42.51  0.002243515    1.996    0.499
        96 -12.3222    135.2240     66.1555   1.6206726973e+01   4.1858069902e+01    0.5014861    0.4061099  42.73  0.001554294    1.360    0.265
        97 -13.3415    160.6857     80.7851   1.5358517569e+01   3.3193523260e+01      1.13852    0.6546102  24.91  0.002883723    3.874    0.742
        98 -10.8758    100.0471     65.1164   2.5113649170e+01   5.0572739612e+01    0.2395823    0.2278066  78.09 0.0007287243    1.032    0.031
        99 -12.6750     79.0773     59.5033   3.0288377319e+01   5.6439723685e+01    0.7713382    0.5543944 -48.18  0.003647758    1.430    0.301
       100 -11.4990     34.3908     60.4532   5.1758542157e+01   6.3993986406e+01    0.4227235    0.2752477 -44.49  0.001138644    1.487    0.328
       101 -11.3169     38.8157     60.0055   4.9174684800e+01   6.3529724722e+01    0.3739811    0.2460522  62.13  0.001656547    2.107    0.525
       102 -13.1959    178.0759     57.8563   6.1903972370e+00   3.2933716051e+01     0.623107    0.5034844 -62.95  0.001812708    1.142    0.125
       103 -11.8742     24.7717     59.4629   5.6967036550e+01   6.5312628398e+01    0.4879607    0.2690881 -48.78  0.001873866    1.674    0.403
       104 -14.3316    119.8895     54.7409   1.5944454832e+01   4.7653627610e+01    0.8647631    0.5327275  44.44  0.001733791    1.759    0.431
       105 -12.0508    136.1277     50.1327   1.0809934521e+01   4.4310725819e+01    0.5491769    0.4168496 -41.03 0.0008995072    1.312    0.238
       106 -13.4647    103.3537     50.4907   1.8730598836e+01   5.2497825252e+01    0.7472107      0.61436 -82.62 0.0007264442    1.354    0.262
       107 -12.9926     97.9756     49.9607   2.0103026722e+01   5.3905301450e+01    0.7827868    0.4227687 -39.86  0.002510105    1.904    0.475
       108 -10.4816     47.7552     56.5727   4.3199551641e+01   6.3017692441e+01    0.2066616    0.1323199  45.21 0.0006313021    1.660    0.398
       109 -11.5516     17.5056     54.8982   6.0082796129e+01   6.7109794800e+01    0.3415443    0.2423374 -75.69  0.001782607    1.482    0.325
       110 -11.8802     35.7852     54.6977   4.9028693113e+01   6.5198382151e+01     0.380064    0.2588739 -23.38  0.001811775    1.710    0.415
       111 -10.3161     23.5260     50.0140   5.4800495745e+01   6.7747588285e+01    0.1998162    0.1288331 -58.26 0.0004522689    1.473    0.321
       112 -12.5276    170.1425    241.1483   4.5392672117e+01   3.0251652773e+00    0.1862431    0.1315379   3.15   0.00124269    1.226    0.184
       113 -11.7602    147.3200    238.8537   4.9626860243e+01   6.0847120537e+00    0.1623013    0.1517692  47.49   0.00118332    1.445    0.308
       114 -12.2611     25.6218    217.1254   7.5559567093e+01   2.4617506530e+01     0.642925    0.2831452  53.18  0.003199502    1.892    0.472
       115 -13.5921     23.8686    229.9142   7.6551200687e+01   2.2146718625e+01    0.8018807    0.2914443 -62.33  0.003721033    3.251    0.692
       116 -13.0887     26.7886    225.6154   7.5685225296e+01   2.2736480364e+01    0.4124229    0.2994705  78.83  0.001928479    1.372    0.271
       117 -13.0755      3.1165     34.3811   6.4298482569e+01   7.3026835122e+01    0.3533817    0.3302084 -47.00  0.001059078    1.092    0.085
       118 -13.7468     20.7806    224.3932   7.7033020818e+01   2.3558697695e+01    0.4983826    0.4557769 -26.69  0.002072021    1.483    0.326
       119 -11.4367    154.5341     46.5162   6.3963637132e+00   4.0239929680e+01     0.359809    0.2389859  53.41  0.001756187    1.603    0.376
       120 -12.3252    158.6125     43.1632   4.7502920677e+00   3.9710570942e+01    0.7953181    0.3768954  53.46  0.003340982    2.239    0.553
       121 -13.5237    217.5072     41.8554   3.5780828030e+02   2.6607551672e+01    0.9425302    0.3624611  65.99  0.003906394    2.805    0.644
       122 -12.9904    205.0081     39.7648   3.5840992839e+02   2.9457823054e+01     1.021181     0.410097 -87.67  0.003590562    4.399    0.773
       123 -11.0710     25.8374     44.0979   5.1197683254e+01   6.8884378500e+01    0.2571909    0.1905887  30.11  0.001386436    1.383    0.277
       124 -11.3507    135.1179     39.7700   7.5052669051e+00   4.6113929044e+01    0.4592687    0.2699352  84.55  0.001446173    1.985    0.496
       125 -12.5069    131.5789     33.3706   5.9200482358e+00   4.7906315701e+01    0.4242479    0.3813825  19.81  0.001404506    1.364    0.267
       126 -12.4218    109.8833     41.9428   1.3699706310e+01   5.2263029385e+01    0.7511845       0.4443  87.90 0.0008655057    2.512    0.602
       127 -13.5037     90.7847    230.4176   6.1027705591e+01   1.4588109636e+01    0.5655123    0.2523783  57.44   0.00229109    3.410    0.707
       128 -12.4936    113.7728     37.9708   1.1236932779e+01   5.1866624258e+01    0.8019453    0.4087866  71.95  0.003155448    2.200    0.545
       129 -12.4811     46.3231     33.5426   3.3883224051e+01   6.8070926679e+01    0.9011095    0.4808648  38.32  0.004059769    1.821    0.451
       130 -12.1140     40.1305     40.1499   4.0615134238e+01   6.7808614302e+01    0.6506901    0.4840418  53.00  0.003362177    1.600    0.375
       131 -12.8896     32.7213     40.3228   4.5216680871e+01   6.8862399969e+01    0.6172792     0.376912 -35.61  0.000722914    1.703    0.413
       132 -12.7120     75.8485     37.0429   2.2061452446e+01   6.1350498711e+01    0.5194972    0.3084294  47.24  0.000902624    1.596    0.373
       133 -11.2873     70.6296     36.2756   2.3727095035e+01   6.2657823614e+01    0.2658544    0.2194392  65.21 0.0008191745    1.296    0.228
       134 -12.4282    242.7081     36.1533   3.5466554609e+02   2.2499714365e+01    0.4339027    0.2687064 -88.44   0.00246495    1.783    0.439
       135 -14.1211      9.5374    245.4829   8.0240142758e+01   2.0440835323e+01    0.9584447    0.3485453  44.62  0.003605637    1.828    0.453
       136 -10.9028    144.6789    232.3371   4.9346167803e+01   7.4221368796e+00    0.1168464    0.0870908  50.08 0.0007050205    1.710    0.415
       137 -12.2812    140.1035     21.3601   3.9586407133e-01   4.7184263420e+01    0.5905731     0.267774  68.33   0.00123656    2.016    0.504
       138 -11.3653    114.2134     31.6234   8.6829685525e+00   5.2644555081e+01    0.2463458    0.1886319  11.75  0.001204042    1.767    0.434
       139 -12.8469     64.1970    223.7899   6.6686867112e+01   1.9090558681e+01    0.6486902    0.3236448  41.77  0.003325627    1.609    0.379
       140 -12.9508     68.3435    220.4173   6.5405793884e+01   1.9278892708e+01    0.5531555    0.2891293 -78.78  0.002728437    2.416    0.586
       141 -11.4357    194.5476     23.2520   3.5515912826e+02   3.3743295976e+01    0.2958281     0.231545  75.89   0.00183598    1.341    0.254
       142 -11.9686    120.2171     26.5371   5.5044253539e+00   5.1741990995e+01    0.5582947    0.2874327  64.12  0.002323758    1.774    0.436
       143 -13.1929     57.1047     27.0166   2.4933233030e+01   6.7102218291e+01    0.9720766    0.3194347  47.02   0.00317032    2.831    0.647
       144 -13.8079     64.0472    215.1766   6.6003498943e+01   2.0870627976e+01    0.5556924    0.4689318  56.31  0.003096326    1.116    0.104
       145 -12.1005     47.6617     20.1074   2.5746851056e+01   7.0112852675e+01    0.7570829    0.2726642  48.62  0.002109281    2.676    0.626
       146 -11.5653     71.1120     16.6120   1.3579824490e+01   6.5419540762e+01    0.2470553     0.233507 -26.32 0.0006224855    1.151    0.131
       147 -12.8874     59.6555    212.8138   6.6893502444e+01   2.1888197297e+01    0.6015776    0.3320206 -26.44  0.002471085    3.533    0.717
       148 -10.6175    191.6761    226.3335   3.9280998780e+01   2.5651410195e+00     0.100479   0.08921172  41.61 0.0007050728    1.708    0.415
       149 -11.1015     94.2088    217.6005   5.8891346664e+01   1.6593248484e+01    0.1901471    0.1122619  20.66 0.0009385947    1.664    0.399
       150 -10.7327    149.7850    206.6211   4.4672431094e+01   1.1015793531e+01    0.1886753    0.1051976  38.10 0.0009554255    1.702    0.412
       151 -10.1797    123.4984     11.4923   3.5922319007e+02   5.2563731806e+01    0.1402204    0.1234496  89.35 0.0001408577    1.000    0.000
       152 -11.3990    223.6230     21.2178   3.5260956440e+02   2.7834525922e+01     0.204889    0.1857581  81.03  0.001027945    1.348    0.258
       153 -12.2208     57.6127    203.1874   6.6586838501e+01   2.4217370489e+01     0.469149    0.2833591  87.39  0.002366015    1.940    0.484
       154 -11.4348     13.7698    205.2330   7.7935089841e+01   2.8295645804e+01    0.2946803    0.1374294 -60.95  0.001275524    2.498    0.600
       155 -11.0925     14.3924    200.7826   7.7592299271e+01   2.9239361358e+01    0.1928371    0.1732246 -62.71  0.001067318    1.364    0.267
       156 -12.0300     17.1552    195.7641   7.6652795217e+01   3.0142507212e+01    0.4390797     0.214561 -66.12  0.001826584    2.191    0.544
       157 -12.2564     39.3175    194.8570   7.0731384914e+01   2.8179151761e+01    0.4563194    0.3450103  48.01  0.002658391    1.118    0.105
       158 -15.1237      9.0501    179.8295   7.8093596278e+01   3.4605915533e+01     1.659184     1.303156  88.16   0.01014527    1.212    0.175
