#   1 NUMBER                 Running object number                                     
#   2 MAG_AUTO               Kron-like elliptical aperture magnitude                    [mag]
#   3 X_IMAGE                Object position along x                                    [pixel]
#   4 Y_IMAGE                Object position along y                                    [pixel]
#   5 X_WORLD                Barycenter position along world x axis                     [deg]
#   6 Y_WORLD                Barycenter position along world y axis                     [deg]
#   7 A_WORLD                Profile RMS along major axis (world units)                 [deg]
#   8 B_WORLD                Profile RMS along minor axis (world units)                 [deg]
#   9 THETA_WORLD            Position angle (CCW/world-x)                               [deg]
#  10 FWHM_WORLD             FWHM assuming a gaussian core                              [deg]
#  11 ELONGATION             A_IMAGE/B_IMAGE                                           
#  12 ELLIPTICITY            1 - B_IMAGE/A_IMAGE                                       
         1 -13.8947    198.1094     52.7324   1.0991481206e+01   2.8594291688e+01     1.234428    0.9896315  40.14  0.003753288    1.538    0.350
         2 -13.9694    226.8182     26.5276   1.7751074637e+00   2.5621772072e+01    0.9218318    0.8994309  22.54  0.004414999    1.377    0.274
         3 -13.0402    229.8310      9.7525   3.5784029149e+02   2.6850765175e+01    0.9687185    0.5655746 -47.34  0.003446617    1.383    0.277
         4 -12.6559     32.4121     15.8794   4.2955286169e+01   7.1829022877e+01    0.5177423    0.3227265  40.66  0.002839206    1.717    0.418
         5 -10.2849    250.0375     10.7058   3.5689497998e+02   2.2732250581e+01    0.1604441    0.1223135 -66.14 0.0005941016    1.084    0.078
         6 -11.5844     55.1664      3.8556   2.4159300848e+01   6.9354523222e+01    0.2997211    0.1822498  51.24  0.001606092    1.507    0.336
         7 -10.9148     41.6718      1.6775   2.9061026409e+01   7.2215703958e+01    0.2193861    0.1584249  32.30 0.0009196509    1.195    0.163
         8 -10.5351     61.0538      2.4911   2.1049646529e+01   6.8257387975e+01    0.2038042    0.1147218  54.38 0.0007267171    1.596    0.374
         9  -9.5684     53.4213    231.4876   7.9587521932e+01   1.9390348087e+01    0.2416949    0.1129463 -71.53 0.0009673488    2.392    0.582
        10 -19.2764     10.3107    160.8621   8.5266807710e+01   3.9535921103e+01       17.659     4.932411 -83.53   0.06268238    3.563    0.719
        11  -9.9361    210.9507    198.7225   4.1190822237e+01   2.5425384754e+00    0.2079212    0.1647743 -24.29  0.000456239    1.231    0.188
        12 -10.1465    192.1590    193.3005   4.3784197047e+01   6.1572587114e+00    0.5251944    0.3000652 -63.46  0.001753078    5.867    0.830
        13 -10.6359     69.3638    194.8337   7.2562018711e+01   2.5054688646e+01    0.2501869    0.2133251  69.86 0.0008279575    1.121    0.108
        14  -9.3041     42.5231    194.4323   7.9295829769e+01   2.8463186261e+01    0.3229658    0.1870604  21.13 0.0005995607    1.960    0.490
        15 -11.0785     37.5126    193.5092   8.0474228509e+01   2.9228255236e+01    0.2946363    0.2393019  61.51 0.0009297282    1.039    0.038
        16 -11.1941     38.0560    189.2133   7.9995392916e+01   3.0151888467e+01    0.6184295    0.2845089 -43.32    0.0024609    3.470    0.712
        17  -6.3325     47.0209    193.8019   7.8112931573e+01   2.8089712885e+01    0.3326913    0.1485484 -74.68   0.00150185    2.330    0.571
        18 -16.0210     66.0769    144.3720   6.6762909564e+01   3.7674364331e+01     6.544811     3.496756  56.91   0.02643274    2.211    0.548
        19  -8.5765     78.3468    184.2176   6.8982605069e+01   2.6216067838e+01    0.1299819    0.1053193   3.62 0.0002372566    1.539    0.350
        20 -10.8841     96.2709    179.2688   6.3574770006e+01   2.4651686824e+01    0.5627152    0.3022983 -82.51  0.001988797    3.229    0.690
        21 -11.7773    179.7320    169.1788   4.1777956093e+01   1.2315164272e+01    0.8852129    0.6351243  11.50  0.004584479    1.531    0.347
        22 -10.1671    174.5349    179.9641   4.4935428008e+01   1.1265744709e+01     0.268256     0.236655  -2.05 0.0007867121    1.047    0.045
        23 -11.1509    172.1490    175.7691   4.4650866309e+01   1.2431203154e+01     0.428896    0.3890413 -38.48  0.001187014    1.221    0.181
        24 -10.0357     62.3115    181.0270   7.2851607617e+01   2.9156583126e+01    0.3533665    0.1853689  29.60  0.001612354    1.860    0.462
        25 -11.5588    113.3516    172.7304   5.8059463868e+01   2.3324159737e+01    0.3892844    0.3043827  80.49  0.001240414    1.603    0.376
        26 -11.0671    111.0471    167.1315   5.7695906423e+01   2.4975532634e+01    0.4396964    0.3302825 -78.43  0.001691069    1.640    0.390
        27 -10.7449     46.3957    229.0904   8.0960490103e+01   2.0674676443e+01    0.3090582     0.142504  34.65  0.001611336    1.766    0.434
        28  -9.7140    165.1861    226.8710   5.4668518390e+01   4.8374207438e+00    0.1720442    0.1280649   4.63 0.0005350302    1.304    0.233
        29  -8.6396     37.5515    224.8327   8.2630794393e+01   2.2510408520e+01    0.1548874    0.1070149  86.13   0.00096953    1.442    0.307
        30 -11.7019    232.0456    165.8369   3.1475058498e+01   4.3645884389e+00    0.3954042    0.1747924  43.07  0.001887422    2.565    0.610
        31  -9.2247     98.8129    218.3610   6.8091432907e+01   1.6023700939e+01    0.1825241    0.1108361  24.87 0.0004103281    1.633    0.388
        32 -10.7707     88.5251    221.4067   7.0798579180e+01   1.6871565669e+01    0.3474584     0.285815  11.86  0.001612274    1.394    0.283
        33 -10.1575    113.7525    152.4622   5.4246304979e+01   2.7863692524e+01    0.3859964    0.2612212 -77.08  0.001219596    2.027    0.507
        34 -10.7975    134.2307    148.2489   4.7973630746e+01   2.4966672386e+01    0.5538751    0.2668794 -55.73  0.002067665    2.444    0.591
        35 -11.0993    133.4960    142.9972   4.7034954499e+01   2.6266409986e+01     0.827507    0.3016399 -56.81  0.002399246    4.032    0.752
        36 -11.3250    109.0245    145.1189   5.4090657220e+01   3.0445566688e+01    0.4060569    0.3154385 -44.13 0.0006954596    1.354    0.261
        37  -9.4884    128.2240    138.8926   4.7509593879e+01   2.8220851404e+01    0.2245283    0.2065201  85.69 0.0004503512    1.206    0.171
        38 -11.8235    105.4861    131.5553   5.2230955653e+01   3.4336407476e+01    0.6022925    0.4134574 -37.84  0.001638376    1.628    0.386
        39 -11.8090     92.9338    131.6349   5.6024409129e+01   3.6610146110e+01    0.3758222    0.3185305  89.56   0.00049419    1.307    0.235
        40 -11.2627    135.4901    126.3621   4.2710372412e+01   2.9532158912e+01     1.082941    0.2220135 -50.24  0.002385655    6.316    0.842
        41  -9.7016    163.8972    129.1559   3.6563627965e+01   2.3002088632e+01    0.2254759    0.2051362 -82.66 0.0006352894    1.285    0.222
        42 -11.7766    113.7726    124.1908   4.8123981159e+01   3.4474425624e+01    0.6849394    0.4269861 -30.90  0.002094457    2.064    0.516
        43 -10.4063    100.4283    120.8764   5.1308116770e+01   3.7864723531e+01    0.2976528    0.2521816  -6.64 0.0005412651    1.412    0.292
        44 -10.1664    108.8476    116.0866   4.7594310292e+01   3.7359527258e+01    0.2630733    0.2264638 -33.67 0.0003151911    1.233    0.189
        45 -12.0685     60.4886    108.6159   6.1942474697e+01   4.7660421440e+01    0.7418831    0.3909498 -61.88  0.003083681    1.860    0.462
        46 -12.0453    113.3517    106.4771   4.3776077130e+01   3.8654449405e+01    0.8001817    0.5337989  81.01     0.002862    2.580    0.612
        47 -10.2649    134.5336    104.3146   3.7332294160e+01   3.4510456673e+01    0.4699744    0.1525662 -45.40  0.001433077    3.115    0.679
        48 -11.1929     65.7228    103.7129   5.8911230001e+01   4.8132294314e+01     0.422471    0.2866376  51.15  0.001450771    1.618    0.382
        49 -10.1851     67.3034    100.6707   5.7595529913e+01   4.8650579713e+01    0.2387859    0.2151198  84.54 0.0006308286    1.197    0.164
        50 -11.7948    116.6589    100.6651   4.1226845104e+01   3.9251283240e+01    0.5738357    0.3882781 -89.08  0.002156918    2.571    0.611
        51  -9.2975     92.9394    100.2257   4.8467696336e+01   4.4247129314e+01    0.2326637    0.2041673  68.78 0.0005860486    1.247    0.198
        52  -9.9344     71.4683    223.0075   7.4864658317e+01   1.8830592326e+01    0.1542901    0.1226988 -71.75 0.0003160957    1.437    0.304
        53  -8.6327    149.6771     99.3454   3.2262174390e+01   3.2090802984e+01     0.161038    0.1222051 -79.45 0.0007050062    1.736    0.424
        54 -12.0605     52.2107     93.4431   6.1644126469e+01   5.2652672652e+01    0.6813116    0.3870217  28.21  0.001968099    1.850    0.459
        55  -9.8922     45.1697     90.1681   6.3728096129e+01   5.4372962123e+01    0.2150399    0.1852286 -33.68 0.0004174995    1.169    0.144
        56 -11.2461     38.9016     88.5081   6.5963508769e+01   5.5517172025e+01    0.3724255    0.2771176  20.97  0.001696017    1.446    0.309
        57 -11.1113     57.0967     84.3949   5.7350395991e+01   5.4204215284e+01    0.5605949    0.2696925  48.42  0.002129211    2.574    0.612
        58 -10.5296    122.3062     84.6192   3.4965661505e+01   4.1402211236e+01    0.2772183    0.2605314 -86.63 0.0004078549    1.117    0.105
        59  -9.6003     92.6600     80.0140   4.2627906732e+01   4.8899123062e+01    0.4045712    0.2690531 -75.60  0.001582266    2.437    0.590
        60  -9.6496     89.2109    250.7278   7.3463109472e+01   1.1435318892e+01    0.1515521   0.08635066  30.48            0    1.467    0.318
        61  -9.3040     72.5311     79.0059   4.9622655794e+01   5.2984669141e+01     0.212277     0.196643  34.50 0.0001104432    1.091    0.084
        62  -9.4779    184.6784     76.6917   1.9196396968e+01   2.8054133319e+01    0.1418561    0.1134533  17.89 0.0003811246    1.644    0.392
        63 -11.8964     15.8659    249.8112   8.8317868048e+01   1.9971702432e+01    0.1716674    0.1277738  35.67 0.0008618336    1.308    0.235
        64  -9.5319     80.5080     72.8601   4.4628656628e+01   5.2878058058e+01    0.2570478    0.2054255  39.52 0.0003181552    1.244    0.196
        65 -11.4809    171.5263     69.9789   1.9622493678e+01   3.2251816863e+01    0.5013621    0.2902864 -66.39  0.001979928    2.442    0.590
        66 -12.6256    180.8499     64.9760   1.6682039797e+01   3.0821487737e+01    0.5990632    0.5202843  84.02  0.000806433    1.155    0.135
        67  -9.5742     91.5859     70.0356   3.9721591725e+01   5.1232909732e+01    0.2745107    0.2096286  60.93 0.0004840641    1.487    0.328
        68 -11.5629     39.6260     69.3358   6.0768977727e+01   6.0123269709e+01    0.6200557     0.269292  29.59  0.002563378    2.351    0.575
        69 -10.2014    238.1898    249.6377   4.4615275161e+01  -7.3012788757e+00    0.1500598   0.07543782  18.60  0.000480516    1.665    0.399
        70 -12.4198    203.8199     47.7320   9.0328694121e+00   2.7981594031e+01    0.4947953    0.4486609  59.50  0.001465332    1.257    0.204
        71  -9.6370    145.1541     61.9051   2.2339779452e+01   4.0069078618e+01    0.2995877    0.2089959 -71.98  0.001330105    1.802    0.445
        72  -9.2721     70.5270     57.4563   4.3084799398e+01   5.7993520515e+01    0.1451183    0.1374756   4.41 7.239585e-05    1.003    0.003
        73  -9.9667     47.2999     56.7918   5.3120009990e+01   6.1971341289e+01    0.2263161    0.1842315  37.90 0.0006557863    1.315    0.239
        74  -9.0550     50.8301    199.7113   7.7681151387e+01   2.6314020526e+01    0.3269592    0.1570295 -73.79  0.001549993    2.192    0.544
        75  -9.7958    109.3621     36.9405   2.2089350541e+01   5.2903126591e+01    0.2322165    0.1964919  73.08 0.0004330059    1.210    0.174
        76 -10.7909     52.5600    243.5821   8.0594147345e+01   1.7204423710e+01     0.248038    0.1372021  32.06  0.001260588    1.550    0.355
        77  -9.7174     35.0096    244.4954   8.4275868128e+01   1.8991833796e+01    0.1399938   0.09983219  15.93  0.000892673    1.776    0.437
        78 -10.6870     60.3696     21.8089   3.1764457104e+01   6.6099002086e+01    0.3346995    0.2464816  10.64  0.001124708    1.459    0.315
        79 -10.2364    249.3794     22.2091   3.5927741421e+02   2.1601828547e+01     0.157455    0.1319166 -63.53  0.001139343    1.113    0.101
        80 -10.6268     50.4670     20.0392   3.5383166521e+01   6.8231045011e+01    0.2085147    0.1638065  33.06 0.0004950589    1.178    0.151
        81 -12.0277     36.1008    240.2692   8.3828596420e+01   1.9662602785e+01    0.2071938    0.1521215  87.95 0.0006613559    1.408    0.290
        82  -9.4671    189.3205     14.9558   2.1158342401e+00   3.5345851883e+01    0.1826217    0.1552625 -58.09 0.0006179606    1.097    0.089
        83  -9.1514     97.0365    237.9819   7.0602509068e+01   1.2619551784e+01     0.196617    0.1211932  54.10 0.0006851673    1.618    0.382
        84  -9.2601     91.9653    237.8333   7.1689868449e+01   1.3326164029e+01    0.1635384     0.126818  38.55  0.001050519    1.036    0.035
        85  99.0000     56.3834    235.5769   7.9235340749e+01   1.8253430936e+01    0.1189366   0.09515153  50.09 0.0002291946    1.025    0.024
