#   1 NUMBER                 Running object number                                     
#   2 MAG_AUTO               Kron-like elliptical aperture magnitude                    [mag]
#   3 X_IMAGE                Object position along x                                    [pixel]
#   4 Y_IMAGE                Object position along y                                    [pixel]
#   5 X_WORLD                Barycenter position along world x axis                     [deg]
#   6 Y_WORLD                Barycenter position along world y axis                     [deg]
#   7 A_WORLD                Profile RMS along major axis (world units)                 [deg]
#   8 B_WORLD                Profile RMS along minor axis (world units)                 [deg]
#   9 THETA_WORLD            Position angle (CCW/world-x)                               [deg]
#  10 FWHM_WORLD             FWHM assuming a gaussian core                              [deg]
#  11 ELONGATION             A_IMAGE/B_IMAGE                                           
#  12 ELLIPTICITY            1 - B_IMAGE/A_IMAGE                                       
         1 -10.7011     50.5249     36.8088   8.7257285163e+01   6.3596842231e+01    0.8090985    0.6461858 -80.09  0.004419223    2.391    0.582
         2  -9.9037     39.7527      7.6346   7.8779843332e+01   6.9496163324e+01    0.4278751    0.3131841  -8.10    0.0019994    1.101    0.092
         3 -10.6955     39.4597     30.1667   8.9396811996e+01   6.6111070334e+01     0.558427    0.2974997 -40.38  0.002688432    1.622    0.383
         4 -12.1784     44.6545     22.4517   8.3701574960e+01   6.6731437660e+01     1.107566    0.9227462 -58.53  0.006923342    1.906    0.475
         5  -9.0269     40.1545      1.9718   7.5592618674e+01   7.0148671695e+01      0.27312    0.1735282  15.31 0.0009587579    1.432    0.302
         6 -10.7533    128.5229     15.7938   5.3854185469e+01   5.1100835875e+01    0.8512236    0.4997865 -13.68  0.004010436    1.966    0.491
         7 -10.7415    131.4161      3.5819   4.8807878625e+01   5.1533309533e+01    0.9388407    0.3222545  59.08  0.002993812    2.323    0.570
         8 -11.8451    156.0804     20.7612   5.0384705972e+01   4.3638665053e+01     1.013418    0.4556285  53.07  0.003046602    1.982    0.496
         9 -13.7353    163.8527      9.5675   4.5593572221e+01   4.2797360293e+01     3.327788     1.962701  71.77   0.01612312    1.565    0.361
        10 -11.7099     78.1626     16.0720   6.7498847255e+01   6.2184506954e+01     1.368933     0.583819 -19.67  0.005712864    2.705    0.630
        11 -11.5274     83.8171      3.9739   6.0129864473e+01   6.2351428585e+01    0.9854433    0.4204047  52.27  0.003340706    2.104    0.525
        12 -10.4624     71.5829      5.8049   6.4922816858e+01   6.4567054759e+01    0.4431476    0.4020993  21.97  0.002005123    1.211    0.174
        13 -10.3248    116.3734     16.8024   5.6939273540e+01   5.3909363252e+01    0.8723901     0.373992 -35.93  0.003627517    2.520    0.603
        14  -9.5988     93.8869     17.5472   6.3184034219e+01   5.8853609626e+01    0.4666282    0.3967913 -82.15  0.002300643    1.723    0.420
        15 -10.2529     64.1375     16.0940   7.2580979978e+01   6.4705269480e+01    0.3375725     0.264209  63.81  0.001934893    2.054    0.513
        16 -10.5658     70.1220     14.4639   6.9574911170e+01   6.3865309863e+01    0.4244882    0.2833138  -8.46  0.002386056    1.462    0.316
        17  -9.3032     20.3185     14.2114   9.1790672086e+01   7.0729567546e+01    0.5181212    0.1980541 -28.75  0.002345678    2.779    0.640
        18  -9.5574    226.9842     14.9300   3.9831858162e+01   2.6455180805e+01    0.4539752    0.2237517  77.13  0.002144526    1.984    0.496
        19  -9.7654    104.2725     12.3084   5.8112655050e+01   5.7156223314e+01    0.4319887    0.3345652   2.36   0.00198535    1.312    0.238
        20 -11.2735    109.2891      4.9068   5.3848039725e+01   5.6712177546e+01     1.141501    0.4351692  61.45  0.004639514    2.449    0.592
        21 -10.5880    248.1126      7.1869   3.6341118390e+01   2.2514470416e+01    0.5262565     0.297828  48.39  0.002717467    2.392    0.582
        22 -10.1357    249.4967      2.7908   3.5297205195e+01   2.2688904764e+01    0.4838836    0.2117843  75.76  0.002397572    2.184    0.542
        23 -10.3007     59.7963      9.3805   7.1023330503e+01   6.6260130902e+01    0.4101936    0.3481992  84.71  0.002448661    2.249    0.555
        24 -10.2351     60.5733      2.3838   6.7194120849e+01   6.6901459574e+01    0.5775992    0.2820864  36.80  0.002997772    1.830    0.454
        25 -10.6840    203.8228      3.8148   3.9249787786e+01   3.3229206407e+01    0.3650122    0.3186285 -71.96  0.002158655    1.062    0.058
        26 -10.4297    223.8759      5.5756   3.7874253462e+01   2.8206897428e+01    0.4385353     0.245941 -59.62  0.002254864    1.698    0.411
        27  -8.9190     27.4252      4.1966   8.3078928351e+01   7.1483442235e+01    0.3537402    0.1688665 -43.64  0.001851128    2.467    0.595
        28  -9.7565     95.4626      2.2600   5.6111832605e+01   6.0044680143e+01    0.3600923    0.3064661  69.81   0.00222537    1.383    0.277
        29 -10.7334    120.7909      4.2035   5.1082347136e+01   5.4064984092e+01    0.6058406    0.4444494  60.42  0.002304656    1.240    0.193
        30  -9.4324    217.9644      2.4416   3.7624834827e+01   2.9932235713e+01    0.3262689    0.1812484 -83.82  0.001623475    1.805    0.446
        31  -8.9191     17.1421      1.9435   8.7451262360e+01   7.2878586338e+01    0.1812426    0.1414413 -36.21 0.0009336025    1.495    0.331
        32  -8.7240     52.3167      1.9292   7.0226453239e+01   6.8326498670e+01    0.2333674    0.1536921  30.12  0.001428648    1.347    0.258
        33  -9.5658     45.5069     63.9900   9.8726171125e+01   5.8891218784e+01    0.4606046     0.213416 -36.98  0.002052811    2.137    0.532
        34  -8.7126     70.5040     61.9668   8.8649727808e+01   5.6028593901e+01    0.2173752    0.1267777 -45.20  0.001029679    1.584    0.369
        35  -8.7736     76.1364     60.1335   8.5997120390e+01   5.5502846802e+01    0.2259706    0.1780806 -13.79   0.00122183    1.282    0.220
        36  -9.0351    199.2884     55.8889   5.3880436476e+01   2.7878403820e+01    0.2702849    0.2074481  53.45 0.0005544897    1.331    0.249
        37  -9.0739     66.2933     53.9615   8.7439993684e+01   5.8238328165e+01    0.5044605    0.1679314 -49.51  0.001770077    3.241    0.691
        38  -8.3509     35.3851     52.4170   9.9261219912e+01   6.2345907164e+01    0.2315064    0.1420359 -48.55 0.0009744147    1.363    0.266
        39  -8.3919     23.0754     52.5127   1.0446677941e+02   6.3387102466e+01    0.1585508    0.1183502  12.93 0.0005701179    1.535    0.349
        40  -9.8639     81.3730     40.8892   7.6980987443e+01   5.8069563316e+01    0.7111613    0.3285491 -27.78  0.002909554    2.381    0.580
        41 -10.3022     83.6816     47.6799   7.8815649821e+01   5.6507182162e+01    0.5157889    0.3735079  15.84  0.002674324    1.485    0.327
        42 -10.3750      3.2409     40.7095   1.0988320966e+02   6.7024284309e+01    0.4672926    0.3878088 -58.88  0.002977824    1.227    0.185
        43  -8.9413     12.1366     34.1209   1.0375072534e+02   6.7829922721e+01    0.4152678    0.2418777 -39.47  0.002568677    1.313    0.238
        44  -9.1796      6.4838     35.3600   1.0683961891e+02   6.7922983085e+01    0.3512077    0.2040758  37.35  0.002074253    2.423    0.587
        45  -9.8306    172.4987    241.5261   1.0034870082e+02   5.7016357059e-01    0.1666119    0.1157602 -26.01 0.0009546314    1.828    0.453
        46  -8.7617    161.3438    240.6705   1.0235178395e+02   2.4970143187e+00    0.1238238   0.08671028  61.51 0.0001460236    1.749    0.428
        47 -10.3364    202.3179    224.6695   9.2110653150e+01  -1.8755674940e+00    0.3495992    0.1968818  57.57  0.001520214    3.211    0.689
        48  -8.2150    241.4931    199.5301   8.0398584510e+01  -4.6925911353e+00    0.1300375    0.1035251   5.02 0.0004387895    1.029    0.028
        49  -9.4502     39.0882     37.6015   9.2516438562e+01   6.4835143233e+01    0.2943707    0.2295527  44.45  0.001810119    1.789    0.441
        50  -8.3871     20.4118    156.2270   1.2246983276e+02   3.9679149760e+01     0.180815   0.09529804 -87.39 0.0009596391    1.676    0.403
        51 -10.2807     86.6449     31.6891   7.1441269579e+01   5.8493752628e+01    0.2904166    0.2450258 -16.75  0.001073744    1.137    0.121
        52  -9.9588    226.1703     29.1467   4.3363314072e+01   2.4954715944e+01    0.3218325    0.2943579  10.22  0.001125921    1.393    0.282
        53 -11.5418     10.3938    141.7928   1.2352762935e+02   4.3818462033e+01    0.5273327    0.2829871 -79.37   0.00299332    1.485    0.326
        54  -9.2739     40.4311    141.7877   1.1592448655e+02   4.1158151473e+01    0.2919011    0.1842491  71.84  0.001546619    1.702    0.412
        55  -7.8103     24.3063    141.6499   1.2005279550e+02   4.2731395009e+01    0.1319123   0.07924557  73.08 0.0007042469    1.706    0.414
        56 -12.8793    241.7087    130.4917   6.5837617516e+01   5.8991655503e+00     1.433731     1.333689  22.05  0.006284049    1.150    0.131
        57  -8.2008    125.5919     29.2530   5.9495448472e+01   5.0272203727e+01    0.1961334    0.1365952  -7.88 0.0008659263    1.640    0.390
        58  -8.4886     90.9088     28.3102   6.8652113537e+01   5.8121393796e+01    0.2358093     0.185411 -31.80  0.001324421    1.339    0.253
        59 -10.8213     11.2793    128.9996   1.2204092496e+02   4.6730534130e+01    0.3064228    0.1986525 -77.87   0.00188263    1.216    0.177
        60 -10.8381     16.3253    126.1185   1.2038250523e+02   4.7041727342e+01    0.3561834    0.2170142  49.27  0.002074793    1.802    0.445
        61  -9.1989      3.1501    116.2920   1.2287112943e+02   5.0216106767e+01    0.1749884    0.1358607 -43.91  0.001192299    1.439    0.305
        62  -9.6336    132.5489     25.3145   5.6479469692e+01   4.9059188805e+01    0.4795077    0.2697486 -17.74  0.002126676    2.046    0.511
        63  -9.3159    134.4087     19.7759   5.4089892567e+01   4.9229022864e+01    0.3030903    0.2314788   1.72  0.001205574    1.477    0.323
        64  -9.2805    104.4112     26.4159   6.3848083607e+01   5.5516378633e+01    0.4263228    0.2565347  63.38  0.001960733    2.006    0.501
        65  -8.1964     22.5536     23.0684   9.4514842437e+01   6.9057247655e+01    0.2341067     0.120695 -36.52  0.001324069    1.548    0.354
        66 -10.2302    241.1585    107.9818   6.0682672443e+01   9.7299057614e+00    0.2405003    0.2174723  51.27  0.001099014    1.238    0.192
        67  -8.8503    111.0661     16.4844   5.8098183190e+01   5.5177250596e+01    0.2850484    0.2173562  40.17 0.0008330056    1.169    0.145
        68  -8.8635     11.2854     22.5810   1.0006733412e+02   7.0028490321e+01    0.2037286    0.1308871  -7.48   0.00132279    1.541    0.351
        69  -9.5839     16.9134    104.1337   1.1735500782e+02   5.2191324195e+01    0.3383067    0.2611595  62.23  0.002174849    1.472    0.320
        70  -9.4884     46.2442    102.7441   1.0791644236e+02   4.9969018288e+01    0.3327551    0.1566547 -54.15  0.001527701    1.766    0.434
        71  -9.0728     46.8190     99.3960   1.0705141136e+02   5.0706260998e+01    0.2728446    0.1940804  24.21  0.001512776    1.658    0.397
        72  -9.4988     30.3432    101.9054   1.1282139039e+02   5.1687142652e+01    0.3317032    0.1494018 -43.99  0.001518065    2.231    0.552
        73 -10.3358    247.7484     15.4198   3.8172088271e+01   2.1666030443e+01    0.3662982    0.2259118  80.98  0.001757034    1.582    0.368
        74  -9.0065     12.5760     90.2833   1.1660562606e+02   5.5706565912e+01    0.2410393    0.1020172 -73.25  0.001129136    2.079    0.519
        75  -7.7849     83.3374     90.3232   9.2887856442e+01   4.7911557788e+01    0.1526852    0.1101958 -18.08 0.0007050904    1.717    0.417
        76 -12.2724     42.9400     82.2822   1.0455956330e+02   5.5111552455e+01     1.179906    0.8911832 -37.63  0.006567109    1.241    0.194
        77  -9.4447      2.3365     87.9650   1.1960118192e+02   5.6798820762e+01    0.5884721    0.1944341 -75.48  0.002508043    2.710    0.631
        78  -9.5868     15.1896     60.2196   1.0973734103e+02   6.2298163604e+01    0.5680708    0.2136723 -56.69  0.002748288    1.939    0.484
        79 -10.6262     25.0078     65.8544   1.0722674350e+02   6.0392166005e+01    0.6941139    0.2529314 -43.10  0.002920482    2.359    0.576
        80 -11.0928      4.3497     75.9061   1.1702447522e+02   5.9432293034e+01    0.6504825    0.4811431  64.87  0.004252258    1.699    0.411
        81  -8.9315     97.2791     27.5018   6.6354635329e+01   5.6913578653e+01    0.4843051    0.2162377 -15.61  0.001749893    3.282    0.695
        82 -11.7838     14.6219     72.9297   1.1275476924e+02   5.9537397456e+01    0.8534151    0.6908579  54.80  0.005703914    1.579    0.367
        83  -9.6535     20.1839     87.7235   1.1362769938e+02   5.5801741334e+01    0.4433233    0.1427063 -67.41  0.001805763    2.617    0.618
        84  -8.7007    227.7891     79.4562   5.5751359201e+01   1.7315584854e+01    0.3825227    0.2202065 -12.49  0.001459345    2.804    0.643
        85  -9.5541     69.1822     36.4513   7.9628510573e+01   6.0899124465e+01    0.3709024    0.3383114  55.52  0.002286186    1.493    0.330
        86  -9.9169     66.8024     29.5500   7.7632570485e+01   6.2375277338e+01    0.2718551    0.2053369 -20.52  0.001594786    1.195    0.163
        87  -8.5583    138.9089     78.2063   7.2928488998e+01   3.9189624993e+01    0.4087249    0.2187972 -21.47  0.001389652    2.821    0.645
        88  -9.8123     75.3203     68.7511   8.9158839369e+01   5.3894195594e+01    0.5506352    0.4083143  -6.39  0.002819354    1.574    0.365
        89  -9.0789     83.3019     68.7538   8.6400219837e+01   5.2581120446e+01    0.3450808    0.3036467 -69.62  0.001903683    1.397    0.284
        90  -8.4570     62.6529     70.3186   9.4182642579e+01   5.5428673118e+01    0.1327202    0.1096025  82.61 0.0007048733    1.730    0.422
