#   1 NUMBER                 Running object number                                     
#   2 MAG_AUTO               Kron-like elliptical aperture magnitude                    [mag]
#   3 X_IMAGE                Object position along x                                    [pixel]
#   4 Y_IMAGE                Object position along y                                    [pixel]
#   5 X_WORLD                Barycenter position along world x axis                     [deg]
#   6 Y_WORLD                Barycenter position along world y axis                     [deg]
#   7 A_WORLD                Profile RMS along major axis (world units)                 [deg]
#   8 B_WORLD                Profile RMS along minor axis (world units)                 [deg]
#   9 THETA_WORLD            Position angle (CCW/world-x)                               [deg]
#  10 FWHM_WORLD             FWHM assuming a gaussian core                              [deg]
#  11 ELONGATION             A_IMAGE/B_IMAGE                                           
#  12 ELLIPTICITY            1 - B_IMAGE/A_IMAGE                                       
         1 -12.7248    239.2174     22.5326   3.1098272811e+01   2.4692248325e+01    0.8969069    0.2088718 -42.59  0.002310378    3.073    0.675
         2 -11.7176     29.7654     21.1700   7.6398970882e+01   6.9043998689e+01    0.4917902    0.3211644 -43.70   0.00294327    1.866    0.464
         3 -11.8244    111.6357     19.1594   4.6893977683e+01   5.4029083096e+01      0.38799    0.3420243  82.15 0.0008356658    1.239    0.193
         4 -11.2272    149.9344     18.5280   3.9710792145e+01   4.5078694201e+01    0.3005205    0.2644414  86.77 0.0006429264    1.067    0.062
         5 -12.1029    155.5813     13.2377   3.7401033679e+01   4.4259957620e+01    0.7896367    0.3906567 -14.59  0.003563215    2.987    0.665
         6 -11.5990     56.9828     14.4054   6.1014549677e+01   6.5774533148e+01    0.6168201    0.3641495   2.17  0.003264431    1.990    0.497
         7 -11.0953    244.7805     14.4066   2.9132316660e+01   2.4542104563e+01    0.1871062    0.1601203  86.02  0.001408294    1.296    0.228
         8 -10.6694    101.2372     15.9121   4.8102132416e+01   5.6693088833e+01    0.2758221    0.1999791  23.93  0.000406957    1.450    0.311
         9 -12.5492    183.8974     12.4120   3.3816113194e+01   3.7720698707e+01    0.7635036     0.379473  50.03   0.00244584    2.298    0.565
        10 -10.6999     20.2588     15.3793   7.8692799492e+01   7.0983755169e+01    0.3783952     0.221147 -35.40  0.001553754    1.620    0.383
        11 -11.8521     24.5043     12.9343   7.5188468955e+01   7.0825787633e+01    0.6632109    0.2855685 -45.25  0.003134301    3.204    0.688
        12 -10.7326     10.4242     15.4637   8.4347127204e+01   7.1959335278e+01     0.261207    0.1947664 -16.78  0.001128674    1.054    0.051
        13 -10.6872    217.0497      7.8199   2.9813554076e+01   3.0877441577e+01     0.436839    0.1882237 -52.67   0.00227338    2.047    0.511
        14 -11.3776    209.9871      8.9729   3.0615599323e+01   3.2263529650e+01    0.3865543    0.3249876  -5.99  0.002068998    1.768    0.434
        15 -10.8073    212.5309      6.4957   2.9884128630e+01   3.1973654410e+01    0.2978231    0.2123478 -47.24  0.001604438    1.348    0.258
        16 -12.3972    122.4824     11.0002   4.1924814767e+01   5.2287927554e+01    0.5784943    0.2698914  53.90 0.0008026863    1.773    0.436
        17 -11.0846    127.7411      4.6863   3.8967278066e+01   5.1592649337e+01    0.3116514    0.2500955 -54.95 0.0008158003    1.419    0.295
        18  -9.7555     93.5657     10.3447   4.7852776145e+01   5.8892773971e+01    0.2148233    0.1393897  68.43  0.000599977    1.638    0.390
        19 -10.4320     47.6465      8.5381   6.1964428194e+01   6.7996333851e+01     0.276866    0.2091824  -4.05  0.001133691    1.227    0.185
        20  -9.4900     39.9110     10.3699   6.6254555012e+01   6.9027793130e+01    0.1673304     0.124299  16.90 0.0006707493    1.082    0.075
        21 -10.3840     78.5318      7.0435   5.0523164525e+01   6.2359908419e+01    0.3020309    0.2502989 -19.42  0.001999586    1.369    0.270
        22 -11.6603     13.9613      7.2580   7.8213833199e+01   7.2777823489e+01    0.3943519    0.3575894  13.13  0.001613247    1.588    0.370
        23 -11.9103      4.8908      4.9614   8.2568658918e+01   7.3972753051e+01    0.5517372    0.3194281 -15.53   0.00173975    1.468    0.319
        24  -9.6652    102.6680      8.1850   4.4909328959e+01   5.7067869899e+01    0.1839656     0.144793  61.23 0.0009518951    1.149    0.130
        25  -8.9868     97.6707      8.2781   4.6073327774e+01   5.8171278715e+01    0.1184827   0.09500601 -83.40 0.0002060847    1.598    0.374
        26 -10.0568    102.5447      1.7720   4.2574035253e+01   5.7602863918e+01    0.2182631    0.1715047  84.82 0.0007781325    1.425    0.298
        27 -10.2749    106.0079      2.8389   4.2258113858e+01   5.6743683059e+01    0.3317395    0.2128903 -67.32  0.001737872    2.251    0.556
        28 -10.1593     40.5865      5.1775   6.3324481518e+01   6.9486683601e+01    0.2442495    0.1721997  40.49  0.001031451    1.435    0.303
        29  -9.4527    200.5450      5.5237   3.0645761426e+01   3.4669819581e+01    0.1208914   0.09688949 -80.65 0.0001059968    1.009    0.009
        30 -11.1278     89.3727      2.5846   4.5829872715e+01   6.0438524608e+01    0.4515859    0.2604772  72.08  0.002344924    1.979    0.495
        31 -10.3104     18.7991      2.9017   7.3099282225e+01   7.2779372435e+01    0.2761567     0.131919  18.35   0.00148618    2.121    0.528
        32 -10.8114    250.4428      9.7723   2.7904383971e+01   2.3976006393e+01    0.2476066    0.1011248 -33.07  0.001287405    2.594    0.615
        33  -9.3939    137.0268      1.4764   3.6562797866e+01   4.9671458474e+01    0.1970818    0.1052051  69.07  0.000466307    1.567    0.362
        34  -9.8952     24.7175      1.3858   6.9031026342e+01   7.2201852252e+01    0.1900613   0.09416867  37.29 0.0007671409    1.910    0.476
        35  -9.1248     76.9379      1.0000   4.8397598489e+01   6.3177027795e+01    0.2009223   0.05922251  57.96 0.0007950409    2.891    0.654
        36  -9.9278     11.3229    114.8672   1.1063894235e+02   5.0933956789e+01    0.2149884    0.1805634 -28.65 0.0005047284    1.290    0.225
        37  -8.9672     50.2352    111.9443   9.6703394801e+01   4.8166483288e+01    0.1892556    0.1116326 -60.15 0.0004356285    1.560    0.359
        38 -10.3241      2.6485    111.5306   1.1307027558e+02   5.2258976973e+01    0.2651488    0.2006561  51.45 0.0007907883    1.565    0.361
        39  -9.0234     62.7062    111.6572   9.2318715775e+01   4.6645256869e+01    0.1561934     0.104635 -29.86 0.0007029728    1.660    0.397
        40  -9.2999     28.1658    109.8286   1.0402732793e+02   5.0940830094e+01    0.1943298    0.1399886 -40.20 0.0008302647    1.312    0.238
        41 -10.5872     20.9486    109.4692   1.0649587253e+02   5.1610383916e+01    0.2430103    0.1927841  82.37 0.0005377668    1.426    0.299
        42  -9.4739    128.9864    109.2439   7.1029647456e+01   3.5245428883e+01    0.2069951    0.1974555  29.13 0.0002311384    1.061    0.057
        43  -9.4007    100.5452    109.2778   7.9279259483e+01   4.1004061584e+01    0.2074379     0.143723 -36.98 0.0007251881    1.470    0.320
        44 -10.5572      6.2981    108.5750   1.1142834507e+02   5.2788786668e+01    0.2573486    0.1759903 -80.31  0.001010247    1.373    0.272
        45 -10.3839     79.9253    103.4795   8.4389015656e+01   4.6019483956e+01    0.4258841    0.2684478  13.88  0.001432123    2.102    0.524
        46 -10.5684      8.5580    103.3354   1.0985208948e+02   5.3943147947e+01    0.2375602    0.1984988 -79.20 0.0006756798    1.184    0.155
        47  -9.5503     12.1678    101.3896   1.0824476487e+02   5.4200829258e+01    0.1750067    0.1315008   8.10 0.0006096856    1.559    0.359
        48 -10.6445    249.6621    102.9776   4.6407271961e+01   1.1132184596e+01    0.2365423    0.2145736 -22.77  0.001329662    1.255    0.203
        49  -9.8708     69.0479     96.0997   8.6167372164e+01   4.9461795661e+01    0.2559303    0.1969676 -45.77 0.0005804769    1.214    0.176
        50  -9.3668    148.0198     96.2145   6.2626685018e+01   3.3759137001e+01    0.2022111    0.1919663  56.88            0    1.065    0.061
        51 -10.3301     16.3504     95.3355   1.0562588253e+02   5.5393764873e+01    0.2245695    0.1974108 -71.04 0.0003705707    1.162    0.139
        52  -9.3971      1.2614     94.4681   1.1109273094e+02   5.6461911629e+01    0.2120054    0.0915854 -69.13 0.0005174634    1.903    0.475
        53 -10.2090    116.6004     93.5616   7.0073131669e+01   4.1255566989e+01    0.2622144    0.2451488  82.76   0.00137653    1.201    0.167
        54  -9.3230     35.5059     94.4875   9.8184391523e+01   5.4018846021e+01    0.1401367    0.1184466 -41.66 -2.285715e-05    1.030    0.029
        55  -9.2913     30.4405     94.5046   1.0011665543e+02   5.4487991564e+01    0.1362941    0.1174528 -48.82 0.0001168785    1.030    0.029
        56  -9.8806     44.4237     92.6587   9.4353280288e+01   5.3516935117e+01    0.2579986    0.2060408 -89.31 0.0006084778    1.634    0.388
        57 -10.2112     74.6179     90.8805   8.2733047231e+01   4.9778669899e+01    0.3851593    0.1475303 -40.14    0.0013221    2.770    0.639
        58  -9.5586     53.5030     97.9066   9.2266392675e+01   5.1192597523e+01    0.2214534    0.1319347 -55.90  0.001022136    1.563    0.360
        59 -10.8689     34.2559     89.6233   9.7532581906e+01   5.5290923409e+01    0.3023215    0.2346685  31.98 0.0005971785    1.468    0.319
        60 -10.3648    120.4207     87.4668   6.7202344090e+01   4.1682591543e+01    0.3435782    0.2676428  71.39 0.0007119076    1.609    0.379
        61  -9.1723    139.0008     86.9956   6.2206644268e+01   3.7621135738e+01    0.1826108    0.1685783 -40.13 0.0003214121    1.088    0.081
        62  -9.3275    131.4694     86.0835   6.3836835295e+01   3.9506519303e+01     0.216494    0.1498301 -40.28 0.0003482272    1.455    0.313
        63 -10.5567     28.9152     85.2503   9.8600516693e+01   5.6803077122e+01    0.2378109    0.2160897  -5.37 0.0006859621    1.173    0.148
        64  -9.2442    124.1707     84.6913   6.5349341413e+01   4.1408088018e+01     0.288337    0.1112589 -42.96 0.0009824039    2.612    0.617
        65 -11.0272     76.0224     83.1413   7.9944943068e+01   5.1240400612e+01    0.2750511    0.2528517  24.65 0.0003343491    1.126    0.112
        66 -11.7322     80.1336     80.9060   7.7807384086e+01   5.1010669302e+01    0.2740597    0.2463202 -34.65            0    1.095    0.087
        67 -10.0694    112.8669     81.3542   6.7492450031e+01   4.4520623796e+01    0.2313425    0.2038262 -49.38 0.0003193676    1.197    0.164
        68  -9.2332     93.0166     81.5540   7.3656374199e+01   4.8516759783e+01    0.1931658    0.1304958  65.41 0.0003585278    2.264    0.558
        69 -10.2344     54.1486     80.4890   8.7313909471e+01   5.5099499640e+01    0.2438416    0.1908223 -53.28 0.0003598133    1.299    0.230
        70 -10.0216    104.5315     78.9571   6.9215913157e+01   4.6740374955e+01    0.3053182    0.2475669 -68.08   0.00123433    1.567    0.362
        71  -8.9849     47.7135     80.6732   8.9896683148e+01   5.5876200456e+01    0.1461288   0.09432051 -26.64 0.0007009415    1.609    0.379
        72 -11.8148     76.6383     75.6239   7.7376480652e+01   5.2702278083e+01    0.6999788    0.3559193  26.37  0.002804518    2.345    0.574
        73  -9.3833     36.8219     76.8012   9.3221532778e+01   5.7961035725e+01     0.164086    0.1513109 -62.85 0.0003342231    1.257    0.204
        74  -8.9851     98.9697     76.0408   7.0008901035e+01   4.8441799687e+01    0.1756568    0.1653762  13.69 0.0003578068    1.019    0.018
        75 -10.4539     51.1478     76.1091   8.7202644235e+01   5.6443484017e+01    0.3974908    0.1905258  16.92  0.001583315    2.734    0.634
        76 -10.0341      4.7130     75.6451   1.0636456121e+02   6.0679015310e+01    0.2455912    0.1303852 -48.20 0.0006811934    1.462    0.316
        77 -10.5517      1.9534     73.0589   1.0699334647e+02   6.1395882089e+01    0.2169083    0.1908539 -28.57 0.0004515646    1.168    0.144
        78  -9.0949     25.1845     73.7818   9.7285395563e+01   5.9724307390e+01    0.1795311    0.1241946 -32.65 0.0002320078    1.283    0.221
        79  -9.7439    103.8910     72.8062   6.7452951035e+01   4.8048482445e+01    0.2131596    0.1890588  11.53 0.0002821466    1.135    0.119
        80 -12.0214    137.0301     69.2568   5.7449721594e+01   4.1299572810e+01    0.4206375    0.3266136  55.70 0.0005389072    1.261    0.207
        81 -10.1221     63.8334     70.6176   8.0506257312e+01   5.5796824185e+01    0.3351318    0.2078455  34.56  0.001632449    1.649    0.393
        82  -9.4379     17.9621     70.6842   9.9590297854e+01   6.0975598295e+01    0.1738186    0.1454985 -27.02 0.0004584043    1.092    0.084
        83 -10.0144     99.4550     64.1100   6.5940205840e+01   5.0544256915e+01    0.2373153    0.1879354  27.37 0.0004654362    1.257    0.204
        84 -11.1865     97.2402     69.5169   6.8432950371e+01   5.0024446618e+01     0.305246    0.2542292 -27.27 0.0005456245    1.204    0.170
        85  -9.9722    100.7167     67.3842   6.6646724354e+01   4.9701650780e+01    0.2933207    0.2271464 -70.78 0.0009316573    1.837    0.456
        86  -9.9759     34.2200     69.4213   9.2224603763e+01   5.9833259647e+01    0.2617201    0.1671972 -30.24 0.0007524017    1.461    0.315
        87  -9.8637    155.9073     68.6594   5.3143422038e+01   3.6949560461e+01    0.3041302    0.2076504 -69.02 0.0007995516    1.872    0.466
        88 -10.5983    121.2500     66.2611   6.0444991656e+01   4.5439542594e+01    0.2448626    0.2344892 -58.00 0.0001816732    1.123    0.109
        89  -9.4343     90.7229     66.8646   6.9644810828e+01   5.1808013508e+01    0.2487783    0.1532528   2.45 0.0009487771    2.786    0.641
        90 -10.8008     71.0204     65.1243   7.5951801556e+01   5.5719438939e+01    0.4415655    0.2208137 -40.75  0.001050742    1.949    0.487
        91 -10.3733    110.3067     64.7468   6.2944399357e+01   4.8127765712e+01    0.4029889    0.2945417 -63.12  0.001490355    1.836    0.455
        92 -10.1011     61.0848     65.2345   7.9790171335e+01   5.7284919026e+01    0.4278134    0.2275798  19.40  0.001816318    2.333    0.571
        93 -10.2732     43.9189     63.9161   8.6383343223e+01   5.9895101729e+01    0.2644884    0.2413579 -62.11  0.001559058    1.381    0.276
        94 -10.3778      3.6524     64.9704   1.0450586686e+02   6.3103212465e+01    0.2071721    0.1723018  13.20 0.0007115972    1.409    0.290
        95  -9.6561     32.5029     63.1518   9.1094048955e+01   6.1324893062e+01    0.1982828    0.1146152 -49.34  0.001018532    1.548    0.354
        96  -9.4858     16.8868     63.1711   9.8097782832e+01   6.2679907241e+01    0.1704468    0.1673773 -80.08 0.0008284519    1.327    0.247
        97 -12.0010     59.8016     59.0715   7.8173210954e+01   5.8656981312e+01    0.2833136    0.2483688 -22.24 0.0003366394    1.089    0.082
        98 -11.2314      4.0235     59.5177   1.0303567736e+02   6.4257079408e+01    0.2195533    0.1683526 -40.32 0.0007018051    1.016    0.016
        99 -10.1464      8.1259     56.8428   1.0042990537e+02   6.4592675437e+01    0.3043697    0.1570485   0.31  0.001103853    2.160    0.537
       100 -10.4918    103.4805     58.7887   6.2926297898e+01   5.0604372329e+01     0.326363    0.1916205  50.94 0.0008879411    1.696    0.410
       101  -9.5044     50.8708     59.3877   8.1933072022e+01   5.9889335713e+01    0.1812855    0.1511637   4.55 0.0004055007    1.122    0.109
       102  -8.8855    197.6404     58.7048   4.3442082774e+01   2.8763258794e+01    0.1320441    0.1046808  31.69 0.0007032103    1.703    0.413
       103 -10.8568     95.9283     56.3546   6.4369037912e+01   5.2589733292e+01    0.3189797    0.2312008 -23.51  0.001628867    1.464    0.317
       104 -10.0604    111.7438     55.3954   5.9436357208e+01   4.9351822323e+01    0.2880189    0.2285956 -86.35  0.001448846    1.740    0.425
       105  -9.6956     69.1315     55.3534   7.3214947838e+01   5.7824683986e+01    0.2223108    0.1770294 -50.78  0.000869555    1.519    0.342
       106  -9.8739     24.7226     55.7738   9.2319627961e+01   6.3572193584e+01    0.3589095    0.2254107  43.96  0.001481039    2.261    0.558
       107  -9.3747    200.4951     55.4770   4.2272114758e+01   2.8594815612e+01    0.1334949    0.1202299 -74.31 4.964598e-05    1.032    0.031
       108  -9.8320    162.4440     53.1278   4.7520894394e+01   3.7802951728e+01    0.2606485    0.2124309  32.31 0.0009478836    1.452    0.311
       109  -9.4129    135.1415     53.8811   5.3171598875e+01   4.4204328529e+01    0.2180577    0.1917418 -81.86  0.001206215    1.253    0.202
       110  -9.6849     81.0499     54.5374   6.8604267659e+01   5.5828694475e+01    0.1995152    0.1814835  19.49  0.001174042    1.064    0.060
       111 -10.6008     84.4910     47.2414   6.4756447369e+01   5.6341123294e+01    0.3571271    0.2732683  -7.62  0.001946746    1.386    0.278
       112  -9.7842    206.8457     52.1991   4.0676623611e+01   2.7651977983e+01    0.3616649    0.1640137 -23.71  0.001346352    3.631    0.725
       113 -10.3161    202.6305     50.4308   4.0790139270e+01   2.8837209144e+01    0.2996365    0.2026585 -37.73   0.00153046    1.481    0.325
       114  -9.1778     44.5185     52.4871   8.2217307957e+01   6.2034785940e+01    0.1342379    0.1114904 -13.18 -1.642342e-05    1.022    0.022
       115 -10.8022    212.2358     49.9615   3.9507749994e+01   2.6786279604e+01    0.2476527    0.1920383 -63.81  0.000483401    1.147    0.128
       116 -10.0100     17.8290     50.6491   9.3965915192e+01   6.5178363727e+01    0.2020492    0.1351215   2.86 0.0007395171    1.501    0.334
       117  -8.8363    116.3124     50.7276   5.6661010625e+01   4.9039988588e+01    0.1356812    0.1113864 -86.15 0.0002526742    1.554    0.356
       118  -9.0754    106.5667     50.4774   5.9186883690e+01   5.1250972139e+01    0.1397807    0.1307526  31.00 5.046756e-05    1.023    0.023
       119  -9.1054    103.6587     49.2525   5.9580080272e+01   5.2068741598e+01     0.196367    0.1870391 -31.63 0.0005378826    1.150    0.130
       120  -9.7789     55.0378     50.0346   7.6825689509e+01   6.1009155828e+01    0.2042337    0.1684118  -7.60 0.0004771551    1.071    0.066
       121 -10.4471     58.5153     47.8902   7.4588174726e+01   6.0844922763e+01    0.2859876    0.2093234  -6.61   0.00158894    1.372    0.271
       122 -11.1630     27.0027     47.6824   8.8544978513e+01   6.4931911158e+01    0.4487485    0.2402024  -8.75  0.002134867    2.321    0.569
       123  -9.8832    233.0349     48.0118   3.6825279182e+01   2.2686285531e+01    0.1931244    0.1528184 -62.78 0.0003491997    1.043    0.041
       124  -9.1734     95.2120     48.5963   6.1836851689e+01   5.3963960162e+01    0.1901429    0.1213269  37.81 0.0003270718    1.489    0.328
       125 -10.2674    136.9443     46.5807   5.0512053607e+01   4.4829466103e+01    0.2320563    0.2094858 -33.03 0.0004130394    1.192    0.161
       126  -9.3259     46.2045     47.0671   7.9474963854e+01   6.2788625247e+01    0.1739783    0.1475368 -15.89   0.00108359    1.064    0.060
       127  -9.4651      5.7024     48.8229   9.9361714985e+01   6.6376587015e+01    0.2097393    0.1090133 -41.45  0.000416894    1.490    0.329
       128  -9.4482     42.1082     45.1904   8.0583404639e+01   6.3660063246e+01    0.2994407    0.1768025 -58.73  0.001387315    2.713    0.631
       129 -10.3022    166.9292     43.3387   4.4059371238e+01   3.8095248239e+01    0.2853116    0.2162844  76.58  0.000692267    1.264    0.209
       130 -10.2676    141.0616     43.6325   4.8760157673e+01   4.4251215308e+01    0.2256595    0.1886326 -53.24 0.0004662028    1.281    0.219
       131 -10.6188    108.2531     43.3961   5.6263581991e+01   5.1904610314e+01     0.339954    0.2340339  58.36 0.0008639377    1.460    0.315
       132 -10.1776     56.7550     41.7718   7.2922810502e+01   6.2127002137e+01    0.2264058    0.1635035  29.36 0.0003142854    1.310    0.236
       133  -9.5326     60.2704     41.2817   7.1302539434e+01   6.1639225877e+01    0.1868115     0.157145  23.59            0    1.142    0.125
       134  -9.2098    243.2925     41.6760   3.4562275596e+01   2.1496252661e+01    0.1280538   0.07250023 -63.03 0.0003659446    1.615    0.381
       135  -9.2030     97.8796     41.1258   5.8334496790e+01   5.4483285488e+01    0.1836587    0.1488153  18.55 0.0004780561    1.243    0.196
       136  -9.4537    112.8235     39.3855   5.3688502388e+01   5.1419691770e+01     0.206743    0.1120259  45.15  0.000813553    1.702    0.413
       137  -9.8963     80.8411     38.4175   6.2618143330e+01   5.8353353303e+01    0.2034254    0.1739118 -30.53 0.0003601148    1.280    0.219
       138  -9.4837     35.9204     38.6203   8.0879434485e+01   6.5566213957e+01    0.1738123    0.1361086   3.54 0.0004302142    1.126    0.112
       139  -9.3670      6.5284     38.9659   9.5871219914e+01   6.8245975503e+01    0.1846579   0.09645922 -49.89  0.001035782    1.608    0.378
       140  -9.6358    181.8897     38.1955   4.0498177594e+01   3.5231452663e+01    0.1979845    0.1581873 -73.77 0.0004699268    1.191    0.160
       141  -9.1917    148.5943     37.7334   4.5561511097e+01   4.3215067317e+01    0.1698028    0.1262657 -46.41  0.000327384    1.423    0.297
       142  -9.0112    134.5096     38.4435   4.8470555316e+01   4.6490992537e+01    0.1380105     0.124934  57.71 5.251385e-05    1.014    0.014
       143  -9.1515     32.4577     38.4954   8.2486239220e+01   6.5999059157e+01    0.1279622    0.1016967 -12.47 6.458942e-05    1.022    0.021
       144  -9.6486    170.3911     36.4808   4.1671521252e+01   3.8158455584e+01     0.292883    0.1140717 -37.21  0.001059914    2.524    0.604
       145  -9.7813    127.7231     36.9586   4.9416111154e+01   4.8283451440e+01    0.2509022    0.1839978  58.06   0.00117117    1.242    0.195
       146  -9.8582     66.1011     37.1659   6.7374867748e+01   6.1271039409e+01    0.3434525    0.1538702  23.28  0.001202149    3.745    0.733
       147  -9.9245     48.4853     36.9663   7.4480800368e+01   6.4144963666e+01    0.1961321    0.1828384  88.35  0.001242013    1.745    0.427
       148  -9.3816    215.7559     35.4285   3.5858833729e+01   2.7961615046e+01    0.1642891    0.1081521  62.63 0.0008446636    1.574    0.365
       149 -10.2833     43.8453     34.8524   7.5666509528e+01   6.5139947571e+01    0.1940434    0.1463053  -2.14 0.0005279201    1.176    0.150
       150 -12.6815    237.7038     27.0145   3.2104025321e+01   2.4456044076e+01     0.570351    0.3544647 -31.53  0.001350337    1.825    0.452
       151 -11.6421     76.2698    219.7348   1.0618165594e+02   1.7914917836e+01     0.577384    0.4742404   4.05  0.002775082    1.593    0.372
       152  -9.7299    194.1783     33.6029   3.7803340581e+01   3.2973684529e+01    0.1852949    0.1066986  59.13 0.0007976486    1.714    0.417
       153  -9.4342    120.2925     32.2538   4.9486398791e+01   5.0597228826e+01    0.1721741    0.1497798 -87.40 0.0003457276    1.301    0.231
       154 -10.3983     78.9658     31.0393   6.0326885411e+01   5.9710090621e+01    0.2913976    0.2262989  61.38  0.001236266    1.579    0.367
       155 -10.1215     81.4124     26.8088   5.7833111225e+01   5.9746498311e+01    0.2709599    0.2329383 -41.06  0.001283896    1.423    0.297
       156 -10.1248    116.0811     30.9173   4.9985744601e+01   5.1729390162e+01    0.2042184    0.1765251  41.26 0.0004241348    1.073    0.068
       157 -11.0884     46.8648     28.7667   7.1714955642e+01   6.5614182142e+01    0.4857648    0.2347745  33.12  0.001980328    1.939    0.484
       158 -10.3206     29.0230     30.4327   8.0880871275e+01   6.7728353971e+01     0.424272    0.1557448 -45.33  0.001888245    2.761    0.638
       159 -11.8653     69.6742    216.9610   1.0739234149e+02   1.9431603378e+01    0.7066094    0.6274682  16.13  0.004352531    1.347    0.257
       160 -11.1700     15.2716     28.7296   8.7378688752e+01   6.9409562884e+01    0.3061441    0.2124432  -6.20 0.0008985747    1.249    0.199
       161  -9.8096    215.8757     28.6952   3.4369246380e+01   2.8772455048e+01    0.1915334    0.1682351 -38.56  0.001088713    1.334    0.250
       162  -9.6631    201.2859     29.0857   3.5934906354e+01   3.1922187070e+01    0.1749592    0.1437207 -69.86 0.0003526038    1.065    0.061
       163  -9.6407    110.6696     29.3283   5.0703883193e+01   5.3152180269e+01    0.2163252    0.1284048  59.24 0.0007618496    1.570    0.363
       164  -9.3055    107.5347     29.4992   5.1528751645e+01   5.3840711475e+01    0.2391399    0.1206495  56.08 5.129127e-05    1.784    0.439
       165 -10.9261    182.8680     26.8592   3.7502864860e+01   3.6386691766e+01    0.4692078    0.2109812  52.77   0.00140559    2.313    0.568
       166 -10.3150      2.2146     26.9395   9.3982846424e+01   7.0708973223e+01    0.2655739     0.114356 -45.24  0.001449849    1.817    0.450
       167  -9.7567    206.6982     26.2168   3.4717245161e+01   3.1064448744e+01    0.2120653    0.1384127 -43.78 0.0009331354    1.459    0.315
       168 -11.4611    248.7173     22.7651   3.0442402312e+01   2.2815336768e+01    0.3577317       0.1578 -51.88  0.001969004    1.818    0.450
       169  -9.5674    121.5503     25.9396   4.7091691338e+01   5.1027304301e+01    0.2168971    0.1590145  58.44 0.0006397056    1.209    0.173
       170  -9.8045     35.1312     25.8709   7.5871721006e+01   6.7678839281e+01    0.1687855    0.1457717   1.16 0.0003749551    1.190    0.160
       171  -9.2635     98.7776     23.8370   5.1678689546e+01   5.6424684525e+01    0.1729598    0.1552114 -87.44   0.00106467    1.371    0.271
       172 -10.8502    226.6763     22.8706   3.2166356284e+01   2.7192059668e+01    0.2443488    0.1469756  78.67  0.001101629    1.561    0.360
       173 -10.4033    164.4128     22.1440   3.8651836159e+01   4.1253481505e+01    0.2608084    0.1752298  48.56  0.001380975    1.569    0.363
       174  -9.9165    248.4763    211.5247   6.8013266066e+01  -6.5744254668e+00    0.1244684   0.09573463 -12.88 0.0001286687    1.005    0.005
       175  -9.7271     15.2630     21.6193   8.4364273233e+01   7.0565863233e+01    0.1616788    0.1255895 -17.94 0.0007069035    1.084    0.077
       176  -9.7216      7.2282     22.6316   8.9380796356e+01   7.1092041957e+01    0.1608231   0.09097546   1.50 0.0006432155    1.703    0.413
       177  -9.9197      1.5828     21.2172   9.2113369693e+01   7.1731612810e+01    0.2032638   0.09806675 -51.78  0.001132488    2.034    0.508
       178  -8.8543    196.2807     21.3275   3.4654461339e+01   3.3949364395e+01    0.1149347   0.09384081  40.87 0.0003109137    1.599    0.375
       179 -10.0330    142.1602     21.1874   4.1723568707e+01   4.6659216299e+01    0.2052712    0.1607176  45.77 0.0008084858    1.283    0.220
       180 -10.0138    179.1646     23.0239   3.6986059966e+01   3.7684963128e+01    0.2359766    0.1704642  72.30  0.001383031    1.240    0.194
       181 -10.9962    236.2150    207.3963   6.9402168315e+01  -4.3418451527e+00    0.3477244    0.1753764  11.99  0.001496665    2.960    0.662
       182  -9.2163    123.9182    205.9150   9.2999790143e+01   1.3714349624e+01     0.176582      0.15546  59.03            0    1.191    0.161
       183  -9.4388     69.2927     19.9989   5.9010186497e+01   6.2904909164e+01    0.1748296    0.1466362  -3.93  0.001120143    1.181    0.153
       184  -9.6773    119.8695     18.8393   4.5048799489e+01   5.2161213014e+01    0.2001027    0.1567742  40.07 0.0005073401    1.231    0.188
       185  -9.5032      1.2507    184.8261   1.2040904282e+02   3.4307669892e+01    0.2808734   0.08295628 -74.93  0.001154534    2.714    0.631
       186 -11.2801    249.0609    183.2209   6.2647595068e+01  -2.2271381549e+00    0.3337189    0.1647622 -35.05   0.00168246    1.692    0.409
       187 -11.4825    237.5893    179.6272   6.3884768578e+01   1.4636080097e-02    0.3641065    0.1916619  33.69  0.001808197    2.119    0.528
       188  -9.6155     77.3379     16.4459   5.4849185658e+01   6.1716053735e+01    0.1843194    0.1507196 -47.31 0.0008613738    1.623    0.384
       189  -9.8881      6.9328    168.5038   1.1782012568e+02   3.7814720335e+01    0.1655037    0.1250499  29.62 0.0004851335    1.541    0.351
       190  -9.2785     26.4699    157.6130   1.1157128470e+02   3.8919612740e+01    0.1323961    0.1160696 -83.06 5.303174e-05    1.025    0.024
       191 -10.1974      2.0619    153.5102   1.1779652157e+02   4.1859333880e+01    0.1634832    0.1263136  26.66 0.0006557454    1.550    0.355
       192  -8.8932     63.3500    149.7772   9.9778832774e+01   3.6824377907e+01    0.2043182    0.1222031 -53.83 0.0003998521    1.554    0.356
       193  -9.3249      7.4727     12.5282   8.4728088778e+01   7.2659919461e+01    0.1696122   0.09377417 -38.73 2.069668e-05    1.618    0.382
       194 -10.3083    227.4257     13.7810   3.0248267922e+01   2.8074855922e+01    0.1468518    0.1104846 -27.29 0.0009551515    1.693    0.409
       195  -9.7704     84.9786     14.2649   5.1682960394e+01   6.0365622191e+01     0.186628    0.1446916  45.76 0.0005887545    1.114    0.102
       196  -9.2999     24.7085    148.7005   1.1100161081e+02   4.1351312801e+01     0.135675   0.09019667 -45.37 0.0002329463    1.564    0.360
       197 -12.9549    240.1659    110.6224   4.9270108499e+01   1.1556326463e+01     1.229434    0.6696156 -58.78  0.005628045    2.224    0.550
       198 -13.1470    215.0818    132.6676   5.8006371056e+01   1.2274419152e+01     1.362594    0.8726469 -55.08  0.006498236    1.714    0.416
       199 -13.6434    221.0303    115.3303   5.3152472487e+01   1.4320624620e+01      1.85274     1.181333 -30.06  0.007654953    1.611    0.379
       200 -10.3006      2.9984    142.9841   1.1656011187e+02   4.4418193548e+01    0.2039434    0.1664286 -76.14 0.0008855067    1.015    0.015
       201 -10.7181     21.5761    141.8967   1.1106730092e+02   4.3355182659e+01    0.2608999    0.1835931  39.95 0.0002418507    1.567    0.362
       202 -10.1075     28.2991    141.3007   1.0898290534e+02   4.2930083354e+01     0.209791    0.1680515  -7.89 0.0001986498    1.545    0.353
       203 -10.7917     29.1942    137.9625   1.0824533989e+02   4.3706909771e+01    0.2697077    0.2301687 -44.58 0.0003911272    1.202    0.168
       204  -9.0693      1.3298    134.2959   1.1616101803e+02   4.6685264407e+01    0.1320635   0.07888372 -47.22 0.0003207342    1.635    0.388
       205 -11.0006     15.0090    121.7446   1.1040912403e+02   4.8968332185e+01    0.8134151    0.1745019  19.52  0.002636255    5.208    0.808
       206 -10.2477     11.9674    129.0274   1.1234788662e+02   4.7342126277e+01    0.1995695    0.1626123 -66.07 0.0003016464    1.034    0.033
       207 -11.0001     12.8884    125.1266   1.1155268641e+02   4.8262630139e+01    0.4022416      0.23992  63.31  0.001030489    2.044    0.511
       208  -8.8924     64.9608    126.7712   9.4906501609e+01   4.2538826487e+01    0.1770096    0.1254821  27.40 0.0003174389    1.532    0.347
       209 -10.0106     37.2092     17.8607   7.1172629771e+01   6.8508597064e+01    0.2367826    0.1453001 -10.11  0.001354044    1.643    0.391
       210 -10.8001     24.2110    125.5669   1.0799102302e+02   4.7305501821e+01    0.2395252    0.1997554 -71.31 0.0003553961    1.064    0.060
       211  -9.5796     31.3200    123.8145   1.0539582694e+02   4.7137421786e+01    0.2040661    0.1034191 -58.08 0.0004698176    1.642    0.391
       212 -14.1425    231.0959    135.6158   5.5956629691e+01   8.8075973148e+00      1.92336     1.452568  24.01   0.01063383    1.633    0.388
       213  -8.7626     48.6941    121.7112   9.9242186826e+01   4.5885202152e+01    0.1467263    0.1006533 -33.26 0.0002121513    1.571    0.363
       214 -11.0209     16.1081    128.9612   1.1105053149e+02   4.7068876300e+01    0.3312548     0.232294 -86.46 0.0004778667    1.377    0.274
       215  -9.7468     97.7292    117.8094   8.2369525981e+01   3.9508804114e+01    0.2608238    0.2058219  20.10 0.0008478221    1.401    0.286
       216  -8.8312     57.5401    118.5002   9.5610219203e+01   4.5622428262e+01    0.1461037    0.1343267 -55.85 8.284111e-05    1.033    0.032
       217  -9.2119     70.2185    117.6133   9.1163985709e+01   4.4101396446e+01    0.2019591    0.1440888  12.25 0.0005343776    1.674    0.403
       218 -10.2775     27.0775    116.4234   1.0557123041e+02   4.9381814958e+01    0.2350975    0.2122682  20.62  0.001240577    1.275    0.216
