#   1 NUMBER                 Running object number                                     
#   2 MAG_AUTO               Kron-like elliptical aperture magnitude                    [mag]
#   3 X_IMAGE                Object position along x                                    [pixel]
#   4 Y_IMAGE                Object position along y                                    [pixel]
#   5 X_WORLD                Barycenter position along world x axis                     [deg]
#   6 Y_WORLD                Barycenter position along world y axis                     [deg]
#   7 A_WORLD                Profile RMS along major axis (world units)                 [deg]
#   8 B_WORLD                Profile RMS along minor axis (world units)                 [deg]
#   9 THETA_WORLD            Position angle (CCW/world-x)                               [deg]
#  10 FWHM_WORLD             FWHM assuming a gaussian core                              [deg]
#  11 ELONGATION             A_IMAGE/B_IMAGE                                           
#  12 ELLIPTICITY            1 - B_IMAGE/A_IMAGE                                       
         1 -14.0316    228.5036      5.1166   3.4583514774e+01   2.8170886841e+01     1.893221     1.094637  50.63  0.005146904    2.121    0.528
         2 -14.0415    184.9337     48.7215   5.0725304199e+01   3.3221341312e+01     1.826531       1.2619  24.06  0.001009192    2.005    0.501
         3 -14.1126    195.8674     39.8919   4.6651974929e+01   3.1750260688e+01      1.38394     1.062726 -38.16  0.003480189    1.292    0.226
         4 -14.5433    204.9645     30.3806   4.2966903796e+01   3.0765980193e+01     1.339471     1.200477  34.48  0.001394334    1.337    0.252
         5 -10.2318    189.5186     14.7411   4.0649008456e+01   3.6272582997e+01    0.2339581    0.1976157  71.08 0.0006948342    1.115    0.103
         6 -10.2143     64.9677      9.1798   6.4867002854e+01   6.5372634131e+01    0.1767285    0.1515753  84.22  0.001071809    2.008    0.502
         7 -11.6886     57.9666      3.6514   6.4737750358e+01   6.7173943238e+01    0.3417324    0.1601612  26.89   0.00163497    2.239    0.553
         8 -10.5711     29.5021      2.4971   7.6836842443e+01   7.1552230405e+01    0.1185628   0.08853494  -2.83 -4.33453e-05    1.003    0.003
         9 -12.1753    109.5098    201.6657   1.0435018460e+02   1.7938751169e+01    0.5442449    0.3504448  29.86  0.002762666    1.665    0.399
        10 -11.2499    140.3070    250.2291   1.0432831082e+02   4.2149508908e+00    0.4033661    0.1995406  40.28  0.002148427    1.631    0.387
        11 -11.4138    140.1458    245.1121   1.0372813695e+02   5.0556865873e+00    0.2417843    0.1911257 -49.27  0.001116083    1.530    0.346
        12 -16.1439     71.9868    148.8873   1.0547869509e+02   3.5763880929e+01     14.18216     6.689198  70.46   0.01589072    6.128    0.837
        13 -18.7165     20.3397    225.5559   1.2496514228e+02   2.4525786774e+01     9.820959     4.663986 -85.64   0.05776269    1.879    0.468
        14 -11.2514     98.8760    181.0918   1.0378371421e+02   2.4114319841e+01     0.375435    0.2897307   6.54  0.001926886    1.805    0.446
        15 -11.2907    150.6976    179.2311   9.1228961456e+01   1.5518913345e+01    0.4804514    0.2996361 -70.88  0.001958014    2.584    0.613
        16 -11.6424    143.9257    178.6425   9.2678855483e+01   1.6891642706e+01    0.4693141    0.3553089 -75.23  0.001877363    1.709    0.415
        17 -10.8746    187.7896    173.4563   8.1892809631e+01   9.6800640373e+00    0.6706402    0.3405872 -60.05  0.002171795    4.184    0.761
        18 -10.8536     51.3472    164.3285   1.1307942666e+02   3.4615792163e+01    0.4680553    0.2662297 -36.76   0.00212091    2.632    0.620
        19 -10.8881     42.0125    179.0219   1.1696619676e+02   3.2210840070e+01    0.2364272    0.1748919 -54.60            0    1.490    0.329
        20 -11.7082     46.7441    172.0289   1.1511210922e+02   3.3314602954e+01    0.5456783    0.4123771 -65.97  0.001940155    1.253    0.202
        21 -10.5707     84.3730    173.9333   1.0622033442e+02   2.7977471917e+01    0.2323104    0.1992831  31.15 0.0002163206    1.294    0.227
        22 -11.1273    138.9242    170.8886   9.2380488334e+01   1.9478121971e+01    0.3502638     0.322159  38.43 0.0008795633    1.057    0.054
        23 -10.5606    230.5970    167.3932   7.2214683584e+01   2.9499115518e+00    0.2733051      0.10907 -47.87 0.0009597996    3.439    0.709
        24 -12.3987     91.4582    153.1630   1.0100683341e+02   3.1850810938e+01    0.7008613    0.5139142 -23.19  0.003349426    1.874    0.466
        25 -11.5990    133.7303    144.9965   8.8291441499e+01   2.6267091464e+01     1.289781    0.3509778 -54.78  0.003127644    5.344    0.813
        26 -10.5848    187.5119    152.0576   7.7323647046e+01   1.3864648848e+01    0.2335459    0.2180958  85.38   0.00080038    1.310    0.237
        27  -9.3492    112.5503    150.7404   9.4981943393e+01   2.8893228381e+01    0.1980653    0.1434677 -67.81 0.0003980344    1.499    0.333
        28 -10.4378    174.3906    148.6366   7.9402665621e+01   1.7225840216e+01    0.3560308    0.2684543 -73.94  0.001597897    1.919    0.479
        29 -10.6717    144.0871    146.5724   8.6052407741e+01   2.3857499199e+01    0.4024416    0.2153681 -66.23    0.0013144    3.304    0.697
        30 -11.2627    104.2276    138.9065   9.4761162465e+01   3.3184377499e+01    0.5669501     0.343492 -30.12  0.002270171    2.293    0.564
        31 -12.3717     91.8424    138.7492   9.8151899335e+01   3.5296162915e+01    0.2848668    0.2541945 -45.85 0.0004194301    1.125    0.111
        32 -10.4349     45.1999    139.1883   1.1129596941e+02   4.1420262387e+01    0.2351112    0.1879166 -52.36 0.0008213072    1.242    0.195
        33 -12.9177     43.7728    128.3688   1.1004831725e+02   4.4239519319e+01    0.9007356    0.5301794  82.42  0.003520485    2.203    0.546
        34  -9.9208    150.5013    187.5065   9.2807839225e+01   1.3861462839e+01    0.1419853    0.1333832  33.28 0.0008106076    1.016    0.016
        35 -11.4500    135.7201    127.9447   8.3789959409e+01   2.9754572268e+01    0.7507659    0.1938818 -48.65  0.002018134    3.970    0.748
        36 -10.3402    134.9084    119.9082   8.1982417084e+01   3.1735282215e+01    0.3460793    0.1851671 -51.27 0.0009963958    1.935    0.483
        37 -11.9754    119.0477    124.3963   8.7368473484e+01   3.3906475939e+01    0.9422538    0.4340709 -35.12  0.003128508    2.892    0.654
        38 -10.7852    112.8493    129.6019   9.0317261560e+01   3.3858754343e+01    0.3497978    0.2872973  13.06 0.0009047569    1.435    0.303
        39 -10.5596    160.7478    127.9114   7.7582742855e+01   2.4457982042e+01    0.3824508    0.2593305 -47.12  0.001307205    1.476    0.323
        40  -9.1958     95.4643    127.5171   9.4743857308e+01   3.7436941468e+01    0.1499726    0.1412436 -68.62 0.0008089927    1.042    0.041
        41 -11.1509    100.1807    125.6127   9.2958400878e+01   3.7091777409e+01    0.3020919    0.2477348 -10.00 0.0006724434    1.487    0.327
        42 -10.9260    105.8870    130.7902   9.2523822574e+01   3.4843212761e+01    0.3751971    0.3216076 -69.18  0.001124677    1.203    0.169
        43 -15.4322     51.6613    207.6505   1.1759218198e+02   2.4756615388e+01     2.266499      1.20754 -83.19   0.01001342    1.868    0.465
        44 -11.4241     24.0577    120.2625   1.1461395435e+02   4.8021581697e+01    0.2811828    0.1726267  46.29  0.001165591    1.866    0.464
        45 -10.1100    108.6823    118.8121   8.8898890977e+01   3.7184246721e+01    0.2320688    0.2052054  17.98 0.0004106479    1.231    0.187
        46  -9.8425    168.1845    113.0975   7.2056236370e+01   2.5905646256e+01    0.3621017    0.2397778 -70.06  0.001393794    2.375    0.579
        47 -12.1580    117.9617    108.6710   8.3640303732e+01   3.7741451995e+01    0.7795693     0.582747 -53.75  0.003646158    1.359    0.264
        48 -10.2941    205.3996    110.0990   6.3647162687e+01   1.8131795504e+01    0.3116002    0.2269406  42.74  0.001093854    1.471    0.320
        49  -9.0588     96.2653    201.9607   1.0734241872e+02   1.9929541414e+01    0.1657503    0.1129569 -66.75 0.0008879463    1.528    0.346
        50 -10.4047    134.5402    104.8965   7.8071689682e+01   3.5126539182e+01    0.5656443     0.151818 -44.38  0.001567023    3.640    0.725
        51 -10.0635     66.0565    104.4914   9.8474942468e+01   4.7475097110e+01    0.2067752    0.1430839  31.13  0.001037069    1.604    0.377
        52 -11.9568    193.2861    195.4978   8.5108697673e+01   4.6924330739e+00    0.9318244    0.5465102 -63.82   0.00349573    3.896    0.743
        53 -10.5719     59.3799     97.1156   9.8938864455e+01   5.0100249060e+01    0.2813182    0.1973458  39.18  0.001033315    1.614    0.381
        54 -11.3923     52.2522     90.8531   9.9871189025e+01   5.2432762132e+01    0.3688767    0.2588537  -0.88  0.001830894    1.782    0.439
        55 -10.0439    157.1681     82.0153   6.5867483431e+01   3.4573261360e+01    0.2389828      0.20887   2.18 0.0004743816    1.267    0.211
        56  -9.2330    184.5108     77.0221   5.8782447815e+01   2.8883021749e+01    0.2294856    0.1465304 -33.31 0.0008076503    1.555    0.357
        57 -10.3493     61.2556     68.5698   9.0367575092e+01   5.6277519752e+01    0.2665772    0.2262205  55.91 0.0009019128    1.554    0.356
        58 -11.1162    125.2775    244.3469   1.0654062537e+02   7.4358875278e+00     0.275012    0.1476329 -53.75  0.001496174    2.219    0.549
        59  -9.4871    133.9794    196.4729   9.8070402095e+01   1.4957062765e+01    0.2002378    0.1876533 -64.33 0.0004981089    1.149    0.130
        60  -9.6835    151.2432    195.4046   9.4042532208e+01   1.2155380304e+01    0.2826052    0.1283358  35.40  0.001145988    2.142    0.533
        61 -10.3915    169.0139    235.8925   9.6792682184e+01   2.0369802379e+00    0.1856842    0.1710125  -3.00 0.0003959595    1.175    0.149
        62 -11.5964    148.8017     52.6933   5.8653415535e+01   4.1575286829e+01    0.5147311    0.3407798 -80.20  0.001721353    2.401    0.584
        63  -8.9963     37.3243     37.7330   8.9434752243e+01   6.5244622903e+01    0.1048284    0.1011444  63.74 0.0003387295    1.567    0.362
        64 -11.9311     21.8684     34.0517   9.5309707048e+01   6.7418472867e+01    0.2727133    0.1575438 -33.98  0.001589785    1.401    0.286
        65 -10.0476    174.4797    210.4920   9.1668767411e+01   5.3307531552e+00    0.1359105    0.1178245  17.90 0.0008099281    1.042    0.040
        66 -10.0740     81.1882    194.5087   1.0977390397e+02   2.3755099487e+01    0.4005633    0.2777206  76.70  0.002171371    1.523    0.344
        67 -10.9165    113.0768    206.0382   1.0417315798e+02   1.6467279271e+01    0.3142231    0.2392455  73.40  0.001127186    1.449    0.310
