#   1 NUMBER                 Running object number                                     
#   2 MAG_AUTO               Kron-like elliptical aperture magnitude                    [mag]
#   3 X_IMAGE                Object position along x                                    [pixel]
#   4 Y_IMAGE                Object position along y                                    [pixel]
#   5 X_WORLD                Barycenter position along world x axis                     [deg]
#   6 Y_WORLD                Barycenter position along world y axis                     [deg]
#   7 A_WORLD                Profile RMS along major axis (world units)                 [deg]
#   8 B_WORLD                Profile RMS along minor axis (world units)                 [deg]
#   9 THETA_WORLD            Position angle (CCW/world-x)                               [deg]
#  10 FWHM_WORLD             FWHM assuming a gaussian core                              [deg]
#  11 ELONGATION             A_IMAGE/B_IMAGE                                           
#  12 ELLIPTICITY            1 - B_IMAGE/A_IMAGE                                       
         1 -14.0386     56.3650     64.7769   5.8371851730e+01   5.7108280754e+01     1.926113     1.223515   1.29  0.009435151    2.061    0.515
         2 -14.9446      6.3909     70.9821   7.9062089977e+01   6.0695920148e+01    0.9853266    0.6213912 -48.02  0.005796122    1.232    0.189
         3 -15.2592    219.0029     15.5832   8.1797765532e+00   2.8597836342e+01      1.85678     1.281376 -23.05   0.01085481    1.786    0.440
         4 -13.9473    188.9655     23.0720   1.3134846815e+01   3.4727702793e+01     1.441047    0.9275908 -55.99  0.007700898    1.580    0.367
         5 -13.2100    119.3218     26.8805   2.5803344334e+01   5.0977311420e+01    0.9615683    0.5744994  30.72  0.004630945    1.880    0.468
         6 -14.0246    122.2501     36.8026   2.8541987641e+01   4.9116722134e+01     1.078945    0.5282083  33.56  0.003014602    2.591    0.614
         7 -12.8466      7.9000      2.6594   5.5029880060e+01   7.2662745351e+01    0.4408995    0.3302512  25.04  0.003315332    1.594    0.373
         8 -15.9052     11.2529     23.4461   6.2643504486e+01   6.9340990525e+01     1.792077    0.8731038 -26.89   0.01009658    1.879    0.468
         9 -14.5364     27.0938     11.6824   4.9804081176e+01   6.9437937077e+01    0.8944624    0.4984078 -14.97  0.005225285    1.766    0.434
        10 -14.4437    166.6593     28.5673   1.7642928803e+01   3.9490534328e+01     1.016334    0.7861711  57.30  0.003943998    1.214    0.176
        11 -14.5089    147.6169     29.6074   2.1073074684e+01   4.3994619930e+01     1.322526    0.7246274  62.64  0.004764321    1.677    0.404
        12 -12.9100    140.8291     21.6220   1.9791657644e+01   4.6506181084e+01    0.9548609    0.3284511  63.77    0.0025823    2.674    0.626
        13 -15.4052     99.1862     11.2944   2.4777479646e+01   5.7034288898e+01     1.474889    0.8563868  50.03  0.004153022    1.469    0.319
        14 -12.6456     85.6477     13.9506   2.9315993968e+01   5.9600206770e+01    0.4251421    0.3358875 -28.63  0.001865535    1.416    0.294
        15 -11.7606     70.9640     16.2835   3.4691542125e+01   6.2183144955e+01    0.2679554    0.1921392 -13.34 0.0007885752    1.370    0.270
        16 -12.1958     74.9291      9.8691   3.0719060315e+01   6.2098597449e+01     0.365344    0.2344166   2.73  0.002077836    1.657    0.396
        17 -12.4970     59.9936     15.4501   3.8053328072e+01   6.4206843095e+01    0.5108228    0.2668326  26.92  0.002621367    1.955    0.488
        18 -12.9097    187.7260     11.1464   1.0242640872e+01   3.6287469217e+01    0.5718286    0.5063133 -26.57  0.003197751    1.330    0.248
        19 -12.0235     46.7773     12.7121   4.1789859527e+01   6.6636649203e+01    0.2652073    0.2020346  30.47  0.001482517    1.277    0.217
        20 -13.9542     41.9499      4.2581   3.9707128743e+01   6.8295899181e+01    0.6265979    0.4364873  12.05  0.003310345    1.208    0.172
        21 -11.2868    123.3644     10.9639   1.9502676059e+01   5.1655018424e+01    0.2087478    0.1675296  73.94 0.0004922003    1.263    0.208
        22 -11.5582    152.8735      8.4928   1.3868582926e+01   4.4889594082e+01    0.2579051    0.1837117  39.76  0.001247206    1.491    0.329
        23 -11.1001     80.4986      7.0937   2.7931512143e+01   6.1273371672e+01    0.1746042    0.1163691 -15.84 0.0009925399    1.567    0.362
        24 -12.1194    118.3167      2.2072   1.7442415912e+01   5.3545644962e+01    0.4479207    0.2286628  81.03  0.001981731    2.612    0.617
        25 -11.9436     78.9477      1.9787   2.6208018147e+01   6.2016392923e+01    0.7366644          nan  50.26  0.002144731    5.551    0.820
        26 -11.4057     67.6617      2.7320   2.9823189974e+01   6.4115856132e+01    0.2720936     0.153807  25.40  0.001504046    1.702    0.412
        27 -11.3624     61.1852      1.4597   3.1313531786e+01   6.5402391710e+01    0.3163801    0.1023752  51.15   0.00138151    2.819    0.645
        28 -10.6245    200.7951    191.6108   5.1577059666e+01   3.6723231131e+00    0.1869506    0.1251168  47.24 0.0009411684    1.633    0.388
        29 -12.7516    108.8542    249.4185   7.9202032967e+01   8.8577007123e+00    0.4025244    0.2641335  51.72  0.002438978    1.304    0.233
        30 -13.0662     51.0333    248.6957   8.9944954502e+01   1.6964390703e+01    0.4005713    0.3398889  53.81  0.003012034    1.244    0.196
        31 -12.2386      2.9104    249.5494   9.8217754842e+01   2.2131425158e+01    0.3296795    0.1899517  58.23  0.001847083    1.308    0.235
        32 -13.8767      9.6192    245.7176   9.6933542584e+01   2.2168044698e+01    0.7711312    0.3381547  56.58  0.003637705    1.769    0.435
        33 -11.8271     48.8887    181.3637   8.4060789152e+01   3.1264865590e+01    0.3402689    0.1788749 -53.88  0.001682028    1.966    0.491
        34 -12.1366    198.9906    181.4976   4.9934783016e+01   5.7799501623e+00    0.2620086     0.201043 -53.93   0.00137721    1.573    0.364
        35 -12.2569     84.3259    178.8330   7.5330605563e+01   2.7011484398e+01    0.2816711    0.1266127 -69.12  0.001095245    2.601    0.616
        36 -13.1575    124.2881    166.1719   6.3398387247e+01   2.3134104435e+01    0.6997631    0.4180926 -59.97  0.003051952    1.836    0.455
        37 -11.2408      1.9510    159.0268   9.2674390546e+01   4.0985456845e+01    0.2562493    0.1380219 -70.20  0.001480795    1.482    0.325
        38 -11.7862    112.4016    157.1929   6.4576503778e+01   2.7360118095e+01    0.3072717    0.2172562 -70.79  0.001432664    1.617    0.382
        39 -11.9962     77.0739    156.7681   7.3592637328e+01   3.3290937589e+01    0.3773087    0.2713287  23.67  0.001174955    1.684    0.406
        40 -13.1768     73.5137    153.0342   7.3885477639e+01   3.4706151376e+01    0.6164617    0.4876091  24.74  0.002334205    1.480    0.324
        41 -12.6939    211.8376    154.9912   4.1874913409e+01   8.1584927460e+00    0.3231953     0.235678  14.93  0.001609629    1.623    0.384
        42 -11.6473     85.9794    152.5245   7.0507547728e+01   3.2944075922e+01     0.394164    0.1821596 -44.84  0.001536762    2.385    0.581
        43 -11.1182     61.1350    152.1255   7.7002694938e+01   3.6631266662e+01    0.1958832    0.1704153 -54.07 0.0002498973    1.166    0.143
        44 -11.6602    103.4106    149.8656   6.5418874712e+01   3.0670076255e+01    0.3738686    0.2453327 -34.74  0.001450734    1.845    0.458
        45 -12.6794      8.3030    149.8674   9.0295051361e+01   4.2612997844e+01    0.4359844    0.2907751  76.68  0.002663059    1.447    0.309
        46 -12.4440    244.6875    147.7102   3.4592746376e+01   3.3657919154e+00    0.3922952    0.1678031 -37.80  0.001692703    2.053    0.513
        47 -12.3104     60.8652    147.1540   7.6262052961e+01   3.7864372343e+01    0.3519409    0.2657505 -14.65  0.001828103    1.867    0.464
        48 -12.4768    246.3907    134.7952   3.1570961192e+01   5.1988561059e+00    0.3863825    0.2404813 -74.52  0.001481715    3.877    0.742
        49 -12.4361    133.6926    126.4294   5.2285232878e+01   3.0216169745e+01    0.6509448    0.3281484 -34.59   0.00236829    2.394    0.582
        50 -12.4941     43.8548    132.8628   7.8586586600e+01   4.3364691403e+01    0.2093316    0.1691196 -46.27 0.0006843897    1.247    0.198
        51 -14.1841    104.6564    121.5512   5.8804713812e+01   3.7055076468e+01     1.565821     1.088414  44.77  0.007382769    1.497    0.332
        52 -13.8378    111.7803    116.1447   5.5490142654e+01   3.6929592822e+01    0.7222806    0.5245354  42.81  0.003134011    1.417    0.294
        53 -14.8748    105.9507    104.9761   5.4205931911e+01   4.0529776302e+01     1.370519     1.301124 -69.82   0.00671139    1.120    0.107
        54 -12.8879     28.7417    121.9382   8.1163393374e+01   4.7497699025e+01    0.3417422     0.248589 -49.55  0.002024994    1.275    0.216
        55 -11.6956    181.2200    120.4250   3.9869075200e+01   2.1095142756e+01    0.2092487     0.148069  62.33  0.000943969    1.638    0.390
        56 -12.2652      4.4705    119.4784   8.7844522147e+01   4.9946452045e+01    0.4279227    0.2581395   9.06   0.00247958    2.240    0.554
        57 -11.7057      8.2970    114.4402   8.6059022015e+01   5.0864706374e+01    0.2134538    0.1471736 -19.86  0.001137391    1.841    0.457
        58 -11.7528     88.2010    109.1657   6.0481070336e+01   4.2808134108e+01     0.480856    0.2221367 -58.68  0.001781487    2.498    0.600
        59 -12.8744     84.4876    114.9307   6.3003660718e+01   4.2102872117e+01    0.8623763    0.4728391  27.97  0.003465606    2.192    0.544
        60 -12.5053     79.1033    110.3326   6.3508628580e+01   4.4027862621e+01    0.3634287    0.3193833 -82.25  0.001718989    1.276    0.216
        61 -12.5659     42.3830     90.3772   7.0539060295e+01   5.3461662780e+01    0.3175971    0.2336509 -60.08 0.0001963517    1.281    0.219
        62 -14.7842     24.1670     92.3485   7.7221259733e+01   5.4761538877e+01     1.412319     1.085575  -7.27  0.008792038    1.512    0.339
        63 -14.4208     18.2536    110.2569   8.2423452271e+01   5.1123599796e+01     0.951776    0.6071922 -58.76  0.005543112    1.266    0.210
        64 -12.1964    121.9853    112.0464   5.1667339354e+01   3.5794803360e+01    0.2397656      0.22644 -11.15  0.000666378    1.091    0.084
        65 -12.1501    177.0905    110.0545   3.8113446731e+01   2.4036970326e+01    0.4168534    0.3358892   0.70  0.002007833    1.549    0.354
        66 -11.5419     62.9916    110.9910   6.8613732167e+01   4.6233615086e+01    0.3145256    0.1764378  55.94   0.00132273    2.547    0.607
        67 -14.0633     11.2630    103.4147   8.3487699660e+01   5.3209078504e+01     0.624459    0.5553547 -41.49  0.003656591    1.184    0.156
        68 -11.1372     46.2082    109.9797   7.3644640472e+01   4.8550710277e+01    0.2349421    0.1251767 -40.12  0.001076204    1.953    0.488
        69 -12.6232    136.3254    102.7184   4.5448824609e+01   3.4715198374e+01    0.6239937    0.3125477  46.71  0.001970831    2.018    0.504
        70 -13.2816    120.5319    102.4769   4.9486213412e+01   3.8147929183e+01    0.4316773    0.3501452 -12.47  0.002106404    1.439    0.305
        71 -12.2562     61.3955     97.5297   6.5924449448e+01   4.9538891573e+01    0.4291484     0.301129 -76.93  0.002107964    1.873    0.466
        72 -12.3656     49.1234     93.3411   6.8962486157e+01   5.2034976142e+01    0.7470399    0.3729846 -42.34  0.003428517    1.872    0.466
        73 -11.1530     48.6710    100.6913   7.0842345021e+01   5.0422310923e+01    0.2765365     0.254296  38.91  0.001724439    1.242    0.195
        74 -11.9806     52.7124     97.4555   6.8758283567e+01   5.0675977671e+01    0.4520584    0.2511913 -25.50  0.001712498    2.537    0.606
        75 -12.0584    163.3106     97.3897   3.7696731187e+01   2.9636622964e+01    0.3860826    0.3078488 -69.32 0.0008480833    1.473    0.321
        76 -13.6697    136.8562     94.5727   4.3050300641e+01   3.6238939726e+01    0.6327165    0.5346798 -69.71  0.002223973    1.369    0.269
        77 -12.5215    136.1987    131.9639   5.3001832225e+01   2.8474693168e+01    0.6274529    0.3583265  37.81  0.002568425    1.851    0.460
        78 -11.8819    129.3561     96.1084   4.5382269005e+01   3.7586130684e+01    0.3093307     0.230491  54.44  0.001460898    1.423    0.297
        79 -11.4262    118.9744     96.2694   4.8174916210e+01   3.9767457704e+01    0.2114784    0.1964664  29.74 0.0003651532    1.089    0.082
        80 -12.3009     36.8172     92.9020   7.3031194453e+01   5.3478111562e+01    0.3805498    0.2513525   0.17  0.001527807    1.939    0.484
        81 -13.0534    188.6150     83.8770   2.9109488741e+01   2.6141279480e+01    0.6690259    0.3652207  43.11  0.002320374    2.075    0.518
        82 -13.6354    187.1422     79.1367   2.8129997679e+01   2.7289927186e+01    0.6084928    0.4146104   7.79   0.00254012    2.484    0.597
        83 -12.1506    158.5144     64.4599   2.9450690745e+01   3.6556301480e+01    0.7116234    0.2738242 -47.67  0.002409246    3.097    0.677
        84 -13.8176    163.8942     71.4774   3.0391469612e+01   3.4122971217e+01      1.56328    0.5364619  45.11  0.005029287    3.269    0.694
        85 -13.4425    161.2899     80.4519   3.3456991269e+01   3.3214634123e+01    0.8989524    0.5765579  17.27  0.003195828    2.646    0.622
        86 -14.6300    169.4816     77.0548   3.0851585678e+01   3.1847105163e+01      1.37954    0.6486644  49.36  0.003708915    2.120    0.528
        87 -12.9625    238.7036     81.0257   2.0788529124e+01   1.5458594911e+01    0.6402035    0.3572498 -82.94  0.002542172    3.263    0.693
        88 -14.1907    100.5571     49.4689   3.8520883247e+01   5.2089266686e+01    0.8768227    0.7802786 -45.55  0.005126443    1.280    0.219
        89 -13.5192     28.6366    245.9303   9.3713216330e+01   2.0113204778e+01    0.4511258    0.2577736  70.34  0.002779712    1.461    0.316
        90 -13.5886     67.0759     49.8064   4.9361346803e+01   5.8211378681e+01     0.702153    0.5965846 -73.89  0.002295529    1.823    0.452
        91 -13.8795     73.7701     74.0161   5.5198274315e+01   5.2710453415e+01     1.353466    0.6895823  16.45  0.004495785    3.695    0.729
        92 -13.3015     87.4672     65.1819   4.7870610996e+01   5.2025362235e+01    0.5284953    0.4358153  -3.72  0.001125981    1.237    0.192
        93 -13.6006     92.1652     57.2826   4.3729461570e+01   5.2515512106e+01    0.5266312    0.4746092  -6.50  0.001759546    1.041    0.040
        94 -12.9956     54.9488     81.0957   6.3764935661e+01   5.3987509803e+01    0.6290249    0.3633828 -38.99   0.00228076    1.610    0.379
        95 -13.9444     61.2700     75.4815   5.9931922379e+01   5.4300984109e+01    0.7534297    0.4643374 -34.10  0.001477001    1.574    0.365
        96 -12.4633    200.0674     61.7139   2.1521958903e+01   2.7002404304e+01    0.4546686    0.3317085  66.42  0.002166363    1.372    0.271
        97 -13.2217    212.2097     77.7225   2.3696725971e+01   2.1717194401e+01     1.102858    0.6262487 -83.98  0.004133754    3.202    0.688
        98 -13.7177    199.4327     69.5553   2.3610838242e+01   2.5949678328e+01    0.7747927    0.4954095  51.34   0.00275772    1.632    0.387
        99 -12.1227    114.0635     80.0296   4.4741682333e+01   4.4019962621e+01    0.4544847    0.3339083 -45.55  0.001904351    1.391    0.281
       100 -12.8397    135.0903     79.1832   3.9015845433e+01   3.9564817521e+01    0.7469395    0.4144316  54.87  0.003102155    1.889    0.471
       101 -11.3866     42.5213     79.4766   6.7733427276e+01   5.5825809311e+01    0.2676686    0.1589155 -35.64  0.001187821    1.610    0.379
       102 -11.1866     41.6169     75.7555   6.7056562449e+01   5.6714177507e+01    0.2756673    0.1793972 -53.84 0.0007081043    1.412    0.292
       103 -12.8686    170.8852    242.2877   6.6189927943e+01   3.3248112344e-01    0.2661954    0.1736329 -55.20  0.001491286    2.056    0.514
       104 -14.2086      5.2460     63.1796   7.7730804818e+01   6.2392899998e+01    0.6930897    0.5529484 -29.94  0.004839508    1.167    0.143
       105 -13.6506      2.2476     96.9272   8.5322902191e+01   5.5241668302e+01    0.8382463    0.3235379 -73.38  0.003494799    2.388    0.581
       106 -12.8242    216.3850     72.5720   2.1840657627e+01   2.1591399933e+01    0.5974488    0.3651595 -81.63  0.002612134    2.337    0.572
       107 -13.3046    133.1335     66.2124   3.5541245638e+01   4.2276849417e+01    0.9894501    0.7156577   3.52  0.004571823    1.858    0.462
       108 -11.3835    117.8158     72.0697   4.1255195818e+01   4.4690423892e+01    0.2575525    0.2118135  44.07 0.0007712627    1.204    0.169
       109 -11.8797    241.2105     70.4105   1.8105513418e+01   1.6557603041e+01     0.180734    0.1223652  83.38 0.0009577462    1.707    0.414
       110 -12.1045     99.8977     64.1222   4.3719416777e+01   4.9828529361e+01    0.3980536    0.3030257 -38.66  0.002090945    1.324    0.245
       111 -13.1604     79.0005     60.2129   4.8938579764e+01   5.4426818507e+01    0.5760238    0.4401633 -27.68  0.002840719    1.246    0.197
       112 -11.5274     85.3661     49.3183   4.3038682166e+01   5.5102349877e+01    0.2890185     0.198951  10.73 0.0009318605    1.703    0.413
       113 -13.8307    177.7467     56.3127   2.3616819512e+01   3.3141081893e+01      1.00499    0.5748101 -46.14  0.003861016    1.779    0.438
       114 -11.7678     34.5582     60.2777   6.5255643308e+01   6.0613795168e+01    0.4494348    0.1360871 -41.99  0.001756657    2.898    0.655
       115 -12.3337     36.9784     53.5199   6.2138914793e+01   6.1646910631e+01    0.4252931    0.1775896 -36.33  0.001912817    2.278    0.561
       116 -11.8557     38.9649     59.8878   6.3402520013e+01   6.0215710864e+01    0.2559293    0.1964729  83.60  0.001374925    2.392    0.582
       117 -11.8335     24.8474     59.1425   6.8793565731e+01   6.1772866723e+01    0.4222389    0.1762286 -45.75  0.002058126    1.911    0.477
       118 -11.7567    111.1127     58.6757   3.8730918017e+01   4.8422552115e+01    0.2470942    0.2190574  -3.75 0.0003962127    1.133    0.117
       119 -14.6518    119.9800     54.7710   3.5112509556e+01   4.7100266784e+01     1.010642    0.7090251  46.65  0.005096979    1.361    0.265
       120 -12.6454    247.7930     53.8919   1.3771366045e+01   1.7578504380e+01    0.5728295    0.2957531 -46.15   0.00293633    1.655    0.396
       121 -12.1605    249.0148     48.4845   1.2498311429e+01   1.8068693981e+01    0.2744556    0.2321689  51.71  0.001774916    1.471    0.320
       122 -12.5627    135.7887     51.4767   3.0297888390e+01   4.3964715581e+01    0.6439102    0.4157852 -30.28  0.002465916    1.634    0.388
       123 -11.5175     17.6872     55.3730   7.0625142966e+01   6.3114876558e+01    0.2944017     0.161957 -54.60  0.001648802    1.600    0.375
       124 -11.7320    230.9289     55.1804   1.5897991703e+01   2.0957521706e+01    0.3362642    0.1743696  79.42  0.001513332    2.366    0.577
       125 -10.5158     23.7186     49.9414   6.6444190110e+01   6.3648892173e+01    0.1492028   0.08925508 -44.67 0.0004570818    1.386    0.278
       126 -11.6228    152.0039     47.0000   2.5558951811e+01   4.0725690063e+01    0.2748863     0.185841  64.97 0.0009087969    1.461    0.316
       127 -12.9203    157.9852     43.1793   2.3308558621e+01   3.9791570390e+01    0.6269861     0.503805  24.36  0.002810431    1.459    0.315
       128 -11.1905     38.8622     46.0687   5.8811913502e+01   6.2782950550e+01    0.1792381    0.1600286 -30.31 0.0008335291    1.218    0.179
       129 -14.0443     97.2678    239.3936   8.0348404343e+01   1.2381365413e+01    0.7096446    0.5243649  48.32  0.004484467    1.143    0.125
       130 -14.4759    212.5640     40.7945   1.4695468393e+01   2.7027606914e+01     2.269487    0.6956782  72.26  0.007354247    4.252    0.765
       131 -14.2677     91.3915    232.2424   8.0724526559e+01   1.4597252358e+01    0.6314659    0.4230047 -73.38  0.003712168    1.628    0.386
       132 -12.0387     11.6381     43.5036   6.9627939350e+01   6.5838224504e+01    0.3781503    0.2071878  -6.67  0.001966566    2.106    0.525
       133 -12.7837      3.5520     42.8173   7.3032413306e+01   6.6507698946e+01    0.4533437    0.3213484 -14.31  0.003137091    1.351    0.260
       134 -11.0474     25.6438     44.3260   6.3759994601e+01   6.4502810607e+01    0.1644358    0.1504461  88.09   0.00112009    1.703    0.413
       135 -12.8376    246.5903    235.5573   5.1156444967e+01  -9.9632994724e+00    0.3586474    0.2240461 -12.76  0.002220389    1.501    0.334
       136 -11.9113    134.8706     39.2949   2.6596620616e+01   4.5859276765e+01    0.4605579    0.2804229  70.55  0.001511878    1.875    0.467
       137 -12.5975    110.0011     42.0054   3.3327272832e+01   5.1167980845e+01    0.4572597     0.189665  51.06 0.0006627054    2.243    0.554
       138 -13.1259    113.8245     37.7644   3.0877586516e+01   5.0894639010e+01      0.38348    0.3527243  23.69  0.001465399    1.030    0.030
       139 -12.7247     23.5503    216.3079   9.2657128730e+01   2.6477676153e+01    0.6904398    0.2769694  56.60  0.003500548    2.274    0.560
       140 -13.0615    131.4583     33.4560   2.5410638074e+01   4.7394933827e+01    0.5225398    0.3970171  -2.65  0.001750232    1.545    0.353
       141 -12.1533     40.5087     40.3537   5.6036278657e+01   6.3563472664e+01    0.4332097     0.236059  27.25  0.002335862    1.895    0.472
       142 -12.8963     32.8848     40.0814   5.9136142008e+01   6.4499783041e+01    0.3189588    0.2296098  -1.93 0.0007481033    1.334    0.251
       143 -12.6802     75.9505     37.0166   4.1490849928e+01   5.8675213312e+01    0.4316947     0.282149  32.85  0.001288601    1.454    0.312
       144 -11.8182     70.7918     36.0182   4.2841731862e+01   5.9728202377e+01    0.2732975    0.2258249 -27.42   0.00102192    1.240    0.193
       145 -13.5870    241.8160     35.0703   1.0339487292e+01   2.1319977456e+01    0.8065115    0.4510016 -84.78  0.003211997    2.007    0.502
       146 -12.0389    104.8742     35.1699   3.2233355164e+01   5.3186447765e+01    0.4937942    0.1934195 -20.57  0.001720036    3.720    0.731
       147 -13.9846     26.2264    226.5323   9.2873519426e+01   2.4118877639e+01    0.6849952     0.341871 -57.05  0.003837808    2.385    0.581
       148 -13.9810     20.7897    223.9990   9.3708427206e+01   2.5204113777e+01    0.5857064    0.4527987  54.09  0.003608981    1.245    0.196
       149 -14.0323     66.2061    223.3280   8.4852445323e+01   1.9915711586e+01     1.010865    0.6124244  54.75  0.005811331    1.451    0.311
       150 -12.7904     45.7810     33.5395   5.1217442422e+01   6.3969453111e+01    0.6451066    0.4539535  26.63  0.003979241    1.401    0.286
       151 -12.4234     42.6061     29.2165   5.0753425055e+01   6.5046692265e+01    0.2777598    0.1800596 -12.25 0.0009494827    1.509    0.337
       152 -14.0526     64.4357    214.1425   8.4277339016e+01   2.2047303198e+01    0.5442332    0.3749378  59.12  0.002814524    1.292    0.226
       153 -13.1728     59.6771    212.4537   8.5092208836e+01   2.3031134661e+01    0.4816593     0.332351 -33.10  0.002224422    2.440    0.590
       154 -12.8478     94.1608    218.1785   7.8504971268e+01   1.6957828465e+01    0.2867714      0.19278  47.43  0.001544956    1.320    0.243
       155 -12.3831     30.7452     25.5385   5.4327100227e+01   6.7072774896e+01    0.3235954    0.1807658  15.80  0.001711041    1.891    0.471
       156 -12.2949     35.4249     23.4565   5.1370553157e+01   6.6813157379e+01    0.2763195     0.192851  -1.84  0.000977857    1.298    0.230
       157 -12.4032    237.8036    215.1423   4.9102569424e+01  -6.0134413647e+00    0.2943106    0.1963264 -33.18  0.001760426    1.491    0.329
       158 -11.8047    249.7227    216.9686   4.7371495759e+01  -7.9679224835e+00    0.1759018    0.1365483 -12.97  0.001172199    1.106    0.096
       159 -10.9439     51.2476     20.4100   4.3501562109e+01   6.5019726607e+01    0.2345134    0.1104163  43.31  0.001174638    2.205    0.546
       160 -11.9934     46.3096     19.9943   4.5274792620e+01   6.5810111664e+01    0.3450133    0.1405578  30.30  0.001580133    2.597    0.615
       161 -10.8132    136.6097    210.8158   6.8391011288e+01   1.1515781788e+01     0.181427    0.1306057 -68.30 0.0009460607    1.700    0.412
       162 -13.1743     72.3598    207.2049   8.1835979885e+01   2.2434591785e+01    0.4920764    0.2810251 -69.59  0.002569123    1.755    0.430
       163 -12.5456     57.4637    202.8517   8.4555744382e+01   2.5377075753e+01    0.5411294    0.2536918 -83.29   0.00238859    2.580    0.612
       164 -13.5689     58.0190     26.7088   4.3630072499e+01   6.3140133391e+01      1.01554    0.3327776  39.50  0.004158623    2.936    0.659
       165 -11.9598     41.3317    205.6394   8.8239733268e+01   2.6753835868e+01    0.2047899    0.1162892  66.94  0.001111918    1.706    0.414
       166 -13.1305     16.2953    197.6499   9.2706620734e+01   3.1148776003e+01    0.8596997    0.1516739 -60.38  0.003072568    4.655    0.785
       167 -12.9770     38.9393    194.8631   8.7725783544e+01   2.9381933637e+01     0.494634    0.3215259  64.61  0.002913481    1.426    0.299
       168 -12.5209    248.8341    196.4075   4.3716873778e+01  -4.9482333542e+00    0.5956888    0.2640288 -39.92  0.002835718    2.229    0.551
       169 -13.4897     30.0178    169.2614   8.7103530429e+01   3.6165214837e+01    0.8172566    0.6768737 -34.50  0.005230232    1.582    0.368
       170 -13.4625     22.2940    180.8230   9.0026353249e+01   3.4284515018e+01    0.6943343    0.3033095 -62.77  0.003375311    2.015    0.504
       171 -15.0643      8.5054    183.3072   9.3218061401e+01   3.4999071292e+01     1.044117     1.014235  63.93  0.008110372    1.358    0.264
       172 -15.1089     14.9393    174.6856   9.1102453214e+01   3.6360815995e+01     1.693153    0.7343057  49.62  0.008601033    2.278    0.561
       173 -12.5321    163.9955    194.2887   5.9668454056e+01   9.8428385928e+00    0.4575849    0.2032557 -52.83  0.001779362    2.733    0.634
