#   1 NUMBER                 Running object number                                     
#   2 MAG_AUTO               Kron-like elliptical aperture magnitude                    [mag]
#   3 X_IMAGE                Object position along x                                    [pixel]
#   4 Y_IMAGE                Object position along y                                    [pixel]
#   5 X_WORLD                Barycenter position along world x axis                     [deg]
#   6 Y_WORLD                Barycenter position along world y axis                     [deg]
#   7 A_WORLD                Profile RMS along major axis (world units)                 [deg]
#   8 B_WORLD                Profile RMS along minor axis (world units)                 [deg]
#   9 THETA_WORLD            Position angle (CCW/world-x)                               [deg]
#  10 FWHM_WORLD             FWHM assuming a gaussian core                              [deg]
#  11 ELONGATION             A_IMAGE/B_IMAGE                                           
#  12 ELLIPTICITY            1 - B_IMAGE/A_IMAGE                                       
         1  -9.9458     40.6907     12.5013   7.6619501470e+01   6.8806803050e+01    0.2403941    0.1322856 -28.37  0.001352262    1.633    0.388
         2  -9.9690     56.8494      9.8459   6.8295913485e+01   6.6693597235e+01    0.1568641    0.1462194  11.17  0.001084637    1.348    0.258
         3  -9.2257    103.6608      9.3263   5.3318673540e+01   5.7535538786e+01    0.1269993    0.1015396 -68.08 0.0007051513    1.729    0.422
         4  -9.7123     71.2132      6.3953   6.1331042043e+01   6.4514644805e+01    0.1676918    0.1152349  57.18 0.0009480019    1.718    0.418
         5  -9.8985    237.9591    239.7487   8.4463181531e+01  -8.6989492144e+00    0.1496465   0.08306248  29.35 0.0005422125    1.541    0.351
         6  -9.7322     73.6607    229.3163   1.1512403180e+02   1.7565365777e+01    0.1306362   0.07468531  63.67 0.0007048355    1.704    0.413
         7 -10.8519    162.5593    225.7966   9.6577766722e+01   4.7029854765e+00     0.416877    0.2439546  29.09  0.002144138    1.625    0.385
         8 -10.3120     99.4590    226.1590   1.0960674105e+02   1.4563294020e+01    0.2904971    0.1772721  30.41  0.001557828    1.747    0.428
         9 -10.7888    126.1086    220.9600   1.0342498983e+02   1.1463403738e+01    0.1991449    0.1736103  52.33 0.0005562722    1.057    0.054
        10  -9.5098     75.6416    220.3066   1.1385739641e+02   1.9078292811e+01    0.1347877   0.07779923  63.42 0.0007040699    1.728    0.421
        11  -9.9831    131.4935    214.4750   1.0137711395e+02   1.1820998201e+01    0.1326262    0.1183191  41.24 1.987192e-05    1.020    0.020
        12 -11.3368    178.2904    198.9925   8.8854824076e+01   6.6995478712e+00    0.3721503    0.1550588  42.52  0.001507189    2.292    0.564
        13  -9.8796     89.3404    199.6915   1.0859335463e+02   2.1446733682e+01    0.1413441   0.09052183  66.28  0.000391336    1.688    0.408
        14 -10.1602    126.5289    197.4636   9.9904312086e+01   1.6022799669e+01    0.2400304    0.1902701  -7.60  0.001267075    1.689    0.408
        15 -11.4838    173.0124    195.9539   8.9416246236e+01   8.1828331055e+00     0.298667     0.258595  29.00 0.0008596104    1.066    0.062
        16  -9.9782    173.9947    192.0139   8.8480316799e+01   8.7370505945e+00     0.206851     0.193018  44.24 0.0005574469    1.170    0.145
        17  -9.9382     44.5018    194.4749   1.1790767153e+02   2.8443989675e+01    0.1263051    0.1008096  76.58  0.000612509    1.046    0.044
        18 -10.0075    139.6403    190.3160   9.5760314181e+01   1.5230975346e+01    0.1472434    0.1076875  69.36 0.0007043264    1.756    0.431
        19 -10.6190    156.9766    187.9987   9.1448678061e+01   1.2588985793e+01    0.2740234    0.1814552  38.43  0.001340004    1.421    0.296
        20 -11.4275     96.8771    187.7984   1.0525564633e+02   2.2918672783e+01    0.5009462    0.2043888  45.12  0.002033211    2.327    0.570
        21  -9.8832     56.2439    187.9993   1.1466538235e+02   2.8512075321e+01    0.2434597   0.09469289  60.34 0.0008845818    3.538    0.717
        22 -10.0067     35.6514    188.3343   1.1927107678e+02   3.0776469702e+01    0.1356921   0.07462496  66.67    0.0007048    1.776    0.437
        23 -10.5260    110.1109    186.7407   1.0199596548e+02   2.1044468050e+01    0.3321988    0.1841912  66.48  0.001304879    2.754    0.637
        24  -9.7194     27.6673    183.3234   1.2058047254e+02   3.2712407510e+01    0.1318239   0.07378452  67.28  0.000705045    1.705    0.414
        25  -9.8190    212.6334    182.6954   7.8751368044e+01   3.5093461749e+00    0.1470478   0.09866197   4.28 0.0007035776    1.744    0.427
        26  -9.6167     45.0377    183.0000   1.1667954571e+02   3.0963133162e+01    0.1907054   0.06937619  31.51    0.0008009    2.932    0.659
        27 -10.0417    148.4805    181.5246   9.2167683774e+01   1.5452964054e+01     0.143513    0.1362369  42.32 0.0008088691    1.045    0.043
        28 -10.5869     78.1915    176.7632   1.0813419182e+02   2.8208406102e+01    0.4577776    0.1506223  51.28  0.001495927    3.855    0.741
        29  -9.8521     61.0195    177.6842   1.1237539189e+02   3.0288739108e+01    0.2243604   0.06376675  50.42 0.0007047518    4.276    0.766
        30  -9.8574     13.6652    177.3218   1.2315543654e+02   3.5344212361e+01    0.1283138   0.07000723  67.16 0.0007050215    1.706    0.414
        31 -10.9884     13.2700    184.7888   1.2377871795e+02   3.3712796713e+01    0.2237212    0.1991191  39.00  0.001490062    1.411    0.292
        32  -9.6772     35.6696    174.3457   1.1795956525e+02   3.3964094687e+01    0.1373323   0.07906238  68.92 0.0007050121    1.757    0.431
        33 -10.3393    123.2387    170.8134   9.6146816357e+01   2.2349932873e+01    0.3038354    0.1549558  51.00  0.001211223    2.159    0.537
        34  -9.5730     55.9796    170.6564   1.1272547891e+02   3.2561157740e+01    0.2263957   0.06417918  50.36 0.0007050474    4.410    0.773
        35 -10.1084    100.8664    167.1364   1.0103474301e+02   2.7014510286e+01    0.4244388    0.1231187  47.94  0.001236387    4.202    0.762
        36 -10.1960    140.4826    165.9996   9.1048169574e+01   2.0254282246e+01    0.3117283    0.1820764  69.99  0.001038878    3.553    0.719
        37 -10.2862     80.7159    164.9206   1.0576653151e+02   3.0643027118e+01    0.4305714    0.2244433  71.34  0.001549183    3.324    0.699
        38 -10.0434     38.3248    164.6882   1.1632327911e+02   3.5956975630e+01    0.1354377   0.08357664  69.20 0.0005312192    1.659    0.397
        39 -10.2507     94.2450    161.1647   1.0169161274e+02   2.9489235209e+01    0.2834286    0.1578054  47.66  0.001164816    1.842    0.457
        40 -10.1700      9.5093    160.8635   1.2280966153e+02   3.9438122707e+01     0.306316    0.1058179  67.83  0.001103198    4.263    0.765
        41 -10.4809    108.0724    159.3231   9.7808068510e+01   2.7647681764e+01    0.7259085    0.1489419  44.42  0.001853149    5.195    0.808
        42  -9.8443    168.6525    158.3400   8.2859436887e+01   1.6390655230e+01    0.1531968    0.1225954  86.61  0.000704631    1.789    0.441
        43 -10.7304     50.8125    156.0078   1.1214311435e+02   3.6682944685e+01    0.3939652    0.1718961  56.66  0.001565896    2.915    0.657
        44  -9.7996    219.1496    156.1466   7.1908453907e+01   6.9359350319e+00    0.1793976    0.1676761 -49.88  0.000365829    1.280    0.219
        45 -10.5482     83.4532    156.0628   1.0362593990e+02   3.2373371408e+01    0.3985297    0.1622468  49.65   0.00145421    2.856    0.650
        46 -10.3084     68.7160    154.4082   1.0723908016e+02   3.4854953976e+01    0.3620158    0.1746347  55.79  0.001455781    2.578    0.612
        47 -10.4041    134.9666    154.4416   9.0025147335e+01   2.3879901248e+01    0.3174135    0.1888529  56.53  0.001284669    2.060    0.514
        48  -9.9974     99.7216    151.7528   9.8556882217e+01   3.0856061967e+01    0.2375563    0.1075565  47.46 0.0007842616    2.383    0.580
        49 -10.0096     29.7838    151.1880   1.1694514768e+02   4.0020647922e+01     0.230242    0.1054324  66.21 0.0009586466    2.858    0.650
        50 -10.8500     40.6133    148.3721   1.1379865332e+02   3.9648473227e+01    0.4621285    0.2010166  55.18  0.001916366    2.832    0.647
        51 -11.3345    109.4444    146.6019   9.4958979686e+01   3.0425930099e+01      0.78932    0.3593225  58.65  0.002348604    4.155    0.759
        52 -11.3026     57.1920    146.6386   1.0912422003e+02   3.8223851910e+01    0.5603041    0.2683365  62.94  0.002113997    3.182    0.686
        53 -11.9732    151.2127    146.4516   8.4287362328e+01   2.2444796508e+01    0.6857262    0.3270704  56.01  0.002294616    3.008    0.668
        54 -10.1902     14.1178    146.6699   1.2043652090e+02   4.2416000667e+01    0.2215817    0.0913711  35.99   0.00108532    2.542    0.607
        55 -10.9124    126.3288    144.2585   9.0026500879e+01   2.7869796227e+01    0.5033579    0.3070408  69.01  0.001837931    2.788    0.641
        56 -10.6376     88.9024    144.7184   1.0013164192e+02   3.4304252540e+01    0.3360578    0.2087418  60.01  0.001470204    1.978    0.494
        57 -11.0279    197.2988    143.2489   7.3267909006e+01   1.3588977673e+01    0.3098359    0.2500253 -35.49 0.0007171043    1.183    0.155
        58  -9.9738      3.7148    142.7492   1.2267790613e+02   4.4074713712e+01    0.1716674   0.07688382  40.59 0.0008736639    2.370    0.578
        59 -10.8769     24.1451    138.8556   1.1699330616e+02   4.3494300735e+01    0.4906557    0.2048028  61.27  0.001941914    3.410    0.707
        60 -10.4397     39.8583    136.5193   1.1239354845e+02   4.2627927652e+01    0.2681705     0.174532  49.81  0.001026092    1.675    0.403
        61 -10.0727    181.3983    135.1928   7.4700459931e+01   1.8498297792e+01    0.3003404    0.1180071  43.02  0.001025034    2.630    0.620
        62 -10.5003    114.9306    134.6759   9.0912067829e+01   3.2269484017e+01    0.4324219    0.2134044  57.89  0.001425689    3.201    0.688
        63 -11.3781     85.0107    132.6677   9.8847381311e+01   3.7861568729e+01    0.6858711    0.2846649  47.65  0.002476559    2.842    0.648
        64 -10.6218    144.2817    132.8376   8.2802159249e+01   2.6884013743e+01    0.3091073    0.1817798  56.59  0.001107672    2.099    0.524
        65 -11.1433    133.9852    132.9417   8.5449542684e+01   2.8971675633e+01    0.4621033    0.2535228  53.67  0.001768948    2.171    0.539
        66 -10.7729    154.3207    130.7770   7.9828068711e+01   2.5222628111e+01    0.3382901    0.2555781  77.22  0.001476809    1.857    0.462
        67 -11.1489    101.0125    129.5514   9.3615794148e+01   3.5998447559e+01     0.673701    0.3634118  59.78  0.002429565    2.855    0.650
        68 -10.8805     13.6440    130.0192   1.1881265864e+02   4.6432528076e+01    0.3916019    0.1971974  69.93  0.001861531    2.423    0.587
        69 -10.6008    170.2717    130.5899   7.6044585348e+01   2.1831946335e+01    0.3042742    0.1517427  50.17  0.001139431    2.170    0.539
        70 -10.6588     74.0411    130.0606   1.0149608944e+02   4.0123646182e+01    0.3350213    0.1752858  56.22  0.001317854    2.605    0.616
        71 -10.8295    119.5430    126.5993   8.7767642017e+01   3.3296232400e+01    0.5754668    0.2932065  59.92  0.001861928    3.341    0.701
        72 -11.2692     60.9173    125.4483   1.0448029721e+02   4.3009611945e+01    0.6324552    0.3325832  64.33  0.002379843    3.194    0.687
        73 -11.4882     45.3314    124.1508   1.0889844378e+02   4.5118877499e+01    0.7742076    0.3897388  66.97   0.00293016    3.418    0.707
        74 -11.7012     29.6106    123.2977   1.1341565040e+02   4.6824743309e+01    0.8218562    0.3670885  67.00   0.00292012    4.186    0.761
        75 -10.5011    181.2940    125.5996   7.2370036537e+01   2.0453551792e+01    0.2983401    0.1517187  51.48   0.00113803    2.155    0.536
        76 -10.6771    160.1141    122.6211   7.6397187058e+01   2.5720785196e+01     0.335121    0.2364378  74.72  0.001369605    2.118    0.528
        77 -11.4639    143.6015    120.3416   7.9854144302e+01   2.9799202854e+01    0.5808071    0.3407765  51.96  0.002177819    1.878    0.467
        78 -10.3428     72.3989    121.0855   1.0016097659e+02   4.2567108820e+01    0.3868623    0.1744649  48.67  0.001465754    2.773    0.639
        79 -10.8778    132.3390    119.7525   8.2618899423e+01   3.2304877742e+01    0.4783861    0.2780799  61.50  0.001756466    2.504    0.601
        80 -10.8621      3.8805    118.1631   1.2020567582e+02   4.9885140586e+01    0.4073837     0.198209  66.52  0.001957805    2.586    0.613
        81 -11.1116    110.6855    115.6936   8.7544761493e+01   3.7540159691e+01    0.5474455    0.3535827  73.44  0.002047542    2.736    0.634
        82 -10.0436    194.3198    116.3230   6.7339990533e+01   1.9406913060e+01    0.1569254    0.1190735   4.15   0.00070451    1.673    0.402
        83 -11.3723     95.2898    113.9499   9.1615684983e+01   4.0730339312e+01    0.6889553    0.3062486  44.83  0.002569319    2.479    0.597
        84 -11.0899     80.5598    114.0332   9.6110007581e+01   4.3096431630e+01    0.6091391    0.3643703  64.37  0.002401792    2.687    0.628
        85 -10.6666    124.0941    113.5621   8.3233339500e+01   3.5397793488e+01    0.4802563    0.2133377  48.60  0.001685518    2.495    0.599
        86 -10.8210     68.0393    112.0629   9.9562334669e+01   4.5376133459e+01    0.4319334    0.2614477  58.99  0.001873516    2.300    0.565
        87 -10.9663     15.1254    111.4699   1.1605885941e+02   5.0796750143e+01    0.4140529    0.2462897  65.28  0.002186737    2.066    0.516
        88 -10.0965    176.9786    113.0000   7.0085247630e+01   2.3937145764e+01    0.2581554   0.08968745  48.74 0.0008080031    2.981    0.665
        89 -10.5105    160.4046    112.6123   7.3720790342e+01   2.7759431970e+01    0.3114538    0.1455225  60.43 0.0009537468    3.396    0.706
        90 -10.1808    134.7190    110.4404   7.9540685492e+01   3.3879308392e+01    0.3003902    0.1541334  49.04  0.001128475    2.084    0.520
        91 -11.8138     47.1370    103.7218   1.0451151727e+02   4.9933143182e+01    0.8824551    0.4342099  60.79  0.003107181    4.121    0.757
        92 -11.1956    141.8211    105.9942   7.6482364459e+01   3.3301773173e+01     0.582593    0.2567541  56.38  0.001846445    3.144    0.682
        93 -11.7365     23.9922    103.3756   1.1203401639e+02   5.2116514384e+01    0.7360169    0.3546601  63.27  0.002925687    3.636    0.725
        94 -11.1849    151.4136    104.4437   7.3658454326e+01   3.1486030843e+01     0.376482    0.2611312  67.96  0.001575377    1.907    0.476
        95 -10.8241      7.7271    103.8134   1.1728534514e+02   5.3079177175e+01    0.2969117    0.1825822  52.82  0.001687877    1.980    0.495
        96 -11.1179    130.8373    103.2878   7.8611049913e+01   3.6270704719e+01    0.5863338    0.2052297  49.36  0.001796899    3.224    0.690
        97 -11.6066    112.9979    101.5042   8.3100257778e+01   4.0339671672e+01     0.621828    0.3308336  53.54  0.002353726    2.353    0.575
        98 -10.8634    108.9939     99.4909   8.3709445900e+01   4.1572682257e+01    0.4024597    0.3119225  80.05  0.001835156    1.826    0.452
        99 -10.4767     83.6110    100.9976   9.1940809087e+01   4.5727476881e+01    0.3967255    0.2297559  52.35  0.001658588    2.230    0.552
       100 -11.4049     65.8373     97.5072   9.6863522535e+01   4.9168633165e+01    0.6937414    0.3625556  52.85  0.002763882    2.827    0.646
       101 -10.8275     97.2662     98.0705   8.6857781741e+01   4.4083427300e+01    0.5955471    0.2187949  40.44  0.002047461    2.856    0.650
       102 -10.0740    165.9899     95.0000   6.7624715228e+01   3.0019390539e+01    0.2591383   0.08963676  50.66 0.0008052568    2.962    0.662
       103 -10.9774    140.9682     93.3966   7.3127319427e+01   3.6123483607e+01    0.5210757    0.2724121  55.93  0.001943259    2.245    0.555
       104 -11.1701    127.5897     92.4277   7.6372923524e+01   3.9282973861e+01    0.7107853    0.3218282  52.21  0.002497633    2.552    0.608
       105 -11.5320     35.7393     90.8960   1.0568035716e+02   5.4122016701e+01    0.4663426    0.2882271  86.30  0.002156951    2.469    0.595
       106 -10.8990      7.4922     92.9429   1.1578478011e+02   5.5656222237e+01     0.489259    0.1631323  30.18  0.002202843    3.403    0.706
       107  -9.6926    152.6343     90.2976   6.9351371127e+01   3.4062624001e+01    0.1605677     0.125519 -83.41 0.0007032045    1.723    0.420
       108 -11.3160     88.8391     88.2353   8.6725495233e+01   4.7770079980e+01    0.6773347    0.3167994  52.26  0.002382051    3.171    0.685
       109 -11.3515     50.6123     86.2314   9.9303109946e+01   5.3694979703e+01    0.6153765    0.3365209  56.53  0.002499493    3.177    0.685
       110  -9.7839     20.6497     88.3075   1.1046938800e+02   5.5937243781e+01    0.1235103   0.09135887  71.95   0.00070432    1.709    0.415
       111 -11.2960    107.8544     85.1198   7.9833564124e+01   4.4916088360e+01    0.7452845    0.3548438  52.76  0.002689408    2.690    0.628
       112  -9.9000    160.6528     84.3135   6.5757748954e+01   3.3315588841e+01    0.1605017    0.1231626 -77.30 0.0007046837    1.717    0.418
       113 -10.3939    142.7354     84.3313   6.9994563764e+01   3.7523623744e+01    0.3901421     0.198721  61.56  0.001357457    2.702    0.630
       114 -11.2570     25.7008     81.4844   1.0725911409e+02   5.7154941611e+01     0.483991    0.3070181  61.30  0.002223133    2.357    0.576
       115 -10.0784    120.9666     81.8681   7.5008504940e+01   4.2873122055e+01    0.3339806    0.2094133  61.35  0.001228878    2.110    0.526
       116 -10.4156     75.3656     81.3597   8.9209498752e+01   5.1481455810e+01    0.2737024    0.2112542  82.09   0.00129603    2.020    0.505
       117 -11.0367     10.8453     81.7396   1.1273853113e+02   5.8077052887e+01    0.4671174    0.1419514  33.79  0.001951101    3.870    0.742
       118  -9.8607    151.9859     81.4997   6.6908716690e+01   3.5899650110e+01    0.2454811    0.1529946  50.65  0.001009212    1.620    0.383
       119  -9.4221    159.3140     77.3391   6.3998943267e+01   3.4914246972e+01    0.1597997    0.1210132  12.33 0.0007047092    1.698    0.411
       120 -10.7436    130.6891     76.9267   7.0804856454e+01   4.1698627725e+01    0.5834955    0.2609642  52.26   0.00211093    2.399    0.583
       121 -10.1878    142.4667     76.4942   6.7667365901e+01   3.9072175013e+01    0.3270884     0.152263  51.17  0.001212658    2.173    0.540
       122 -10.8963     84.0984     74.2519   8.4018585180e+01   5.1581066892e+01    0.5200834     0.322725  61.59  0.002101915    2.782    0.641
       123 -10.1917     43.7372     73.5535   9.8505139778e+01   5.7317164462e+01     0.264933    0.1879221  47.55  0.001437738    1.844    0.458
       124  -9.9592    117.2255     73.5799   7.3433396863e+01   4.5301522090e+01    0.2957708    0.1481547  51.30  0.001140189    2.177    0.541
       125 -10.2582    107.5023     72.9148   7.6070791873e+01   4.7461653535e+01    0.3861001    0.2114838  54.14  0.001543955    2.233    0.552
       126 -10.2948     96.2952     72.6533   7.9472875935e+01   4.9713243550e+01    0.3075522    0.2536578 -89.43  0.001524209    1.766    0.434
       127  -9.9965      7.5939     73.3603   1.1236100190e+02   6.0160115467e+01    0.2792647    0.1181819  37.45  0.001333291    3.086    0.676
       128 -10.8156     52.7457     71.1543   9.4377981840e+01   5.6821718511e+01       0.4369    0.3266354  72.39  0.002218847    2.198    0.545
       129 -10.9360     17.8195     70.8130   1.0788423306e+02   6.0137336219e+01    0.3156576    0.2044775  39.16   0.00182625    1.978    0.494
       130 -10.3607    149.0616     69.3680   6.3883571925e+01   3.8789643037e+01    0.3586311    0.1438296  52.99   0.00125221    2.484    0.597
       131 -10.2147    140.5094     67.8163   6.5417405298e+01   4.1095461934e+01    0.3006299     0.214153  52.62  0.001404781    1.411    0.291
       132 -10.1404    123.9413     67.3072   6.9506725296e+01   4.4998660881e+01    0.4049189    0.1890401  56.33   0.00146706    2.553    0.608
       133 -10.6688     39.3444     65.5819   9.7970770604e+01   5.9508651070e+01    0.4691831    0.2280938  44.46   0.00206319    2.982    0.665
       134  -9.7316     10.8261     66.2361   1.0962375944e+02   6.1578047600e+01    0.1916794    0.1156173  65.50 0.0009523371    2.813    0.645
       135 -10.3260    112.1566     65.1011   7.2080104790e+01   4.7968446585e+01    0.3737065    0.2089612  63.07  0.001391435    2.789    0.641
       136 -10.1319    101.8066     61.8482   7.4071342662e+01   5.0701589275e+01    0.3524587    0.2411939  78.58  0.001398424    2.930    0.659
       137 -11.0119     76.0006     60.8334   8.2354092567e+01   5.5622651093e+01    0.6634752     0.273982  46.47   0.00249647    3.045    0.672
       138 -10.4739     26.8970     60.4144   1.0158044566e+02   6.1747650077e+01    0.3703672    0.1727844  41.85  0.001686605    3.079    0.675
       139 -11.0724      9.1646     58.3328   1.0848312580e+02   6.3391532393e+01    0.4216699    0.2504555  40.08  0.002404872    2.298    0.565
       140 -10.4262    121.4403     57.3787   6.6831180900e+01   4.7284850519e+01    0.4480719     0.231744  59.39  0.001743299    2.353    0.575
       141 -10.0951    141.7498     57.4173   6.1763419536e+01   4.2545091532e+01    0.2941418    0.1466634  58.49  0.001146008    2.115    0.527
       142 -10.5645     55.3084     55.6102   8.8367911910e+01   5.9707019785e+01    0.3325869     0.247877 -75.95   0.00167586    2.288    0.563
       143 -10.4711     45.6323     56.7582   9.2675926179e+01   6.0673186542e+01     0.316529    0.2261282  49.94  0.001718167    2.010    0.503
       144 -10.6177     64.2170     55.7817   8.4943682428e+01   5.8428811537e+01    0.3636232    0.2455082  45.20  0.001877728    1.825    0.452
       145 -10.8793     32.7596     52.7798   9.6797192301e+01   6.2823005229e+01    0.4368009    0.2711211  51.19   0.00218469    2.703    0.630
       146 -10.2494     21.3333     53.2939   1.0191784089e+02   6.3679515423e+01    0.2610792    0.1604616  35.75  0.001481012    2.079    0.519
       147 -10.8113     94.1491     51.7742   7.2872214616e+01   5.3992729775e+01    0.4783628    0.2995497  59.05  0.002132798    2.191    0.544
       148 -10.3036     83.7424     47.8973   7.4880596747e+01   5.6618787252e+01    0.3757599    0.2248754  59.76  0.001588226    2.709    0.631
       149  -9.8084    123.9990     46.9758   6.2531139766e+01   4.8349952111e+01     0.231292    0.1830601 -74.96  0.001138689    1.730    0.422
       150 -10.6806     46.1756     45.5193   8.8501619364e+01   6.2793073837e+01    0.2897097    0.2096974  40.91  0.001646471    1.757    0.431
       151 -10.6816     18.1479     45.6676   1.0104319906e+02   6.5468920996e+01     0.311087    0.1871541  31.87   0.00180699    2.063    0.515
       152  -9.4682    134.6581     44.3192   5.9023265362e+01   4.6232958070e+01    0.1480361    0.1138993 -72.78 0.0007049612    1.718    0.418
       153 -10.5313     59.4621     43.7619   8.2323666053e+01   6.1332518755e+01    0.2906022    0.2414788  68.12  0.001631949    2.003    0.501
       154 -10.8510      6.3914     43.2716   1.0577062709e+02   6.6683545578e+01    0.3430232    0.2498939  56.76  0.002134534    2.195    0.544
       155 -10.6228     71.0868     42.7176   7.7404781485e+01   5.9695854349e+01    0.3980325    0.2351135  53.50  0.001816561    2.473    0.596
       156 -10.0212    107.4580     42.5131   6.5362802521e+01   5.2716752864e+01    0.2561917    0.1397179  62.38  0.001035452    2.457    0.593
       157 -10.4640     38.3204     41.5499   9.0445391272e+01   6.4438494388e+01    0.2920174    0.1917281  42.75  0.001372476    2.095    0.523
       158 -10.0941     97.0996     39.3671   6.7222873652e+01   5.5366184829e+01     0.268084    0.1837611  63.40  0.001290898    1.936    0.483
       159  -9.9242     82.4799     37.9921   7.1420686870e+01   5.8438755366e+01    0.2781429    0.1759918  61.22  0.001262718    2.446    0.591
       160 -10.7223     27.7218     36.6138   9.3460053243e+01   6.6426590093e+01    0.2859801    0.1838965  22.83  0.001718034    1.694    0.410
       161 -10.0984    113.5154     36.1933   6.1328091962e+01   5.2276465063e+01     0.335916    0.2085904  76.31  0.001389857    2.645    0.622
       162  -9.4394    105.5096     35.4925   6.3245499734e+01   5.4139474080e+01    0.1393365    0.1285301  19.33 5.748198e-05    1.040    0.039
       163 -10.5562     62.5233     33.6369   7.6978020765e+01   6.2548022369e+01    0.3737324    0.2152441  52.74   0.00172516    2.671    0.626
       164 -10.4532     50.9391     33.7228   8.1786074717e+01   6.4246362856e+01    0.2922577    0.2183018  60.22  0.001554179    2.472    0.596
       165 -10.2855     74.2927     32.4833   7.2029279666e+01   6.0749416314e+01    0.3655261    0.2169194  56.85   0.00168289    2.494    0.599
       166 -10.5980     14.1812     31.4902   9.8171379236e+01   6.8490632543e+01    0.2461728     0.207632 -83.73  0.001644754    1.900    0.474
       167  -9.7074    103.0070     30.4725   6.1993042585e+01   5.5348202220e+01    0.2139826    0.1290343  51.28  0.001033171    1.599    0.375
       168  -9.6763    121.0015     34.0000   5.8611989192e+01   5.0857849726e+01    0.2392287   0.07637918  56.02 0.0008071705    2.975    0.664
       169 -10.3307     82.7450     28.6254   6.7456548472e+01   5.9730978166e+01    0.3076089    0.2310225 -86.47  0.001458282    2.763    0.638
       170 -10.5225      4.9681     28.6058   1.0185517517e+02   6.9617383663e+01    0.2517676     0.176505  45.34   0.00158762    2.293    0.564
       171 -10.2019     93.7089     27.9719   6.3698983933e+01   5.7633080768e+01    0.3089561    0.1962488  69.73  0.001394736    2.480    0.597
       172  -9.5784     40.3226     25.6479   8.3014717234e+01   6.6938182273e+01    0.1081276    0.1009783 -66.48 0.0007047787    1.753    0.430
       173 -10.7669     50.6293     22.2713   7.6866306493e+01   6.6055072829e+01     0.403086    0.1831666  43.24  0.001897993    2.552    0.608
       174 -10.4950     64.9880     21.5357   7.0685541579e+01   6.3888564078e+01     0.285179    0.2358611  70.54  0.001653962    2.039    0.510
       175  -9.7297     20.9819     22.1667   9.0980343203e+01   6.9587796185e+01    0.1670765    0.1364744  48.15  0.001090236    2.051    0.512
       176 -10.4799     76.0733     20.4050   6.6149378389e+01   6.2052683692e+01    0.4011109    0.2030497  58.80  0.001710513    2.917    0.657
       177  -9.8666     40.1050     19.2386   8.0175565532e+01   6.7941917517e+01    0.2078481    0.1618012 -55.02  0.001242029    2.111    0.526
       178  -9.8777     89.5075     18.3246   6.0920218289e+01   5.9657607768e+01    0.2408748    0.1128223  51.59  0.001090236    2.012    0.503
       179 -10.0883     31.5479     16.7133   8.3104375923e+01   6.9362834785e+01    0.1783084    0.1430936  38.96 0.0008674993    1.774    0.436
       180  -9.9159     98.4759     15.9904   5.7386282436e+01   5.8019670549e+01    0.2667504    0.1708967  76.92   0.00123613    2.397    0.583
       181  -9.5513     18.3309     14.6534   8.9007283472e+01   7.1049684711e+01   0.09684295   0.09400339 -61.39 0.0007049719    1.761    0.432
       182 -10.1222    165.6787    249.3345   9.9335973459e+01   5.1004849688e-01    0.1176551   0.08735339  59.09 0.0007049969    1.704    0.413
       183  -9.4748     84.6397     11.3222   5.9326576634e+01   6.1397868909e+01    0.1212411     0.102849 -69.72 0.0007043043    1.775    0.437
       184 -10.1794    246.2804    247.5397   8.4288690757e+01  -1.0708806487e+01    0.2087434    0.0930448  35.80  0.001145961    2.061    0.515
       185  -9.4773     48.4627     10.4993   7.2112718074e+01   6.7945111398e+01    0.1225426   0.09916948   1.88  0.000292953    1.059    0.056
       186 -10.1081    173.3218    243.6530   9.7075622874e+01   1.8588821215e-01     0.118227   0.09107873  60.66 0.0007049494    1.738    0.425
