#   1 NUMBER                 Running object number                                     
#   2 MAG_AUTO               Kron-like elliptical aperture magnitude                    [mag]
#   3 X_IMAGE                Object position along x                                    [pixel]
#   4 Y_IMAGE                Object position along y                                    [pixel]
#   5 X_WORLD                Barycenter position along world x axis                     [deg]
#   6 Y_WORLD                Barycenter position along world y axis                     [deg]
#   7 A_WORLD                Profile RMS along major axis (world units)                 [deg]
#   8 B_WORLD                Profile RMS along minor axis (world units)                 [deg]
#   9 THETA_WORLD            Position angle (CCW/world-x)                               [deg]
#  10 FWHM_WORLD             FWHM assuming a gaussian core                              [deg]
#  11 ELONGATION             A_IMAGE/B_IMAGE                                           
#  12 ELLIPTICITY            1 - B_IMAGE/A_IMAGE                                       
         1 -10.2374    242.0012     17.1192   2.3987304898e+01   2.5369393514e+01    0.3123128    0.1557256 -57.89  0.001899156    1.636    0.389
         2  -9.5011    243.4683      7.8934   2.2267100738e+01   2.6126484102e+01    0.1713884    0.1341419  79.87  0.001319376    1.359    0.264
         3  -7.7056    237.3523      5.3017   2.2202847414e+01   2.7549172276e+01   0.09602879   0.07748792  59.00 0.0007038882    1.701    0.412
         4  -7.5882    143.2131      2.5292   3.0343061622e+01   4.7804029165e+01    0.1678507   0.09106043  59.68 0.0002300062    1.525    0.344
         5  -8.3107    186.0140    246.4137   7.8158238738e+01  -4.2004514150e+00    0.1907581    0.1581671 -20.99 0.0004428461    1.187    0.157
         6  -7.9038    167.9806    250.4924   8.2586666180e+01  -2.3912929244e+00    0.1989612    0.1126925  28.64 0.0004822461    1.555    0.357
         7  -8.9212    160.1149    237.8195   8.2331970020e+01   1.0091497301e+00    0.2771589    0.2144716 -28.42 0.0004503597    1.327    0.246
         8  -8.0866    248.6663    245.3282   6.5969579095e+01  -1.1675671904e+01   0.09639657   0.09174103 -16.80 0.0007051814    1.720    0.418
         9  -7.4619    170.2382    239.1711   8.0338622519e+01  -7.2422685952e-01     0.175712    0.1434844  39.11 0.0004721305    1.344    0.256
        10  -7.7316    188.8842    236.1304   7.5884092648e+01  -2.8504574771e+00    0.1806719     0.161182   8.35 0.0003184299    1.155    0.134
        11  -7.6675     79.5372    235.0202   1.0035879656e+02   1.3490913603e+01     0.184241    0.1292451 -66.09  0.000488728    1.517    0.341
        12  -7.2839     48.0357    235.0316   1.0745291284e+02   1.7551791293e+01     0.151139     0.129376  68.45 0.0003127887    1.017    0.017
        13 -10.2073    127.4500    229.8129   8.8518308012e+01   7.5521878740e+00    0.2692921    0.2533524 -38.28 0.0006022641    1.149    0.130
        14  -8.7446     78.9555    221.9111   9.8962998204e+01   1.6500514195e+01    0.2077266    0.1886983 -76.67 0.0002836332    1.135    0.119
        15  -6.7823    102.6718    218.3504   9.2756674029e+01   1.3849297896e+01     0.150945    0.1037588  65.17 0.0007048393    1.764    0.433
        16  -7.1208     38.2036    218.0318   1.0815230763e+02   2.2556464750e+01    0.1623198   0.09501491 -74.01 0.0008322869    1.622    0.383
        17  -8.6424    150.9877    216.8868   8.0971072456e+01   6.5249102812e+00    0.2141344    0.1959665 -23.76 0.0003287629    1.104    0.094
        18  -7.6357    136.4499    212.9158   8.3726729972e+01   9.7145917858e+00    0.2081663    0.1430531 -52.52 0.0006222225    1.550    0.355
        19  -9.3505     11.2085    203.3301   1.1313946517e+02   2.8753064468e+01    0.2235443    0.2137736 -52.49 0.0006891391    1.301    0.232
        20  -7.6969     78.5129    198.1407   9.5959194721e+01   2.2227397534e+01    0.2038967    0.1379798 -61.53 0.0004861867    1.467    0.318
        21  -7.4584     59.4845    197.4268   1.0077696066e+02   2.4985307247e+01     0.137083     0.130243  88.31 0.0002287395    1.056    0.053
        22  -7.8046     84.1010    195.1923   9.4076134639e+01   2.2144079596e+01    0.2163187    0.1898146 -22.51 0.0004000824    1.314    0.239
        23  -8.7015     14.7131    187.9891   1.1108147304e+02   3.2167546611e+01    0.1905022    0.1865078  68.00 0.0003519592    1.212    0.175
        24  -8.0976    246.2447    184.0238   5.5542109556e+01  -1.7262135964e+00    0.1773791    0.1335979 -32.63            0    1.087    0.080
        25  -7.4189    111.7582    183.0501   8.4748942386e+01   2.0760819031e+01    0.2029234    0.1884143 -54.67  0.001073644    1.086    0.079
        26  -9.6376    227.4890    180.0161   5.8003538058e+01   1.6446183173e+00    0.3151224    0.1845757  37.03  0.001109751    1.931    0.482
        27 -11.2395    247.5028    168.4522   5.2395650410e+01   7.9216335637e-01    0.9248619    0.5928509 -34.99  0.005274506    1.278    0.217
        28  -9.5419    160.7796    164.5776   6.8611767437e+01   1.6240662620e+01    0.2865185    0.2393876 -42.10 0.0003393588    1.156    0.135
        29  -7.5198    166.1466    161.8640   6.6776321861e+01   1.5830180466e+01    0.2112618    0.1752986 -11.01 0.0005584027    1.311    0.237
        30 -11.3963    248.2640    154.5591   4.9613384738e+01   3.1124436713e+00     1.429984    0.3898391 -41.81  0.005298562    2.983    0.665
        31 -11.0158    245.9948    135.1889   4.6182635466e+01   6.8662615757e+00    0.8803646    0.5311112 -64.38  0.002536211    2.308    0.567
        32 -12.1889    249.0302    126.8494   4.4122757081e+01   7.8327980864e+00     2.052095    0.5287248 -41.80  0.007428122    3.160    0.684
        33  -7.1596    111.5969    132.7750   7.4284574066e+01   3.3252542190e+01    0.2067753    0.1514416 -60.56 0.0002767115    1.470    0.320
        34  -8.7473     55.5067    122.0220   8.9641145335e+01   4.4965854858e+01    0.2430268    0.2133247  22.45  0.001330385    1.218    0.179
        35  -8.7258    104.0067    157.9574   8.2046659397e+01   2.8364788061e+01    0.2247167    0.2197613 -53.48            0    1.015    0.014
        36  -8.9090    169.7487    118.8361   5.6104971881e+01   2.4401255664e+01    0.3913638    0.2508607 -32.37  0.001219587    1.706    0.414
        37  -8.0792     90.0670    114.8322   7.6425398533e+01   4.1509934635e+01    0.3479818    0.2075851  24.35  0.001424411    1.942    0.485
        38  -7.4162    238.2831    109.3059   4.2121899131e+01   1.2673653271e+01    0.1202617   0.09746236 -17.46  0.000332176    1.560    0.359
        39 -10.2080     74.9214    105.7114   7.9102911873e+01   4.6187726623e+01    0.2619548    0.2386144 -34.77 0.0002589876    1.042    0.040
        40  -7.3787     86.5535    106.2258   7.5329040118e+01   4.4135583556e+01     0.204773    0.1379052 -37.14 0.0005084174    1.494    0.331
        41  -7.9024    147.1077    105.1271   5.7800949183e+01   3.2122540794e+01    0.2193629    0.2032738  -4.56  0.001154428    1.178    0.151
        42  -7.8890     97.3410    140.3043   8.0228864520e+01   3.3986398826e+01    0.1632742    0.1214333 -16.40 0.0003743785    1.679    0.405
        43  -7.0258     40.5783     93.5073   8.8546031845e+01   5.3625591865e+01    0.1394499    0.1218824 -35.56 6.055312e-05    1.021    0.021
        44  -7.5357    124.9327     88.3477   5.8825247736e+01   4.0336146497e+01     0.207048    0.1800124  39.98 0.0005919689    1.130    0.115
        45  -8.2441    246.0052     72.8131   3.3986542758e+01   1.7198008102e+01    0.1603064    0.1334325 -68.68  0.001090025    1.073    0.068
        46  -7.3740    149.3453     63.9336   4.6219542390e+01   3.9104268469e+01    0.1831063    0.1751322 -68.06 0.0003982818    1.072    0.067
        47  -7.4338    111.0181     64.3259   5.5435665544e+01   4.7678659059e+01    0.1966643    0.1689835  49.67 0.0003395511    1.127    0.113
        48  -8.2790    142.2894     61.8280   4.7098923174e+01   4.1059143299e+01    0.2427024    0.1855482  48.75 0.0003338294    1.261    0.207
        49  -8.2507    216.0436     56.7733   3.4103474243e+01   2.5374285951e+01    0.1988122    0.1581419 -56.46 0.0003969569    1.124    0.110
        50  -7.9284    114.7593     58.5711   5.2631582386e+01   4.7787131902e+01    0.1965723    0.1309068  60.53 0.0008139941    1.591    0.372
        51  -8.9023    111.8938     52.2757   5.1391585496e+01   4.9366959992e+01    0.2688913    0.1990893 -23.36  0.001426791    1.519    0.342
        52  -7.9325    228.2785     52.6468   3.1902657912e+01   2.3498882543e+01    0.1799518    0.1410366  66.29 0.0003862322    1.402    0.287
        53  -7.4130    179.8591     38.8710   3.4630844461e+01   3.5641772097e+01    0.1699727     0.130755 -73.30 0.0003058776    1.240    0.193
        54  -6.9948    201.7819     36.9549   3.1494584321e+01   3.1063728387e+01    0.1453111   0.09507757 -40.79 0.0002214093    1.552    0.356
        55  -7.1826    107.5400     36.5359   4.7383055777e+01   5.2448767353e+01    0.1337727    0.1174647  44.22   0.00012876    1.001    0.001
        56  -6.9939    125.6419     35.6552   4.2934534832e+01   4.8501318640e+01    0.1432425   0.09252623  31.81 0.0007034037    1.835    0.455
        57  -6.9135    112.3374     33.3254   4.5163000727e+01   5.1778324151e+01    0.1403601   0.09132844  30.54 0.0007051436    1.722    0.419
        58  -7.0501     82.3851     33.6834   5.3450227294e+01   5.8064951037e+01    0.1257232    0.1036296  87.09 0.0007017914    1.829    0.453
        59  -7.5344    237.3278     25.6694   2.5884956341e+01   2.5248187154e+01    0.1241848   0.06548475 -66.90 0.0003911012    1.711    0.416
        60  -8.2605    158.1736     24.1109   3.3972171890e+01   4.2327421143e+01    0.1771223     0.152945  57.34 0.0003445753    1.191    0.160
        61 -10.3648    191.2838    247.7817   7.7291342405e+01  -5.1374362677e+00    0.2356688    0.2041215  -8.15 0.0003995188    1.140    0.123
        62  -7.5029    106.8269     12.3837   3.9492719664e+01   5.5163823145e+01    0.1896539    0.0898265  51.35 0.0007494588    1.705    0.413
        63  -9.3947    157.7870    246.8124   8.4225441331e+01  -2.9131338960e-01    0.3542344    0.2398582  40.71  0.001215625    1.486    0.327
        64  -9.1636    159.1469    242.3100   8.3243791574e+01   3.2529129046e-01    0.2426303    0.2067853   1.76 0.0003066492    1.085    0.078
