#   1 NUMBER                 Running object number                                     
#   2 MAG_AUTO               Kron-like elliptical aperture magnitude                    [mag]
#   3 X_IMAGE                Object position along x                                    [pixel]
#   4 Y_IMAGE                Object position along y                                    [pixel]
#   5 X_WORLD                Barycenter position along world x axis                     [deg]
#   6 Y_WORLD                Barycenter position along world y axis                     [deg]
#   7 A_WORLD                Profile RMS along major axis (world units)                 [deg]
#   8 B_WORLD                Profile RMS along minor axis (world units)                 [deg]
#   9 THETA_WORLD            Position angle (CCW/world-x)                               [deg]
#  10 FWHM_WORLD             FWHM assuming a gaussian core                              [deg]
#  11 ELONGATION             A_IMAGE/B_IMAGE                                           
#  12 ELLIPTICITY            1 - B_IMAGE/A_IMAGE                                       
         1 -12.4276     60.4625     45.2544   9.7030547932e+01   5.8591404648e+01    0.8736905    0.4285315 -32.68  0.004412408    1.968    0.492
         2 -13.3672    118.4949     40.5941   7.8841608807e+01   4.8494593194e+01     1.043078    0.7881485  47.80  0.003612393    1.190    0.159
         3 -12.3841    106.0056     20.1214   7.5203132605e+01   5.3324828601e+01    0.2828618    0.2262078  -3.67 0.0004081978    1.342    0.255
         4 -12.3555    240.7059     31.3905   5.8262882328e+01   2.2636065346e+01    0.5414803    0.3117556 -20.41  0.002744131    2.926    0.658
         5 -12.8601    248.4000     21.9998   5.5840207639e+01   2.2228399210e+01    0.6802626    0.4234141  85.62  0.004352286    1.468    0.319
         6 -13.1496    239.0164     15.0918   5.5339225874e+01   2.4860365420e+01    0.7714147    0.4658954  69.56  0.003123599    1.544    0.352
         7 -12.5949    244.0002      6.1583   5.3329080706e+01   2.4833968707e+01    0.9725661    0.4583659 -85.55   0.00527751    2.200    0.546
         8 -10.8524      5.2175      9.4523   1.0537998807e+02   6.9873432277e+01    0.4845831    0.2718321 -27.51  0.003350904    1.443    0.307
         9 -11.9035     27.3687     28.0179   1.0313824527e+02   6.5285092199e+01    0.5084832    0.4519893  24.29  0.003809189    1.598    0.374
        10 -12.7188     15.5318     13.3928   1.0235420830e+02   6.8416837360e+01    0.8860743    0.4224777 -20.02   0.00301421    1.988    0.497
        11 -11.9808     22.4322     11.3454   9.8518463523e+01   6.7922280412e+01     0.515838    0.3194465  11.97  0.002707782    1.351    0.260
        12 -10.6000    152.7803     26.2573   6.7954676653e+01   4.2503867065e+01    0.5673584    0.3227266  -1.52  0.002563779    2.995    0.666
        13 -11.2171    178.6734     21.1308   6.2867201041e+01   3.7164883949e+01    0.4764507    0.2750496  39.40  0.001856841    2.165    0.538
        14 -10.4266     87.0220      7.4405   7.5420917049e+01   5.8212992653e+01    0.5379917    0.2654013  51.14  0.002933087    1.683    0.406
        15 -11.3287     91.0187     20.0218   7.8812198961e+01   5.6328785234e+01    0.4935319    0.3481675 -20.88  0.002187588    1.533    0.348
        16 -11.4925     85.9308     14.1434   7.8072585579e+01   5.7852193038e+01    0.4419065    0.2750774 -14.66  0.001902739    1.741    0.426
        17 -10.8582     47.0250     18.5285   9.1818267077e+01   6.3962060726e+01    0.3264861    0.2118431  -9.15  0.001621797    1.413    0.292
        18 -12.1849     48.1591     13.0801   8.9228842862e+01   6.4375467613e+01    0.7503504    0.2577752  39.76  0.003620944    2.534    0.605
        19 -11.8493     35.9618     17.9053   9.5727875019e+01   6.5536761503e+01    0.5206704    0.2458899 -20.18  0.002129589    2.158    0.537
        20 -11.8918     68.4590     17.9410   8.4422575638e+01   6.0649341870e+01    0.4905732    0.3367799  44.15   0.00260511    1.409    0.290
        21 -11.0716    165.1636     17.3602   6.3764335448e+01   4.0593855490e+01     0.347343    0.2090539  38.27   0.00116653    1.948    0.487
        22 -10.1721    146.3496     16.0271   6.6229138175e+01   4.4959136447e+01    0.4439263     0.154324  55.18            0    2.271    0.560
        23 -11.5765    133.5052     15.1911   6.8152791359e+01   4.7891671707e+01    0.8018116    0.2138962  58.34  0.003128974    2.858    0.650
        24 -10.5563    126.5368     11.4963   6.8321926812e+01   4.9738632336e+01    0.4603083    0.1833831  66.26  0.002005535    2.504    0.601
        25 -11.6668     19.9588     22.7680   1.0420484952e+02   6.6773231141e+01    0.5231644     0.238378 -35.58  0.002988139    1.946    0.486
        26 -12.1490    104.7697     12.8127   7.3093414462e+01   5.4238464990e+01    0.4145522    0.3762901 -23.88  0.002283187    1.312    0.238
        27 -11.5300    211.8394      9.7848   5.6690274316e+01   3.1032640905e+01    0.3733002    0.2957385   0.97  0.001352919    1.976    0.494
        28  -9.8116     31.8900     12.0688   9.4935771012e+01   6.6712197002e+01     0.154024    0.1292503   6.60 0.0005310395    1.308    0.235
        29 -11.1902    192.3267      7.7478   5.8200561699e+01   3.5448842893e+01    0.3800246    0.2835935  12.23  0.001825796    2.064    0.515
        30 -10.2604    169.0770      9.9906   6.1419380785e+01   4.0404390706e+01      0.28448    0.1643425  51.40  0.001590068    1.624    0.384
        31 -10.6168     66.2976     10.1384   8.2111803290e+01   6.1757894907e+01    0.3212375    0.1615397  44.52  0.001805343    1.695    0.410
        32 -10.1677     63.1668      6.3523   8.1594623467e+01   6.2620097425e+01    0.2453162      0.19102  22.59  0.001400343    1.022    0.022
        33  -9.3830    184.6649      6.8658   5.8832559416e+01   3.7217396824e+01    0.1557595   0.09865967 -45.80 0.0004214684    1.676    0.403
        34 -10.7566     77.4057      5.3318   7.7137477077e+01   6.0189185539e+01    0.4053112    0.2042125 -25.41  0.002283351    2.186    0.543
        35  -9.9014      1.2722      7.2102   1.0629294615e+02   7.0487182732e+01    0.1259851   0.07456417 -33.38 0.0002848344    1.542    0.351
        36 -10.4725    176.5165      5.4981   5.9443156600e+01   3.9146098352e+01    0.3313301    0.1717716  88.50 0.0009122187    2.177    0.541
        37  -9.5844    162.8271      5.9096   6.1221562596e+01   4.2161828433e+01     0.176031    0.1419314  52.55 0.0004819271    1.201    0.167
        38 -10.7694     42.0299      3.6583   8.7529270832e+01   6.6177756693e+01    0.3947691    0.1919204   8.39  0.002026905    2.574    0.611
        39 -10.7855    227.9831      2.9930   5.3973042816e+01   2.8352822357e+01    0.2805077    0.2031508 -48.35  0.001970993    1.384    0.278
        40 -11.1603    218.8500      3.1428   5.4747537204e+01   3.0216791753e+01    0.3200659    0.2268958  74.39 0.0009919736    1.239    0.193
        41 -10.2514    223.5010      1.5409   5.4056876618e+01   2.9411800291e+01    0.2267443    0.1458871 -79.94  0.001149051    1.363    0.266
        42 -10.2184     71.1672      4.0238   7.8356106190e+01   6.1421841226e+01    0.3773557    0.1733026  27.66  0.001925366    2.212    0.548
        43 -11.2288    205.3142      2.3661   5.5782627410e+01   3.3143674823e+01    0.3596677    0.1928639  89.47 0.0009784043    1.807    0.447
        44 -10.2360    142.0731      3.3689   6.3452178587e+01   4.6986797241e+01    0.2874049    0.1832808  68.73   0.00170654    1.356    0.262
        45 -11.8019    133.7475      2.5848   6.4520938872e+01   4.8877347392e+01    0.3449734    0.1921036  56.76 0.0007955216    1.432    0.302
        46  -9.6867     55.1120      3.8778   8.3140498000e+01   6.4157810670e+01    0.1560542    0.1333023  23.16 0.0003810824    1.243    0.195
        47 -11.1502      3.6722      1.7385   1.0277548576e+02   7.0926199707e+01    0.4371687    0.1419281  23.28  0.002235054    3.092    0.677
        48 -10.8474    105.1311      1.6842   6.9398367714e+01   5.5037570400e+01     0.339711    0.1688719  67.19  0.001004171    2.106    0.525
        49  -9.7966     12.6680      1.9755   9.8716344241e+01   7.0020140137e+01    0.1768925    0.1072727  12.26 0.0005217424    1.331    0.249
        50  -9.4168     81.9924      1.3664   7.4504412763e+01   5.9635911151e+01    0.1730017   0.09254274  52.01 0.0004507582    1.571    0.363
        51  -9.5473    123.0213      1.0000   6.5840688241e+01   5.1319859272e+01    0.3290676   0.05711612  63.34  0.001030336    4.746    0.789
        52 -10.0678     18.7926    124.2734   1.3129495233e+02   4.7633088857e+01    0.2436291    0.1451554 -56.82 0.0006609834    1.340    0.254
        53 -11.6270    104.6280    121.6144   1.0582493536e+02   3.7074403948e+01    0.4798825    0.4153303 -40.15  0.001404857    1.108    0.098
        54 -10.4256     45.9779    120.6458   1.2267761989e+02   4.5899892019e+01    0.2832574    0.2095992 -81.81  0.001290289    1.658    0.397
        55  -9.0947     40.6452    122.2435   1.2457764374e+02   4.6106551324e+01    0.1229359   0.09812413  65.74 0.0004477704    1.588    0.370
        56  -9.5340      4.1196    121.1217   1.3495221005e+02   4.9381482192e+01    0.1616313      0.12749 -86.93  0.000958353    1.335    0.251
        57  -9.5517    221.3060    120.6629   7.9597449760e+01   1.3004319059e+01    0.1438413    0.1057018 -68.91 0.0004974862    1.674    0.403
        58  -9.0510     72.6876    119.6839   1.1452052471e+02   4.2719023783e+01    0.1469001    0.1030534 -22.80 0.0002895598    1.641    0.391
        59 -10.5175     34.1380    119.1780   1.2591401519e+02   4.7453637019e+01    0.2069334    0.1557382 -39.21  0.001225801    1.226    0.184
        60  -9.3801    113.8092    116.1336   1.0193108197e+02   3.6550262998e+01    0.2061195    0.1714933 -12.89 0.0003636517    1.304    0.233
        61 -12.0390     35.4608     92.5137   1.1978320938e+02   5.3155117394e+01     1.518377     1.046142 -77.83  0.006859659    2.127    0.530
        62 -11.8953     19.0225    105.7449   1.2793157912e+02   5.1753110080e+01    0.5409928     0.202543 -46.99  0.001015079    2.131    0.531
        63 -12.1528      7.7264     88.9957   1.2824119588e+02   5.6120578947e+01    0.4296204    0.3674411 -33.49  0.003086841    1.131    0.115
        64 -11.4796     43.8535     85.6004   1.1523453178e+02   5.3694781074e+01    0.4770389    0.3068642   7.12  0.002047434    1.782    0.439
        65 -11.0499     37.6113     85.9552   1.1744382819e+02   5.4289429936e+01    0.3125496    0.2728154  35.62  0.001343819    1.416    0.294
        66 -11.5113     28.5023    113.0221   1.2642288675e+02   4.9358740279e+01    0.4685722    0.3067243  -1.49  0.002586475    1.919    0.479
        67 -12.2543     20.3056     95.6055   1.2547632820e+02   5.3840887076e+01    0.5880415    0.4636598  -3.59  0.002726731    1.386    0.279
        68 -12.7697     17.8927     90.3857   1.2515114571e+02   5.5126003275e+01    0.5394152    0.3081728 -29.22 0.0005851364    1.736    0.424
        69 -11.2661     21.4461    114.3661   1.2880527859e+02   4.9655293258e+01    0.3161453    0.2291902  -5.29  0.001005125    1.645    0.392
        70 -12.6340     25.3936    107.6392   1.2632275846e+02   5.0821997804e+01      1.06666    0.5268301 -36.67  0.005223285    2.021    0.505
        71  -9.4135     87.5190    114.4794   1.0891082426e+02   4.1591565564e+01    0.2672061    0.1282824  47.57  0.001033835    2.549    0.608
        72 -10.6693     67.0321    112.0280   1.1441527248e+02   4.5223450655e+01    0.4699354    0.2664304 -58.31  0.002149911    1.838    0.456
        73  -9.7026      7.4721    114.5104   1.3296640705e+02   5.0638813517e+01    0.1960332    0.1148352  26.01  0.001134304    2.059    0.514
        74 -11.3955      2.4630    112.1023   1.3404382833e+02   5.1482655348e+01    0.3651598    0.2025559 -60.15 0.0007733916    1.379    0.275
        75 -11.9402      4.0189    105.1827   1.3244317232e+02   5.2902172162e+01    0.3958558    0.3332168 -53.49  0.001424026    1.078    0.072
        76 -10.2575    107.9547    112.3387   1.0255342417e+02   3.8464772267e+01    0.2754957    0.2194894 -76.08  0.001334798    1.683    0.406
        77 -10.5583    170.4593    110.0891   8.6676945995e+01   2.5830894184e+01    0.3927442    0.3508867 -23.49  0.002095972    1.158    0.137
        78 -10.3154    175.2177    107.9159   8.5145243803e+01   2.5188431257e+01    0.3809755    0.2370728 -33.96  0.001558802    1.669    0.401
        79  -9.8396     48.9463    112.1675   1.1998226077e+02   4.7475981025e+01    0.1947927    0.1818832 -86.53  0.001217399    1.264    0.209
        80 -11.1402     79.3448    108.4830   1.0982275254e+02   4.4193754026e+01    0.5580438    0.3884524  38.68  0.002834395    1.543    0.352
        81 -12.1523      9.2346     96.0391   1.2914946977e+02   5.4542328495e+01    0.5762349    0.4783191  83.55  0.003877524    1.560    0.359
        82 -10.9677    102.5631    109.1823   1.0323549557e+02   4.0125984579e+01    0.4433914    0.2423836  36.63  0.001893329    1.894    0.472
        83  -9.7378    103.2673    106.0105   1.0219953292e+02   4.0659405421e+01    0.3053953    0.2205863  48.75 0.0003844822    1.532    0.347
        84  -9.7706    157.9709    105.9462   8.8334746855e+01   2.9386399680e+01    0.2280989    0.2220033   1.96 0.0006083304    1.031    0.030
        85 -10.1691    143.3066    106.1646   9.1780722533e+01   3.2550179049e+01    0.2828803    0.2260696  52.60 0.0007262352    1.299    0.230
        86 -10.8422     85.9883    104.4579   1.0679889546e+02   4.3991868002e+01    0.3467778    0.2686087 -17.89  0.001156876    1.368    0.269
        87  -9.8141     90.4820    104.5142   1.0548476894e+02   4.3230807526e+01    0.2796768    0.1424895  32.55  0.001161334    2.116    0.527
        88 -11.6431     47.7658    103.5353   1.1839247237e+02   4.9506087139e+01    0.3916222     0.241944 -23.63  0.001950096    1.859    0.462
        89 -10.6198     52.4044     96.9871   1.1532342862e+02   5.0360169182e+01    0.4944262     0.194552 -45.97  0.001755836    2.186    0.543
        90 -10.0523     57.5059    102.0697   1.1495408821e+02   4.8649921399e+01    0.3065451     0.121045 -51.71   0.00099507    2.284    0.562
        91 -10.2011     57.6685     97.9741   1.1387948182e+02   4.9497865170e+01    0.2317085    0.2177285 -83.72  0.000938873    1.338    0.253
        92 -10.3662    145.6550    100.3158   8.9678665030e+01   3.3168119074e+01    0.3952188    0.2552257 -23.42  0.001001602    1.896    0.473
        93  -9.1025    120.4867    101.4899   9.6274066858e+01   3.8250488870e+01    0.1498892    0.1401651  -1.61 2.387379e-05    1.041    0.039
        94 -11.7306     68.0141     96.7718   1.1028141312e+02   4.8350974694e+01    0.5656328    0.3250167 -41.46 0.0008434355    1.589    0.371
        95  -9.3495    210.6721     98.3295   7.6324201428e+01   1.9143678038e+01    0.1466899    0.1047843 -72.01 0.0007051146    1.709    0.415
        96 -11.2455     89.4012     90.0129   1.0183145037e+02   4.6342269354e+01    0.4380554    0.2800253 -31.30  0.001000191    1.577    0.366
        97 -10.4805     77.9918     96.9799   1.0722892274e+02   4.6821761960e+01    0.2255181    0.1860031 -35.94            0    1.123    0.110
        98 -11.2498     80.7872     92.5685   1.0516234399e+02   4.7271653959e+01    0.6544746    0.4517639  47.59  0.003299895    1.717    0.418
        99 -10.9069     66.6965     81.8568   1.0658924005e+02   5.1511415539e+01    0.4074848    0.2926639  20.40  0.002243549    1.429    0.300
       100 -11.1883     79.6265     82.7334   1.0272136069e+02   4.9365637833e+01    0.5721391    0.5055555 -83.51  0.002792876    1.617    0.382
       101 -11.3977     73.6510     77.4540   1.0305107246e+02   5.1294391393e+01    0.5896502    0.4169641  -6.37  0.003101249    1.567    0.362
       102 -10.2397     43.1461     94.8107   1.1780055156e+02   5.1879168539e+01    0.3545213    0.2324906  28.14  0.001965706    1.688    0.408
       103  -9.6816    137.3984     93.8625   8.9908154757e+01   3.6173069346e+01    0.3058497    0.2157919  12.62 0.0008723252    1.923    0.480
       104 -10.4422    126.2021     93.0652   9.2473273656e+01   3.8700765697e+01    0.3583251    0.2328449  37.74 0.0009152249    1.553    0.356
       105 -11.3860    102.2765     90.3527   9.8169666096e+01   4.3963465391e+01    0.4790396    0.4120869 -17.65 0.0007152337    1.131    0.116
       106 -10.5290    117.4860     92.9805   9.4723771849e+01   4.0505155236e+01    0.2929175    0.1982942  26.11  0.001066888    1.660    0.398
       107 -10.0802     93.4973    103.9951   1.0446460361e+02   4.2822352308e+01    0.3280262    0.2132987 -65.39  0.001417776    2.214    0.548
       108 -10.4565     49.9003     90.3159   1.1444223616e+02   5.2043755680e+01     0.451297    0.3274952  -5.60  0.002544322    1.488    0.328
       109  -9.6691     67.1937     88.1247   1.0820147495e+02   5.0219994007e+01    0.2178046    0.1645231 -19.73 0.0007523024    1.298    0.229
       110 -10.4358    113.4135     83.3787   9.3079301419e+01   4.3096056960e+01    0.5784824    0.3010408 -25.70  0.002272916    2.483    0.597
       111 -11.4098    107.7850     79.4736   9.3470169574e+01   4.4905197452e+01     0.672816    0.4871577  78.29  0.002550087    2.411    0.585
       112 -11.1199    143.3029     84.1873   8.5860842384e+01   3.6617643190e+01    0.3154038    0.2780161 -23.42 0.0009147246    1.173    0.147
       113 -10.1376    119.5906     85.3795   9.2016820801e+01   4.1483104908e+01    0.3566069    0.1287281  41.34  0.001233614    2.816    0.645
       114 -10.0499    165.7287     83.5635   8.0868626852e+01   3.1678293837e+01    0.2927175     0.236457 -58.48  0.001530463    1.346    0.257
       115  -9.8135     60.0224     83.3745   1.0921158496e+02   5.2149448375e+01    0.2566009    0.1685802 -24.27  0.001336181    1.540    0.351
       116  -9.9043    127.5752     83.2189   8.9358878699e+01   4.0200147849e+01    0.2421009    0.1704545  39.49 0.0008662508    1.391    0.281
       117 -11.4604     52.8029     76.4006   1.0965015714e+02   5.4428554249e+01    0.4792188     0.318532 -48.14   0.00261761    1.499    0.333
       118 -10.5731     52.5028     73.0131   1.0876420639e+02   5.5099561840e+01    0.4356242    0.2465844 -42.57  0.000945766    1.600    0.375
       119 -11.2479    246.3239     78.8236   6.7043580346e+01   1.4990592456e+01    0.2703603   0.08910473 -45.08  0.001078141    2.629    0.620
       120 -10.6637     93.6043     76.3652   9.6584227721e+01   4.8127933917e+01    0.4620184    0.2982565  26.27   0.00157559    1.637    0.389
       121 -11.8112     85.8490     73.8288   9.8139558591e+01   4.9944515997e+01    0.6458794    0.6034344  51.06  0.003925261    1.319    0.242
       122 -11.5115     78.5982     67.2791   9.8358895649e+01   5.2294514600e+01    0.9999022      0.47588 -50.37  0.004124431    2.813    0.645
       123 -11.7808     74.5113     53.0084   9.5027212554e+01   5.5243999342e+01    0.5849987    0.3695537 -22.38  0.002298029    1.594    0.373
       124 -10.6985     72.7935     47.2566   9.3629683434e+01   5.6367838931e+01    0.9771716    0.6869377  59.28  0.004937796    2.235    0.553
       125  -9.9505     20.6604     71.5945   1.1969520171e+02   5.8683964100e+01    0.2004845    0.1517757  12.82  0.001320205    1.433    0.302
       126 -11.9577     14.1305     74.4028   1.2276230004e+02   5.8641539141e+01    0.3995633     0.302752 -31.88  0.001854738    1.077    0.072
       127 -11.5112      1.9146     71.3712   1.2643602838e+02   6.0024501080e+01    0.4374779    0.1572364 -57.15  0.001929272    2.206    0.547
       128 -11.4591     14.4697     66.5771   1.2065240648e+02   6.0122532840e+01    0.3072053    0.2217709 -53.21 0.0005997764    1.361    0.265
       129 -12.1268      5.8134     62.4647   1.2282614515e+02   6.1491063826e+01     0.621208    0.3040245 -32.22  0.003242349    1.756    0.430
       130 -11.0225     12.2710     62.3439   1.2034931965e+02   6.1074763401e+01    0.2945078    0.1745264   3.88  0.001168254    1.819    0.450
       131  -9.4482      5.2369     78.4492   1.2685098114e+02   5.8429121806e+01    0.1312214     0.109254  22.73 0.0004351316    1.495    0.331
       132  -9.5480      1.3336     78.2545   1.2816756822e+02   5.8695236749e+01    0.1559206   0.09229884 -62.99 0.0004466954    1.566    0.361
       133  -8.8611    134.2977     77.2828   8.6032738628e+01   3.9771636109e+01    0.1434533    0.1091061  16.14 0.0002419189    1.544    0.352
       134  -9.7821    126.8673     76.8657   8.7715022704e+01   4.1443043915e+01    0.2092035    0.1849757  14.84 0.0002723986    1.134    0.119
       135  -9.5501     33.0035     77.4577   1.1682842025e+02   5.6441230133e+01    0.1668349    0.1179989  16.51  0.000367146    1.512    0.338
       136 -11.3985    186.8470     70.7847   7.3738714698e+01   2.8919065661e+01    0.6030813    0.4761698 -24.30  0.003148364    1.449    0.310
       137 -10.8175     58.6290     78.3799   1.0825066015e+02   5.3295923389e+01     0.264637    0.2264487  10.08  0.000901342    1.160    0.138
       138  -9.6550     60.9639     72.9368   1.0586076612e+02   5.3988227883e+01      0.17517    0.1630966  71.67 0.0003810936    1.551    0.355
       139 -11.5553     40.7773     70.0201   1.1199887387e+02   5.7047113733e+01    0.5065567    0.2498344 -49.51  0.002121707    1.942    0.485
       140 -11.5137     33.0948     72.0644   1.1533021946e+02   5.7470370702e+01    0.5557188    0.2459214  29.53  0.002730766    2.445    0.591
       141 -11.4689    122.6825     68.4100   8.6281193805e+01   4.3711897688e+01    0.5448192    0.3448786  47.21  0.002572635    1.507    0.336
       142  -9.5956    161.4494     70.2998   7.8223843915e+01   3.4801687374e+01    0.2367489    0.1709235  80.91 0.0007784805    1.720    0.419
       143  -9.6890    172.4126     67.7952   7.5500818091e+01   3.2672565805e+01    0.2694536    0.1290152 -39.90  0.001143985    2.116    0.527
       144 -11.2349    219.6484     66.4869   6.7834558782e+01   2.2305975570e+01    0.5253798    0.2498447  65.66  0.002387387    2.218    0.549
       145  -8.9768    208.6551     67.7329   6.9632664949e+01   2.4502437189e+01    0.1284714    0.1020584  32.83 0.0006985111    1.609    0.378
       146  -9.8130     21.4635     65.2400   1.1768817282e+02   5.9817709134e+01    0.2420256    0.1939022  59.89  0.001467402    2.105    0.525
       147  -9.1563     25.5718     65.4336   1.1621555570e+02   5.9423102334e+01    0.1920078    0.1174145 -24.55  0.000857213    1.501    0.334
       148  -9.7075     66.4488     74.2474   1.0442937604e+02   5.2966833691e+01    0.3162619    0.1917878 -62.15  0.001374281    2.859    0.650
       149 -10.0976     98.2862     62.7800   9.1040651910e+01   4.9516492341e+01     0.308937     0.217276  10.07  0.001580006    1.627    0.385
       150 -10.0995     84.8121     62.4008   9.4883748636e+01   5.2038950952e+01    0.3017281    0.2041495  -0.23  0.001528594    1.739    0.425
       151 -11.1729     91.5440     62.4156   9.2872051362e+01   5.0832370170e+01    0.4305493    0.3406405 -22.02  0.001455145    1.236    0.191
       152 -10.7425     87.6242     56.9516   9.2277447773e+01   5.2387583998e+01    0.4282772    0.2017288 -34.29  0.001444409    2.150    0.535
       153 -10.3830     91.2326     57.5973   9.1420486196e+01   5.1633331218e+01    0.3285196    0.2119343  36.47  0.001090158    1.457    0.314
       154 -11.0839     58.1113     61.6087   1.0331747748e+02   5.6370298193e+01     0.389778    0.3032398 -44.47  0.001624581    1.451    0.311
       155  -9.6273    199.1735    244.3997   1.0879113261e+02  -5.2409265969e+00    0.1833502    0.1084524  42.75 0.0009545059    1.745    0.427
       156 -11.1539     60.8239     36.2385   9.3697708031e+01   5.9777283548e+01    0.3144331    0.1894082 -25.07 0.0009575583    1.602    0.376
       157 -10.6405     27.1082     47.6008   1.1017925309e+02   6.2380979622e+01    0.4697987     0.220608  -0.10  0.001351395    3.481    0.713
       158 -12.5320     49.5144     60.2673   1.0590300159e+02   5.7741247254e+01    0.5699996    0.4714759  41.78  0.001647034    1.592    0.372
       159 -11.4233     33.9264     43.5729   1.0616104259e+02   6.2302887404e+01    0.4850514     0.357539  -5.16  0.001884017    1.143    0.125
       160 -10.5491     33.8119     57.8983   1.1090111121e+02   5.9968517470e+01    0.3616745    0.1891872 -16.27  0.001753816    2.342    0.573
       161 -11.5059     40.1394     55.7474   1.0786235207e+02   5.9639372606e+01    0.3978492    0.3583399 -25.78  0.002503789    1.285    0.222
       162 -10.5332     26.2907     60.0605   1.1438951450e+02   6.0332351214e+01    0.3626316    0.2341551  13.48  0.002052699    1.594    0.373
       163 -11.7671     26.3867     54.4133   1.1263792985e+02   6.1311542520e+01    0.8179623    0.3657382  12.97  0.003888731    2.782    0.641
       164 -11.4418     46.2912     48.9854   1.0335490094e+02   5.9989685160e+01    0.4386341    0.2985238  12.54  0.001534254    1.396    0.284
       165 -11.3238     42.9139     44.6546   1.0311529749e+02   6.1079718832e+01    0.4597399    0.2589807  17.70  0.001162464    1.817    0.450
       166 -10.2808    159.5725     61.5886   7.6260773656e+01   3.6539613275e+01    0.3811544    0.1980763  40.77  0.001629645    2.134    0.531
       167  -9.9463    113.5055     61.0793   8.6395098875e+01   4.6758584733e+01    0.3780258    0.2005533 -35.47  0.001729998    1.961    0.490
       168 -10.8537    122.3437     58.8773   8.3518183346e+01   4.5232208838e+01    0.3581306    0.3219375  44.64  0.001378886    1.088    0.081
       169 -10.3833    117.6636     56.1172   8.3825379339e+01   4.6620626620e+01    0.3619909    0.2777828  59.46  0.001393573    1.419    0.295
       170 -10.6785    136.5084     56.1880   7.9467680501e+01   4.2529424620e+01    0.4494165    0.2943711  -1.01  0.001549215    2.216    0.549
       171 -10.6087    157.3329     55.0016   7.4913484080e+01   3.7985126623e+01    0.4860235    0.2577333 -40.02  0.002243523    1.985    0.496
       172 -10.4817    155.2106     50.0021   7.3956606632e+01   3.9145188730e+01    0.2970138    0.2208547 -22.27 0.0005130846    1.542    0.352
       173  -8.7335      1.6787     56.2887   1.2279656863e+02   6.2883106242e+01   0.09302493   0.08855257  79.20 0.0005125502    1.602    0.376
       174 -10.0276     67.0144     54.6024   9.8005415068e+01   5.6197767644e+01    0.2234024    0.1759819 -44.36 0.0008061824    1.533    0.348
       175 -11.6658    246.8484     51.8995   6.1624361802e+01   1.8772842490e+01    0.4926452    0.2673668 -79.51  0.002436886    2.349    0.574
       176 -11.3981    240.3685     50.2303   6.1972046634e+01   2.0289933977e+01    0.2980514     0.264921 -33.38 0.0009298098    1.362    0.266
       177  -9.8294    145.3310     52.1832   7.6473869424e+01   4.1101849343e+01    0.4414598    0.2487737  43.58  0.002082504    1.729    0.422
       178 -10.9323    146.0038     46.5336   7.4752657121e+01   4.1691308316e+01    0.4397682    0.2348803 -28.78  0.001950662    2.097    0.523
       179 -11.5311    124.8427     27.4878   7.3438369255e+01   4.8603118625e+01    0.4888247    0.3797636  48.31  0.001668729    1.110    0.099
       180 -11.1671    113.5741     49.6948   8.2854176039e+01   4.8365771745e+01    0.5154994    0.2624678  35.97  0.002010778    2.037    0.509
       181 -11.5480    127.6238    242.5612   1.2302657963e+02   6.5882661953e+00     0.423072    0.2411591 -60.81  0.002111505    2.110    0.526
       182  -9.9912     51.7309     48.0361   1.0105884160e+02   5.9421764255e+01    0.2152464    0.1699179 -20.26 0.0008114178    1.136    0.120
       183 -10.9480     21.0347     47.1223   1.1242453002e+02   6.3034521567e+01    0.3496962    0.2179618 -31.72  0.001841091    1.290    0.225
       184 -10.0407      2.3322     49.0740   1.2054660040e+02   6.4128158147e+01    0.1939415    0.1486225   5.82  0.001173001    1.392    0.282
       185 -10.1104    201.8720     47.8849   6.6050672353e+01   2.8793705262e+01    0.2278683    0.1591496 -27.65  0.001256496    1.682    0.406
       186  -9.7987     13.9104     46.3473   1.1503905097e+02   6.3769815822e+01     0.305795    0.1145371 -28.23  0.001350895    2.979    0.664
       187 -11.0651    233.9090     45.0474   6.1620418816e+01   2.2293287051e+01    0.2635238    0.1982718  71.85  0.001615598    1.296    0.228
       188 -10.1974    101.2471     43.8995   8.4167236968e+01   5.1632687764e+01    0.2942787    0.2319216 -77.07  0.001584502    2.092    0.522
       189 -11.0516     93.9399     41.3461   8.5301214092e+01   5.3382683256e+01    0.4980351    0.2394374  43.76  0.002099005    1.865    0.464
       190 -10.1084      3.9568     44.1851   1.1844081654e+02   6.4861705074e+01    0.2949015    0.1449008  -5.70  0.001032365    2.291    0.564
       191  -9.9688    189.0014     42.2671   6.6505673037e+01   3.2406803469e+01    0.1966243    0.1734439 -54.43 0.0004331442    1.165    0.142
       192 -11.3029    156.2267     41.7764   7.1546505935e+01   3.9959057184e+01    0.3206448    0.2705576  43.03 0.0009128152    1.170    0.146
       193  -9.7244    139.7382     43.6508   7.5174693214e+01   4.3466615480e+01    0.2721431    0.1104198  53.91  0.001131975    2.159    0.537
       194  -9.7709     26.4463     43.5048   1.0907359181e+02   6.3103662661e+01    0.1199866   0.09071074 -16.14 6.710893e-05    1.022    0.022
       195 -10.6580     69.3267     32.4516   8.9518660124e+01   5.8894964758e+01    0.5462582    0.2168095  44.55  0.002253763    2.405    0.584
       196  -9.4423     86.8805     31.7382   8.3997220725e+01   5.5877321267e+01    0.2676644    0.2094827 -64.86  0.001519072    2.165    0.538
       197 -11.0674     80.8602     39.7136   8.8517530543e+01   5.6005902586e+01    0.5096933    0.2972104  41.39  0.002735194    1.579    0.367
       198 -10.9012     77.7384     34.4320   8.7611033951e+01   5.7216453482e+01    0.4092509     0.233068  35.22  0.001155187    1.570    0.363
       199 -10.6111     81.7155     31.2647   8.5310134871e+01   5.6881831678e+01    0.3893279    0.2403477 -49.03  0.001983813    2.536    0.606
       200 -10.2379     18.3558     41.5890   1.1168687072e+02   6.4171055562e+01    0.2886753    0.1755939  -2.73  0.001789176    1.598    0.374
       201 -10.7659    231.5329     39.4665   6.0746625290e+01   2.3502245404e+01    0.2464557    0.1776972 -70.90 0.0006446459    1.271    0.213
       202 -10.9059     22.9153     36.4803   1.0806491620e+02   6.4535723661e+01    0.3446973    0.3037551 -59.46  0.002433709    1.929    0.482
       203 -10.5385    176.7184     36.9598   6.6988904567e+01   3.5849342201e+01    0.2982363    0.2318123 -28.79  0.001770835    1.469    0.319
       204 -10.3010    174.4382     48.4634   7.0218792273e+01   3.4934916445e+01    0.3198365    0.2186656  82.25   0.00108094    1.635    0.388
       205  -9.3987    206.8121     36.8604   6.2957423865e+01   2.9103145738e+01     0.176474    0.1312591 -72.46   0.00105554    1.309    0.236
       206  -9.8992    153.3982     36.1842   7.0530907785e+01   4.1270591902e+01    0.2303304    0.1653627  62.67 0.0006217448    1.264    0.209
       207 -10.7518      4.3195     35.8233   1.1564129500e+02   6.6205770736e+01    0.2604833    0.1631863  17.67 0.0009072245    1.679    0.404
       208 -11.9634    105.5827     33.0809   7.9530630202e+01   5.2066265408e+01    0.7666135    0.4021267  14.30  0.001496875    3.258    0.693
       209 -12.4618    114.1035     24.6137   7.4830539969e+01   5.1198062654e+01    0.7201282    0.3207051  61.78  0.001654566    2.350    0.575
       210 -10.6570    144.2088    235.8076   1.1858754277e+02   5.1359582274e+00     0.314476   0.08250565  43.27   0.00103351    3.544    0.718
       211  -9.3711     15.1549    233.8615   1.4415705521e+02   2.3528265081e+01    0.1452664    0.1201176 -70.52  0.001074753    1.347    0.257
       212 -10.5693    247.1809    230.8358   9.7380709613e+01  -1.0206638799e+01    0.1781048    0.1230375  -1.89 0.0009054147    1.330    0.248
       213  -9.0547     23.4923    231.5377   1.4247167921e+02   2.3131797058e+01    0.1160827   0.09055165  78.85 0.0008093459    1.020    0.020
       214  -9.6403    234.5062    222.5189   9.8161362726e+01  -7.1709230178e+00    0.1298021    0.1057094  -3.73 4.840884e-05    1.020    0.020
       215 -11.1706    159.9199     30.1527   6.7834386803e+01   4.0463777370e+01    0.2965275    0.2458265 -32.54 0.0004374523    1.358    0.264
       216 -11.1581    164.0117     27.4884   6.6505795238e+01   3.9820616512e+01    0.2408412    0.1965079  66.63 0.0004008653    1.077    0.072
       217 -10.4358    137.7083     32.1577   7.2268379028e+01   4.5267392503e+01    0.4562197    0.2309733  68.48  0.002049915    2.219    0.549
       218 -10.5686    147.4382     31.7803   7.0371569964e+01   4.3121263462e+01    0.2164338    0.1755164  68.82 0.0003147018    1.171    0.146
       219 -11.5960     56.1649     30.9653   9.3360225134e+01   6.1158008135e+01    0.4584592    0.2487128  29.31 0.0002789165    1.690    0.408
       220 -11.7002     47.3150     30.6405   9.6399762954e+01   6.2470387195e+01    0.6084703    0.2568675  31.25  0.002365442    2.259    0.557
       221  -8.8358    182.6682     31.7238   6.4868686467e+01   3.5107373076e+01    0.1266074   0.08963073  42.07 0.0003151261    1.599    0.375
       222  -9.8658    152.6873    207.1672   1.1198404936e+02   9.2414767769e+00    0.2185025    0.1848962 -71.97  0.001180394    1.433    0.302
       223  -9.9515      7.4832     25.0968   1.1051326390e+02   6.7589938997e+01    0.1710911    0.1229274 -10.20 0.0008249009    1.074    0.069
       224 -10.0436      4.5263    204.8420   1.4394657742e+02   3.0580398413e+01     0.223366   0.08492624 -68.50  0.001131773    2.114    0.527
       225  -9.4978    233.7456    197.0171   9.3449866589e+01  -2.9280913942e+00     0.177936    0.1035596 -36.71 0.0008910117    1.578    0.366
       226  -9.7216    169.1249    191.8156   1.0545575200e+02   9.3531643084e+00    0.2028664    0.1661139   5.80 0.0005172169    1.322    0.244
       227 -10.9650     15.0008     22.5003   1.0623173960e+02   6.7294269662e+01    0.2462687    0.1682511  15.80 0.0006407737    1.381    0.276
       228 -11.4322    199.2387     27.9909   6.1898102613e+01   3.1819660134e+01    0.3478348    0.3111809  18.28 0.0005266018    1.485    0.327
       229 -10.5467    176.2303     30.0492   6.5357697517e+01   3.6758163585e+01    0.2460661    0.1582955  45.51  0.001336592    1.640    0.390
       230 -10.0244     98.4820     28.4817   7.9784123804e+01   5.4001761290e+01    0.3860714    0.2406568 -44.34   0.00206094    2.111    0.526
       231  -9.3536    221.5137     29.4405   5.9748566382e+01   2.6826317338e+01    0.1226841   0.09990831 -80.22 0.0001306365    1.051    0.049
       232 -10.1820    189.4087     27.7377   6.3043559843e+01   3.4038549536e+01    0.2843834    0.2110585   9.93  0.001465364    2.053    0.513
       233 -10.3094    230.6451     26.9015   5.8335313604e+01   2.5218494457e+01    0.1687194    0.1343682 -63.41  0.001105026    1.124    0.110
       234 -12.2427      4.7558    184.6031   1.4218880471e+02   3.4982527658e+01     0.591085    0.4100041  77.78  0.003851302    1.334    0.250
       235 -11.3208    183.4014     24.8520   6.3137549636e+01   3.5706003274e+01    0.4938475    0.2160586  52.57  0.002318028    2.170    0.539
       236 -10.1606    214.5076     24.5139   5.9456273097e+01   2.8887384069e+01    0.2596444    0.2170525 -60.70  0.001369622    1.159    0.138
       237  -9.4758    215.6771     20.6896   5.8546525294e+01   2.9064689760e+01    0.1859879     0.134147  60.57  0.000793933    1.407    0.289
       238  -9.5226     51.6880    173.3270   1.3017455603e+02   3.2872890105e+01    0.1375379   0.09487528  74.82 0.0003756374    1.665    0.399
       239  -9.8678     59.9791     24.4914   8.9623709652e+01   6.1343557834e+01    0.1943335    0.1511302 -28.74 0.0005280876    1.471    0.320
       240  -9.5448    143.0196     24.7545   6.9195381671e+01   4.4861000880e+01    0.1725661   0.09631275  61.00 0.0007320636    1.567    0.362
       241  -9.8823    133.1172     23.2974   7.0571415316e+01   4.7213521355e+01    0.2372233    0.1548749 -58.53  0.001244566    2.099    0.524
       242 -10.0422     39.5271    173.5066   1.3313487040e+02   3.4224138308e+01    0.1298143    0.1117195 -76.29 1.555947e-05    1.004    0.004
       243 -10.2326     81.5286     19.0353   8.1006011541e+01   5.8218608207e+01    0.3509069    0.1397448  45.51 0.0008584633    2.085    0.520
       244 -11.8629      9.8371    165.8170   1.3919444550e+02   3.8806189840e+01     0.570909    0.2899924 -58.75  0.002688157    1.647    0.393
       245 -10.9933     13.8939    158.2490   1.3736800370e+02   4.0213146252e+01    0.4068591    0.1564221 -69.75  0.001857411    2.160    0.537
       246  -9.6645    198.0570    167.7028   9.4313736382e+01   8.6849198905e+00    0.2021309    0.1846877  10.93 0.0005830503    1.087    0.080
       247 -10.1154     18.6931    165.2445   1.3705670252e+02   3.8193598538e+01    0.2226218    0.2007667 -62.78  0.001225086    1.159    0.137
       248 -10.2365     38.7584     21.9468   9.6259856612e+01   6.4698029663e+01     0.295859     0.150126 -23.94  0.001596276    1.863    0.463
       249  -9.1897     80.6711    165.6702   1.2167596853e+02   3.0791051746e+01    0.1463238    0.1074324 -26.49 0.0007051441    1.712    0.416
       250  -9.4393    223.7477     22.3754   5.8097396084e+01   2.7172242542e+01    0.1598547   0.09607789  64.42 0.0005262893    1.572    0.364
       251 -10.2298    138.2059     21.6076   6.9156731452e+01   4.6250414338e+01    0.3083022     0.138025  53.44  0.001260862    1.844    0.458
       252  -9.6256    141.5106     19.5055   6.7988453859e+01   4.5715877794e+01     0.249819     0.135385  53.84  0.001305076    1.547    0.354
       253 -10.4975     66.0419     22.0497   8.6724392361e+01   6.0630668490e+01     0.214652    0.1693597  25.95 0.0004038039    1.100    0.091
       254 -10.3253     73.6841     19.3720   8.3379770859e+01   5.9599911845e+01    0.1901462    0.1790735 -31.61 0.0008935129    1.456    0.313
       255  -9.9987    205.0859    163.3408   9.1971278352e+01   8.1876880121e+00    0.2657765    0.2029049 -42.40 0.0006687951    1.267    0.211
       256  -9.4225    156.9167     24.9955   6.6954247967e+01   4.1696874349e+01     0.230228    0.1418688  62.55 0.0004067041    1.411    0.291
       257 -10.0520      6.7442     30.7894   1.1288428509e+02   6.6808169246e+01    0.2683594    0.1266873   5.45  0.001487695    2.348    0.574
       258 -10.0698    221.0540     18.9940   5.7678264011e+01   2.8113712004e+01    0.1719944    0.1436075 -84.29            0    1.025    0.025
       259  -9.2832    211.4379     18.9881   5.8621751343e+01   3.0157047833e+01    0.1578802    0.1105988 -42.31 0.0003223017    1.483    0.326
       260  -9.4727    188.5967    164.1830   9.5502218867e+01   1.1215912731e+01    0.2138749    0.1347093 -31.22 0.0005776992    1.660    0.397
       261  -9.6568    191.7846     16.7487   6.0254127355e+01   3.4683648981e+01    0.2129583    0.1508846  -3.87  0.001224841    2.164    0.538
       262 -11.0735    105.1583    153.7010   1.1300266395e+02   2.9663673127e+01      0.59184    0.4713243 -58.54  0.003015382    1.255    0.203
       263 -10.2469      8.7940    156.1343   1.3834675421e+02   4.1101855143e+01    0.2513975    0.1286487 -55.11   0.00136234    1.670    0.401
       264 -10.3217     31.3425    154.0920   1.3248454621e+02   3.9621854570e+01    0.3732399     0.226346  53.68  0.001964814    1.945    0.486
       265 -10.4613     30.7573    149.5354   1.3197253028e+02   4.0746451971e+01    0.2567953    0.1659598 -84.44 0.0007386907    1.656    0.396
       266 -10.1943    186.2946     15.0348   6.0501592057e+01   3.6075437628e+01    0.2215331    0.1502393  63.27 0.0004109417    1.301    0.231
       267 -12.0576     23.1518    149.0627   1.3386999801e+02   4.1556169377e+01    0.5972365    0.3015592 -32.64  0.002191866    2.802    0.643
       268 -11.2406     16.0051    148.0290   1.3555481706e+02   4.2399489396e+01    0.3656043    0.2080909  40.01   0.00132739    2.016    0.504
       269  -9.9618     71.4947    151.4927   1.2149131953e+02   3.5485831965e+01     0.274042    0.1830307  37.98  0.001369989    1.602    0.376
       270 -10.9165     47.1689    146.5091   1.2714560041e+02   3.9747241481e+01    0.4922063    0.2789406 -61.25  0.002440973    1.547    0.353
       271  -9.6835     47.9119    151.7023   1.2781204806e+02   3.8434332535e+01    0.2618007    0.1951627 -36.69  0.001008142    1.450    0.310
       272 -10.2107     44.5553    150.7737   1.2854721070e+02   3.9031442550e+01    0.4509518    0.2657896  73.39  0.002001158    2.579    0.612
       273 -12.0085      3.7480    147.4886   1.3855807990e+02   4.3444144480e+01    0.6379018    0.3652553 -64.49   0.00356675    1.361    0.265
       274 -11.7714      3.5177    142.0183   1.3795092807e+02   4.4704045325e+01    0.3711512    0.3199057 -11.23  0.002240669    1.460    0.315
       275 -11.9997      3.9078    136.6765   1.3717216913e+02   4.5890622412e+01    0.2447243    0.1852717 -59.10 0.0003227894    1.095    0.086
       276 -10.8952     62.6472    149.9701   1.2358544408e+02   3.7043734491e+01    0.4291501    0.4003834  61.44  0.002606946    1.160    0.138
       277  -9.6729    108.1298    146.2705   1.1063023898e+02   3.0865825266e+01    0.2101601    0.1921267  40.19  0.001127074    1.132    0.117
       278  -9.5376     85.5836    149.8217   1.1738740247e+02   3.3800570277e+01    0.2080578    0.1355842 -66.50 0.0007426783    1.670    0.401
       279 -10.6693     33.0942    144.2785   1.3055792518e+02   4.1752117973e+01    0.2572735    0.2250101 -66.94 0.0007610897    1.037    0.036
       280  -9.7555    133.6823    140.5360   1.0273845680e+02   2.7328936062e+01    0.3286932    0.2298958 -21.83  0.001430817    1.787    0.440
       281 -11.5986     11.3487    137.7601   1.3537008744e+02   4.5121569208e+01    0.3425442    0.1937529 -73.48  0.001875815    1.563    0.360
       282 -12.1287     22.4381    135.5635   1.3207703414e+02   4.4748861683e+01    0.5687141    0.3558158  48.66  0.001774822    1.942    0.485
       283 -10.3835     47.0672    134.5262   1.2505430337e+02   4.2575065210e+01     0.345676    0.2852803 -54.15   0.00206406    1.055    0.052
       284 -10.8690     71.9835    133.9760   1.1787991018e+02   3.9543507376e+01    0.4613686    0.2885223  -2.55  0.001926773    2.632    0.620
       285 -11.8262     29.8512    132.9594   1.2961509060e+02   4.4695890584e+01    0.6412575    0.3906958 -82.41 0.0005105331    1.941    0.485
       286 -10.3532     92.9475    129.4928   1.1096851813e+02   3.7342120390e+01     0.355178    0.3193201  88.03  0.001932642    1.306    0.234
       287 -10.8272     10.5402    127.2126   1.3407254616e+02   4.7582362073e+01    0.4352066    0.1350743 -51.76  0.001657696    2.439    0.590
       288 -10.3462     82.0281    134.9807   1.1526292268e+02   3.7827676087e+01    0.3050854    0.1992937  12.39   0.00111431    2.077    0.519
       289  -9.6644      2.1534    125.7381   1.3616228633e+02   4.8471012197e+01    0.2470405    0.1222271 -80.87  0.001218487    2.177    0.541
       290 -10.4473     82.1217    124.5795   1.1290326959e+02   4.0200719782e+01    0.5472304     0.283296  19.99  0.002092467    2.818    0.645
       291 -11.0998     55.5933    123.2878   1.2037259034e+02   4.4178026760e+01    0.5632166    0.3318321  20.94  0.002089723    2.025    0.506
