#   1 NUMBER                 Running object number                                     
#   2 MAG_AUTO               Kron-like elliptical aperture magnitude                    [mag]
#   3 X_IMAGE                Object position along x                                    [pixel]
#   4 Y_IMAGE                Object position along y                                    [pixel]
#   5 X_WORLD                Barycenter position along world x axis                     [deg]
#   6 Y_WORLD                Barycenter position along world y axis                     [deg]
#   7 A_WORLD                Profile RMS along major axis (world units)                 [deg]
#   8 B_WORLD                Profile RMS along minor axis (world units)                 [deg]
#   9 THETA_WORLD            Position angle (CCW/world-x)                               [deg]
#  10 FWHM_WORLD             FWHM assuming a gaussian core                              [deg]
#  11 ELONGATION             A_IMAGE/B_IMAGE                                           
#  12 ELLIPTICITY            1 - B_IMAGE/A_IMAGE                                       
         1 -10.1240     24.7560     65.5681   1.1729881734e+02   5.9438696456e+01     1.331758    0.1388721 -52.35  0.004214763    5.070    0.803
         2 -10.8083     39.3316     29.7351   1.0188678712e+02   6.5612124370e+01    0.7593737    0.3219848 -51.25  0.003673264    1.969    0.492
         3 -11.8562     43.9695     20.9097   9.6406630988e+01   6.6735234907e+01     1.110257    0.8758616 -75.84  0.006420239    1.964    0.491
         4  -9.5543     66.4163     30.8446   9.1528217347e+01   6.1902031330e+01     0.660448    0.4607728 -33.73  0.003736843    1.265    0.209
         5 -11.3471     84.5907      3.7874   7.2757591173e+01   6.2786243349e+01    0.9096441    0.4896544  46.39  0.003333291    1.833    0.454
         6 -10.5203     71.4589      5.6420   7.8092983548e+01   6.5029049447e+01    0.5911287    0.4262145  28.44  0.002959305    1.384    0.277
         7  -9.0264     12.1399     33.9116   1.1492800591e+02   6.7052734017e+01    0.4190427    0.1521496 -57.92  0.001661055    1.950    0.487
         8 -10.5958     99.6576      6.7690   6.9794457426e+01   5.9304627439e+01     1.209654    0.6729403 -53.16  0.005007117    2.874    0.652
         9 -11.8040    128.3765     17.8480   6.7496831022e+01   5.1368807303e+01     1.745029    0.9155642  49.01  0.007567757    1.809    0.447
        10 -12.2879    131.4693      3.4161   6.0890887714e+01   5.2183012207e+01      2.84205    0.8261206  66.88  0.008768322    3.870    0.742
        11 -11.0066    109.8341      4.3503   6.6042009460e+01   5.7297586472e+01    0.9859834    0.4900942  58.48  0.004355554    2.017    0.504
        12 -10.8471    120.9294      3.8610   6.3262739784e+01   5.4732101725e+01    0.9390735    0.6699998 -70.06  0.004547981    1.984    0.496
        13 -12.8946    156.1156     20.6547   6.2954693123e+01   4.4014571698e+01     2.147486    0.7893654  51.15  0.007675935    2.482    0.597
        14 -13.4814    169.0037     16.9478   5.9428714861e+01   4.1031419693e+01     3.179339     1.627571  72.44   0.01108396    2.139    0.533
        15 -12.8084    170.2195      6.4286   5.5549070028e+01   4.1780296066e+01     2.275035     0.927892  70.82  0.008386546    2.505    0.601
        16 -11.5641     77.8106     15.1290   8.0516125641e+01   6.2571332793e+01     1.620006    0.6483862 -26.06  0.006360082    2.720    0.632
        17  -9.8005    111.5199     16.0150   7.0800768155e+01   5.5555750159e+01    0.6647004    0.2789769  39.01    0.0025058    2.646    0.622
        18  -9.8704    116.6211     17.8101   7.0272290303e+01   5.4161434785e+01    0.6440354    0.2854651 -31.19  0.002621413    2.151    0.535
        19  -9.5509     94.4283     17.8408   7.6393120570e+01   5.8989939079e+01     0.427099    0.4003164 -51.89  0.001834501    1.288    0.223
        20  -9.9082     64.0697     16.5217   8.6187119849e+01   6.4686195314e+01    0.3796357    0.3001953 -67.09  0.002152042    1.971    0.493
        21  -8.8371     20.4304     13.7715   1.0436800301e+02   7.0431963957e+01    0.4790371    0.1651013 -40.34  0.002227212    2.474    0.596
        22  -9.6888     69.2376     13.6313   8.2866787673e+01   6.4288648960e+01      0.38845    0.3184006  62.18  0.002314304    1.716    0.417
        23 -10.0880    244.0043      8.5397   4.8128877824e+01   2.2434516967e+01    0.2484991    0.2307843 -15.72   0.00140618    1.118    0.106
        24 -10.3093     60.7119      3.2603   8.0879008583e+01   6.7178950385e+01    0.5792959      0.41857 -13.47   0.00349434    1.233    0.189
        25  -9.1811     55.0887      7.4616   8.5345099159e+01   6.7458534546e+01    0.3879109    0.3008053  81.99  0.002087946    2.704    0.630
        26  -8.1593     49.4874      7.0102   8.7488797698e+01   6.8339134867e+01    0.2036564     0.149661  -7.42 0.0008654298    1.315    0.239
        27  -8.8626     51.9437      2.2698   8.3935247708e+01   6.8682425267e+01     0.265397    0.1967433 -10.00  0.001660343    1.206    0.171
        28  -9.2048     39.6067      7.4221   9.2145979522e+01   6.9573211389e+01    0.3292559     0.262416  17.85  0.001701843    1.360    0.265
        29 -10.2305    250.3466      4.6851   4.6620074859e+01   2.1295693858e+01    0.6433198    0.2279308 -17.25  0.002398215    3.118    0.679
        30  -9.8054    244.6572      2.3481   4.6451123842e+01   2.2861752824e+01    0.5011289    0.1860006  65.90  0.002064368    2.591    0.614
        31 -10.0655    200.6065      7.9485   5.2181602438e+01   3.3508882802e+01     0.314988    0.2512951  78.20  0.001087724    1.253    0.202
        32 -10.2817    192.4498      5.5434   5.2366128367e+01   3.5905263757e+01    0.3719513    0.2840988 -35.12  0.001542948    1.314    0.239
        33  -8.9546    230.0228      6.2708   4.8722674317e+01   2.6075887202e+01    0.1943196    0.1812947  87.53  0.001169314    1.075    0.070
        34  -9.4797    222.4815      5.4992   4.9196352583e+01   2.8050627347e+01    0.3577772    0.1663739 -33.13  0.001225582    1.964    0.491
        35  -9.6102    213.3248      4.7011   4.9848155367e+01   3.0479034213e+01    0.2748937    0.2396587  66.90  0.001563723    1.138    0.121
        36  -9.5500    203.6271      3.7414   5.0553692309e+01   3.3104809004e+01    0.2742489    0.1913487  69.67  0.001056908    1.393    0.282
        37  -8.5597     26.1441      2.3839   9.6221026481e+01   7.1910702442e+01    0.2168163    0.1651559 -43.75  0.001488121    1.288    0.224
        38  -8.4975     40.0601      1.6283   8.8916027566e+01   7.0424969061e+01    0.2316233    0.1550986  28.31  0.001223086    1.634    0.388
        39  -8.7128     16.9449      1.7517   1.0082172675e+02   7.2879864681e+01    0.1692458    0.1574058  34.07   0.00114396    1.522    0.343
        40 -10.2497      3.4793     40.3878   1.2009540179e+02   6.6183128624e+01    0.4095845    0.3427416  67.94  0.002656075    1.465    0.317
        41 -10.3659     50.5837     35.4260   9.9370452910e+01   6.3218993778e+01    0.7034655    0.4905892 -72.18  0.003802061    2.048    0.512
        42 -10.4477    160.6309    240.6334   1.1158778017e+02   8.4304331389e+00    0.2849433    0.1631375  46.08  0.001930796    1.292    0.226
        43  -9.4967    207.7725    225.1934   1.0211321399e+02   2.9255369961e+00    0.2550943   0.06967629  47.88   0.00102556    3.551    0.718
        44 -10.5684     82.0894     39.4342   8.9372450694e+01   5.7820331775e+01    0.6794817    0.3067259 -48.96  0.002804864    2.358    0.576
        45  -8.8643     69.0790     36.5728   9.2804761178e+01   6.0454148947e+01    0.3161819     0.249792 -38.00  0.001593047    1.115    0.103
        46  -8.9180    206.9604    221.0000   1.0165865579e+02   3.4931215452e+00     0.192354   0.05016111  43.76 0.0008046348    2.958    0.662
        47  -8.7326    238.7255    202.9792   9.3838621606e+01   3.1156055015e-01    0.1634827    0.1276093  15.82  0.001166847    1.085    0.078
        48 -11.7803     10.9542    141.5298   1.3008487483e+02   4.4247173739e+01    0.6110792    0.3950539  86.25  0.004393696    1.195    0.163
        49 -12.6649    240.8410    132.7105   8.0062223758e+01   7.9880379703e+00     1.510987     1.085776  42.47  0.005407525    1.359    0.264
        50  -8.4340     27.2768     35.1878   1.0883429228e+02   6.5682157932e+01    0.1905852    0.1509969 -21.88  0.001296886    1.346    0.257
        51 -10.1390     86.3845     31.5358   8.4827292354e+01   5.8436842910e+01    0.3005618    0.2768525 -24.52   0.00139015    1.079    0.073
        52 -10.3179    225.0875     28.6436   5.5524051738e+01   2.5003938984e+01    0.5240519    0.4597635  15.73  0.001732766    1.223    0.182
        53  -9.0421     96.9669     28.9860   8.0432259650e+01   5.6822812060e+01    0.5824307    0.2583072 -23.79  0.002167669    2.786    0.641
        54 -10.1164     14.7241    132.2448   1.2856427455e+02   4.5837108545e+01    0.2982277     0.147625  89.26   0.00176453    1.744    0.427
        55 -10.6405     11.9301    127.0607   1.2878578689e+02   4.7122169827e+01     0.447284    0.1747593 -56.49  0.002364169    2.616    0.618
        56  -9.2361     40.9246    142.1093   1.2356180156e+02   4.1424550273e+01    0.2812238    0.1253883  47.11  0.001536969    2.097    0.523
        57  -9.9248     11.3653    118.4649   1.2819703181e+02   4.8956892451e+01    0.3571505    0.1564443  69.30  0.001871825    2.450    0.592
        58  -9.4081     14.1561    114.4242   1.2714433955e+02   4.9605155237e+01     0.288193   0.09532924 -60.48  0.001423962    2.526    0.604
        59  -7.4704    192.6893    116.7078   8.4821794974e+01   2.0369876473e+01    0.1476403    0.1075323  17.19 0.0002232505    1.587    0.370
        60  -9.1992     21.1970    108.5679   1.2474874740e+02   5.0317821708e+01    0.2934698    0.1287364 -77.37   0.00155266    1.913    0.477
        61  -9.1985     17.0615    104.2208   1.2535102318e+02   5.1572572388e+01    0.2739754    0.2121934  43.65  0.001989522    1.478    0.323
        62  -9.0377    104.7255     25.8412   7.6838549174e+01   5.5700438988e+01    0.4118642    0.2911266  62.82  0.002057147    1.723    0.420
        63  -9.3725     30.1085    101.5983   1.2151081768e+02   5.1090613265e+01    0.2449493    0.1418281 -65.36   0.00146094    1.421    0.296
        64  -9.0581      1.7749     87.7695   1.2776887314e+02   5.6110229232e+01    0.4402956    0.1259528 -79.20  0.001912908    2.993    0.666
        65 -11.7586     43.0279     81.7446   1.1450762791e+02   5.4257890247e+01    0.9463102    0.7487559 -26.29  0.005715422    1.581    0.368
        66  -9.0226    117.3383     14.3263   6.8614121265e+01   5.4427008917e+01    0.3375359    0.1936764  38.94  0.001084092    1.754    0.430
        67  -8.1778     19.2320     22.3684   1.0819763806e+02   6.8887618134e+01    0.2044285    0.1643498 -74.27  0.001413506    1.474    0.322
        68  -8.8500     19.8417     88.5807   1.2264373477e+02   5.4767111112e+01    0.2051654     0.116342 -77.65  0.001066283    1.463    0.317
        69  -7.9724    100.7746     83.0482   9.7568246377e+01   4.5944591398e+01    0.1929547    0.1101544 -49.65 0.0008752391    1.660    0.397
        70 -10.9059    184.8933    246.8845   1.0846571828e+02   4.1504200913e+00    0.5648377    0.1605061  45.49  0.002724778    2.650    0.623
        71 -10.7221     11.6319     71.1806   1.2265219370e+02   5.9125860650e+01    0.4592738     0.331917 -66.47  0.002572546    1.086    0.079
        72  -8.5732    125.4342     29.0240   7.2663993481e+01   5.0598817275e+01    0.3098539    0.2325441  -6.31  0.001538612    1.419    0.295
        73  -8.0214    138.2199     78.3644   8.6407877269e+01   3.9371956989e+01    0.2155841    0.1413536  60.04  0.000952218    1.731    0.422
        74  -7.9644     27.3214     70.3402   1.1735393742e+02   5.8192981981e+01    0.1249466   0.07368692 -43.60 0.0007050387    1.719    0.418
        75  -8.6456     83.0077     68.8572   9.8852777973e+01   5.1892483971e+01    0.2600724    0.1861736 -50.26  0.001388935    1.273    0.215
        76  -9.3524     73.7451     68.5162   1.0166046834e+02   5.3373952031e+01    0.3558823     0.299699  32.03  0.001778256    1.343    0.255
        77  -9.3731    227.6415     79.1297   6.9153515861e+01   1.8002082702e+01    0.4905218     0.303043   4.07  0.002085422    2.157    0.536
        78  -8.7404     11.7687     62.2312   1.2115343016e+02   6.1060928795e+01    0.1883826    0.1380368  -5.49  0.001027792    1.848    0.459
        79  -9.3997     48.6049     61.7164   1.0818493757e+02   5.8044689509e+01    0.3770933    0.2832325  17.79  0.002300553    1.661    0.398
        80  -8.4928     33.0803     68.8050   1.1512989874e+02   5.8043236218e+01    0.2549404    0.1470932 -16.13  0.001246685    3.006    0.667
        81  -8.3036     92.4868     57.1469   9.2305924530e+01   5.2664441892e+01    0.2814544    0.1916826  61.86  0.001354552    1.964    0.491
        82  -9.5568    182.7850     39.5223   6.4774701184e+01   3.4648159711e+01    0.3455203    0.2274088  14.35  0.001464891    1.953    0.488
        83  -9.2430    198.9630     55.1343   6.6940944659e+01   2.8341199976e+01    0.3134156    0.2416745  30.44 0.0004828244    1.387    0.279
        84  -9.0587     65.8489     52.9708   9.9672950131e+01   5.7728435493e+01    0.5439041    0.2255032 -61.66  0.001886016    3.778    0.735
        85 -10.5367      4.0034     76.1358   1.2576168674e+02   5.8495381105e+01    0.5372945    0.4429957  65.16  0.003896371    1.339    0.253
        86 -10.4883     15.4233     75.2916   1.2206324831e+02   5.7985205893e+01    0.8050788    0.2881036 -42.94  0.003541802    3.442    0.709
        87  -9.9330     83.9834     47.9197   9.1856170943e+01   5.5920778157e+01    0.6693548     0.402666  52.39  0.003203811    2.050    0.512
        88  -9.1505    111.1513     45.6827   8.2784873586e+01   5.1159125450e+01    0.2620648    0.1900576 -43.95 0.0008904111    1.385    0.278
        89  -8.8457     97.1622     43.1969   8.5967644250e+01   5.4404078246e+01     0.193635    0.1678008 -61.62  0.001035769    1.352    0.260
