#   1 NUMBER                 Running object number                                     
#   2 MAG_AUTO               Kron-like elliptical aperture magnitude                    [mag]
#   3 X_IMAGE                Object position along x                                    [pixel]
#   4 Y_IMAGE                Object position along y                                    [pixel]
#   5 X_WORLD                Barycenter position along world x axis                     [deg]
#   6 Y_WORLD                Barycenter position along world y axis                     [deg]
#   7 A_WORLD                Profile RMS along major axis (world units)                 [deg]
#   8 B_WORLD                Profile RMS along minor axis (world units)                 [deg]
#   9 THETA_WORLD            Position angle (CCW/world-x)                               [deg]
#  10 FWHM_WORLD             FWHM assuming a gaussian core                              [deg]
#  11 ELONGATION             A_IMAGE/B_IMAGE                                           
#  12 ELLIPTICITY            1 - B_IMAGE/A_IMAGE                                       
         1 -14.1181    209.1121     36.8080   4.1037947484e+01   2.8693220259e+01     1.618628     1.328507  -8.91   0.00810759    1.581    0.367
         2 -13.9269    225.9023     20.3860   3.5527368354e+01   2.6946046921e+01     1.002188    0.9008726  46.67  0.002606594    1.422    0.297
         3 -12.0937    247.4993      2.5561   3.0204215168e+01   2.4405169227e+01    0.5077026    0.2529349  85.31  0.002896858    1.916    0.478
         4  -9.4602    197.6432    223.0282   8.5119635652e+01  -9.8276258898e-01    0.1739087    0.1486568 -10.84  0.000517312    1.134    0.118
         5 -10.4183    139.8513    249.7202   1.0077127828e+02   3.5928638875e+00    0.2198348    0.1581922  74.93   0.00124229    2.076    0.518
         6 -12.8767     63.3918    174.8858   1.0792949289e+02   3.0323850610e+01     1.281534    0.6075312 -33.30  0.004040052    5.088    0.803
         7 -13.5461      3.5048    184.3791   1.2288539271e+02   3.4293422640e+01     1.192721    0.5973534  82.83  0.006482468    1.813    0.448
         8 -16.2840     33.3499    183.7913   1.1619847000e+02   3.1708008725e+01     10.63406     4.446492  72.02   0.04003216    3.611    0.723
         9 -13.7440     17.0980    217.4031   1.2228508730e+02   2.5933153462e+01    0.8316544     0.485392  48.73  0.002972479    1.504    0.335
        10 -13.2431     58.5039    242.8620   1.1614211161e+02   1.6223842320e+01    0.4328162    0.2872199  54.82 0.0006175445    1.241    0.194
        11 -11.7816    184.3412    215.8307   8.6550786777e+01   2.2918992388e+00    0.4227011    0.3176222 -64.82  0.002248873    2.088    0.521
        12  -9.4421     92.0320    216.8978   1.0664114198e+02   1.6878016708e+01    0.1921288    0.1731517  70.74  0.001216883    1.053    0.051
        13 -10.1479    109.8296    201.2566   1.0051738461e+02   1.7460096001e+01    0.2309984    0.1823473 -77.77 0.0007275055    1.414    0.293
        14 -11.1878    193.6841    195.8558   8.0988189360e+01   4.2055842398e+00     0.856799    0.4547844 -61.97  0.002673807    5.443    0.816
        15  -9.3122     99.3192    180.9308   9.9871225440e+01   2.3677724497e+01    0.1944557    0.1805905 -64.23 0.0006209019    1.089    0.082
        16 -15.6318      7.8162    240.5836   1.2526701891e+02   2.2221965498e+01      2.33533     1.685106  56.77   0.01775985    1.173    0.147
        17  -9.3507    143.8840    179.1636   8.8736482125e+01   1.6374618227e+01    0.2104933    0.1746645   4.45  0.001081642    1.345    0.257
        18 -10.6541    208.3572    197.1126   7.8289600837e+01   1.5445527265e+00    0.2350034    0.1722122  17.20 0.0007566015    1.305    0.234
        19 -10.9643    110.3185    173.2735   9.5824962654e+01   2.3644080876e+01    0.4627864    0.1884535  39.05  0.001732324    2.380    0.580
        20  -9.0637     72.8659    172.8193   1.0524959058e+02   2.9549363985e+01    0.1801344    0.1473919  75.80 0.0002943701    1.227    0.185
        21  -9.9006    138.5932    171.7760   8.8559837587e+01   1.8952860836e+01    0.2079772    0.1440479 -61.64 0.0008067471    1.672    0.402
        22 -13.1891     58.5672    132.7709   1.0260944663e+02   4.1321371930e+01     3.366868     1.058943 -71.90  0.006546193   10.017    0.900
        23 -14.0748     68.6688    145.2144   1.0192197671e+02   3.6900867544e+01     3.666293     1.785405  68.86  0.004623292    5.579    0.821
        24 -12.5558     83.1188    156.1223   9.9858957934e+01   3.2128405965e+01     0.876595    0.5550556 -32.88   0.00208188    2.062    0.515
        25 -13.5068     63.1337    158.4847   1.0563256064e+02   3.4346941862e+01    0.5269873    0.3120628 -45.82  0.001525224    1.806    0.446
        26  -9.6708    174.8601    149.0872   7.5213777659e+01   1.6748996801e+01    0.2309801    0.2122372 -79.87 0.0007167717    1.311    0.237
        27 -10.4565    134.0000    146.0479   8.4269846534e+01   2.5627565707e+01    0.7840087    0.1780342 -51.53  0.001880853    5.209    0.808
        28 -10.9194     54.8807    146.7302   1.0605489229e+02   3.8291554482e+01    0.3323826    0.1966947 -63.70  0.001607147    1.512    0.338
        29 -14.7806      9.3249    207.3525   1.2317570134e+02   2.8773606406e+01     1.079889    0.9842405 -14.34  0.003696299    1.651    0.394
        30  -9.0249    179.3347    145.7210   7.3458989441e+01   1.6531000098e+01    0.1461558    0.1231055  89.05 0.0003911442    1.611    0.379
        31 -10.5720     32.9456    143.6562   1.1171092567e+02   4.1417545521e+01    0.3903226    0.2450767  30.73  0.002092343    1.797    0.444
        32 -10.4176     97.8023    142.1816   9.3120947164e+01   3.3197428214e+01     0.344271    0.2779471 -21.99 0.0008307584    1.450    0.310
        33  -9.7204    100.7889    138.8243   9.1570155659e+01   3.3502351881e+01    0.3271529    0.2358051  -5.47  0.001428177    1.988    0.497
        34 -12.4639     85.7567    140.6572   9.6204508657e+01   3.5530849503e+01    0.3105585    0.2646667 -43.31 0.0003762313    1.167    0.143
        35 -11.3570     75.6260    136.3487   9.8264630642e+01   3.8125713777e+01    0.3579925    0.2759646  72.56 0.0005108326    1.547    0.354
        36 -10.0100     23.8107    133.3278   1.1289073362e+02   4.4778269928e+01    0.2395335    0.1692466  63.81  0.001353374    1.570    0.363
        37 -10.8267    107.3346    131.1007   8.7994506186e+01   3.4198107098e+01    0.5115795    0.3524701  36.68  0.002344076    1.506    0.336
        38 -10.6119    135.6652    128.3075   7.9646954516e+01   2.9327428286e+01    0.4632813    0.1850546 -47.40  0.001566244    2.477    0.596
        39 -11.4106     66.6238    127.0293   9.9080427055e+01   4.1701745949e+01    0.5410636    0.3480713 -63.66  0.002582164    1.488    0.328
        40 -11.0600     96.3385    126.9890   9.0191783929e+01   3.7133072072e+01    0.3631428    0.2804775 -13.98  0.001008095    1.604    0.377
        41 -11.8276     75.9129    162.6338   1.0288897031e+02   3.1589765547e+01    0.3318093    0.3275859 -18.98 0.0003816527    1.137    0.121
        42  -9.4733    115.7897    124.9989   8.4165536197e+01   3.4053294917e+01    0.2615223    0.1752128 -21.24   0.00106373    2.014    0.504
        43 -15.2861     57.3855    248.6971   1.1681437404e+02   1.5266445923e+01     10.46455     3.161895  26.27   0.01981456   18.606    0.946
        44  -9.7875    106.2339    119.4499   8.5499513694e+01   3.7158392622e+01    0.2344532    0.1936053 -36.09 0.0004407593    1.196    0.164
        45  -9.4086    168.0160    113.0301   6.7929891912e+01   2.5617184995e+01    0.2548993    0.1959342 -80.38  0.001135271    1.805    0.446
        46  -9.7662    135.0000    112.9315   7.5869470392e+01   3.2877694671e+01     0.264899   0.08806735 -44.18 0.0007873654    2.940    0.660
        47 -10.1846    205.2951    110.4921   5.9826802588e+01   1.7929902827e+01    0.3326983    0.2535328  27.83  0.001025777    1.552    0.356
        48 -11.3821    245.1638    106.0050   5.2440241473e+01   1.0696368551e+01    0.2500438    0.1481493  45.97  0.001258118    1.986    0.496
        49  -9.4100    224.5288    103.0181   5.4815740346e+01   1.5235429253e+01    0.2174429    0.1249548 -39.58 0.0005749804    1.544    0.352
        50  -9.8262    134.5427    105.2818   7.3916534204e+01   3.4622709715e+01    0.3032275    0.1499588 -47.14  0.001073154    2.046    0.511
        51 -10.8123     53.1724     91.3290   9.5394907186e+01   5.2029795447e+01    0.3598179    0.2006295 -57.95  0.001289952    1.705    0.414
        52 -10.0667     41.6854     91.9018   9.9632636128e+01   5.3193959324e+01    0.2114394    0.1732844 -19.56 0.0004278077    1.257    0.205
        53 -11.0103    243.8460     89.1816   4.8893635803e+01   1.3656301309e+01    0.1771292    0.1559457  -7.91 0.0005791559    1.337    0.252
        54 -10.1502    250.0040     87.9877   4.7845776250e+01   1.2660027288e+01    0.1620664    0.1360653 -45.12 0.0005790844    1.005    0.005
        55 -10.5117      8.0598     86.9473   1.1073449501e+02   5.7021869804e+01    0.2179706    0.1118161 -41.33  0.001142615    1.735    0.424
        56  -9.2072    160.5083     82.4602   6.1248707852e+01   3.3217995427e+01    0.1489709     0.147902 -38.62  0.000102937    1.005    0.005
        57  -8.8435     71.3574     82.6919   8.6582615893e+01   5.1467783932e+01    0.1393193    0.1155606  77.78 0.0007041789    1.729    0.422
        58 -10.5154    242.9917     77.7606   4.6467263635e+01   1.5600576694e+01    0.1591958    0.1113485  63.57 0.0006313772    1.612    0.380
        59  -8.6312    140.4586     68.5359   6.1635327100e+01   4.0381979505e+01    0.1462844    0.1453022  63.12 0.0008077087    1.045    0.043
        60  -9.1904     44.7917     60.7913   8.9790640408e+01   5.9650122196e+01    0.1565021    0.1558183 -35.37 0.0003836439    1.320    0.243
        61 -10.8851     13.5051     60.0087   1.0270375252e+02   6.2684272218e+01    0.2452741    0.1806774 -47.59 0.0004053939    1.096    0.087
        62 -12.4965    217.2843     28.7818   3.8245524247e+01   2.7848679583e+01    0.4950757    0.3889978  48.49  0.001103009    1.524    0.344
        63 -13.7061    200.4351     42.4984   4.3510621742e+01   2.9950655489e+01     1.211264    0.9271764  29.17  0.003713765    1.741    0.426
        64 -13.3870     32.9651    204.3754   1.1812814983e+02   2.7100392373e+01    0.6999503    0.4062015 -44.50  0.003679072    2.445    0.591
        65  -8.9556     24.7606     57.6753   9.7213644456e+01   6.2322110083e+01    0.1571439    0.1095928  27.11 0.0005197937    1.659    0.397
        66  -8.9952    173.3319    245.6712   9.3551378782e+01  -7.9719574334e-01    0.1188356   0.09282357  57.35 0.0007051753    1.717    0.418
        67 -10.4133    135.5074     41.9306   5.4280167869e+01   4.5620505061e+01    0.3112361     0.236129 -71.00 0.0005710716    1.700    0.412
        68  -8.8045    135.2723     33.9998   5.1725779549e+01   4.6697406037e+01    0.1562048    0.1231478 -25.75 0.0002548924    1.362    0.266
        69  -8.5563    115.5060     31.4700   5.5266992628e+01   5.1622400491e+01    0.1381693    0.1245375  35.89 7.791871e-05    1.002    0.002
        70 -10.0448    189.7697     15.1539   3.7865792670e+01   3.5688701306e+01    0.1991201    0.1563603 -70.01 0.0006343096    1.208    0.172
