#   1 NUMBER                 Running object number                                     
#   2 MAG_AUTO               Kron-like elliptical aperture magnitude                    [mag]
#   3 X_IMAGE                Object position along x                                    [pixel]
#   4 Y_IMAGE                Object position along y                                    [pixel]
#   5 X_WORLD                Barycenter position along world x axis                     [deg]
#   6 Y_WORLD                Barycenter position along world y axis                     [deg]
#   7 A_WORLD                Profile RMS along major axis (world units)                 [deg]
#   8 B_WORLD                Profile RMS along minor axis (world units)                 [deg]
#   9 THETA_WORLD            Position angle (CCW/world-x)                               [deg]
#  10 FWHM_WORLD             FWHM assuming a gaussian core                              [deg]
#  11 ELONGATION             A_IMAGE/B_IMAGE                                           
#  12 ELLIPTICITY            1 - B_IMAGE/A_IMAGE                                       
         1 -13.3745      4.2068     64.0629   1.0037531982e+02   6.2530191200e+01     1.842448    0.2761649 -61.39  0.006306102    4.148    0.759
         2 -14.9251      4.6191    131.3632   1.1080895797e+02   4.6936126156e+01     4.977369    0.8784092 -75.80   0.01319429    6.274    0.841
         3 -13.3532    236.9254     32.7187   3.0032136447e+01   2.3967029950e+01    0.7216176    0.6260499 -77.29  0.005014974    1.109    0.098
         4 -10.7502     43.0512    232.0724   1.1094489369e+02   1.9941009669e+01    0.2820896    0.2259493  41.88  0.001008863    1.301    0.231
         5 -13.9905    136.3602    244.6433   9.2899386867e+01   4.4659352391e+00     1.222753    0.8651331  40.17    0.0055757    1.217    0.179
         6 -12.9569     79.0934    249.6945   1.0524169531e+02   1.1861691457e+01     1.489723    0.5993279  32.29  0.006460922    2.496    0.599
         7 -13.8915     83.7126    230.6663   1.0237714126e+02   1.4997745000e+01     1.272618    0.6848406  36.69  0.006498931    1.704    0.413
         8 -13.3332    120.7945    248.3345   9.6600337435e+01   6.1549519015e+00    0.8446617    0.7716122  32.52  0.003966434    1.111    0.100
         9 -13.8272    114.1384    241.1648   9.7120807606e+01   8.4769324644e+00    0.9687803    0.7220325  50.24  0.004795622    1.209    0.173
        10 -13.9729     56.1860    247.4859   1.0956124549e+02   1.5257715406e+01     1.283887    0.5513001  37.05  0.004804412    2.058    0.514
        11 -13.1648     39.3415    247.3066   1.1276546575e+02   1.7303446677e+01    0.6213715    0.4758925  74.31  0.003426979    1.083    0.077
        12 -12.0163     44.1906    239.3524   1.1127212025e+02   1.8319091427e+01    0.4770299    0.2982201  45.94  0.001782729    1.379    0.275
        13 -13.3710     99.8339    246.0265   1.0066312745e+02   9.6613852812e+00     1.380131    0.4687196  46.25   0.00573852    2.600    0.615
        14 -14.1232     90.0265    238.3394   1.0186844432e+02   1.2554572831e+01     1.271021    0.5448006  32.94  0.004609176    2.271    0.560
        15 -12.7591      3.2481    246.5296   1.1923387117e+02   2.1225654478e+01    0.9161286    0.3453194 -83.89  0.004692224    2.379    0.580
        16 -12.6257    105.5434    228.5617   9.7410004615e+01   1.2242290769e+01    0.4169021    0.3321104  61.22  0.002482578    1.218    0.179
        17 -11.6654     56.7650    230.2972   1.0801030905e+02   1.8656033228e+01    0.3862303    0.3233323  48.01  0.001890978    1.181    0.153
        18 -11.3689     63.0668    224.4512   1.0614772506e+02   1.9090499828e+01    0.3572836    0.2987394  60.88  0.001238532    1.044    0.042
        19 -11.9204     58.9539    213.2059   1.0592811073e+02   2.2067406031e+01    0.5994155    0.3710505  61.65    0.0021531    1.552    0.356
        20 -12.3346     23.4086    191.2542   1.1181867653e+02   3.1065614421e+01    0.7206904     0.565434 -40.37  0.004472308    1.671    0.402
        21 -14.1878     10.5312    200.5685   1.1531503443e+02   3.0130184165e+01     1.051435    0.6500171 -83.64  0.003170249    1.347    0.257
        22 -10.5425     36.6805    204.0122   1.0996697941e+02   2.6767676586e+01    0.4891323    0.1908453  57.96  0.002050629    2.811    0.644
        23 -12.9309      4.2273    205.1643   1.1690293440e+02   2.9661013294e+01    0.3762175    0.2673062 -70.70 0.0007375295    1.368    0.269
        24 -11.3725     39.1701    178.9845   1.0694277915e+02   3.2376357934e+01    0.2514429    0.2195682 -59.59 0.0004395684    1.233    0.189
        25 -11.7126     47.4772    172.4053   1.0410612137e+02   3.3062061973e+01    0.2504581    0.2299195 -72.61 0.0003558545    1.116    0.104
        26 -12.4337     14.1546    124.3085   1.0717737594e+02   4.8039557281e+01    0.3992966    0.2968631 -74.55  0.002063696    1.143    0.125
        27 -12.8890      3.6767    163.2964   1.1408688039e+02   3.9312346150e+01    0.9349192    0.4686283 -89.65  0.004699279    1.800    0.445
        28 -11.8233     13.3079    245.8868   1.1744172032e+02   2.0373474415e+01    0.3200161    0.1598031  83.58  0.001852775    1.785    0.440
        29 -12.6580     52.0138    222.2819   1.0828867147e+02   2.0943039062e+01    0.7904551    0.4963027 -80.28  0.003221138    1.539    0.350
        30 -12.8989     15.6034    133.4654   1.0792151243e+02   4.5696315184e+01    0.7236167     0.340016 -52.61  0.003077651    1.869    0.465
        31 -10.4582     61.1785    162.3719   9.9149381582e+01   3.3901480672e+01    0.2463657    0.2021845 -63.32 0.0003472528    1.140    0.123
        32 -12.9161     45.5538    158.9623   1.0288114720e+02   3.6612350152e+01    0.5136929    0.3248715 -32.61  0.001660168    2.125    0.529
        33 -12.0859     42.4246    152.3175   1.0282921957e+02   3.8613994389e+01     0.623733     0.367323 -74.00  0.002596179    1.567    0.362
        34 -12.7973     30.9654    145.0604   1.0503910239e+02   4.1563680052e+01    0.7274697       0.4198  53.52  0.002972438    1.955    0.488
        35 -11.3319     25.8079    158.2468   1.0803636799e+02   3.8763825115e+01    0.5206062    0.2721792 -75.26  0.002558498    1.666    0.400
        36 -13.2883     25.0817    150.0703   1.0728775575e+02   4.0845570530e+01    0.8271672    0.4509441 -49.02  0.004155214    1.841    0.457
        37 -11.3298     70.2331    155.8945   9.5653397587e+01   3.4330672989e+01    0.4699916    0.3844791 -13.34  0.002484852    1.549    0.354
        38 -11.7972     67.8378    143.5179   9.4201543182e+01   3.7777255938e+01    0.7440633    0.4248174  64.70  0.002791239    2.551    0.608
        39  -9.7717     87.1409    143.1533   8.8535011344e+01   3.5043157724e+01    0.2316136    0.2013011 -32.87 0.0007568944    1.228    0.185
        40 -11.1247     75.0363    140.8285   9.1600109769e+01   3.7451095988e+01    0.2894388    0.2303347 -55.02 0.0003783838    1.174    0.148
        41 -11.8213     33.9802    135.4942   1.0283908036e+02   4.3671663892e+01    0.4366749     0.348707 -84.42  0.001666014    1.194    0.162
        42 -10.1599    105.0191    131.0382   8.0767207920e+01   3.5012148702e+01    0.3749841    0.2356514  34.51  0.001583703    1.673    0.402
        43 -10.1671     88.9425    127.4403   8.4682375748e+01   3.8651566425e+01    0.2588387     0.205273 -47.05 0.0003983519    1.203    0.168
        44  -8.8166    102.0082    119.4829   7.8903009834e+01   3.8327818580e+01    0.2078027    0.1527238  35.83 6.992197e-05    1.412    0.292
        45 -11.6537    249.7786    110.7461   4.4959233508e+01   9.6510159684e+00    0.6075396    0.1095501 -36.11  0.001417311    7.249    0.862
        46 -12.2676    243.1374    102.0801   4.4041799287e+01   1.2331898623e+01    0.3095024    0.2533458  64.70  0.001863435    1.404    0.288
        47  -9.6582     52.4881     89.5351   8.7644511095e+01   5.2865001881e+01    0.1397788    0.1215799 -34.92 7.634214e-05    1.020    0.020
        48 -11.2705     34.2170     64.3989   8.7881926795e+01   6.0282438157e+01    0.2679483    0.2214796  45.19  0.001654607    1.593    0.372
        49 -11.9704     23.9746     62.0012   9.1500559408e+01   6.1686314335e+01    0.4971317    0.3454188 -68.74  0.002857186    1.741    0.426
        50 -12.5288     42.6253     58.6793   8.2641724225e+01   6.0540714728e+01    0.8008919    0.3909612  22.61  0.003816199    2.213    0.548
        51 -11.9213     41.2913     52.0057   8.1001659398e+01   6.1965057683e+01    0.7008209    0.2878592  23.20  0.003052575    2.722    0.633
        52 -11.7345     41.1510     48.2823   7.9777860978e+01   6.2665303588e+01    0.6270874    0.2983533  28.72  0.003085222    2.153    0.536
        53 -12.6082    216.3143     48.2165   3.5586982356e+01   2.6297850296e+01    0.5106629    0.4071015  78.30  0.003096907    1.214    0.177
        54 -10.8672     89.1763     40.7061   5.8804741038e+01   5.6299339091e+01    0.3617968    0.2088567  38.80  0.001778692    1.617    0.381
