#   1 NUMBER                 Running object number                                     
#   2 MAG_AUTO               Kron-like elliptical aperture magnitude                    [mag]
#   3 X_IMAGE                Object position along x                                    [pixel]
#   4 Y_IMAGE                Object position along y                                    [pixel]
#   5 X_WORLD                Barycenter position along world x axis                     [deg]
#   6 Y_WORLD                Barycenter position along world y axis                     [deg]
#   7 A_WORLD                Profile RMS along major axis (world units)                 [deg]
#   8 B_WORLD                Profile RMS along minor axis (world units)                 [deg]
#   9 THETA_WORLD            Position angle (CCW/world-x)                               [deg]
#  10 FWHM_WORLD             FWHM assuming a gaussian core                              [deg]
#  11 ELONGATION             A_IMAGE/B_IMAGE                                           
#  12 ELLIPTICITY            1 - B_IMAGE/A_IMAGE                                       
         1 -11.8235     21.3942     24.4551   1.0925205962e+02   6.7563495989e+01    0.2315669    0.1794395 -28.34  0.001033246    1.229    0.186
         2 -14.4793    241.8026      8.8275   5.6174631728e+01   2.5098499155e+01    0.8153141    0.6081457 -72.18  0.005502603    1.067    0.063
         3 -13.7422    234.5152      2.3459   5.5483307865e+01   2.7377344456e+01    0.8727772    0.2492353  78.24  0.003387606    3.589    0.721
         4 -13.4742    153.6058     14.5118   6.7461139143e+01   4.4781823614e+01    0.3969579    0.3850025  -5.59  0.002013314    1.212    0.175
         5 -14.3637    190.3421      6.0765   6.0403131595e+01   3.6952265037e+01    0.8419234     0.693654  -9.29  0.004385043    1.671    0.401
         6 -14.6154    164.5921     12.4722   6.5252063569e+01   4.2389879167e+01     1.453876    0.5732723  81.93  0.004931269    4.060    0.754
         7 -15.3966    171.9024      4.7430   6.2246527909e+01   4.1402375705e+01     2.022983    0.9159934  81.13  0.009013397    2.354    0.575
         8 -13.7772    150.1927      3.4902   6.4869188558e+01   4.6589172884e+01     0.704701    0.3737607  56.06  0.002565758    1.572    0.364
         9 -11.4355    119.2801      6.9373   7.1226305342e+01   5.3293925855e+01    0.2471889    0.1515231  50.51 0.0008565725    1.353    0.261
        10 -11.9712    125.6309      4.3610   6.9182713658e+01   5.2107532086e+01    0.2360658    0.1851967  43.96 0.0006915907    1.143    0.125
        11 -13.4214    141.9502      6.2789   6.6950212676e+01   4.8254196719e+01    0.4373117    0.3554152  32.27  0.001826057    1.323    0.244
        12 -11.3970     15.4921      3.4929   1.0309184200e+02   7.0877444239e+01    0.1064464   0.07703234  -6.35 -5.034415e-05    1.024    0.024
        13 -11.1771     24.8118      2.1621   9.8238825898e+01   7.0040106750e+01    0.1501578    0.1172117  -0.49 0.0003756403    1.154    0.133
        14 -11.5898      8.2047    232.7932   1.4789346798e+02   2.4619401111e+01    0.2355882    0.1505453 -51.11  0.001483187    2.398    0.583
        15 -17.1149    242.1917    226.1576   1.0136523835e+02  -1.0270649852e+01     4.123904      1.46538 -37.54   0.01794311    2.760    0.638
        16 -11.5896    166.6054    250.6570   1.1986629933e+02  -1.9100488315e+00    0.1583987    0.1013938  46.68 0.0008675185    1.404    0.288
        17 -20.9777    108.1353    188.2531   1.2263653305e+02   2.0865468162e+01     12.03182     7.865489  40.36   0.05819497    1.542    0.352
        18 -12.1423     49.8358    148.8066   1.3059905004e+02   3.9087729940e+01    0.3371197    0.1785725 -48.75 0.0009897286    1.880    0.468
        19 -11.9932     46.0030    148.5009   1.3154485987e+02   3.9606464996e+01    0.2504312    0.2239779  63.39 0.0006391121    1.207    0.172
        20  -9.1236    162.5224    237.6328   1.1873148199e+02   9.8746750678e-01    0.1326545    0.1118508  42.22 0.0002057628    1.047    0.045
        21 -10.1347    198.7368    225.2583   1.0943753900e+02  -3.1515541931e+00    0.1162783    0.1024214  64.93 0.0002929156    1.446    0.308
        22 -11.8193     52.7172    135.6732   1.2763605266e+02   4.1923523394e+01    0.3793402    0.2505362 -20.28 0.0008965448    2.293    0.564
        23 -11.8202      5.9001    223.9042   1.4774158093e+02   2.6653300371e+01    0.2573546    0.2188176 -50.49 0.0005197295    1.807    0.447
        24 -12.6084     52.8798    122.9040   1.2521029374e+02   4.4958846517e+01    0.4801046    0.2971034 -75.88 0.0004625441    1.799    0.444
        25 -11.6625     47.4796    122.9484   1.2678127469e+02   4.5571059903e+01    0.3398181    0.2149814 -31.84  0.001041643    1.918    0.479
        26 -11.4740     61.9628    124.9305   1.2299035566e+02   4.3345857435e+01    0.2263566     0.175281 -57.18  0.000383547    1.136    0.119
        27 -11.5549     64.6379    121.3837   1.2147997616e+02   4.3834375240e+01    0.3873392    0.2560749  69.76  0.001733533    2.168    0.539
        28 -11.5598     71.5793    121.8994   1.1957055049e+02   4.2751665999e+01    0.2197092    0.1972383  47.43 0.0002054507    1.227    0.185
        29 -13.2819     91.8467    114.5232   1.1197209889e+02   4.1303440597e+01    0.5497519    0.2820333 -43.37  0.001434614    1.910    0.476
        30 -11.1738    182.9366    223.1104   1.1223182450e+02  -2.7315470200e-02    0.1707346    0.1455197  31.05 0.0007354961    1.065    0.061
        31 -12.5608     36.5131    117.8849   1.2902616056e+02   4.7909851235e+01    0.3560169    0.2336148 -57.06  0.001998336    1.256    0.204
        32 -11.2634     59.9121    115.3288   1.2158057380e+02   4.5874804855e+01     0.223079    0.1732567 -68.42 0.0005560795    1.269    0.212
        33 -11.7816    209.5849    114.2524   8.3890855643e+01   1.5984484830e+01    0.2806298    0.2621748 -67.16 0.0006086688    1.035    0.034
        34 -10.6964     11.5496    220.6228   1.4653700429e+02   2.6767323426e+01    0.1784001    0.1212487  62.91 -3.843481e-06    1.253    0.202
        35 -12.0849     40.8058    245.6933   1.4317045473e+02   1.8358172177e+01    0.5595388    0.2527693  68.52  0.002897575    2.165    0.538
        36 -10.4473    201.2605    219.9485   1.0799732342e+02  -2.6877001832e+00    0.1613692    0.1470434 -13.81 0.0003131284    1.109    0.098
        37 -12.2407    221.7971    233.2758   1.0639159896e+02  -8.2127426688e+00    0.3680865     0.238252 -52.29  0.001961858    2.179    0.541
        38 -12.1897     79.1613    108.1472   1.1413756709e+02   4.4818446174e+01    0.2427806    0.2255417   3.41 0.0004593695    1.159    0.138
        39 -12.4749    180.2020    107.3080   8.7864142460e+01   2.4104848121e+01    0.3040774    0.2623932  40.64 0.0009069131    1.245    0.197
        40 -13.2983    175.5709    105.2994   8.8315882524e+01   2.5592622028e+01    0.4980093     0.323117  62.90  0.001476731    1.708    0.415
        41 -10.3753    215.2177    213.6700   1.0411601301e+02  -4.0177110019e+00    0.1172244    0.1035123 -63.08 0.0003740862    1.509    0.337
        42 -11.2548     97.3830    107.8792   1.0869544295e+02   4.1846207372e+01    0.3637658     0.216402  29.36  0.001563031    1.988    0.497
        43 -11.9520    204.5222    212.0344   1.0590750697e+02  -1.8912415481e+00    0.2757897    0.2234002  37.20 0.0009578745    1.201    0.168
        44 -11.9157      1.8199    104.2961   1.3693927581e+02   5.3653044975e+01    0.3535822    0.1404584 -68.50  0.001748497    1.991    0.498
        45 -13.0237    166.9132    100.8417   8.9009492151e+01   2.8518118611e+01    0.5104635    0.3465892 -30.12  0.001643679    1.670    0.401
        46 -11.5238     80.3152    103.1770   1.1254125783e+02   4.5756049542e+01    0.2242851    0.2189416  35.53 0.0003099811    1.120    0.107
        47 -11.3906    198.3948    210.1048   1.0677355410e+02  -4.6391352592e-01    0.2210484    0.1876913 -72.20 0.0007560895    1.582    0.368
        48 -12.3117    206.5910    206.6948   1.0449694147e+02  -1.3183441338e+00    0.2336363    0.2174943 -58.97 0.0005857422    1.302    0.232
        49 -11.2327    217.8184    204.9595   1.0196989385e+02  -2.9823811379e+00    0.3528766    0.2426902  15.84 0.0009067922    1.622    0.384
        50 -12.8903    127.8184     80.1438   9.2495670267e+01   4.1488562703e+01    0.4022801    0.3134277  88.40  0.001058298    1.747    0.427
        51 -13.4930    110.7038     89.1467   9.9741462064e+01   4.3323006945e+01    0.4811414    0.4327699  67.62 0.0007824835    1.261    0.207
        52 -12.8259    116.4063     87.2160   9.7600381867e+01   4.2554521375e+01    0.3908224    0.3047167  67.33  0.001198666    1.570    0.363
        53 -13.3672    129.6582     86.2885   9.3813554824e+01   3.9920315578e+01    0.6086169    0.4271891  17.30  0.002040692    1.962    0.490
        54 -12.5158    122.9182     86.9592   9.5768805707e+01   4.1243474855e+01    0.4259236    0.2710649  50.33 0.0003481344    1.615    0.381
        55 -12.6266    128.8104    101.0006   9.8172617045e+01   3.7136843626e+01    0.3430004    0.3031758  38.30 0.0005552362    1.157    0.136
        56 -12.8936    131.6295     96.6838   9.6250930074e+01   3.7421180019e+01    0.4019286    0.3632561  61.32  0.001183866    1.152    0.132
        57 -13.4589    132.2160     91.2530   9.4576997010e+01   3.8386931568e+01    0.5059301    0.4321314 -28.20  0.001771797    1.221    0.181
        58 -11.6402      6.3313    100.7644   1.3503151896e+02   5.4169413088e+01    0.2982151    0.1234582 -55.41   0.00154434    1.756    0.431
        59 -12.6287     38.7023     97.1724   1.2417555452e+02   5.2409398226e+01    0.3776217    0.1755124 -55.79  0.001802114    1.776    0.437
        60 -11.4619    212.9777    204.9076   1.0289996889e+02  -2.1307279863e+00    0.2009646    0.1806254  13.72 0.0004620612    1.038    0.037
        61 -10.1938    208.8410    202.3318   1.0321877757e+02  -9.4338964028e-01    0.1867406    0.1602712  14.12  0.000985318    1.116    0.104
        62 -12.9036     96.1658     95.1221   1.0563172631e+02   4.4841814854e+01    0.4994759    0.4073775  85.42  0.002536369    1.654    0.395
        63 -11.6858     61.3686     96.0742   1.1663612066e+02   5.0047860611e+01    0.3441134    0.2632884  -0.33  0.001422734    1.545    0.353
        64 -11.7656     19.9360     95.2738   1.2980049552e+02   5.4459132401e+01    0.2433436    0.2127368  42.55  0.000968648    1.427    0.299
        65 -10.7376     26.0900    238.4539   1.4520515055e+02   2.1550524002e+01    0.1249538   0.09369755  61.66 0.0003755241    1.203    0.169
        66 -10.7904    208.6614    234.0961   1.0903269789e+02  -6.2395961645e+00    0.1519363    0.1353453  -1.83 0.0003574884    1.093    0.085
        67 -12.1525     12.8403     88.5839   1.3077669430e+02   5.6408371925e+01    0.3789161    0.2503861 -75.15  0.001103303    1.581    0.367
        68 -13.5518     89.0841     86.2110   1.0523848502e+02   4.7934225439e+01    0.5323111    0.4464147 -52.67  0.001640904    1.244    0.196
        69 -12.9721     73.0933     87.7704   1.1068661144e+02   5.0182797231e+01    0.4505396    0.3218775   5.87  0.001231127    1.730    0.422
        70 -12.2958     36.1307     88.1464   1.2295491427e+02   5.4624291873e+01    0.2164304    0.1919371 -61.67 0.0002867006    1.187    0.157
        71 -13.2015     32.5281     85.0343   1.2343143290e+02   5.5623724870e+01    0.3403799    0.2664301  -3.04 9.171814e-06    1.425    0.298
        72 -11.0909     17.5817    234.9077   1.4643206796e+02   2.3209032095e+01    0.0914079   0.06143582  36.63 0.0002301141    1.834    0.455
        73 -13.3169     43.0818     82.0159   1.1908936229e+02   5.5214801552e+01    0.4603926    0.3444353  41.59  0.002335713    1.644    0.392
        74 -10.8282    193.4359    232.3736   1.1170751256e+02  -3.4325715415e+00     0.256923    0.1846183   3.96  0.001390361    1.658    0.397
        75 -12.6464     81.0282     82.5003   1.0666413936e+02   5.0027693696e+01    0.2865426    0.1980618 -42.81 0.0007989139    1.355    0.262
        76 -12.3552    144.1278     75.8405   8.7241601637e+01   3.8592728318e+01    0.3749744    0.2958986   9.52  0.001820941    1.621    0.383
        77 -13.8801     94.3149     73.8222   9.9941475891e+01   4.9418749281e+01      0.58739    0.3371561 -45.63  0.001960773    1.764    0.433
        78 -13.7874     98.3911     72.7790   9.8399456692e+01   4.8856752790e+01    0.5595332    0.3592705 -55.57  0.001333102    1.938    0.484
        79 -12.4512     81.5344     76.8137   1.0481699037e+02   5.1065251819e+01    0.2524035    0.2043023  30.55  0.000430186    1.274    0.215
        80 -13.8958     82.5692     71.2098   1.0276992456e+02   5.1955986889e+01     0.487513    0.3953967 -57.79  0.001861836    1.477    0.323
        81  -9.5550     37.5103    233.3690   1.4280752846e+02   2.1234922744e+01    0.1157705    0.0906987  75.24 0.0001110197    1.072    0.067
        82 -12.2306    245.3879    170.2269   8.9932621316e+01  -1.7018717923e+00    0.3759811     0.330327  51.25  0.001754314    1.361    0.265
        83 -11.8785    221.8376    171.6479   9.4494875591e+01   2.3047053465e+00    0.2870311    0.2124095 -56.17 0.0007160174    1.567    0.362
        84 -11.1810    197.9747    231.9051   1.1073496868e+02  -4.1217903209e+00    0.1585156    0.1409373  14.03 0.0004432436    1.033    0.032
        85 -12.5774     67.2239     74.0646   1.0865411659e+02   5.3799342194e+01    0.3176076    0.2523926   0.77  0.001075321    1.316    0.240
        86 -13.1716    126.4961     72.0601   9.0423611004e+01   4.3241426085e+01    0.3618664    0.3108419  37.38 0.0007179933    1.146    0.128
        87 -11.1348     43.6449     73.9738   1.1674190700e+02   5.6791411671e+01    0.1835397    0.1412009 -42.20 0.0005235987    1.116    0.104
        88 -10.3632     37.6980     72.3103   1.1839160742e+02   5.7743214779e+01    0.1495085      0.10608  20.41 0.0003214943    1.564    0.361
        89 -12.6617    150.5848     69.5927   8.3977167627e+01   3.8163803230e+01     0.495048      0.28648 -19.49   0.00141697    2.554    0.608
        90 -13.0306    111.8015     69.7491   9.3618301976e+01   4.6765303209e+01    0.3175977    0.2329441  55.38  0.001494277    1.487    0.327
        91 -12.2668    117.9636     67.0504   9.1111095064e+01   4.5948781098e+01    0.2158267    0.2063578  17.80 0.0003289417    1.004    0.004
        92 -12.6941    129.3371     65.8547   8.7826002666e+01   4.3677341321e+01    0.2901863    0.2073863  43.20 0.0008280594    1.361    0.265
        93 -11.5201     61.0368     64.0642   1.0768589288e+02   5.6550313298e+01    0.1950801    0.1680105 -17.64 0.0003514575    1.008    0.008
        94 -12.5367    136.9858     63.0332   8.5129633565e+01   4.2413379842e+01    0.2252015    0.2130448  32.97 0.0004561563    1.046    0.044
        95 -13.2460     98.9868     61.3161   9.4582291943e+01   5.0752471062e+01    0.3843765    0.2952542 -57.33  0.001957473    1.652    0.395
        96 -12.7919    112.8732     58.4219   8.9746139616e+01   4.8442950927e+01    0.3310069    0.2325414 -24.58 0.0008679026    1.524    0.344
        97 -11.4350    220.9256    158.6302   9.1886835169e+01   4.9490174743e+00    0.2602956     0.195104 -54.34 0.0006202272    1.435    0.303
        98 -10.7274      3.0258     58.3219   1.2757701771e+02   6.3135800631e+01    0.2905809    0.1425432 -75.37  0.001322007    3.525    0.716
        99 -13.3468    117.7285     53.7406   8.6965232122e+01   4.8144335292e+01    0.5439189    0.3395081  63.48  0.002521797    1.941    0.485
       100 -12.7390    140.3412     51.7344   8.0957490869e+01   4.3379171960e+01    0.3647096    0.2365696  64.50 0.0009311491    1.608    0.378
       101 -12.1707     70.2627     49.3998   9.9624263752e+01   5.7698069711e+01    0.2487273    0.1990297  -6.78 0.0004790252    1.153    0.133
       102 -11.3266     41.1412     49.8514   1.1031700076e+02   6.1538511508e+01    0.2826661    0.1774706   5.93  0.001611994    1.764    0.433
       103 -12.0896    101.9554     48.5758   8.9507375304e+01   5.2173615723e+01    0.3267042    0.2338279  75.83  0.001585508    2.238    0.553
       104 -11.3291    218.0075    155.0019   9.1645270202e+01   6.2257424900e+00    0.2189464    0.2046374 -36.60 0.0003144055    1.026    0.025
       105 -11.9444     54.8267     45.9667   1.0385722418e+02   6.0490822222e+01    0.3402348     0.174444  32.91  0.001766609    1.986    0.496
       106 -11.0959    176.0891    236.8971   1.1589622163e+02  -1.2266781089e+00    0.2021695    0.1539689  56.80  0.001147071    1.460    0.315
       107 -12.4257     96.9532     39.3236   8.7744026097e+01   5.4457899936e+01    0.4458709    0.2631221  32.34  0.001662558    1.712    0.416
       108 -12.6655     44.1628    144.2116   1.3136041725e+02   4.0849213568e+01     0.531188    0.1518098 -59.50  0.001719811    2.715    0.632
       109 -10.8134    200.5269     35.0152   6.6094123927e+01   3.1239334430e+01    0.1882879     0.126641 -41.03 0.0004557583    1.528    0.345
       110 -10.7356    185.0965     34.6952   6.8128930637e+01   3.4970353461e+01    0.1899278    0.1576183  71.23 0.0004559782    1.093    0.085
       111 -11.8498    128.9869     32.5704   7.7494015785e+01   4.8527827599e+01    0.3897767    0.2411616 -36.48   0.00200367    1.765    0.434
       112 -10.8271     64.7843     33.7728   9.5833558252e+01   6.0852692267e+01    0.1510433    0.1429068 -14.64 0.0006380284    1.325    0.245
       113 -10.8580     32.6669     32.2895   1.0746681069e+02   6.5279334927e+01    0.1509154    0.1437666 -80.84  0.001095905    1.818    0.450
       114 -11.5299     60.5397     28.1241   9.5155447255e+01   6.2252116441e+01     0.306066    0.1961205 -13.65  0.001796703    1.546    0.353
       115 -10.4250     88.8320     27.1611   8.5708786107e+01   5.7542416805e+01    0.1758735    0.1308333  14.11 0.0005454966    1.317    0.241
       116 -11.7842    250.5515     24.0342   5.8411608595e+01   2.1418041343e+01    0.2445172   0.09196524 -43.42 0.0006297071    2.266    0.559
       117  -9.4996     23.7655    246.3548   1.4612816249e+02   2.0258167273e+01    0.2391991    0.1332329 -51.21  0.001334994    2.928    0.658
       118 -12.3820    212.6598     19.8846   6.1159091683e+01   3.0273738973e+01    0.3289823    0.1551221  64.56  0.001610994    1.898    0.473
       119 -11.4037     17.4250    248.2943   1.4729685144e+02   2.0593981039e+01    0.1423926    0.1113236 -64.44  0.001048584    1.701    0.412
       120 -11.6240     11.5501    228.0444   1.4702610421e+02   2.5236879735e+01    0.1538213    0.1083228  86.82 0.0003905291    1.083    0.076
       121 -11.4784    194.3631     23.8267   6.4181394668e+01   3.4085639874e+01    0.2675042    0.1658623  63.50 0.0009879061    1.454    0.312
       122 -10.9487     28.9712    246.0825   1.4523385203e+02   1.9710112091e+01    0.1935871    0.1181092 -55.43  0.001181629    2.255    0.557
       123 -11.5407     19.9866     16.6792   1.0676291591e+02   6.8782192037e+01    0.1503105    0.1117216  -1.04 0.0003507852    1.118    0.106
       124  99.0000    169.5392    244.1322   1.1832178936e+02  -1.3273745637e+00    0.2983058    0.1259296 -43.73  0.001317011    2.751    0.637
       125  99.0000    149.7030    245.0938   1.2239360950e+02   1.8791367081e+00    0.5777549    0.2595794  41.83  0.002665668    1.901    0.474
       126  99.0000    181.7998    244.8952   1.1602781382e+02  -3.5144842343e+00    0.2430723    0.1507956 -19.00  0.001188538    2.374    0.579
       127 -11.0815    156.1576    242.6762   1.2076179548e+02   1.2007398795e+00    0.1099468    0.0915134 -81.60 0.0005853439    1.492    0.330
       128 -10.0514    113.6658     15.7304   7.5335334768e+01   5.3718782144e+01    0.1328778   0.08150041  34.98 0.0005165669    1.592    0.372
       129 -10.3266      9.3073    241.6446   1.4823288746e+02   2.2754152936e+01     0.120726   0.05765831  70.04  0.000704204    1.722    0.419
       130 -10.5204    217.0187    240.0531   1.0845648299e+02  -8.4772438249e+00     0.136031    0.1122779  17.54            0    1.031    0.030
       131 -11.2568     51.4561    239.5123   1.4077536956e+02   1.8228940262e+01    0.1230192    0.0916983  73.47 0.0002652218    1.039    0.037
       132 -12.0192      5.4801    237.2716   1.4861010998e+02   2.4005650535e+01    0.2499491    0.2096519 -29.87  0.001810564    2.337    0.572
