#   1 NUMBER                 Running object number                                     
#   2 MAG_AUTO               Kron-like elliptical aperture magnitude                    [mag]
#   3 X_IMAGE                Object position along x                                    [pixel]
#   4 Y_IMAGE                Object position along y                                    [pixel]
#   5 X_WORLD                Barycenter position along world x axis                     [deg]
#   6 Y_WORLD                Barycenter position along world y axis                     [deg]
#   7 A_WORLD                Profile RMS along major axis (world units)                 [deg]
#   8 B_WORLD                Profile RMS along minor axis (world units)                 [deg]
#   9 THETA_WORLD            Position angle (CCW/world-x)                               [deg]
#  10 FWHM_WORLD             FWHM assuming a gaussian core                              [deg]
#  11 ELONGATION             A_IMAGE/B_IMAGE                                           
#  12 ELLIPTICITY            1 - B_IMAGE/A_IMAGE                                       
         1 -12.6208    161.9555     55.4189   7.1861607854e+01   3.7487473285e+01     1.494766     1.172425  21.78  0.005792229    1.722    0.419
         2 -12.8448    175.0614     39.4962   6.5659929381e+01   3.6625608640e+01    0.8996747    0.8404865 -65.15  0.003669986    1.160    0.138
         3 -11.8305    179.4084     32.6075   6.3369018713e+01   3.6488408319e+01    0.4346815      0.39397 -15.67  0.001176943    1.444    0.307
         4 -13.1884    192.5686      8.3814   5.6294466741e+01   3.6221821094e+01    0.9976605    0.8538446  74.87  0.005037281    1.196    0.164
         5 -10.5797    225.2178      1.9351   5.2111146280e+01   2.9926493101e+01    0.4274974    0.1353827  77.88  0.001912288    2.931    0.659
         6  -8.9394    248.3511    241.1204   9.6219800161e+01  -1.3286799546e+01    0.1855544     0.136602   4.54 0.0002992759    1.200    0.167
         7  -9.5263    230.6088    250.4586   1.0104904714e+02  -1.2361094950e+01    0.2073079    0.1370249  27.53 0.0002360286    1.413    0.292
         8 -10.4895    188.0537    246.1105   1.0859379227e+02  -5.5152132425e+00    0.4496578    0.1969996 -46.17  0.001273512    2.508    0.601
         9  -9.0359    121.9942    250.2302   1.2292034837e+02   4.3946829774e+00    0.2395592    0.1644282  36.78 0.0006340989    1.340    0.254
        10 -10.7651    118.3549    245.7317   1.2308650630e+02   5.8660761751e+00    0.4962267    0.3196289  57.29  0.001368879    1.580    0.367
        11 -18.5554     47.1796    238.8755   1.3699709361e+02   1.7835505338e+01     4.981437     4.481483  69.59   0.01734981    1.212    0.175
        12  -9.0487      3.0004    192.6133   1.4202597939e+02   3.3151575044e+01    0.1473653    0.1375979 -34.06 0.0008153164    1.493    0.330
        13  -8.5222    110.4392    212.2861   1.2003206281e+02   1.4354382362e+01    0.2372991    0.1775475 -73.07 0.0006895321    1.416    0.294
        14  -8.5176     11.3438    190.7806   1.4007297907e+02   3.2838592124e+01    0.3185216    0.1317228 -53.47   0.00104189    2.527    0.604
        15  -9.4945    172.7080    189.4163   1.0158514004e+02   8.1207677159e+00    0.2595231    0.1781498 -26.13  0.000342194    1.728    0.421
        16  -9.8900    167.9639    232.2366   1.1046235766e+02   2.3044187883e-01    0.2629556    0.1974326 -48.80 0.0004389296    1.451    0.311
        17  -8.9695    172.4937    184.4935   1.0064268652e+02   9.2286580330e+00      0.23188     0.141854  50.87 0.0009286925    1.815    0.449
        18  -8.3302    168.7840    182.6380   1.0109318497e+02   1.0349665450e+01     0.217336    0.1388207  50.11 0.0009476058    1.693    0.409
        19  -9.8625    249.0907    180.2298   8.4814572525e+01  -3.3972886227e+00    0.3076592    0.2503124 -77.62  0.001241306    1.832    0.454
        20  -8.5917    152.1589    211.9461   1.1042882930e+02   7.0747350082e+00    0.2110146    0.1908802  78.12 0.0004436077    1.234    0.190
        21 -10.4995    144.3161    174.3250   1.0507759121e+02   1.7031138242e+01    0.6861007    0.4012283 -82.18  0.002064681    4.142    0.759
        22 -10.0858    106.1276    206.9955   1.2021334247e+02   1.6307434859e+01    0.3961719    0.3053783 -71.83  0.001126221    1.327    0.247
        23  -9.8408      3.6864    176.9288   1.4050294825e+02   3.6786843886e+01    0.1753611    0.1560556 -77.46 0.0003263236    1.194    0.163
        24  -9.8966    201.1698    169.0850   9.1357576325e+01   7.0094207419e+00    0.8342405    0.3519365 -57.39  0.002554596    3.905    0.744
        25 -10.9775    205.3795    164.3411   8.9517545651e+01   7.1861501868e+00    0.6317263     0.378159 -32.64  0.002789457    1.762    0.433
        26  -9.1520    237.0356    175.1500   8.5876161276e+01  -5.5736881567e-01    0.2000874    0.1770523 -36.38 0.0004034802    1.066    0.062
        27  -9.8411    189.7114    155.9443   9.0867800049e+01   1.2024660493e+01    0.4525167    0.3664494 -46.29  0.001600279    1.167    0.143
        28 -10.6305    194.1752    168.1929   9.2591563765e+01   8.5378401388e+00    0.4872435    0.3238415 -46.41 0.0008568703    1.432    0.302
        29  -9.6029    190.5050    161.8719   9.1995633206e+01   1.0598619229e+01    0.4508331    0.3298622 -64.91    0.0016834    1.619    0.382
        30  -9.6469    137.9735    173.0074   1.0634471016e+02   1.8583715138e+01    0.2456754     0.229185 -86.90 0.0006069288    1.103    0.093
        31 -10.0148    103.4999    202.5243   1.2012929485e+02   1.7802745346e+01    0.4244339     0.332453   6.22  0.001356132    1.784    0.440
        32  -9.4988    238.0570    170.6545   8.4798077491e+01   1.1230135798e-01    0.2525523    0.1748701 -33.97 0.0003503181    1.294    0.227
        33 -11.1368    102.6137    195.9104   1.1927389228e+02   1.9533476558e+01     0.771534    0.4024483  62.61  0.002715919    2.779    0.640
        34  -9.7288    184.2526    207.0488   1.0250362484e+02   2.3412761831e+00    0.4251153    0.2618241 -49.79  0.001996975    1.709    0.415
        35  -9.3124     18.2376    168.6384   1.3622182604e+02   3.7535813865e+01    0.3227594    0.2529162 -80.01  0.001318603    1.040    0.039
        36 -11.5552     30.9954    143.5890   1.2954557649e+02   4.2501693948e+01    0.9788464    0.5094549 -18.95  0.003757261    3.833    0.739
        37 -12.0897     22.2863    158.3278   1.3395933860e+02   3.9692615288e+01    0.9974324    0.6947421  15.30  0.004012536    1.898    0.473
        38  -9.5773     26.6428    151.7352   1.3193295566e+02   4.0910577157e+01    0.2820773    0.2478461 -27.28  0.001303753    1.364    0.267
        39  -8.7624    159.0698    166.3618   9.9905796158e+01   1.5937436088e+01    0.2511839    0.2052021 -38.04  0.001223056    1.238    0.192
        40 -10.3049     25.6164    166.3525   1.3412435955e+02   3.7401257859e+01    0.4508774    0.2494254  18.07  0.002204008    2.494    0.599
        41  -8.6320      1.9758    167.4871   1.3999637364e+02   3.9169742522e+01    0.1463863    0.1267584  20.85 0.0009994893    1.526    0.344
        42  -9.4111    237.9023    165.8465   8.3856221598e+01   1.0391348474e+00    0.2031914    0.1686402 -21.24 0.0003244953    1.199    0.166
        43  -9.2910    229.7618    166.5782   8.5425172430e+01   2.2939792877e+00    0.1813447    0.1358682  57.54 0.0009529029    1.673    0.402
        44 -14.0112     11.9481    245.7735   1.4414034020e+02   2.0518447181e+01    0.5298867    0.4736942 -40.79  0.003908085    1.796    0.443
        45  -8.7556    119.8141    164.1956   1.0908184310e+02   2.4212467598e+01    0.2280177    0.2022145  80.47 0.0004472329    1.193    0.162
        46  -8.9947    163.4600    203.6289   1.0638733318e+02   6.7944614118e+00    0.3142076     0.233944  84.26 0.0009646592    2.015    0.504
        47 -10.0568    100.0799    158.9995   1.1319765584e+02   2.9103376661e+01    0.2776839     0.268827  24.17 0.0003556265    1.129    0.114
        48  -8.8453    120.3412    156.8834   1.0740784299e+02   2.5904051583e+01    0.2675369    0.2092718  53.69 0.0006483197    1.341    0.254
        49 -11.2406    104.8188    152.3013   1.1054112582e+02   2.9929901982e+01     0.714404    0.5022731 -28.10  0.003129756    1.819    0.450
        50 -12.1314     90.0078    152.9575   1.1471050363e+02   3.2336353054e+01    0.4388172     0.347961 -23.01 0.0009637744    1.558    0.358
        51 -10.0581    134.5088    149.0131   1.0203408718e+02   2.5006268863e+01     0.645057    0.2726756 -53.37  0.002199565    2.441    0.590
        52 -10.2510    133.5121    145.0080   1.0137269062e+02   2.6161480608e+01     1.141538    0.2825998 -54.68  0.002489334    6.077    0.835
        53 -11.0724      4.7310    119.8205   1.3349164145e+02   5.0310710891e+01    0.4814618    0.3102802 -41.31  0.002869956    1.485    0.326
        54 -11.1174      2.8556    128.3243   1.3524482157e+02   4.8440268683e+01    0.5416597    0.2838541 -77.94  0.002813382    1.750    0.429
        55  -9.7715     11.2528    132.5763   1.3346161301e+02   4.6859777196e+01    0.2982957     0.179878  13.75   0.00117202    2.151    0.535
        56 -11.1705      8.4420    145.8678   1.3599701429e+02   4.3877085033e+01    0.8657973    0.3397922 -77.93  0.003661986    2.486    0.598
        57 -11.4189      4.7526    137.0701   1.3587431670e+02   4.6246196332e+01    0.6073146    0.3169975 -60.38  0.003281135    1.487    0.328
        58  -9.2916    143.5497    146.2682   9.9149978539e+01   2.3795935796e+01    0.3112763    0.1524862 -52.79  0.001135961    2.084    0.520
        59  -8.8168    153.5296    202.3272   1.0838161990e+02   8.9011704328e+00    0.2736065    0.1465098 -55.13  0.001125003    2.028    0.507
        60 -10.7515    202.7923    200.2276   9.7346799134e+01   4.4849978771e-01    0.3509903    0.2539973 -32.56  0.001338708    1.333    0.250
        61 -10.7568    112.8933    138.7908   1.0535985030e+02   3.1738049399e+01    0.6252781    0.3460034 -41.31  0.002480842    1.897    0.473
        62  -9.5562    130.7991    214.7328   1.1574352185e+02   1.0278760262e+01    0.2727101    0.2133394 -73.27  0.000562265    1.434    0.303
        63 -10.8604    102.6403    138.0408   1.0800706744e+02   3.3833532941e+01    0.2892583    0.2673098 -46.03 0.0003223466    1.057    0.054
        64  -9.9358    157.6673    199.6969   1.0695184863e+02   8.7100982809e+00    0.3129792    0.2475714  44.01  0.001048416    1.255    0.203
        65 -10.9183     37.4225    135.9428   1.2646617679e+02   4.3735627550e+01    0.4244685    0.3293723 -82.09  0.002410262    1.301    0.231
        66 -10.1216    134.8075    122.9854   9.5748898994e+01   3.0994238137e+01    0.4912836    0.2467276 -53.24  0.001832016    2.112    0.526
        67 -10.0470    118.4186    129.5397   1.0167044062e+02   3.2861537144e+01    0.3112236    0.2664683 -13.76  0.000602058    1.360    0.264
        68  -9.8704    106.6809    125.3392   1.0387771417e+02   3.6122110853e+01    0.3059275    0.2467148 -30.74 0.0006763761    1.327    0.247
        69  -8.9023    160.1274    128.2020   9.0917699650e+01   2.4351595877e+01    0.3211876    0.2061409 -69.78  0.001255416    2.173    0.540
        70  -8.7909    112.7899    118.9315   1.0057726844e+02   3.6425499645e+01    0.2280297    0.2033235 -15.19 0.0005158702    1.224    0.183
        71  -9.2941    168.3990    113.9180   8.5584514495e+01   2.5560010992e+01      0.40463    0.2679364 -74.67  0.001395704    2.153    0.536
        72  -8.7097    135.0000    113.9739   9.3410138490e+01   3.2943107037e+01    0.2603031   0.08720919 -45.26 0.0008024214    2.942    0.660
        73  -8.5831    225.7825    145.9553   8.1834359822e+01   7.0160118953e+00    0.2001776    0.1754302 -26.25 0.0005838478    1.173    0.148
        74 -10.9549     54.9034    110.1643   1.1590094568e+02   4.7905968521e+01    0.4649471    0.3152623  63.60  0.002209315    2.187    0.543
        75 -11.9052     63.0189    109.1385   1.1305311469e+02   4.7072787133e+01    0.8582366    0.3586752  38.19   0.00345003    2.580    0.612
        76  -9.8283     87.3846    108.9011   1.0537900377e+02   4.3371199514e+01    0.3494523    0.2449792  50.26 0.0009609318    1.625    0.384
        77  -8.2937     24.4761    109.4980   1.2560582366e+02   5.1254328748e+01    0.1325803    0.1065551 -48.47 4.744729e-05    1.049    0.047
        78  -8.7669    129.8824    110.6105   9.3845535106e+01   3.4764713745e+01    0.2676386    0.2084785 -33.89 0.0009007979    1.350    0.259
        79  -8.5545    167.9121     98.0109   8.1713281565e+01   2.8851816348e+01    0.2123141    0.2021513 -73.16  0.001164924    1.016    0.016
        80  -8.8538    250.5914    198.1042   8.7996693927e+01  -6.7418347299e+00    0.1877113    0.1077373 -38.55 0.0003567106    1.500    0.333
        81  -7.6683    113.3293     95.2798   9.4131471491e+01   4.1420316491e+01    0.1491264    0.1165205   5.32 0.0003167244    1.601    0.375
        82  -9.2877    224.0252     90.9711   7.0312857101e+01   1.7695753147e+01     0.197352    0.1737992 -68.80            0    1.031    0.030
        83  -9.1192    141.0663    199.0657   1.1065230043e+02   1.1928681339e+01    0.2542544    0.2200735 -78.80 0.0005628301    1.269    0.212
        84  -8.1114    148.9467     80.9560   8.1299752544e+01   3.6373273262e+01    0.1789759    0.1628675  59.70   0.00047619    1.065    0.061
        85  -8.4262    110.9959     78.7603   9.0040653880e+01   4.5071249361e+01    0.1910224    0.1764839  36.26 0.0002196663    1.056    0.053
        86  -8.1753    141.2971    249.6790   1.1880980482e+02   1.3660171307e+00    0.1313575   0.09743837  66.67 0.0002019217    1.619    0.382
        87  -9.1639    126.1815    248.4818   1.2181002473e+02   4.0564035283e+00    0.2238657    0.1854234 -59.94 0.0005294643    1.347    0.257
        88 -10.4294    124.7056     56.8348   7.9988478415e+01   4.5771529725e+01    0.2379525    0.2086579  45.59 0.0002821094    1.060    0.057
        89  -8.2592    196.3046    245.6792   1.0686438030e+02  -6.7131503264e+00    0.1175799    0.1025362  66.58 0.0007029977    1.634    0.388
        90  -8.8755    220.3337     42.8106   6.0585057894e+01   2.6030115164e+01     0.268685    0.1461556 -33.78  0.001210825    2.158    0.537
        91  -8.8779    193.8573     34.8643   6.1994154770e+01   3.2920375243e+01    0.1786147     0.129226 -77.15 0.0002551785    1.305    0.234
        92  -8.4788    140.2865    241.8821   1.1788863400e+02   3.0185546422e+00    0.2606252    0.1657789  46.83  0.001331321    1.471    0.320
