#   1 NUMBER                 Running object number                                     
#   2 MAG_AUTO               Kron-like elliptical aperture magnitude                    [mag]
#   3 X_IMAGE                Object position along x                                    [pixel]
#   4 Y_IMAGE                Object position along y                                    [pixel]
#   5 X_WORLD                Barycenter position along world x axis                     [deg]
#   6 Y_WORLD                Barycenter position along world y axis                     [deg]
#   7 A_WORLD                Profile RMS along major axis (world units)                 [deg]
#   8 B_WORLD                Profile RMS along minor axis (world units)                 [deg]
#   9 THETA_WORLD            Position angle (CCW/world-x)                               [deg]
#  10 FWHM_WORLD             FWHM assuming a gaussian core                              [deg]
#  11 ELONGATION             A_IMAGE/B_IMAGE                                           
#  12 ELLIPTICITY            1 - B_IMAGE/A_IMAGE                                       
         1 -13.2111    186.7619     48.7777   1.6091493571e+01   3.2559407724e+01     1.209954     1.005796  40.53   0.00410834    1.500    0.333
         2 -13.5979    211.4046     17.5613   5.7837053868e+00   3.0867914507e+01     1.290502     1.021036 -38.25  0.005691971    1.446    0.308
         3  -9.8047     97.0312      4.7671   1.8807005364e+01   5.8846866431e+01    0.1907224    0.1728045   0.49 0.0002622448    1.231    0.188
         4 -11.3889    119.1303      9.9891   1.6031475210e+01   5.3440759547e+01     0.630729    0.3499992  47.40  0.003289069    1.632    0.387
         5  -9.9204    189.6985     15.5769   7.4903612754e+00   3.6091271435e+01    0.2300118     0.127087 -56.45  0.001086528    1.766    0.434
         6  -9.5636    113.0893      2.9523   1.4790925735e+01   5.5427884120e+01    0.1914701    0.1637237  59.19 0.0004977894    1.021    0.021
         7  -8.3595    160.4996    240.4750   6.2977062848e+01   9.0878962063e-01    0.1305803    0.1116558  25.21 0.0002572286    1.058    0.055
         8 -13.5286    244.7127    235.1110   4.6072651670e+01  -1.0571815537e+01     2.382051    0.8820456 -35.46   0.01154499    2.553    0.608
         9 -10.7147      2.0423    194.3890   9.2469037858e+01   3.2993334261e+01    0.1788181   0.09717742 -12.48 0.0005626554    5.912    0.831
        10  -8.2425    181.6620    193.7121   5.0718916969e+01   5.9330160695e+00    0.1438362    0.1074672   1.79 0.0003553955    1.636    0.389
        11  -8.3338     57.9519    193.3880   7.9628400024e+01   2.7080721537e+01    0.1813316     0.131993  58.83 0.0005451705    1.260    0.206
        12 -10.9375     72.0014    187.3564   7.5450338110e+01   2.6563561752e+01    0.3120054    0.2216628  86.83 0.0004012026    1.429    0.300
        13  -8.3839     68.6790    188.3138   7.6397372475e+01   2.6813468633e+01    0.1986732    0.1749586  52.23  0.001088815    1.152    0.132
        14  -9.6972     76.2866    229.8364   7.9490246613e+01   1.6259503082e+01    0.2371852    0.1401152 -63.23   0.00078161    1.800    0.444
        15  -9.1683     87.1167    206.0749   7.4295273762e+01   1.9860399609e+01    0.2786224    0.2137617  45.68 0.0004877406    1.217    0.179
        16  -9.5336     15.1660    188.4453   8.9155763817e+01   3.3172764899e+01    0.1445199    0.1195707  40.36 0.0007918041    1.390    0.280
        17  -9.4951     90.1675    202.0613   7.3044266331e+01   2.0302157593e+01    0.3238097    0.2572194   0.60  0.001257019    1.870    0.465
        18 -13.8999     11.3395    207.4361   9.1355883164e+01   2.9186137306e+01     0.557138    0.3280646  48.25  0.002878769    1.533    0.348
        19  -9.4527    178.7558    170.4451   4.6760069335e+01   1.1159523153e+01    0.3759634    0.2928776 -12.24   0.00156878    1.554    0.357
        20  -9.5249    181.6007    181.1550   4.8311754008e+01   8.4290086565e+00    0.4008321    0.2035812 -42.42    0.0016863    1.975    0.494
        21  -9.5180    180.2333    175.2899   4.7431089344e+01   9.8772820331e+00    0.3765685    0.2110368 -57.26  0.001545198    2.203    0.546
        22 -10.1446     17.2244    184.3230   8.8348680926e+01   3.3948455638e+01    0.1443669    0.1151448  35.15 0.0005699751    1.465    0.317
        23  -9.7909     73.3928    206.0005   7.7477636571e+01   2.1948238985e+01    0.2346699    0.1670723  81.17  0.001062159    1.393    0.282
        24 -13.1036     22.9962    203.3779   8.8589856386e+01   2.8918225885e+01    0.6119493    0.3493634 -46.29  0.003120398    2.522    0.603
        25 -18.2409     27.7261    229.6708   8.9520398794e+01   2.2593732280e+01     8.955078     7.248514 -72.44   0.04738965    1.396    0.284
        26 -10.8571     62.7231    201.2268   7.9402651266e+01   2.4574607850e+01    0.2978063    0.1935554 -60.43 0.0009884957    1.582    0.368
        27 -10.3587     14.9696    174.9818   8.8080526446e+01   3.6391541348e+01    0.1837942    0.1562774  70.24 0.0003812421    1.140    0.123
        28  -9.1280     35.1826    174.2902   8.3047935062e+01   3.4521974374e+01    0.1679236     0.124463  77.48 0.0002213481    1.225    0.184
        29 -11.8122    231.1371    170.8340   3.6676331571e+01   1.5211858510e+00     0.517204    0.2818689 -36.80  0.002508248    1.666    0.400
        30 -10.1708     17.0004    201.8398   8.9770110631e+01   2.9889178809e+01     0.152812    0.1341373  83.62 0.0003841502    1.188    0.159
        31  -8.9908      4.3654    162.8159   8.9613540416e+01   4.0213521032e+01    0.1757779    0.1478778  24.00 0.0006150002    1.518    0.341
        32  -8.6297      9.0033    161.9965   8.8388183333e+01   4.0042242218e+01    0.2415891    0.1439711 -44.83  0.001292355    2.030    0.507
        33  -8.6008    188.3653    171.1716   4.4884531168e+01   9.1573420503e+00     0.208359    0.1328377 -53.24 0.0007787374    1.705    0.413
        34  -9.4163    152.6828    162.1678   5.0899542446e+01   1.8143764372e+01    0.2375692    0.1891867 -68.77 0.0005863024    1.406    0.289
        35 -11.3263    136.2314    155.1040   5.3392949840e+01   2.3095268300e+01    0.6072416    0.3971204 -75.33  0.002429118    2.127    0.530
        36 -11.9222    133.9017    146.7255   5.2161418897e+01   2.5537832819e+01     1.284078    0.4283486 -56.93  0.003535743    4.004    0.750
        37  -8.6642      1.3410    156.5551   8.9835750108e+01   4.1944930451e+01    0.1242803   0.09385502 -77.62 -3.235977e-05    1.092    0.084
        38  -9.0454    147.6537    156.5414   5.0902747746e+01   2.0440939432e+01     0.267911    0.1928523 -73.32 0.0009306939    1.740    0.425
        39  -8.9894    147.1536    143.8989   4.8236713027e+01   2.3436327689e+01    0.2486916    0.2113418 -85.52  0.001209474    1.321    0.243
        40 -10.8173    144.8270    147.0164   4.9504727064e+01   2.3209496673e+01     0.500088    0.3342062 -83.50  0.001937853    2.363    0.577
        41 -10.4665    140.1066    146.7220   5.0602377975e+01   2.4259774260e+01    0.4551399    0.3008599 -86.47  0.001715555    2.481    0.597
        42  -9.5682    135.9933    128.0118   4.7290717143e+01   2.9461959419e+01    0.4333252    0.1873192 -47.84  0.001519784    2.289    0.563
        43  -9.7667    121.3568    123.1447   4.9953911254e+01   3.3679832857e+01    0.3790003     0.281117 -44.74  0.001751656    1.355    0.262
        44  -9.9485    105.3200    117.9768   5.3173864608e+01   3.8117109583e+01    0.3743353    0.2937899  65.61  0.001028536    1.446    0.308
        45  -8.9497    110.9509    117.5428   5.1450977531e+01   3.7109229717e+01    0.2279842    0.2042958 -55.19 0.0003517556    1.094    0.086
        46 -11.0052    118.7663    111.0335   4.7594591466e+01   3.7005618816e+01    0.5712063    0.4181099  82.42  0.001783461    1.873    0.466
        47  -9.6645     52.6337    201.2631   8.1749406457e+01   2.5918218029e+01    0.1810799    0.1307706 -71.30  0.001022121    1.330    0.248
        48  -9.2589    102.8573     99.9679   4.9201678601e+01   4.2730448270e+01    0.2912746    0.2016931 -51.65  0.001342698    1.443    0.307
        49 -10.3895     54.4718    198.5132   8.1028229380e+01   2.6324588621e+01    0.2806108    0.1918503  65.04  0.001530523    1.349    0.259
        50  -8.7746     81.2685     93.7222   5.4245440654e+01   4.8107153226e+01    0.2434052    0.1661401 -14.48  0.001059821    2.090    0.521
        51 -10.3226     75.4712    249.2436   8.1555619846e+01   1.2437923163e+01    0.2600169    0.1118708 -58.31  0.001250803    2.639    0.621
        52  -9.4186      1.8404     92.6214   8.2202987792e+01   5.7158738492e+01      0.20379    0.1333926 -58.01 0.0007960711    1.208    0.172
        53  -9.5783     66.7345     88.9518   5.7854515424e+01   5.1506028290e+01    0.3058962     0.203984  35.33 0.0009523407    1.575    0.365
        54  -9.3796     40.8290     88.7405   6.7142956717e+01   5.4926518969e+01     0.232887    0.2162653 -72.06  0.001328915    1.169    0.145
        55  -9.4288    191.7859    193.1154   4.8509787513e+01   4.2429580664e+00    0.5335424    0.2999728 -68.89  0.001681639    5.042    0.802
        56  -9.8486      2.8253     81.1408   7.9877558661e+01   5.9698209587e+01    0.3724709    0.1944729  84.84  0.001684909    3.068    0.674
        57 -12.3052    170.3031     62.4279   2.2310060008e+01   3.4457450330e+01    0.8920735    0.8320034 -16.85  0.001163522    1.289    0.224
        58  -8.4285     56.2368     69.4038   5.5980769114e+01   5.7159552667e+01    0.1768544    0.1236601  41.55  0.000802165    1.594    0.373
        59  -9.3587     81.9169    195.9992   7.4192356840e+01   2.3004956398e+01    0.2141332    0.1796106  66.02 0.0005192441    1.078    0.072
        60 -10.7784     58.4189    248.3594   8.4858324664e+01   1.4949379029e+01    0.1585878       0.1133  45.19 0.0006291918    1.262    0.208
        61 -12.1688    192.2035     42.4884   1.3764967989e+01   3.2151117644e+01    0.5863209    0.4911836  58.42  0.001790119    1.305    0.233
        62  -9.1787    173.1073     47.8713   1.7929378353e+01   3.5987363268e+01    0.2125598    0.1719581 -78.21 0.0004081282    1.196    0.164
        63  -8.7995     66.6142    195.0026   7.7745278221e+01   2.5501319805e+01    0.4641439    0.2482446  74.17  0.001587306    2.382    0.580
        64  -9.7012    141.8488     42.0760   2.1833680254e+01   4.4409549399e+01    0.2107421    0.1816156 -82.49 0.0004406175    1.198    0.165
        65 -11.2644     60.5396    187.2736   7.8267341876e+01   2.8204625161e+01    0.8695807    0.3647252  51.81  0.003511119    2.448    0.592
        66 -10.1715     79.3670    244.8685   8.0356717925e+01   1.2741058295e+01     0.155909    0.1268442 -81.43 0.0004002758    1.296    0.228
        67 -11.1243     52.5317    243.9679   8.5665516140e+01   1.6599537973e+01    0.1613113    0.1409759  87.23 0.0009793839    1.237    0.192
        68 -11.1725     68.9044    242.5882   8.2270578911e+01   1.4676236968e+01     0.196128    0.1563547 -87.73 0.0005516152    1.248    0.198
        69  -8.4968    184.6977    218.9239   5.4599695792e+01   7.3357992651e-01    0.1777812     0.120213 -53.36 0.0007785104    1.790    0.441
