#   1 NUMBER                 Running object number                                     
#   2 MAG_AUTO               Kron-like elliptical aperture magnitude                    [mag]
#   3 X_IMAGE                Object position along x                                    [pixel]
#   4 Y_IMAGE                Object position along y                                    [pixel]
#   5 X_WORLD                Barycenter position along world x axis                     [deg]
#   6 Y_WORLD                Barycenter position along world y axis                     [deg]
#   7 A_WORLD                Profile RMS along major axis (world units)                 [deg]
#   8 B_WORLD                Profile RMS along minor axis (world units)                 [deg]
#   9 THETA_WORLD            Position angle (CCW/world-x)                               [deg]
#  10 FWHM_WORLD             FWHM assuming a gaussian core                              [deg]
#  11 ELONGATION             A_IMAGE/B_IMAGE                                           
#  12 ELLIPTICITY            1 - B_IMAGE/A_IMAGE                                       
         1  -9.4234      1.6270     29.7304   1.2403992490e+02   6.7896209848e+01    0.5719721    0.1406928 -50.05    0.0027343    2.768    0.639
         2  -9.5959     27.5901     22.5292   1.1038841792e+02   6.7013573029e+01    0.6061307    0.2465588 -21.94  0.002607279    3.538    0.717
         3 -11.4951     80.3666     23.3814   9.1370565623e+01   5.9624369843e+01    0.5463087    0.2543831  33.29 0.0005653231    2.170    0.539
         4  -9.5036     64.1640     14.3917   9.3028530833e+01   6.3359226604e+01    0.4598138    0.2306798  16.33  0.002160425    2.664    0.625
         5  -9.4420    128.2582     15.9145   7.6398049293e+01   5.0667301085e+01    0.4046264    0.2515671  26.91  0.001029935    1.817    0.450
         6  -9.6051    134.3925     13.2126   7.4289798628e+01   4.9526141945e+01    0.3949608    0.2207249  29.89  0.001623661    2.119    0.528
         7  -8.8913    121.2362     14.9092   7.7543543968e+01   5.2341547648e+01    0.4343843    0.2341136  30.06  0.002049077    2.115    0.527
         8  -9.2499     79.3292     12.9559   8.7580566192e+01   6.0968283285e+01    0.3545209    0.2068254  49.33  0.001550933    1.702    0.412
         9  -9.2059     74.4709     13.5117   8.9298638892e+01   6.1759322160e+01    0.3203231    0.1997807   6.73  0.001818974    1.700    0.412
        10  -8.5608     96.4679     13.4890   8.2956140041e+01   5.7689433188e+01     0.298436    0.1529798  22.27  0.001364612    2.453    0.592
        11  -9.3331     31.8589     10.9096   1.0379902803e+02   6.8129297415e+01    0.3247321     0.184107  -1.78 0.0004468029    1.855    0.461
        12  -9.0312     32.2803      5.9878   1.0145187469e+02   6.8674093657e+01    0.2088493     0.153034  -8.32 0.0005125208    1.054    0.052
        13  -9.6286     46.6016      6.4803   9.5952718652e+01   6.6809851226e+01    0.2390451    0.1678564  16.43 9.447106e-05    1.192    0.161
        14  -9.0316     40.9831      5.9432   9.7891007119e+01   6.7614520426e+01    0.3299851    0.2003543  -4.51  0.001465191    1.536    0.349
        15  -8.5374    233.4976     10.0218   6.0234859303e+01   2.6080980009e+01     0.275471    0.1696162 -30.40 0.0009907819    1.899    0.473
        16  -8.7296    125.2018     10.1957   7.5113671199e+01   5.1903343426e+01    0.2188014    0.1611839  53.51 0.0003823266    1.170    0.146
        17  -9.4745    129.4491      6.7215   7.3122404462e+01   5.1253056460e+01     0.422584     0.182363  43.78  0.001589117    2.122    0.529
        18  -9.3797     70.8779      9.1700   8.8653935455e+01   6.2817836121e+01    0.3077359    0.1317839  38.71  0.001545403    2.065    0.516
        19  -8.6480    155.8243      6.8922   6.8642435814e+01   4.5050988754e+01    0.1751954     0.142175 -79.02 0.0004871253    1.334    0.250
        20  -8.2503    100.6562      6.7984   7.9383691549e+01   5.7473772655e+01    0.1881425    0.1361127  16.98 0.0006319939    1.359    0.264
        21  -8.8708     76.0377      3.7382   8.4821293211e+01   6.2440293170e+01    0.1999964    0.1589557 -30.72 0.0003382911    1.524    0.344
        22 -10.0926      7.8282      5.4191   1.1214951563e+02   7.1122727150e+01    0.4368779    0.1850392  10.45  0.001666838    2.914    0.657
        23  -7.7346     91.2045      4.8228   8.1023482131e+01   5.9526363481e+01    0.1745938    0.1147604  30.81 0.0004024499    1.337    0.252
        24  -7.6777    134.1854      2.8644   7.0997038205e+01   5.0496204219e+01    0.1728076    0.1249478  42.00 0.0003096471    1.266    0.210
        25  -8.4304    143.0980      2.1755   6.9255998607e+01   4.8483078587e+01    0.1899317    0.1769816  33.87 0.0003271331    1.151    0.131
        26  -8.0662     55.8458      3.5772   9.1288240904e+01   6.5777335928e+01    0.2035867   0.09196141  38.85 0.0008111453    1.967    0.492
        27  -9.2248    110.6814      3.8961   7.6000920579e+01   5.5631507205e+01    0.3200619    0.1803168 -30.57  0.001270773    1.998    0.500
        28  -9.2243    119.1743      6.8818   7.5228636853e+01   5.3538822042e+01    0.2226039    0.1728898  38.33  0.000240999    1.138    0.121
        29  -8.1645    105.9445      1.6812   7.6256379371e+01   5.6811814149e+01    0.1834122    0.1399171  49.52   0.00115725    1.135    0.119
        30  -7.4947    159.4380      1.5157   6.6554759962e+01   4.4657937125e+01    0.1305429     0.108581  59.71 0.0001976904    1.070    0.065
        31  -8.0611      2.9509      1.4342   1.1275836502e+02   7.2016224654e+01    0.1370093   0.08284938  10.06 0.0004873473    1.557    0.358
        32  -8.9445    242.2041     95.7827   7.8505314108e+01   1.1538720760e+01    0.2511808    0.1407256 -69.12 0.0006889084    2.810    0.644
        33  -9.4234    216.8816    249.2862   1.1450303807e+02  -9.2415077821e+00     0.250253    0.1401808  49.00  0.001333518    1.944    0.486
        34 -10.4525    197.9807    248.9489   1.1791661196e+02  -6.1068309233e+00    0.4350515    0.2309007  39.18  0.002328157    1.559    0.359
        35  -7.2739    150.7132     95.6547   9.5899629114e+01   3.3231932177e+01    0.1569804    0.1246575   2.77 0.0007021152    1.650    0.394
        36  -7.0220    203.3051     93.3957   8.4314238510e+01   2.0961121280e+01    0.1565002    0.1216669   8.56 0.0007005016    1.826    0.452
        37  -8.8752     43.5287     92.4974   1.2557801853e+02   5.2590999082e+01    0.2969871      0.15425 -31.02  0.001370665    2.409    0.585
        38  -9.3742     15.9985     95.0241   1.3455388806e+02   5.4409470262e+01    0.2506973    0.1623553 -17.55  0.001331373    1.972    0.493
        39  -8.2225     96.1296     90.8438   1.0904034911e+02   4.5587586859e+01    0.3474627    0.2378551  -8.99  0.001544214    2.134    0.531
        40  -7.6355     56.6830     92.2980   1.2142212043e+02   5.1159589647e+01    0.1245188    0.1012942  84.35 0.0007017857    1.612    0.380
        41  -7.9334    110.2071     90.8027   1.0500386411e+02   4.2974952448e+01    0.3874073    0.1728605  27.13  0.001093495    4.747    0.789
        42  -7.4156    138.9841     87.5361   9.6458631612e+01   3.7531146222e+01    0.2196724    0.1283741  27.58 0.0008085357    2.487    0.598
        43 -10.4275     37.2926     81.1515   1.2492469440e+02   5.5615798398e+01    0.6171023     0.335051 -10.70  0.002827538    3.026    0.670
        44  -9.3101     19.0263     84.2725   1.3154722623e+02   5.6484969270e+01    0.2255946    0.1419636 -74.35  0.001316613    1.690    0.408
        45  -7.7469    126.0217     83.7964   9.8683160593e+01   4.1123006615e+01    0.2487533     0.172111  17.94 0.0008115243    1.967    0.492
        46  -8.7872     88.1060     78.9101   1.0800420589e+02   4.9394309784e+01    0.4575808    0.2609975  15.58   0.00179901    2.940    0.660
        47  -9.8108      8.0332     77.4512   1.3370934358e+02   5.8618775787e+01    0.6005259    0.1986338 -37.69  0.002652118    3.200    0.688
        48  -7.7426    184.4628     77.9625   8.3781603847e+01   2.8352499732e+01     0.226538    0.1488475 -38.58 0.0008453745    1.538    0.350
        49  -8.8714     49.3118     76.9701   1.1988652310e+02   5.5229576650e+01    0.3916013    0.2171749   8.62  0.001835175    2.678    0.627
        50  -7.4816    120.0384     76.4336   9.8076310837e+01   4.3795572011e+01    0.2104678    0.1220458  25.22 0.0005327541    2.482    0.597
        51  -8.0221    107.0741     76.1665   1.0158150023e+02   4.6475061391e+01    0.4062573     0.154723  32.79  0.001220328    4.164    0.760
        52  -8.2608     74.7245     74.5250   1.1087993051e+02   5.2386175686e+01    0.2509178    0.1801419 -13.74 0.0008112578    1.600    0.375
        53 -10.2675     24.2221     73.1480   1.2737328799e+02   5.8389926174e+01    0.8367472    0.3063484 -31.33  0.003157002    4.198    0.762
        54  -8.0742     23.4706     69.4684   1.2674175859e+02   5.9186871011e+01    0.2117277    0.1609402 -57.43 2.048435e-05    1.220    0.180
        55  -7.3811    150.0201     74.0152   8.9886061432e+01   3.7477719394e+01    0.1735963    0.1659002 -37.51   0.00093623    1.071    0.066
        56  -7.7412    187.5112     71.1196   8.1369281790e+01   2.8767573083e+01    0.2141113    0.1862918  63.95 0.0003390551    1.117    0.105
        57  -7.6244    129.7524     68.9810   9.3260191580e+01   4.3036896076e+01    0.2156957    0.1562337  24.55 0.0008131831    1.612    0.380
        58  -7.0772    116.3040     68.6937   9.6701685536e+01   4.5984142083e+01    0.1398211     0.116355 -80.40 0.0007013499    1.602    0.376
        59  -7.5093    106.2453     66.9914   9.8964816627e+01   4.8319585478e+01    0.1924059    0.1170289 -38.29 0.0008920863    1.620    0.383
        60  -9.1507     17.4800     62.9804   1.2723755445e+02   6.0906377550e+01    0.5705201    0.1832338 -35.45  0.002320167    3.561    0.719
        61  -8.9901     83.7415     64.0587   1.0477781884e+02   5.2925931969e+01    0.4339239    0.2701924  -2.03  0.001904313    2.472    0.596
        62  -9.8230     27.0029     60.1823   1.2307682099e+02   6.0711772597e+01     0.482364    0.2799409   3.34   0.00274865    2.146    0.534
        63  -9.6568     61.3256     61.6817   1.1137898690e+02   5.6717184729e+01    0.5869835    0.2488249  25.40     0.002428    3.093    0.677
        64  -8.3140     97.0041     58.6993   9.8968048203e+01   5.1520947528e+01    0.5512564    0.2893993  -7.49  0.001484679    6.445    0.845
        65  -9.4812     37.0163     59.4857   1.1925852367e+02   5.9934777796e+01    0.4036278    0.2022613 -21.06  0.001862432    2.755    0.637
        66  -8.3357    248.7565     60.4268   6.9627893518e+01   1.5854972976e+01    0.1829408      0.12154  55.58 0.0009525946    1.667    0.400
        67  -9.4691    243.1492     58.9674   6.9979964335e+01   1.7329607239e+01    0.2563343    0.2385653  -4.96 0.0003701458    1.412    0.292
        68  -9.3874    247.1230     55.1212   6.8648498010e+01   1.7017921680e+01    0.2299433    0.2051112 -36.51 0.0007618635    1.283    0.221
        69  -7.9067    128.7326     58.2998   9.0179141625e+01   4.5053692298e+01    0.1946297    0.1598638  12.63 0.0006403737    1.341    0.254
        70  -7.7184    111.0596     58.4514   9.4862919355e+01   4.8815100198e+01    0.2018935     0.111965  26.58 0.0008070018    2.422    0.587
        71 -10.1335     74.8815     50.4014   1.0308808472e+02   5.6704108409e+01    0.4390091       0.2927 -10.10 0.0003824759    1.703    0.413
        72  -8.1982    118.3603     51.0110   9.0461697283e+01   4.8462727310e+01    0.2345983    0.1883562  44.76 0.0006190081    1.196    0.164
        73  -8.9178     45.0548     49.0908   1.1308493908e+02   6.0961797150e+01    0.3434573    0.1972283 -19.05  0.001668317    1.967    0.492
        74  -7.9460    106.9507     48.7069   9.2755614503e+01   5.1186082522e+01    0.2858751    0.1413844  30.32  0.001129654    2.604    0.616
        75  -7.3236     91.2732     49.3457   9.7528969583e+01   5.4093510247e+01    0.1374534   0.09726089   0.42 0.0005623514    1.623    0.384
        76  -8.7902      1.9380     44.5187   1.2824574170e+02   6.5319671358e+01    0.3152598    0.2418157  79.12  0.002151396    2.264    0.558
        77  -8.2113      7.3349     47.7210   1.2701678071e+02   6.4435556314e+01    0.1645889    0.1388143  12.31  0.000568721    1.447    0.309
        78  -8.8000     10.5079     47.0573   1.2560720755e+02   6.4360173938e+01    0.3410157    0.1735889 -52.35  0.001114407    1.572    0.364
        79  -9.4999     13.6731     45.7017   1.2398861970e+02   6.4394363533e+01    0.6941831    0.1966139 -37.60  0.002973962    3.222    0.690
        80  -9.3838     58.9415     40.3759   1.0500792927e+02   6.0652330097e+01    0.4407637    0.2280491 -11.61  0.001838087    3.219    0.689
        81 -10.6162     83.2336     40.0495   9.6725879055e+01   5.6919339938e+01    0.3999618     0.255396  -8.86 0.0002119396    1.821    0.451
        82  -8.8290     87.5043     38.0042   9.4659485808e+01   5.6456801435e+01    0.2822272    0.2061826 -11.49 0.0007152472    1.371    0.271
        83  -8.8248     35.5829     38.1884   1.1296286897e+02   6.3808658140e+01     0.485695    0.1381056 -44.99  0.002051669    3.019    0.669
        84  -8.8068     38.6958     35.4394   1.1076943806e+02   6.3917630520e+01    0.2243133    0.1788405   6.40 0.0008062343    1.212    0.175
        85  -8.6273     92.5042     38.4684   9.3321785556e+01   5.5476357092e+01    0.4332772    0.2068115 -37.64  0.001291999    2.161    0.537
        86  -7.6677    123.9627     39.9180   8.5375492916e+01   4.8829005869e+01    0.2256652    0.1542714  21.22  0.001015302    1.710    0.415
        87  -8.7056      3.5053     39.5769   1.2624509246e+02   6.6111839228e+01    0.2726589   0.07602572 -53.20  0.001306737    2.590    0.614
        88  -9.4126      6.2356     33.7163   1.2335852973e+02   6.6957369594e+01    0.3092776    0.2257593 -31.38  0.001677761    1.025    0.024
        89  -8.0530    249.6867    249.3314   1.0868122438e+02  -1.4234844603e+01   0.09877694   0.09214431  50.49 0.0007044731    1.678    0.404
        90  -9.3333     67.7620     37.4293   1.0084420955e+02   5.9819543614e+01    0.2632549    0.2302742   2.49  0.001210033    1.089    0.082
        91  -9.3560     71.7724     35.4010   9.8733087201e+01   5.9489307635e+01    0.4310306     0.248405  11.09   0.00206596    2.318    0.569
        92  -8.1813    105.5095     36.8444   8.9051512307e+01   5.3164465514e+01    0.2933523    0.1526669  34.57  0.001323831    2.016    0.504
        93  -9.5855     22.9700     35.5119   1.1705606248e+02   6.5431099532e+01    0.4445256    0.2131519  21.38  0.002552252    2.292    0.564
        94  -9.1510     21.9773     32.2706   1.1634017380e+02   6.6041358938e+01    0.2596921    0.2080434  11.47 0.0003100565    1.361    0.265
        95 -10.0537    139.1002     35.2146   8.0406244989e+01   4.5982618833e+01    0.2363574    0.2162473 -13.05 0.0003435934    1.175    0.149
        96  -9.1122     56.1012     35.2467   1.0414220950e+02   6.1819214539e+01    0.2632683    0.1796117 -14.98  0.001025818    1.368    0.269
        97  -9.2880     41.8459     27.4059   1.0652381790e+02   6.4770334352e+01    0.2932314    0.1469114 -40.99  0.001144572    1.928    0.481
        98  -8.3237     61.8363     26.8782   9.8879361553e+01   6.2185376024e+01     0.188723    0.1359646   4.20 0.0004602567    1.287    0.223
        99  -7.8399     75.9646    250.0137   1.4045100994e+02   1.3786656513e+01    0.1414048    0.1078352  74.40 0.0003552818    1.066    0.062
       100 -10.2653     12.0784     93.8567   1.3552078780e+02   5.4924924346e+01    0.3871198    0.2228588 -32.92  0.001861995    1.901    0.474
       101  -9.0094     70.1426     25.8724   9.5634627339e+01   6.1034897310e+01    0.1766229    0.1608021 -10.12 0.0005603468    1.240    0.194
       102  -7.6322    118.2371     24.5850   8.1545758369e+01   5.1983242328e+01    0.1904839    0.1072335  44.72 0.0004909903    1.583    0.368
       103  -8.9087     64.9101     23.4901   9.6469364625e+01   6.2160242776e+01    0.2880563    0.2010817  62.36  0.001551528    2.629    0.620
       104  -8.3266    144.9053     23.1414   7.5431296376e+01   4.6037220924e+01    0.2011589    0.1754164  52.79 0.0004097983    1.024    0.023
       105  -8.8678     46.0420     20.6573   1.0220531268e+02   6.5184773759e+01    0.2929634    0.1644925 -39.87  0.001052976    1.905    0.475
       106  -8.4048    139.9120     20.1708   7.5453641857e+01   4.7538279045e+01    0.2967748    0.1573818  53.32 0.0007435388    1.620    0.383
       107  -8.4281      9.5833     19.8370   1.1714129754e+02   6.8949892836e+01    0.2073366    0.1230192 -14.99 0.0008182279    1.513    0.339
       108  -8.3397     92.3777     21.3149   8.7025813935e+01   5.7659266455e+01    0.2919665    0.1423344  26.10  0.001268251    2.584    0.613
       109  -8.3911      5.0805     18.9478   1.1882742643e+02   6.9397289932e+01    0.1682627   0.08878424 -24.74 0.0003854532    1.590    0.371
       110  -7.3697    118.4964    242.4317   1.3197074395e+02   8.5362819041e+00     0.127828    0.1021303  59.45 5.809103e-05    1.014    0.014
       111  -7.2354     43.5084    237.4245   1.4497677468e+02   2.0529996874e+01    0.1131732   0.08614599  75.60 0.0001209545    1.072    0.067
       112  -9.3581    188.1934    234.2817   1.1745869674e+02  -2.2519397208e+00    0.2609942    0.2108998 -60.50  0.001017362    1.614    0.380
       113  -8.4779     28.9081    230.3077   1.4692503288e+02   2.3658847367e+01    0.1806545    0.1275949 -84.89 0.0003698459    1.226    0.184
       114  -7.5279     26.5283    217.4559   1.4640192480e+02   2.6483158189e+01    0.1141122   0.08570056  82.90 0.0001419859    1.056    0.053
       115  -7.7098     12.3114    207.6612   1.4819368786e+02   2.9973219001e+01    0.1209962   0.06189242  72.18 0.0007045479    1.691    0.409
       116 -10.1693    174.0042    204.3002   1.1520310011e+02   5.5093460689e+00     0.231823    0.2218468  43.03 0.0002166252    1.051    0.048
       117  -7.5196    145.3332    150.6878   1.1091540850e+02   2.2523181017e+01    0.1603838    0.1210414  84.04 0.0006719704    1.679    0.404
       118  -9.0805     67.3629    144.6048   1.2913466125e+02   3.7791047611e+01    0.4259745     0.284634  75.43  0.002131244    1.792    0.442
       119  -9.3406    231.3658    134.1371   8.9099691110e+01   7.0015445666e+00    0.2402431      0.23503  85.15 0.0001966537    1.103    0.093
       120  -7.0466    163.4522    133.4833   1.0270885168e+02   2.2350995069e+01    0.1567121    0.1523945 -83.11 0.0002171431    1.018    0.018
       121  -7.4346     70.4945    133.4615   1.2630513295e+02   3.9993699204e+01    0.1387504     0.122772 -69.81 8.160745e-05    1.005    0.005
       122  -7.9077     40.4840    129.5072   1.3356874190e+02   4.4555603908e+01    0.2379446    0.1209805   2.08 0.0008103186    5.670    0.824
       123  -7.0141    144.3162    126.2961   1.0548210888e+02   2.8195198696e+01    0.1551746    0.1267885   1.43  0.000337138    1.606    0.377
       124  -8.2047     12.6871    121.6345   1.3966593966e+02   4.8782413796e+01     0.126526   0.06904268 -47.44 0.0007039078    1.763    0.433
       125  -7.9805     99.4621    119.3391   1.1542928836e+02   3.8730001964e+01     0.274046    0.1362767  25.35 0.0009410643    3.310    0.698
       126  -7.8074    120.1974    118.5621   1.0967568510e+02   3.4998925667e+01    0.2149162    0.1474342  29.28 0.0009434254    1.740    0.425
       127  -8.7818    249.5597    115.2236   8.1810187243e+01   6.5994959996e+00    0.2324004    0.1965464  55.14 0.0005907743    1.307    0.235
       128  -8.6717     20.7515    113.9609   1.3638521414e+02   4.9891987347e+01    0.1822212    0.1356752 -66.05 0.0004527013    1.063    0.059
       129  -7.6307     28.3380    112.7202   1.3407898833e+02   4.9544821965e+01    0.1189169   0.08697323  76.24 0.0003320595    1.619    0.383
       130  -8.3345      1.6331    110.5064   1.4105734990e+02   5.1962433979e+01    0.2057082   0.08389176 -68.57 0.0009023458    1.828    0.453
       131  -8.1279    133.8757    106.4287   1.0299142900e+02   3.4804219053e+01    0.3179762    0.2015351 -28.71 0.0008274957    1.936    0.484
       132  -7.3764     76.2822    107.3145   1.1912508805e+02   4.5218764139e+01    0.1399205    0.1016877 -28.29 0.0002394646    1.575    0.365
       133  -7.4264    109.5038    106.4569   1.0946536411e+02   3.9782671975e+01    0.1498473    0.1405144 -23.65 0.0003907621    1.096    0.088
       134  -7.7850     61.0467    106.4538   1.2339592609e+02   4.7497288816e+01    0.1864977    0.1350704  30.02  0.001027214    1.588    0.370
       135  -9.2941     14.4123    105.5952   1.3681718887e+02   5.2217916790e+01    0.2665256    0.1385199 -40.69  0.001462661    1.970    0.492
       136  -7.6158     93.7553    103.4143   1.1310035073e+02   4.3305250667e+01    0.1926073    0.1399197  22.95 0.0006870651    1.642    0.391
