#   1 NUMBER                 Running object number                                     
#   2 MAG_AUTO               Kron-like elliptical aperture magnitude                    [mag]
#   3 X_IMAGE                Object position along x                                    [pixel]
#   4 Y_IMAGE                Object position along y                                    [pixel]
#   5 X_WORLD                Barycenter position along world x axis                     [deg]
#   6 Y_WORLD                Barycenter position along world y axis                     [deg]
#   7 A_WORLD                Profile RMS along major axis (world units)                 [deg]
#   8 B_WORLD                Profile RMS along minor axis (world units)                 [deg]
#   9 THETA_WORLD            Position angle (CCW/world-x)                               [deg]
#  10 FWHM_WORLD             FWHM assuming a gaussian core                              [deg]
#  11 ELONGATION             A_IMAGE/B_IMAGE                                           
#  12 ELLIPTICITY            1 - B_IMAGE/A_IMAGE                                       
         1 -15.0128    167.0247     44.4457   7.3600912175e+01   3.8053565478e+01      1.21094     1.089121   3.62  0.004039219    1.344    0.256
         2 -15.2422    186.4141     11.1494   6.2072645292e+01   3.7361601488e+01     2.597627     1.109893  66.18  0.008333222    1.961    0.490
         3 -10.8900    125.1336    244.7758   1.2721971729e+02   6.0763987322e+00    0.1379694    0.1247822 -60.64 0.0003881086    1.293    0.226
         4 -19.9091     67.3950    166.2693   1.2888129351e+02   3.2577143385e+01     18.89041     7.190588 -65.24   0.07261529    2.496    0.599
         5 -12.9891     11.5687    206.0556   1.4550064580e+02   2.9858698766e+01    0.3353647    0.2408957  37.94  0.002005473    1.683    0.406
         6 -10.2755     16.1442    202.2740   1.4433537305e+02   3.0230041919e+01    0.1033334   0.06401184 -70.15            0    1.423    0.297
         7 -10.9330    121.0798    197.4985   1.2119280505e+02   1.6461781628e+01     0.191312    0.1769612  89.19 -0.0002565214    1.052    0.049
         8 -10.6663    112.6413    196.2563   1.2290325729e+02   1.8242502307e+01    0.4276959    0.2914458  -3.58  0.001679916    3.249    0.692
         9 -11.0819    103.5466    195.6110   1.2486841168e+02   1.9960343547e+01    0.3502942    0.2543937  84.05  0.001484762    1.506    0.336
        10 -12.0537    159.3174    194.8821   1.1216711006e+02   9.8338047763e+00    0.3093682    0.2571911 -44.59 0.0007272785    1.261    0.207
        11 -13.1413    142.6494    165.8424   1.1026325114e+02   1.9547340753e+01    0.6779004    0.4275087 -87.78  0.002430109    2.926    0.658
        12 -12.8571    155.0401    187.2321   1.1167030021e+02   1.2294660326e+01    0.5064273    0.3267812 -59.68 0.0006986915    1.741    0.426
        13 -11.8909    150.7176    182.5332   1.1174003191e+02   1.4171566309e+01    0.3051933    0.2681707  86.17 0.0005359818    1.238    0.192
        14 -14.2405    145.1813    174.9246   1.1151630849e+02   1.6969153712e+01     1.261641     1.003871 -58.70  0.006301584    1.286    0.222
        15 -11.7040    153.1361    191.9235   1.1298451659e+02   1.1657898276e+01    0.3262222    0.2606718  84.57  0.001391282    1.524    0.344
        16 -11.5692    149.5223    188.0588   1.1307013209e+02   1.3195691605e+01     0.408854    0.2885561  59.09  0.001929139    1.538    0.350
        17 -10.8857    125.2580    239.2159   1.2647010032e+02   7.0956657809e+00    0.3548151    0.1125614 -53.06  0.001363498    3.493    0.714
        18 -12.9947    165.7912    187.5836   1.0934786052e+02   1.0100986545e+01    0.6938242    0.2939699  52.47   0.00239852    2.863    0.651
        19  -9.3794    134.8002    242.9037   1.2505490975e+02   4.7993310512e+00    0.3190559    0.1496488 -46.26 0.0009709312    2.607    0.616
        20 -13.9950    138.2326    171.4395   1.1245243496e+02   1.9144591303e+01    0.7793458    0.5701916  53.70  0.002871136    1.387    0.279
        21 -11.8354    185.2140    170.0770   1.0153996948e+02   9.8573123170e+00    0.5522625    0.3299593 -63.13  0.002022877    2.376    0.579
        22 -12.4939    189.5738    178.7970   1.0244817014e+02   7.1886810187e+00    0.5017588    0.3648897  79.53  0.001618859    2.141    0.533
        23 -11.4095    188.5370    175.4856   1.0197723152e+02   8.0686896591e+00    0.2976768    0.2599438 -17.94 0.0007346417    1.205    0.170
        24 -10.0682    138.7082    242.9137   1.2427713094e+02   4.1355014277e+00    0.1625651    0.1143333 -74.02 0.0003732418    1.790    0.441
        25 -12.1675      4.2902    178.7570   1.4477869437e+02   3.6553016673e+01    0.2656949    0.2219875  79.64  0.001152205    1.173    0.148
        26 -12.4837    204.3067    174.9283   9.8609429828e+01   5.0475744590e+00    0.5038251    0.3850051 -58.90  0.001929295    1.527    0.345
        27 -12.0901    196.4156    175.2030   1.0027459247e+02   6.5503090689e+00    0.4190487    0.3618999  82.92   0.00220046    1.448    0.310
        28 -12.4599    192.1135    163.7845   9.8726617252e+01   9.7411196123e+00    0.7034074    0.3826411 -56.50  0.001058503    2.279    0.561
        29 -12.4625    189.2815    155.3038   9.7449318186e+01   1.2094437804e+01    0.5407068    0.5056691   2.29  0.001649551    1.131    0.115
        30 -11.0406    161.3869    239.5289   1.1924797548e+02   8.5167955394e-01    0.3749179    0.2404562  30.19  0.001394459    1.562    0.360
        31 -12.2914    125.0731    171.8972   1.1568807358e+02   2.1595859877e+01     0.401162    0.3245412  62.88 0.0008157819    1.266    0.210
        32 -10.7580     11.2576    174.2103   1.4290895926e+02   3.6989130119e+01    0.1697946    0.1202341 -72.74 0.0005341779    1.175    0.149
        33 -11.3175     13.3745    239.7567   1.4744911397e+02   2.2695722832e+01    0.1280271   0.08292986 -76.87 0.0008761248    1.417    0.294
        34 -11.9574    177.0078    169.4556   1.0317945367e+02   1.1675339557e+01    0.2972776     0.212634 -61.10 0.0009216217    1.611    0.379
        35 -12.4116    230.5612    167.7127   9.2044151826e+01   1.4067514201e+00    0.4703835    0.2204182 -50.57  0.001859922    2.475    0.596
        36 -13.5578    101.3465    242.3830   1.3160387885e+02   1.0400845033e+01    0.7949016    0.5887666 -52.52  0.004781131    1.644    0.392
        37 -11.1670    163.0676    168.2220   1.0602059492e+02   1.4825258238e+01    0.2603745    0.1773004  69.41  0.001087229    1.994    0.499
        38 -10.6762    151.5127    196.0134   1.1410076039e+02   1.1099071241e+01    0.3716645     0.236176  31.57 0.0008922511    1.723    0.420
        39 -10.2831     13.5518    163.0750   1.4130622040e+02   3.9355652462e+01    0.1743468    0.1180256 -74.05 0.0004497399    1.162    0.140
        40 -10.9808     28.4440    237.2207   1.4470934668e+02   2.1527067896e+01    0.1430035   0.09162185 -83.58 0.0004003762    1.321    0.243
        41 -10.9181     24.5211    165.3676   1.3904368881e+02   3.7823725832e+01    0.1918319    0.1786879  86.07 0.0007561101    1.223    0.182
        42 -10.8517     21.6672    235.7507   1.4578489769e+02   2.2591258684e+01    0.1326709   0.08276311 -89.90 0.0006914901    1.282    0.220
        43 -12.2300    165.8833    154.2266   1.0233103974e+02   1.7321993044e+01    0.4268862     0.308392  75.57  0.001543822    1.873    0.466
        44 -11.2341    174.3138    148.7048   9.9187055810e+01   1.6714713234e+01    0.3667334    0.2826216 -74.35   0.00130806    1.601    0.376
        45 -10.1810    131.0000    233.8979   1.2458388037e+02   7.1342194985e+00    0.1809535   0.07638977 -55.14 0.0007594006    2.652    0.623
        46 -11.0193    162.9371    233.3076   1.1797807802e+02   1.6818752864e+00    0.1933865    0.1569127  38.77 0.0004064468    1.093    0.085
        47 -10.4773    141.2551    229.1200   1.2178520414e+02   6.2703921396e+00    0.2139526    0.1528289 -68.23 0.0009093786    1.658    0.397
        48 -12.0486     13.8227    137.2100   1.3825252333e+02   4.5360052268e+01    0.3115911    0.1992705 -24.95  0.001267423    2.225    0.551
        49 -11.4994      7.5814    141.2140   1.4031390943e+02   4.4898833342e+01    0.2977411    0.1975049 -49.64  0.001851975    1.508    0.337
        50 -12.4038      5.4714    137.4007   1.4039159479e+02   4.5928741905e+01    0.3890978     0.332797 -20.67  0.001264575    1.538    0.350
        51 -10.3429    126.4081    227.7245   1.2466007758e+02   9.1303593750e+00    0.2082179    0.1249739 -44.24  0.000973375    2.045    0.511
        52 -13.1360      3.4419    127.0423   1.3964784359e+02   4.8439385514e+01    0.7433096    0.3188362 -64.04  0.003896015    1.705    0.414
        53 -12.5428      6.8110    119.9370   1.3780219151e+02   4.9840766612e+01    0.3229739    0.2359327  -1.31  0.001528942    1.847    0.459
        54 -12.4037    160.2950    127.6488   9.7359153728e+01   2.4421247081e+01    0.5101871    0.3486047 -58.35  0.001408777    1.591    0.371
        55 -10.6774    163.1888    250.1536   1.2046047356e+02  -1.2566346644e+00    0.1869958    0.1585121  22.83 0.0004853052    1.188    0.158
        56 -10.3671     17.1841    224.2232   1.4578057913e+02   2.5434175600e+01   0.09173343   0.06943302 -77.18 0.0006295035    1.310    0.237
        57 -12.1640      3.1790    112.6047   1.3777703148e+02   5.1724557781e+01    0.2984388    0.1894408 -49.16   0.00165229    1.381    0.276
        58 -12.3366      7.3468    111.0503   1.3636046192e+02   5.1816975017e+01     0.535942    0.1585038 -57.11  0.002358204    2.305    0.566
        59 -10.7889    168.0088    112.9806   9.1919790788e+01   2.5791821109e+01    0.3803543    0.2546232 -82.73  0.001433373    2.377    0.579
        60 -10.9488    205.2019    110.2507   8.3731711827e+01   1.7743501570e+01    0.3381874    0.2064409  50.58 0.0009702486    1.719    0.418
        61 -12.1729     22.5539    220.8431   1.4456633889e+02   2.5563474125e+01    0.2649086    0.1546939 -70.11  0.001631091    1.564    0.361
        62 -11.2659    218.3238    219.9322   1.0467087840e+02  -5.5692262079e+00    0.2787316    0.1554818 -49.60  0.001327864    2.252    0.556
        63 -11.8457      7.3606    102.1027   1.3494143454e+02   5.3811468331e+01    0.2485764    0.2402154  34.64  0.001114852    1.318    0.241
        64 -11.2120     23.5270    215.4142   1.4396999378e+02   2.6610372578e+01    0.1343424   0.09393667 -77.83 0.0008757937    1.256    0.204
        65 -11.3932    106.1225    206.3149   1.2590524545e+02   1.7115173195e+01    0.2810401    0.2789791 -16.00   0.00173553    1.249    0.200
        66 -10.8842    146.0522     81.6769   8.8467885254e+01   3.7090922200e+01    0.2131563    0.1931774  50.28 0.0004741055    1.087    0.080
        67 -14.5176    154.8422     59.2600   8.0098445573e+01   3.8826315631e+01     1.381532     1.088188  47.01  0.001001682    1.246    0.198
        68 -10.4160    160.1879    247.6422   1.2068618211e+02  -3.3415471623e-01    0.2748528    0.1785746  21.39  0.001064155    1.871    0.465
        69 -13.1727    171.3297     36.7902   7.0785243423e+01   3.8025444860e+01    0.3940296    0.3585681  44.30 0.0008597002    1.200    0.167
        70 -11.9809    103.7634    202.1449   1.2581113706e+02   1.8442947544e+01     0.338662    0.2699178  49.81 0.0007385334    1.197    0.164
        71 -11.0321     13.5965     59.9330   1.2395558363e+02   6.2179307362e+01    0.1783327    0.1613756   1.61 0.0004366937    1.307    0.235
