#   1 NUMBER                 Running object number                                     
#   2 MAG_AUTO               Kron-like elliptical aperture magnitude                    [mag]
#   3 X_IMAGE                Object position along x                                    [pixel]
#   4 Y_IMAGE                Object position along y                                    [pixel]
#   5 X_WORLD                Barycenter position along world x axis                     [deg]
#   6 Y_WORLD                Barycenter position along world y axis                     [deg]
#   7 A_WORLD                Profile RMS along major axis (world units)                 [deg]
#   8 B_WORLD                Profile RMS along minor axis (world units)                 [deg]
#   9 THETA_WORLD            Position angle (CCW/world-x)                               [deg]
#  10 FWHM_WORLD             FWHM assuming a gaussian core                              [deg]
#  11 ELONGATION             A_IMAGE/B_IMAGE                                           
#  12 ELLIPTICITY            1 - B_IMAGE/A_IMAGE                                       
         1 -11.8911      1.9240     25.2600   1.1173758135e+02   7.0599450167e+01    0.4102093    0.1516967 -63.92  0.002028959    2.167    0.539
         2 -11.4021      6.6233     17.6033   1.0661208734e+02   7.1890947663e+01    0.4481569    0.3002926 -57.12  0.002099397    1.282    0.220
         3 -11.5803    182.1293     19.2240   5.0545814694e+01   3.7240493788e+01    0.3868473    0.2979931  -3.47   0.00101056    1.478    0.324
         4 -11.1662    199.3786     17.3773   4.7816171278e+01   3.2915634464e+01    0.3843543    0.2885324   4.70  0.001944032    1.617    0.382
         5 -11.0156     24.4050     16.8410   9.6556877434e+01   7.0668995150e+01    0.2591629    0.2126575 -40.95  0.001185601    1.164    0.141
         6 -10.1856     20.9066     11.5530   9.5981947331e+01   7.1951042975e+01    0.2739818    0.2088727  53.71  0.001333308    2.194    0.544
         7 -10.5562     76.3483     14.5722   7.2225952995e+01   6.3508229217e+01      0.42305    0.2691235 -55.18  0.001853087    2.514    0.602
         8 -10.5573     31.7650     12.9863   9.0835203211e+01   7.0589987192e+01    0.2424289    0.1652652 -28.84  0.000780304    1.209    0.173
         9 -10.9734    116.9441     15.0357   6.0654983153e+01   5.4594657229e+01    0.3614349    0.2114221  33.78  0.001336485    1.820    0.451
        10 -12.3598    175.1745     11.2799   4.8873503456e+01   3.9932571039e+01    0.4117467    0.3095278  58.17  0.001449749    1.281    0.220
        11 -11.5262    147.9305     13.2044   5.3661850940e+01   4.6952847362e+01    0.3471532     0.221604  48.93  0.001633614    1.494    0.331
        12 -11.7158    211.2350     10.0913   4.4430767299e+01   3.0644160914e+01    0.4956487    0.3101811  20.38  0.002246045    2.279    0.561
        13 -11.8064    209.1039      4.8427   4.3137560084e+01   3.1708345051e+01     0.366379    0.2626627 -74.91 0.0004010289    1.397    0.284
        14 -10.8294     58.2475     11.7924   7.7759799003e+01   6.7108715320e+01     0.378326    0.2441637  58.44  0.001000146    2.431    0.589
        15 -10.8128    218.2155     12.0140   4.4305722374e+01   2.8691373316e+01    0.2584702    0.1615753  56.72  0.001279432    1.664    0.399
        16 -10.1887     67.1884     11.7843   7.4175195615e+01   6.5580177764e+01     0.235457    0.1983018 -11.89 0.0007595808    1.056    0.053
        17 -11.3957     12.9256     11.2384   1.0037957492e+02   7.2678625213e+01    0.3789696    0.1893895  17.93  0.001312293    2.353    0.575
        18 -12.0064    194.3483      3.7246   4.4241538872e+01   3.5613573607e+01    0.4663194    0.2450563  64.82  0.001522893    1.785    0.440
        19 -10.4277    185.2013      8.8268   4.6828208637e+01   3.7521249008e+01    0.1944511     0.160106  39.78 0.0003730961    1.302    0.232
        20 -12.4319    160.2835      4.5871   4.8597568357e+01   4.4537077764e+01    0.5949015    0.5684502 -24.13  0.003509406    1.099    0.090
        21 -10.4498     75.1195      8.9241   6.9784772321e+01   6.4477978097e+01    0.3753152    0.1868071  50.30  0.001758524    2.085    0.520
        22 -10.8340     39.9925      4.8962   8.2284131203e+01   7.0851823396e+01     0.448788    0.3560295 -78.34  0.002460466    2.856    0.650
        23 -10.4998     51.1098      7.3923   7.8461483977e+01   6.8871840635e+01    0.3876111    0.2024853 -15.72   0.00181085    2.263    0.558
        24 -10.1449     46.6687      8.8909   8.1309578673e+01   6.9321243772e+01    0.1988449    0.1469235  -3.98  0.000445369    1.267    0.210
        25 -11.3925    128.0155      9.2437   5.5800733312e+01   5.2486203726e+01    0.3654764    0.1793356 -20.52  0.001536453    2.105    0.525
        26 -10.8842    165.5277      3.9473   4.7662768780e+01   4.3203466452e+01    0.2236224    0.1857509  46.03 0.0004011493    1.199    0.166
        27 -11.1689    108.0635      7.7022   5.9538886015e+01   5.7512590838e+01     0.317009    0.1862734  61.72   0.00108161    1.742    0.426
        28 -10.8370    111.8577      4.9221   5.7389496875e+01   5.6890184020e+01    0.2452056    0.1928015  10.98 0.0003534527    1.268    0.211
        29 -10.6404     25.1297      6.9794   9.1292680668e+01   7.2323215325e+01    0.2380871    0.1765728 -48.03  0.001029579    1.480    0.324
        30  -9.9940     87.6700      6.7545   6.4605162645e+01   6.2186413609e+01    0.2114777    0.1832672  40.17 0.0005578897    1.163    0.140
        31 -10.0510     62.4588      6.8309   7.3378827785e+01   6.7075170360e+01    0.2366929    0.1803478  66.02  0.001324914    2.026    0.506
        32  -9.9779     19.6710      6.5689   9.4179237389e+01   7.2935511143e+01    0.2752182    0.0811105 -44.40 0.0009596535    2.621    0.618
        33 -10.7277    133.0407      6.0138   5.3513792936e+01   5.1527218766e+01    0.2481796    0.1514795  33.63   0.00113808    1.725    0.420
        34 -11.3976    180.5687      2.0533   4.5198321291e+01   3.9386002256e+01    0.4069199     0.203337  78.18     0.001069    2.020    0.505
        35 -10.2927     49.0091      2.8952   7.6852930143e+01   6.9814153959e+01    0.3109538    0.1661102  22.61  0.001532628    2.216    0.549
        36 -10.4226     12.4846      2.6539   9.6419785202e+01   7.4240479670e+01    0.2912821    0.2322114  68.44  0.001844274    2.531    0.605
        37 -10.7118    248.9625      2.9298   3.9500887177e+01   2.2301499155e+01    0.2111038    0.1665843 -39.83 0.0003736714    1.138    0.121
        38 -10.3196    218.0043      2.2374   4.1630844406e+01   2.9724111528e+01    0.2374117    0.1862143 -35.72 0.0008225009    1.226    0.185
        39  -9.6616     30.8911      2.2384   8.5463710718e+01   7.2422593217e+01    0.2457483    0.1157612 -29.85  0.001261379    1.889    0.471
        40 -10.8982    144.4041      1.7323   4.9894705356e+01   4.8976409558e+01    0.3532317    0.1894627 -85.82 0.0009707597    2.614    0.618
        41 -11.5884    194.6662      8.6229   4.5695702555e+01   3.5056519169e+01    0.3332348    0.2300909 -74.45 0.0002617487    1.536    0.349
        42 -10.0089    115.6851      2.0108   5.5250904317e+01   5.6237048567e+01    0.1861208    0.1687512  12.82  0.000322688    1.067    0.062
        43 -10.0529     73.8481      1.8579   6.6472893160e+01   6.5551178649e+01    0.2036808    0.1576884  14.66 0.0006434805    1.170    0.145
        44 -10.3523     90.4993      1.4627   6.1127454720e+01   6.2131584610e+01    0.2375694    0.1253787  56.19 3.371004e-05    1.863    0.463
        45 -11.4492     73.2835    226.2638   1.1988127748e+02   2.0424318840e+01    0.3206418    0.1360774  51.99  0.001024986    1.852    0.460
        46 -10.3778    216.0558    250.6115   9.7895933116e+01  -3.4550481779e+00    0.1562085   0.07773151  36.87 0.0002689602    1.498    0.332
        47 -12.7734    186.7441    249.8250   1.0256904390e+02   8.1857233570e-01    0.2600525    0.2078649  -4.48    0.0020108    1.470    0.320
        48 -11.7517    127.7472    248.4614   1.1234662519e+02   9.5780415867e+00    0.2572871    0.2265294  78.56  0.001187336    1.317    0.241
        49 -10.4928     15.0097    219.5429   1.2956027906e+02   2.8109833575e+01     0.292306    0.1437119  56.96  0.001045814    1.468    0.319
        50 -12.8428     12.3332    231.8155   1.3047651417e+02   2.6278604703e+01    0.8414882    0.4558975  61.43  0.003282673    1.274    0.215
        51 -11.6848     28.0834    245.8095   1.2855515003e+02   2.2450648365e+01    0.2483768    0.2225014  65.53   0.00117752    1.508    0.337
        52 -12.5497     22.6926    241.5937   1.2922190042e+02   2.3669653368e+01    0.7486733    0.2602744 -84.47  0.004423602    2.825    0.646
        53 -13.0377      3.9239    236.7725   1.3195500902e+02   2.6249109723e+01    0.9692088    0.3111105  66.48  0.005761954    2.396    0.583
        54 -11.9522     34.1786    248.0851   1.2770572169e+02   2.1455678149e+01     0.393697    0.1523292  60.25  0.001911088    1.948    0.487
        55 -12.8168     36.3552    244.0425   1.2717877993e+02   2.1857125638e+01    0.6997828    0.2842623  83.39 0.0005890197    2.598    0.615
        56 -13.0304     14.6514    248.9622   1.3072494429e+02   2.3304719065e+01    0.8544409    0.2952388  37.18  0.005245653    2.594    0.615
        57 -12.9728      3.0993    247.1761   1.3238742405e+02   2.4672070156e+01    0.2639757     0.179915  86.10 0.0008907369    1.349    0.259
        58  -9.6637     48.5166    232.0677   1.2456121944e+02   2.2450973282e+01    0.2087401   0.08390762  62.04  0.001066847    2.172    0.540
        59 -10.2978     45.6493    228.3771   1.2483182182e+02   2.3394339298e+01      0.22514    0.1644483  82.77  0.001094067    1.224    0.183
        60 -10.4208     29.7578    231.0915   1.2763252190e+02   2.4662733510e+01    0.2525453    0.1102072 -80.70  0.001611564    2.194    0.544
        61 -11.6016    152.3145    227.6207   1.0576535082e+02   8.8156538667e+00    0.2887121    0.2425274 -61.44 0.0005882207    1.531    0.347
        62  -9.5293     80.9783    231.2768   1.1891453552e+02   1.8601821656e+01    0.1331213   0.07598497  45.80 0.0006311936    1.380    0.275
        63 -11.4135     93.9600    227.9010   1.1632687901e+02   1.7408606251e+01    0.3598554    0.1807465  70.01  0.001891198    2.534    0.605
        64  -9.7359     56.1259    228.9958   1.2307565705e+02   2.2078587130e+01    0.2621397   0.09306632  47.64  0.001033144    2.047    0.511
        65  -9.1652    208.4360    228.4984   9.6068239160e+01  -3.6195545961e-03    0.1153067   0.08856528  25.85 0.0001857751    1.009    0.009
        66  -9.9454    126.2397    228.1712   1.1053279461e+02   1.2719213299e+01    0.1959877     0.126712  36.39 0.0006164432    1.403    0.287
        67 -10.1712    111.4423    227.5291   1.1314192075e+02   1.4998210538e+01    0.1901188    0.1348564  57.58 9.116476e-05    1.187    0.157
        68 -10.3314    108.8383    225.1218   1.1337309599e+02   1.5757156596e+01    0.1714381    0.1379998  53.44 0.0004284867    1.043    0.042
        69 -10.0203     23.7660    227.4607   1.2845094576e+02   2.5888545297e+01    0.2373695   0.09778161  57.31 0.0006628679    1.765    0.433
        70  -9.6207    202.9485    227.3267   9.6828492993e+01   9.6810478722e-01    0.1595965    0.1147192  32.50 0.0003370471    1.090    0.083
        71  -9.0054    174.0392    228.0000   1.0194362016e+02   5.3728885060e+00    0.1979483   0.05352621  41.38 0.0007986676    2.916    0.657
        72 -10.3517    233.9123    225.7471   9.1438505294e+01  -3.4895095513e+00    0.1685986    0.1509349 -61.25  0.001213437    2.102    0.524
        73 -11.6890    184.5432    225.6584   9.9775508929e+01   4.0294520481e+00    0.2211113    0.1662841  35.86 0.0004448931    1.060    0.056
        74 -10.2314    164.1771    224.4930   1.0323512023e+02   7.3937845673e+00    0.1976005    0.1549384 -80.28 0.0009020495    1.923    0.480
        75  -9.6253    122.9073    225.5387   1.1085173128e+02   1.3621150563e+01    0.1736777   0.09223077  42.93 0.0003858251    1.498    0.332
        76 -10.1680    101.2151    217.3125   1.1399405481e+02   1.8138835101e+01     0.207142    0.1557411  29.44  0.001328896    1.573    0.364
        77 -10.7101     98.7038    223.6254   1.1507515943e+02   1.7446259162e+01    0.3007576    0.1514581 -61.58  0.001749446    2.314    0.568
        78 -10.5633     95.9605    219.2205   1.1515880619e+02   1.8564579872e+01    0.2290935    0.1895943  85.67  0.000869232    1.236    0.191
        79 -10.4145     79.6599    224.3130   1.1858725408e+02   1.9925286332e+01    0.2832275    0.1503486  74.41  0.001621184    2.128    0.530
        80  -9.7775      6.5303    222.0733   1.3105488319e+02   2.8463818158e+01    0.3240085    0.1850517 -71.26   0.00240265    1.908    0.476
        81 -10.5857      1.7661    224.5635   1.3190641102e+02   2.8467950654e+01    0.1622859   0.09704243  79.24 0.0005534935    1.251    0.201
        82 -10.1701     27.8961    220.6821   1.2743963254e+02   2.6632373886e+01    0.2278921    0.1313933 -58.25  0.001517428    2.394    0.582
        83 -10.8167     39.1415    211.1618   1.2494511478e+02   2.7132223223e+01    0.2557997    0.1690403 -81.41  0.001100042    1.443    0.307
        84 -12.1193     31.1380    213.0342   1.2647942081e+02   2.7649653992e+01     0.502721    0.3803232  89.80  0.003977317    1.259    0.206
        85 -11.0900     25.2280    208.4867   1.2728210327e+02   2.9079519593e+01    0.3230708    0.2713055  28.27   0.00188121    1.726    0.421
        86 -11.7867     36.3857    205.8810   1.2512164752e+02   2.8398100876e+01    0.3294633    0.1693478  46.91   0.00211006    1.591    0.372
        87 -10.4995     37.1543    223.6706   1.2601574600e+02   2.5136646072e+01    0.3274021    0.1363635  63.97  0.001889711    2.046    0.511
        88 -11.8682     40.0858    218.0412   1.2518931639e+02   2.5798394235e+01    0.2978225    0.1844391  42.99 0.0009309131    1.486    0.327
        89 -10.5129     47.6270    217.9347   1.2385157353e+02   2.4971534496e+01    0.2287124    0.1642115  25.25 0.0009534871    2.012    0.503
        90 -10.2423     64.1102    221.7459   1.2117578824e+02   2.2345396743e+01    0.3496101    0.1550809  76.09  0.001751868    2.877    0.652
        91  -9.8632     55.2180    221.3541   1.2273020695e+02   2.3489376306e+01    0.1874064    0.1317194  79.35  0.001378342    1.226    0.184
        92  -9.6113     84.4429    220.9090   1.1743207374e+02   1.9864106970e+01    0.1407457    0.1021023 -82.22 0.0003526651    1.453    0.312
        93  -9.8373    249.9689    220.3187   8.8015048348e+01  -5.2366403815e+00    0.1594455    0.1087228  24.28 0.0004345085    1.139    0.122
        94 -10.4122    228.7435    220.1284   9.1405499985e+01  -2.1310467604e+00    0.1786961    0.1293589  34.99 0.0002370168    1.260    0.206
        95 -10.0531     22.0373    218.8102   1.2834535546e+02   2.7552476615e+01    0.2568359    0.1931458  71.66  0.002108364    1.111    0.100
        96 -11.0365    135.3634    217.8867   1.0767459254e+02   1.2905615032e+01    0.2237316    0.2121335  64.87 0.0004211476    1.188    0.159
        97  -9.9240    195.0024    216.8008   9.6650721748e+01   3.5002391605e+00    0.1851995    0.1256388  57.55   0.00107445    1.957    0.489
        98  -9.6755    176.3134    216.6907   9.9973658124e+01   6.5263719011e+00    0.2541586    0.1243176  26.26 0.0009662585    2.560    0.609
        99 -10.6924     72.8689    216.3934   1.1917180216e+02   2.2169560905e+01    0.1872978    0.1762323 -14.14 0.0002789393    1.684    0.406
       100 -11.8325     74.3176    211.4079   1.1848318802e+02   2.2864061623e+01    0.2524519    0.1917385  89.05 0.0003570239    1.267    0.211
       101 -11.0578    156.9747    215.2348   1.0331368007e+02   9.8673104975e+00     0.214163    0.1760263  46.31  0.000288356    1.083    0.077
       102  -9.7890    147.7314    216.0293   1.0513638485e+02   1.1235158521e+01    0.1480474    0.1450807  61.27 0.0005068282    1.210    0.173
       103  -8.9918     92.3131    216.2808   1.1555534646e+02   1.9575229227e+01   0.09947251   0.08828132  19.01 0.0001979725    1.570    0.363
       104 -10.4577     59.0625    215.4742   1.2162742891e+02   2.4060178360e+01    0.1961072    0.1305562  81.14 0.0005920933    1.343    0.255
       105 -10.8480    111.7378    213.8331   1.1164715570e+02   1.7181565955e+01    0.2231063    0.1954897 -82.68 0.0003694687    1.274    0.215
       106 -11.1209     85.2689    214.2245   1.1668000313e+02   2.0903314935e+01    0.3148082    0.2487125  44.26  0.001241002    1.257    0.205
       107 -10.4511     13.8583    212.7889   1.2946857966e+02   2.9410049458e+01    0.2261416    0.1514488  56.45  0.001561624    1.196    0.164
       108 -10.2575     11.2560    215.3611   1.3001744888e+02   2.9197098450e+01    0.1702179    0.1065369  46.68 0.0005828674    1.427    0.299
       109 -11.8035      8.3497    211.1535   1.3034002626e+02   3.0212018062e+01    0.3088538    0.1657458 -81.49  0.001127489    1.657    0.397
       110 -10.0151      1.3057    213.2514   1.3160248001e+02   3.0465893638e+01    0.2169178    0.0637316 -75.83   0.00074961    2.957    0.662
       111 -11.1690    165.4802    213.8130   1.0154437923e+02   8.6933148771e+00    0.2279191    0.1759013  47.31 0.0006543567    1.176    0.149
       112 -12.4704    129.2859    207.6935   1.0756442724e+02   1.5502609679e+01    0.4168359    0.2959305  14.27  0.002347391    2.105    0.525
       113 -10.5168    122.5234    213.5314   1.0956819830e+02   1.5595195085e+01    0.2491639    0.1638928  37.73 0.0009893181    1.385    0.278
       114 -10.8261    118.0305    212.2871   1.1027726099e+02   1.6489786926e+01    0.2768026     0.151585  49.29 0.0007026627    1.522    0.343
       115  -9.3223     52.7261    213.2908   1.2262480219e+02   2.5206633051e+01    0.1121791   0.06223425  65.33 0.0002277849    1.516    0.340
       116  -9.1833     64.2738    212.3482   1.2043401211e+02   2.3977575876e+01   0.09418979   0.08592509 -49.48 0.0007000555    1.629    0.386
       117 -10.0122    144.7118    208.9673   1.0477270477e+02   1.2816286594e+01    0.2472834    0.1464234 -70.22   0.00125455    2.688    0.628
       118 -10.8536    195.7438    208.7340   9.5277312194e+01   4.4276889538e+00    0.2169409    0.1251629  36.94  0.000551638    1.436    0.304
       119  -9.6243     96.7312    209.0286   1.1399681015e+02   2.0210037578e+01    0.1643318     0.132154  62.57 0.0008313878    1.035    0.034
       120  -9.3541     82.5173    207.5039   1.1657440204e+02   2.2471881580e+01    0.1181695   0.09255563  62.90 -4.235913e-05    1.014    0.014
       121 -10.0294     77.9368    206.2613   1.1733742091e+02   2.3315138796e+01    0.2686809    0.1415871  67.14  0.001467683    1.968    0.492
       122 -10.5783     60.1714    209.0361   1.2093919554e+02   2.5083240511e+01    0.1743067    0.1475673  51.47 0.0004383452    1.281    0.219
       123 -11.4463     17.7704    208.0143   1.2857553744e+02   2.9898782838e+01    0.2125783    0.1322123  67.31 0.0004067262    1.171    0.146
       124  -9.9163     14.3190    205.2964   1.2905597699e+02   3.0722873236e+01    0.1178577   0.09414575  -8.95 0.0002161712    2.556    0.609
       125  -9.3123    237.4531    208.5076   8.8080670363e+01  -2.1632440777e+00    0.1197341   0.09030662  15.26 0.0001050934    1.041    0.039
       126  -9.6882     89.8920    208.5305   1.1525925834e+02   2.1268961191e+01    0.1759561   0.09872972  41.68  0.001016549    1.555    0.357
       127 -11.8069     67.2907    207.2967   1.1945973383e+02   2.4513279773e+01    0.2388108    0.1575888  50.29 0.0002249128    1.255    0.203
       128 -10.9167    153.1497    205.7346   1.0271785867e+02   1.1939649470e+01    0.2726519    0.1966972 -30.99  0.001638845    1.791    0.442
       129 -11.2766     96.9939    201.0661   1.1309596875e+02   2.1598650173e+01    0.2960667     0.244797  65.38 0.0008651188    1.038    0.037
       130 -10.7830     95.8024    195.2165   1.1268022578e+02   2.2853420062e+01    0.2831724     0.183154  61.57  0.001577909    1.432    0.302
       131  -9.5198     53.2814    206.3550   1.2202506521e+02   2.6404243472e+01    0.1480507    0.1249422 -48.51 0.0007376182    1.774    0.436
       132 -10.6616     52.0904    202.8245   1.2198716632e+02   2.7201373465e+01    0.7168989     0.151909  36.62  0.002852507    4.059    0.754
       133 -10.8421      4.7393    205.2791   1.3072669143e+02   3.1595039801e+01    0.1812397    0.1387386  88.72 0.0006123491    1.272    0.214
       134 -10.5648      1.3073    204.6718   1.3129483816e+02   3.2003481021e+01    0.1758437   0.09975299  69.41 0.0005256024    1.260    0.207
       135  -9.4736    209.4124    205.5153   9.2338947026e+01   2.6090581746e+00    0.1212138   0.09896191  22.00 4.245842e-05    1.020    0.020
       136  -9.4082    110.0000    204.9500   1.1097768607e+02   1.8967452604e+01     0.173926   0.06834977 -59.39   0.00079868    2.916    0.657
       137 -10.3467    195.8148    204.0452   9.4517170183e+01   5.0425325228e+00    0.1748938    0.1526211  41.27 0.0004806385    1.227    0.185
       138 -10.7005    121.4781    201.0323   1.0824579844e+02   1.7873726127e+01    0.3561685    0.2119304 -76.67  0.001565668    2.356    0.576
       139 -10.6753    186.0026    201.6788   9.5926396703e+01   7.0185137149e+00    0.1828207    0.1422385  33.70  0.001155038    1.074    0.069
       140 -10.1618    106.1943    202.0951   1.1139437748e+02   2.0048167954e+01     0.165406    0.1490808  46.64  0.000336121    1.196    0.164
       141 -11.3815     19.4727    200.3626   1.2789459197e+02   3.1148863273e+01    0.2090137    0.1623574 -77.21  0.001304357    1.424    0.298
       142 -10.1462    240.4607    201.4977   8.6391107305e+01  -1.8355688187e+00    0.1200135   0.09350673  13.92 3.989215e-05    1.007    0.007
       143  -9.7157     70.7075    200.3729   1.1819957355e+02   2.5358045882e+01    0.2881604    0.1739831 -58.01  0.001083138    1.940    0.484
       144  -9.6548    165.4838    201.9676   9.9816017998e+01   1.0455050715e+01    0.1568005    0.1260667 -45.85 0.0004171472    1.483    0.326
       145 -10.7331     99.6276    205.5096   1.1306384671e+02   2.0413388273e+01    0.2173008    0.1639053  61.73  0.000521899    1.132    0.117
       146 -11.2072      5.5009    200.0056   1.3038167400e+02   3.2497745557e+01    0.1652658    0.1127428  58.07 -0.0004297678    1.199    0.166
       147  -9.9561    150.0457    199.2000   1.0237798445e+02   1.3502069987e+01    0.1837796    0.1495499  29.14 0.0003244368    1.217    0.178
       148 -10.3652     89.3903    199.3218   1.1441469914e+02   2.3013982068e+01    0.3463088    0.1204075  40.62  0.001315455    2.456    0.593
       149 -11.2369     55.5631    199.0901   1.2103407601e+02   2.7493521186e+01    0.2260505    0.1369123  46.38            0    1.432    0.302
       150 -11.2036     36.0881    197.5679   1.2465044057e+02   2.9992338103e+01    0.2769968    0.2053736 -31.59  0.001767477    2.631    0.620
       151 -10.1864     14.1962    198.0165   1.2873550946e+02   3.2087403405e+01    0.2126358    0.1030505  73.21    0.0011164    1.674    0.403
       152 -10.8129    208.5156    198.5215   9.1328658021e+01   3.6602820265e+00    0.2213428    0.1840904  19.16 0.0007696699    1.027    0.026
       153 -10.2139    223.8512    198.6868   8.8684159762e+01   1.1177239782e+00     0.247059   0.08866331  36.41  0.000864901    2.493    0.599
       154 -10.4818    138.1911    198.1956   1.0456189164e+02   1.5651227286e+01     0.261591    0.1693767  78.50  0.001307217    2.398    0.583
       155  -9.9595    140.4690    195.9610   1.0379407976e+02   1.5650618579e+01    0.2525265    0.1756934  85.52  0.001347051    2.104    0.525
       156 -10.7073    109.5576    197.8521   1.1022270947e+02   2.0299736946e+01    0.7129213    0.1757872  49.72  0.002353443    4.350    0.770
       157 -10.2565    108.5099    194.0138   1.0996252565e+02   2.1162382274e+01    0.2394974    0.1214679 -60.59 0.0007572437    2.192    0.544
       158 -10.2313     82.8582    195.6224   1.1533183960e+02   2.4624146094e+01    0.2101706    0.1520415 -55.64 0.0009233792    1.665    0.399
       159 -10.8618    217.5924    194.5340   8.9042374910e+01   2.6674327031e+00    0.2131639    0.1735344  20.08 0.0002183118    1.012    0.012
       160  -9.8549    198.4400    194.9145   9.2527064387e+01   5.8517172262e+00    0.1645773    0.1215719 -30.89  0.000574271    1.502    0.334
       161 -11.1457     44.8050    194.5293   1.2276824408e+02   2.9619931467e+01    0.1884651    0.1465029  78.30 0.0002836984    1.070    0.065
       162  -9.1465      5.5818    195.6971   1.3018633465e+02   3.3296056207e+01   0.09117633   0.07331488 -52.64 8.332358e-05    1.888    0.470
       163 -12.5873    123.1012    193.1313   1.0688621476e+02   1.9012060040e+01    0.3212505    0.2411144  70.30 0.0005478806    1.405    0.288
       164 -10.1626    127.2133    189.2325   1.0550884624e+02   1.9041251857e+01    0.1823232    0.1654963  35.61 0.0005722501    1.172    0.147
       165  -9.4898     25.3787    193.8401   1.2644313894e+02   3.1810794642e+01    0.1470085   0.08198778 -70.31  0.000943236    1.765    0.433
       166  -9.9494    227.3186    193.3068   8.7146861864e+01   1.2197518386e+00     0.128207   0.08119305  12.71 0.0002549121    1.634    0.388
       167  -9.4688     71.4857    193.5111   1.1740510549e+02   2.6563009865e+01    0.1199567   0.09553185  67.91 0.0008104047    1.008    0.008
       168 -11.9889     52.8374    192.1953   1.2101094097e+02   2.9146150365e+01    0.3120155    0.1674148 -73.61  0.001851129    1.786    0.440
       169  -9.8140     16.1389    193.0983   1.2813288393e+02   3.2841584892e+01    0.1440068    0.1180634  88.94 0.0003590145    1.265    0.209
       170 -10.7955    249.8216    190.3616   8.2889852815e+01  -2.0099959733e+00     0.220932    0.1738936   8.48 0.0008816764    1.018    0.018
       171 -11.1923    245.5575    191.1884   8.3728524718e+01  -1.4426094540e+00    0.2268777    0.1369147  24.22 0.0004710724    1.478    0.323
       172 -12.2211     91.7734    189.1861   1.1281112744e+02   2.4588233245e+01    0.2450478    0.2094497  87.06 0.0003066128    1.136    0.120
       173 -10.9875    166.2988    189.4001   9.7683999837e+01   1.2287736318e+01    0.2198711    0.1992573  46.50  0.000365353    1.105    0.095
       174 -10.0769    226.9504    189.1930   8.6470532861e+01   1.7965155873e+00    0.1705314    0.1514708  22.53 0.0003161104    1.212    0.175
       175 -10.2834     74.6123    186.5599   1.1607244938e+02   2.7506308828e+01    0.3967046    0.1090791 -66.12  0.001557342    3.732    0.732
       176  -9.7298    205.4435    187.0001   8.9869473328e+01   5.7474709514e+00    0.1723243    0.1218951 -29.06 0.0004234092    1.516    0.341
       177 -10.6710    131.6492    186.7085   1.0423392260e+02   1.8756517922e+01    0.2575365    0.1876215  62.27 0.0002707433    1.403    0.287
       178 -11.5430    104.8180    184.9077   1.0956868928e+02   2.3449863606e+01    0.3465693    0.3263365  -3.93  0.001782999    1.412    0.292
       179  -8.9349      4.6165    187.7330   1.3001467296e+02   3.4897143931e+01   0.08905012   0.07540403 -57.90 0.0006987461    1.694    0.410
       180  -9.6605    221.0040    186.2128   8.6955937286e+01   3.1779916646e+00    0.1763945    0.1395492  26.22 0.0004512654    1.092    0.084
       181 -11.2339     47.9898    181.8135   1.2112692546e+02   3.1775643852e+01    0.4503739    0.3379506 -12.29  0.002352912    2.681    0.627
       182 -10.1230     43.6252    179.1972   1.2180936914e+02   3.2800270016e+01    0.2143357    0.1388616 -69.40 0.0007167661    1.516    0.341
       183  -9.8238     46.6348    177.2682   1.2101987660e+02   3.2857704201e+01    0.1786063    0.1023175  44.75  0.000949428    1.597    0.374
       184  -9.9581     57.4837    184.9920   1.1945341495e+02   3.0012927237e+01    0.1702281    0.1031952 -78.28  0.000644266    1.557    0.358
       185 -11.1138     59.8276    180.5649   1.1855424357e+02   3.0618908292e+01    0.3658488    0.1960307 -52.46  0.001954635    2.331    0.571
       186 -10.9954     32.3510    184.8678   1.2452288542e+02   3.2863233247e+01    0.3393926    0.1352653  40.46 0.0005105229    2.205    0.547
       187 -12.4902     31.7730    176.8085   1.2406763202e+02   3.4550325040e+01    0.3361252    0.2456347 -78.35 0.0006140794    1.286    0.222
       188  -9.8772    188.5649    191.2498   9.3727287661e+01   8.0856148224e+00     0.166235    0.1187486 -19.68 0.0009459676    1.622    0.384
       189 -10.5955    177.6879    184.1019   9.4571297520e+01   1.1105528319e+01    0.2102673    0.1967397  35.32 0.0004128359    1.109    0.098
       190 -10.7138     15.7253    183.4461   1.2769445257e+02   3.4760035403e+01    0.2027743    0.1613749  87.05 0.0006658967    1.182    0.154
       191 -10.4789     88.3090    182.1583   1.1271025366e+02   2.6467816160e+01    0.2273691    0.1773451  63.17 0.0006559335    1.108    0.097
       192  -9.1769      2.7007    183.7083   1.3019271850e+02   3.5837963741e+01   0.09132268   0.07178144 -67.26 0.0003190273    1.564    0.361
       193  -9.5131    212.8920    182.3669   8.7682569954e+01   5.0929800211e+00    0.1809118    0.1024405  31.59 0.0003921344    1.641    0.391
       194 -10.4792    159.8501    180.9019   9.7554104211e+01   1.4845768893e+01    0.2190027    0.1698229  39.34 0.0005868334    1.147    0.128
       195 -10.7451    131.3931    179.4424   1.0319306017e+02   2.0133506704e+01    0.2489588    0.2016301  70.64  0.000167012    1.295    0.228
       196  -9.8901      4.3616    179.0504   1.2966174566e+02   3.6616822496e+01    0.1489106   0.09949444  86.34 0.0003897632    1.150    0.130
       197  -9.7031    221.6678    178.2886   8.5363113227e+01   4.1216316689e+00    0.1134419    0.1036174  72.79 0.0002829039    1.625    0.385
       198 -11.8309    108.9662    176.6253   1.0756301086e+02   2.4409148574e+01    0.2476093    0.2053068  62.39 0.0003410029    1.080    0.074
       199 -11.5635     92.0200    176.9135   1.1126876100e+02   2.6973893359e+01    0.3711872    0.3157297 -18.62 0.0006684582    1.765    0.433
       200 -10.5853     74.1913    177.2182   1.1515501292e+02   2.9443703451e+01     0.193098    0.1653713  71.87 0.0003616579    1.053    0.050
       201 -12.7369     22.4043    175.8914   1.2591646903e+02   3.5657323857e+01     0.265238    0.1712999  72.62 0.0004323766    1.227    0.185
       202 -10.9324     16.9144    175.3926   1.2699379585e+02   3.6266676182e+01    0.2378787    0.2029824 -16.44  0.001191641    1.985    0.496
       203  -9.3823      8.5076    177.5389   1.2878175751e+02   3.6570895169e+01    0.1102947   0.07888988  75.76 0.0008092815    1.018    0.018
       204 -10.3561    200.8934    175.5729   8.8604352328e+01   8.2093926045e+00    0.1986039    0.1653046  -0.96 0.0003902456    1.186    0.157
       205 -11.2734     79.3565    174.3735   1.1370860077e+02   2.9318673501e+01    0.3024409    0.2031945  41.67 0.0005240539    1.448    0.309
       206  -9.7643    156.8112    173.8416   9.6960298970e+01   1.6624176102e+01    0.2025722    0.1666238  29.20  0.001173749    1.199    0.166
       207 -10.6760     87.4731    171.9016   1.1162173532e+02   2.8668159376e+01    0.2460851    0.1713418 -77.43 0.0008388574    1.445    0.308
       208  -9.8556    166.0886    170.1752   9.4397595144e+01   1.5545590333e+01    0.1975773    0.1678132  21.96  0.000317437    1.186    0.157
       209  -9.4042    137.2856    170.3418   1.0047265082e+02   2.0810788897e+01    0.1296932    0.1061782  -3.15 0.0006859613    1.639    0.390
       210 -10.0527    121.5221    170.0212   1.0384178048e+02   2.3631693320e+01    0.1892067    0.1309856 -57.57 0.0005033316    1.549    0.354
       211  -9.8954     44.9514    170.2513   1.2075884208e+02   3.4506083230e+01    0.1584213    0.1270879  66.40 0.0003116838    1.099    0.090
       212 -10.3803     20.7100    169.9493   1.2587240401e+02   3.7036623363e+01    0.2427831    0.1475919  39.56  0.001043386    1.685    0.406
       213  -9.7127      2.3438    168.1213   1.2952258496e+02   3.8976822307e+01    0.2903249   0.08651807 -69.26  0.001064406    2.792    0.642
       214  -9.8966    114.0215    168.3288   1.0523056945e+02   2.5235113443e+01    0.1887535    0.1514953  51.08 0.0002814171    1.137    0.120
       215 -10.1488     46.6214    166.7034   1.2006815979e+02   3.5068816739e+01    0.2846189    0.1346599  53.10   0.00149678    1.926    0.481
       216 -10.0561     77.8865    169.8215   1.1348447206e+02   3.0469374073e+01      0.17607    0.1631346 -81.76   0.00114515    1.206    0.171
       217 -10.1478     60.6507    166.0703   1.1689368792e+02   3.3538115892e+01    0.2439957    0.1354067  51.84 0.0009099705    1.645    0.392
       218 -12.5188     24.1179    163.7188   1.2471405454e+02   3.8024159917e+01     0.295077    0.2107095  43.16 0.0004949588    1.466    0.318
       219 -10.8710     55.4298    181.0279   1.1951697430e+02   3.1061283554e+01    0.2411178     0.180188  62.57 0.0005977318    1.121    0.108
       220  -9.4842     37.3405    165.2724   1.2197173627e+02   3.6382608763e+01    0.1640723   0.09100817 -88.08 0.0008563537    1.616    0.381
       221 -10.9342    126.6559    161.7886   1.0135019514e+02   2.4373270067e+01    0.2923594    0.2458029  32.96  0.001685173    1.252    0.201
       222 -10.0028     75.6366    162.2124   1.1304343187e+02   3.2395786550e+01    0.1730501     0.108649 -60.04 0.0009424086    1.608    0.378
       223 -10.4960    140.9949    161.1370   9.8059795795e+01   2.1898529983e+01    0.3309415    0.1818643  50.09  0.001511438    1.774    0.436
       224  -9.5920     41.1073    171.4728   1.2169073592e+02   3.4673067427e+01    0.1545197    0.1030285  45.15 0.0003861751    1.449    0.310
       225 -11.1968     35.9233    158.4774   1.2168713482e+02   3.7987967406e+01    0.9573647    0.1497651  47.38  0.003242061    5.019    0.801
       226  -9.5631     66.2004    158.4081   1.1474504330e+02   3.4484534526e+01    0.1765878    0.1014325  51.16 0.0006414835    1.630    0.387
       227  -9.6819     12.4131    156.2982   1.2672626330e+02   4.0632530453e+01    0.1982698   0.08453563 -74.35  0.001082052    1.915    0.478
       228  -9.1770     79.3449    156.7307   1.1145755708e+02   3.3062171836e+01    0.1357543   0.08710731  67.05 0.0003567735    1.613    0.380
       229  -9.9869     27.2009    157.8099   1.2358153672e+02   3.8994791012e+01    0.1934072    0.1234723 -70.80 0.0003844217    1.426    0.299
       230 -10.0322    113.4116    153.9337   1.0302652145e+02   2.8302258870e+01    0.2250551    0.1768714  61.56 0.0007788817    1.242    0.195
       231  -9.4479     71.4231    154.4715   1.1302107364e+02   3.4654946913e+01     0.128032    0.1106171  84.72  0.000153227    1.024    0.024
       232  -9.3785      4.4384    154.4028   1.2833616490e+02   4.1667500856e+01    0.1101699   0.08290421  83.83 0.0001339072    1.034    0.033
       233  -9.4584      9.7319    152.3794   1.2705437054e+02   4.1687296334e+01    0.1264699    0.1091363  22.58 0.0009475989    1.619    0.382
       234  -9.1403      1.4076    152.5433   1.2888293092e+02   4.2287191501e+01    0.1106835   0.08177932  86.94 9.874099e-05    1.049    0.046
       235  -9.2917    207.3354    151.7511   8.2619759193e+01   1.0644526992e+01    0.1256894    0.1103495  76.63 0.0002380502    1.558    0.358
       236  -9.0786    137.3476    151.2626   9.7031066755e+01   2.4526988213e+01     0.137781    0.1102852  11.26 0.0004340932    1.606    0.377
       237 -10.6668     85.8094    150.0546   1.0895409762e+02   3.3584195926e+01    0.2071679    0.1723945  61.42   0.00028863    1.125    0.111
       238  -8.9823     80.9674    147.0000   1.0966800457e+02   3.4974423374e+01    0.1992978   0.07281972  37.10 0.0005886215    2.784    0.641
       239  -9.7193    201.7861    143.4646   8.1867478773e+01   1.3074087805e+01    0.2368377    0.1716689 -49.05   0.00119562    1.628    0.386
       240 -10.2290     16.3087    143.1509   1.2488763220e+02   4.3162101839e+01    0.1770371    0.1609418   6.84  0.001320014    1.592    0.372
       241 -10.4028      4.9202    142.9817   1.2751338969e+02   4.4082929485e+01    0.1704776    0.1224787  88.06 0.0004015777    1.046    0.044
       242  -9.0932     21.3021    142.3397   1.2364148772e+02   4.2919496640e+01    0.1143223   0.07755601 -54.30 0.0007037999    1.671    0.402
       243 -10.0633    103.9740    139.9442   1.0281410815e+02   3.2929708014e+01    0.2100941    0.1901396 -87.16 0.0004082724    1.049    0.047
       244  -9.0609    132.3183    139.7359   9.5909552072e+01   2.7843729133e+01    0.1427353    0.1095609  74.82 0.0002414367    1.550    0.355
       245  -9.2501     73.3245    139.3564   1.1040941490e+02   3.7781472982e+01    0.1318071   0.09969969 -35.47 0.0001380757    1.770    0.435
       246  -9.7592     35.5017    138.9795   1.1987020577e+02   4.2354853793e+01    0.2416334    0.1028603 -83.67 0.0009279759    2.382    0.580
       247 -10.1166     32.0554    138.1610   1.2063637927e+02   4.2876573878e+01    0.1896232    0.1711179 -10.22 0.0004642103    1.589    0.371
       248  -9.6146     24.8342    139.6095   1.2254801713e+02   4.3218288135e+01    0.2043181    0.1112236  69.03 0.0009049692    1.781    0.438
       249 -10.1628     23.7016    136.3196   1.2251561405e+02   4.4058108955e+01    0.1684861    0.1571372   2.46 0.0002188453    1.512    0.339
       250 -11.5722     28.5296    132.3313   1.2091046205e+02   4.4531302816e+01    0.2493657     0.214818 -43.29 0.0001401386    1.487    0.327
       251  -9.9764     24.6508    129.7486   1.2162959632e+02   4.5466047374e+01    0.1776178    0.1314839 -83.03 0.0007279727    1.084    0.077
       252 -10.3755    235.8461    137.6173   7.4511954101e+01   7.2476110221e+00    0.1779175    0.1300834  56.13 0.0009436579    1.694    0.410
       253 -10.2797     95.2948    137.3230   1.0450879696e+02   3.4947291340e+01    0.2462871    0.1755601  28.91  0.001259867    1.675    0.403
       254 -10.4438     49.8851    136.1453   1.1592033594e+02   4.1471214984e+01     0.351544    0.1848578 -46.99  0.001700384    2.325    0.570
       255  -9.0672     82.7369    134.6879   1.0725149708e+02   3.7494198377e+01    0.1280055    0.1026224 -37.52 0.0002686043    1.537    0.349
       256 -11.6585     38.9914    132.4722   1.1825440386e+02   4.3489207090e+01    0.4490836    0.2291974 -86.39  0.002226372    1.954    0.488
       257  -9.7023     47.5198    131.5039   1.1592586825e+02   4.2805856988e+01     0.185839    0.1252586  33.93 0.0007621205    1.687    0.407
       258 -10.2131     44.0541    131.5370   1.1683145623e+02   4.3175724541e+01     0.210696    0.1440389  46.92 -2.063225e-05    1.501    0.334
       259  -9.5977     68.5453    131.5099   1.1042097571e+02   4.0233447316e+01    0.1329702    0.1169259 -83.32   0.00011251    1.027    0.026
       260 -10.4013     61.9372    131.0502   1.1208600660e+02   4.1200518492e+01    0.1917544    0.1669766 -80.52 -0.001877172    1.048    0.046
       261 -11.0477      9.8168    131.0477   1.2547359963e+02   4.6358400749e+01    0.1723062    0.1488683  81.05  0.000268143    1.170    0.145
       262  -9.3656     82.6483    130.6976   1.0658438531e+02   3.8421215830e+01    0.1331301    0.1069347 -25.39 0.0007039456    1.701    0.412
       263 -10.3820     91.9213    126.3245   1.0333599134e+02   3.7984847714e+01    0.2320031    0.1809029 -74.05 0.0002599793    1.261    0.207
       264  -9.9944     21.0777    126.6219   1.2222962323e+02   4.6482862151e+01    0.2088843    0.1334943 -88.54 0.0006829943    1.304    0.233
       265  -9.8896     29.9123    125.9254   1.1985164056e+02   4.5874742113e+01    0.1776219    0.1396277 -63.56 0.0003576118    1.255    0.203
       266  -9.0244    134.7477    124.3033   9.1978626153e+01   3.0608552442e+01    0.1429055    0.1150733 -86.04 0.0002082772    1.504    0.335
       267  -9.1100    128.2875    124.7132   9.3655650395e+01   3.1808647880e+01    0.1446349    0.1144638  84.80 0.0002479262    1.533    0.348
       268  -9.8264     98.3069    124.0853   1.0120454207e+02   3.7444302935e+01    0.1934187    0.1684313 -74.06 0.0003452215    1.098    0.090
       269  -9.8167     39.6044    122.1343   1.1679204228e+02   4.5822686989e+01    0.1793592    0.1458015  76.62  0.001147356    1.152    0.132
       270 -10.1955    237.5034    121.4831   7.0557247779e+01   9.2701635537e+00    0.1399172    0.1229391  -7.44  0.000810439    1.005    0.005
       271  -9.1917    123.2937    121.2712   9.4123377243e+01   3.3529001878e+01     0.139519    0.1175723  -3.58 0.0002321203    1.517    0.341
       272  -9.4733     63.2135    120.9756   1.1013850762e+02   4.3388646383e+01    0.1803672   0.09736751 -65.38 0.0006482764    1.664    0.399
       273 -10.4211     58.1730    121.1188   1.1155301562e+02   4.3987209288e+01    0.2091894    0.1598962  83.89 0.0003997454    1.278    0.217
       274  -9.4734     21.7016    121.3015   1.2151238404e+02   4.7652191314e+01    0.1881768    0.1239309 -79.11 0.0002572111    1.219    0.179
       275 -10.6378     19.9954    118.4636   1.2166387255e+02   4.8444079460e+01    0.2997465    0.1117014  27.96  0.001422783    3.068    0.674
       276  -9.9999     92.7200    119.0444   1.0166809246e+02   3.9525883469e+01    0.2014617    0.1812026 -72.50 0.0008203607    1.037    0.036
       277 -10.5525      9.6968    117.7564   1.2434940917e+02   4.9370805722e+01    0.2441123    0.1476686 -50.78  0.001473205    1.797    0.443
       278 -10.3801      1.5815    116.1217   1.2634969178e+02   5.0269468656e+01    0.2264381    0.1315887  63.62 0.0005750797    1.661    0.398
       279 -10.0405      6.1307    114.8244   1.2503102264e+02   5.0277484043e+01    0.1712625    0.1311581 -66.81 0.0003356802    1.234    0.190
       280 -11.3146      3.2792    111.9980   1.2554514605e+02   5.1100029089e+01    0.2628794    0.1757632  77.82  0.001049366    1.319    0.242
       281  -9.4271    138.5493    115.5142   8.8964328906e+01   3.1677213512e+01    0.1480185    0.1463813 -72.88 5.100599e-05    1.005    0.005
       282 -10.3159     60.4475    113.8905   1.0969700986e+02   4.5407939855e+01    0.3553582    0.2077009  84.85  0.001206313    2.271    0.560
       283  -8.9936    127.6704    114.2974   9.1374074574e+01   3.4173484486e+01     0.151916    0.1177734  84.95 0.0002751119    1.638    0.389
       284 -11.5246    149.8768    111.2087   8.5167689436e+01   3.0137333998e+01    0.2478685     0.238615 -28.13 0.0002394684    1.044    0.042
       285  -9.0125     35.7022    116.2618   1.1707950610e+02   4.7581195635e+01    0.1230025   0.08294431  71.71            0    1.509    0.337
       286 -11.0532     19.7045    110.1346   1.2080411146e+02   5.0396324070e+01    0.2961514    0.1839529 -50.19  0.001383746    1.682    0.406
       287 -10.3179     92.0231    109.9071   9.9898808376e+01   4.1746047568e+01    0.2459551    0.1982689  31.64  0.001059587    1.403    0.287
       288 -10.9013     67.0629    109.2077   1.0691922408e+02   4.5655369721e+01    0.4646459    0.2153301  55.79  0.001834245    2.932    0.659
       289  -9.6600     84.1957    109.1011   1.0194264257e+02   4.3192730033e+01    0.1934416    0.1567263  83.55 0.0003874851    1.336    0.252
       290 -11.0145     37.6633    108.3869   1.1539496172e+02   4.9244546433e+01    0.3336387    0.2160504 -14.53  0.001696107    2.604    0.616
       291 -10.3303     48.6290    115.8163   1.1337915374e+02   4.6349401835e+01     0.183778    0.1082486 -79.43 0.0005121997    1.628    0.386
       292 -10.5765    123.9195    104.8313   8.9973205785e+01   3.6978813499e+01    0.2356153      0.20724 -48.40 0.0002977907    1.111    0.100
       293 -10.6975     43.1545    102.7112   1.1285206813e+02   5.0036195214e+01    0.3294114     0.161253 -56.35 0.0003269353    1.755    0.430
       294 -10.6246     38.8285    100.5995   1.1381485454e+02   5.0971847129e+01    0.3674608    0.2247352  12.84  0.001910062    2.369    0.578
       295  -9.4750     29.4240    103.4774   1.1710580890e+02   5.1159719755e+01    0.1266253     0.101365 -80.33 0.0001122383    1.040    0.039
       296 -10.2110     18.6094    103.0032   1.2025215096e+02   5.2140373245e+01    0.1838829    0.1519424  72.19 0.0008990435    1.226    0.184
       297  -9.5432    134.6408    102.1551   8.6514430647e+01   3.5310227112e+01    0.2124247    0.1399782 -33.19 0.0001196254    1.659    0.397
       298 -11.1091     50.4742    102.1222   1.1052512174e+02   4.9383657524e+01    0.2993096    0.1588054  48.07  0.001359977    2.114    0.527
       299  -9.4214      3.2970    102.6615   1.2466697204e+02   5.3229920416e+01    0.1209615   0.07123432  72.86 0.0003654236    1.657    0.396
       300  -9.9979     72.9727     99.0224   1.0303492918e+02   4.7232427253e+01    0.1982129    0.1749694 -65.08 0.0004514259    1.016    0.016
       301  -9.8786     84.6633    100.6782   9.9910365730e+01   4.5076343400e+01    0.1442436    0.1093458 -23.95 0.0007050411    1.711    0.416
       302  -9.5259      9.5011     99.9958   1.2258070799e+02   5.3466309032e+01    0.1644525   0.07986229  78.80 0.0008043725    2.255    0.557
       303 -11.1079    105.9997     98.0041   9.3072097152e+01   4.1986785151e+01    0.2967603    0.2573345 -31.08 0.0007770649    1.233    0.189
       304 -10.3164     16.3448     98.1337   1.2030886243e+02   5.3440101603e+01    0.2210069    0.1716226 -59.71  0.001041353    1.217    0.178
       305 -10.5345     54.6739     97.0716   1.0826274873e+02   5.0093528814e+01    0.2100735    0.1767331  67.56 0.0006541162    1.277    0.217
       306 -10.6032     62.9165     96.0987   1.0548786381e+02   4.9297113074e+01    0.2001514    0.1894938  79.23 0.0003210732    1.126    0.112
       307 -10.6919     37.7548     95.0801   1.1320807114e+02   5.2381682935e+01    0.2364679    0.1861793  14.61  0.001179978    1.640    0.390
       308 -10.6943     48.1006     93.4126   1.0961046351e+02   5.1710737518e+01     0.345133    0.2279207 -35.83  0.001791271    1.799    0.444
       309 -10.3520    105.0948     91.4611   9.1582217972e+01   4.3610323760e+01    0.3285141    0.2627347  73.02   0.00142358    1.503    0.335
       310 -10.5556     53.8918     93.0390   1.0768628215e+02   5.1139022529e+01    0.2280719    0.2015778 -24.80  0.001402311    1.335    0.251
       311 -10.7053      1.3693     92.8880   1.2423090060e+02   5.5577412869e+01    0.2077001   0.08871473 -79.65 0.0003802734    1.858    0.462
       312 -10.8984     28.2453     86.8966   1.1485455594e+02   5.5162743784e+01    0.6185162    0.2036492 -48.71  0.002530879    2.882    0.653
       313 -10.5272     17.8017     91.2336   1.1892071711e+02   5.4948025238e+01    0.2131261    0.1702784 -73.28 0.0005479176    1.019    0.019
       314 -11.9585     21.2860     88.1289   1.1733797220e+02   5.5421384480e+01    0.2244913    0.2124363  63.96 0.0001917266    1.253    0.202
       315 -11.4752      7.0633     90.6021   1.2221722344e+02   5.5786916462e+01    0.2763022    0.1738026 -75.29  0.000632858    1.222    0.182
       316  -9.7412      2.7513     87.6262   1.2321402829e+02   5.6712443699e+01    0.1733998     0.121352 -77.93 0.0003830976    1.094    0.086
       317 -10.8541    117.6500     90.6251   8.7818513037e+01   4.1321381858e+01    0.2305056    0.1832647  -4.27 0.0009744293    1.635    0.388
       318 -10.5272     39.2568     91.0196   1.1199499543e+02   5.3195342400e+01    0.2203063    0.1621598 -36.44 0.0008651283    1.546    0.353
       319 -10.5066     88.0421     88.9948   9.5978408522e+01   4.7207012694e+01    0.2261259    0.2062863 -46.30 0.0005598464    1.057    0.054
       320 -11.0830     65.0189     87.5367   1.0287380061e+02   5.1025286644e+01     0.431541    0.2207849  52.12   0.00185094    2.518    0.603
       321  -9.8860    128.8475     85.9022   8.3440781730e+01   3.9946510584e+01    0.2384026    0.2119753  10.58  0.001217905    1.253    0.202
       322  -9.3471    155.0566     85.2668   7.6802088259e+01   3.4074744103e+01    0.1882081    0.1360527  48.15 0.0003566087    1.402    0.287
       323  -9.6573      9.4864     85.4656   1.2078597881e+02   5.6832194705e+01    0.1778806    0.1160309  27.00 0.0006727431    1.906    0.475
       324 -12.3693     14.4022     83.6630   1.1891612254e+02   5.6943518388e+01    0.2341042    0.1946359 -81.41 0.0003931203    1.095    0.087
       325 -11.5660     50.9771     83.2350   1.0651239722e+02   5.3781793577e+01    0.4514603    0.2786756  10.63  0.001764269    2.408    0.585
       326  -9.9397     73.0177     78.4936   9.7924622398e+01   5.1969927525e+01    0.2771577    0.2055902  79.90  0.001325024    1.844    0.458
       327 -10.8353     72.6698     81.9984   9.8985269368e+01   5.1224394293e+01    0.2947148     0.169122 -41.01  0.001348614    1.774    0.436
       328 -10.5096     20.1544     81.9011   1.1671123616e+02   5.6959297423e+01    0.1836205    0.1439042 -89.41 0.0004407112    1.226    0.185
       329 -10.2255     88.9996     78.0356   9.2618739965e+01   4.9494660496e+01    0.2187911    0.2031178 -58.97  0.000366289    1.064    0.060
       330  -9.9346     55.0388     77.9768   1.0387792845e+02   5.4523301594e+01    0.2051517    0.1722581 -56.16 0.0003744134    1.027    0.026
       331 -10.2217     16.9200     74.5149   1.1657273449e+02   5.8899539256e+01    0.2143728    0.1477836 -65.55  0.001094613    1.133    0.117
       332  -9.1971      4.2871     77.6975   1.2145234373e+02   5.8913991873e+01    0.1146165    0.0765704  76.52 0.0003438625    1.561    0.360
       333 -10.8531     62.4418     75.3943   1.0065666155e+02   5.4170106845e+01    0.3184749    0.2332871  40.55  0.001745603    1.545    0.353
       334  -9.3990     28.4592     76.5180   1.1286220163e+02   5.7572010183e+01    0.2064763    0.1245831 -46.71 0.0007179477    1.542    0.351
       335 -10.4731     27.2733     72.2876   1.1243347418e+02   5.8650166007e+01    0.3320667    0.1858065  50.36  0.001231603    2.270    0.560
       336 -10.2939     69.1794     74.1610   9.8007129146e+01   5.3511290775e+01    0.2368564    0.1782587 -54.76  0.001279886    1.196    0.164
       337 -10.1712     51.3278     75.6410   1.0458877013e+02   5.5504014531e+01    0.1364227   0.09883903  82.31 0.0007043044    1.787    0.440
       338 -10.8240     80.7666     74.0996   9.4107500546e+01   5.1744345062e+01     0.222257    0.2061826  23.57 0.0002967074    1.186    0.157
       339  -9.8734    142.7227     72.7592   7.5881506411e+01   3.9369342766e+01    0.2920639    0.1821955 -27.25  0.001209783    1.753    0.430
       340  -9.8584    125.0339     70.9855   7.9829387463e+01   4.3785052958e+01     0.216864    0.2096026 -35.58  0.001168227    1.020    0.020
       341 -10.2002     89.1023     69.1798   8.9874123187e+01   5.1392960227e+01    0.4300949    0.1440687 -45.14  0.001473184    2.753    0.637
       342 -10.3158     42.2329     70.9548   1.0668669388e+02   5.7581387362e+01    0.2336097    0.1758697 -52.26  0.000798333    1.127    0.113
       343 -11.0382     45.1991     69.0186   1.0511770413e+02   5.7710620398e+01    0.5878572    0.2618429 -30.53  0.002053795    4.188    0.761
       344  -9.7958     37.6328     71.2640   1.0843729964e+02   5.7969208132e+01    0.2104175     0.147892 -23.64 0.0009284369    1.740    0.425
       345  -9.5210    118.0707     69.8506   8.1365691425e+01   4.5535620577e+01    0.2047896    0.1760948   1.08 0.0003811457    1.304    0.233
       346  -9.8090     79.7345     70.0009   9.3210740942e+01   5.2809951006e+01    0.1955598    0.1675744 -46.06 0.0003222884    1.058    0.055
       347  -9.6754     52.3037     69.2947   1.0259801609e+02   5.6839342556e+01    0.2056652    0.1454454  79.73  0.001039005    2.021    0.505
       348 -11.1517      1.3857     65.9867   1.2077926054e+02   6.1729929629e+01    0.4545646   0.09659634 -73.70   0.00160846    3.894    0.743
       349 -11.0525      9.6480     62.8217   1.1714790742e+02   6.2027812413e+01     0.250966    0.2215192  88.36 0.0009842287    1.235    0.190
       350 -11.7418      5.7996     58.9407   1.1792178067e+02   6.3111212785e+01     0.462633    0.2706619  89.60  0.002622397    1.855    0.461
       351 -10.3395    130.5534     67.8190   7.7334404343e+01   4.3144914054e+01    0.2491403    0.2096004  47.15 0.0002846601    1.219    0.179
       352 -10.4366     21.9857     67.2175   1.1333726542e+02   6.0225880633e+01    0.2590891    0.1929119 -86.75  0.001045416    1.387    0.279
       353 -10.3907     21.5206     62.9485   1.1260862630e+02   6.1234931582e+01      0.29123    0.1289364 -67.25  0.001410273    1.891    0.471
       354 -10.0786      7.1733     68.3091   1.1902755507e+02   6.0913304045e+01    0.1618535    0.1426655  -8.63 0.0004287848    1.442    0.307
       355  -9.8051    106.0074     67.2441   8.3987785371e+01   4.8580942441e+01    0.2015063    0.1937587  38.36 0.0004541713    1.099    0.090
       356 -10.7298     23.3525     57.8165   1.1071557509e+02   6.2259465811e+01    0.2777928    0.2347268  35.24  0.001210437    1.458    0.314
       357  -9.7051     75.0820     66.4788   9.3694976720e+01   5.4317912601e+01    0.1909108    0.1413334  35.33 0.0004339908    1.498    0.333
       358 -10.2461     55.5047     66.5155   1.0066334870e+02   5.7073556258e+01     0.245366    0.1361593  30.93  0.001188855    2.092    0.522
       359 -11.3180      1.8991     60.7309   1.1974610223e+02   6.2895343459e+01    0.3333233    0.1360885 -63.62  0.001115829    1.730    0.422
       360  -9.8050     31.0276     64.0310   1.0919788797e+02   6.0229495801e+01    0.1996341    0.1446596  80.50   0.00114181    1.741    0.425
       361  -9.4568    113.5531     63.4559   8.0503319651e+01   4.7759743645e+01    0.1503395    0.1423445 -22.20 6.787792e-05    1.014    0.014
       362 -10.7172     71.4504     60.1059   9.2916796500e+01   5.6247296959e+01    0.4063169    0.2560985  47.77  0.001586382    1.890    0.471
       363 -10.3585     39.3993     60.5356   1.0507007664e+02   6.0233126564e+01    0.2924408    0.2143596  15.66  0.001136747    1.664    0.399
       364 -10.9405     32.3009     59.1553   1.0748721101e+02   6.1218286170e+01    0.2830393    0.1976776  24.61   0.00168951    1.724    0.420
       365 -10.5685     54.5297     57.2442   9.8249951501e+01   5.9237639738e+01     0.375026    0.2489288  82.29  0.001655207    2.910    0.656
       366  -9.4428     47.7163     58.6576   1.0130693119e+02   5.9753157471e+01    0.1380421   0.08732577 -33.92 0.0002426143    1.637    0.389
       367 -10.0650    116.4793     56.9195   7.7392213079e+01   4.8358506906e+01    0.2249851    0.2080709  46.37 0.0007797017    1.131    0.116
       368  -9.7999    110.1556     56.7087   7.9124965780e+01   4.9771311577e+01    0.2277285    0.1894346  72.45  0.000835017    1.481    0.325
       369 -10.9419    225.8556     55.7456   5.5522787445e+01   2.1464054759e+01    0.2457524    0.2049545 -37.03 0.0002900557    1.103    0.093
       370 -10.1771    205.0072     55.9639   5.8520978739e+01   2.6537945598e+01    0.2170791    0.2039393 -39.57 0.0002988586    1.017    0.016
       371  -9.9145     92.9877     55.2592   8.3884045458e+01   5.3520389500e+01    0.2498903    0.1888575 -28.78 0.0005893943    1.298    0.230
       372  -9.0073     95.6731     53.3358   8.2320568424e+01   5.3373059446e+01    0.1561099    0.1398819 -13.24 0.0008524732    1.095    0.087
       373 -10.7537     79.5523     53.1939   8.7660232993e+01   5.6355905021e+01    0.4483337    0.1511218 -40.27  0.001293667    2.860    0.650
       374 -10.0960    151.0291     53.5065   6.7597214401e+01   4.0712357135e+01     0.220935    0.2127794 -15.43 0.0004820016    1.023    0.023
       375 -10.7524     29.7337     53.6240   1.0705162955e+02   6.2676333840e+01    0.3269772    0.2075456  46.03  0.001221793    2.034    0.508
       376 -11.5695     41.9472     51.7803   1.0150723740e+02   6.1894484942e+01    0.4459496    0.1884444 -47.84  0.002033375    1.936    0.483
       377  -9.9875     60.8311     52.0932   9.4132928750e+01   5.9491065055e+01    0.1903935    0.1759924 -63.73 0.0008865014    1.212    0.175
       378 -11.3698      5.7021     37.7555   1.1335675519e+02   6.7786456604e+01    0.7031356    0.3403418 -69.87  0.003690247    1.831    0.454
       379 -10.5198     16.3414     51.9127   1.1217065933e+02   6.4075057507e+01     0.230476    0.1524982 -59.20 0.0003987735    1.171    0.146
       380 -10.7420     19.9067     40.9183   1.0768583655e+02   6.6225613924e+01    0.3424572    0.1767173  17.26  0.001581986    2.408    0.585
       381 -11.0220     17.1201     47.0831   1.1063471367e+02   6.5088233719e+01    0.2935288    0.1854284 -34.79 0.0008352631    1.555    0.357
       382 -12.9004     12.3280     44.1285   1.1197552139e+02   6.6040167985e+01    0.6744602    0.1574214 -57.52  0.002801936    2.675    0.626
       383  -9.9498    174.0461     50.2644   6.1916158518e+01   3.5311307532e+01    0.2068432    0.1945182  70.36 0.0002375551    1.088    0.081
       384 -10.1378    128.9653     49.9779   7.1554978126e+01   4.6714064549e+01     0.225905    0.2114046   0.07 0.0003121175    1.057    0.054
       385 -10.9621     94.5246     49.0957   8.1106103422e+01   5.4396008365e+01    0.4010664    0.2754897 -21.10 0.0009180448    1.602    0.376
       386 -10.2404     22.6051     48.4238   1.0862622085e+02   6.4400460618e+01    0.2786063    0.1276819 -65.95  0.001007663    2.000    0.500
       387  -9.5779    152.7947     48.4002   6.5466936057e+01   4.1076486566e+01    0.2244706    0.1338518  44.79 0.0006289525    1.720    0.418
       388 -10.3070    114.2416     47.3815   7.4520673342e+01   5.0554975126e+01    0.2613277    0.1925222 -31.95 0.0002398747    1.312    0.238
       389 -10.6602     65.9631     50.0932   9.1477216132e+01   5.9159122207e+01    0.3617094      0.18136 -50.18  0.001619405    1.866    0.464
       390 -10.2028    165.0028     45.9660   6.2188804262e+01   3.8299874962e+01    0.2201864     0.216786 -15.72            0    1.009    0.009
       391 -10.9006     61.8086     44.9968   9.1198811587e+01   6.0796797293e+01    0.3048318    0.2088108 -36.15     0.000736    1.307    0.235
       392  -9.1393    123.3031     45.3184   7.1290473969e+01   4.8825452193e+01    0.1552337    0.1148906  13.88 0.0003838906    1.626    0.385
       393 -11.1882     69.8240     42.3611   8.7106063307e+01   6.0082759166e+01    0.3893045    0.2337787 -20.38  0.001298228    2.119    0.528
       394 -11.8071     71.0108     37.7587   8.4802757766e+01   6.0747729617e+01     0.456984    0.2543881 -47.14 0.0002135372    1.798    0.444
       395  -9.7630     42.6462     44.1257   9.8705029686e+01   6.3441086792e+01    0.1897344    0.1396562 -43.70  0.001123361    1.127    0.113
       396 -10.4592     33.2674     44.0441   1.0270971444e+02   6.4431080039e+01    0.1936477    0.1784906  41.63 0.0008009588    1.357    0.263
       397 -10.4432    141.5203     42.3543   6.5781202750e+01   4.4859546642e+01    0.2492236    0.2409262   0.69 0.0002035523    1.013    0.012
       398  -9.6025    151.5958     41.2393   6.3217346183e+01   4.2463783449e+01    0.2219128    0.1470565 -12.73 0.0009536272    1.754    0.430
       399  -9.7807     91.6191     41.1566   7.8944667582e+01   5.6398939231e+01    0.2086062    0.1273574 -26.11 0.0005737563    1.698    0.411
       400 -11.7759    103.5839     39.0123   7.4336457374e+01   5.4299830656e+01    0.2586704     0.241256 -32.42 0.0003731127    1.106    0.096
       401 -10.4168    116.9097     38.7751   7.0467783062e+01   5.1364989774e+01    0.4478898    0.1796001  50.85  0.001246939    2.457    0.593
       402 -10.1146     82.2184     39.1762   8.1317711263e+01   5.8534974906e+01    0.2063908    0.1739023 -13.07 0.0004372238    1.138    0.121
       403 -10.2260     85.9708     37.2756   7.9238800832e+01   5.8166060648e+01    0.2362695    0.1854841 -29.56 0.0004689352    1.177    0.150
       404 -12.5909    194.0530     35.3753   5.3978895817e+01   3.2162244899e+01    0.3189294    0.2927036  84.03 0.0004129673    1.100    0.091
       405 -10.3531    131.3125     36.2557   6.5858278862e+01   4.8307125135e+01      0.33663    0.1955649  54.62 0.0008498001    1.703    0.413
       406 -11.2643    142.2921     31.5018   6.1613327528e+01   4.6220099970e+01    0.5678183    0.3343656 -19.73  0.002096378    1.834    0.455
       407 -10.3205    119.6434     34.2749   6.7966065450e+01   5.1413531316e+01    0.2816427    0.2346905 -75.70  0.001114388    1.530    0.346
       408 -11.5191     41.3939     38.1524   9.7104737350e+01   6.4805150362e+01    0.3466362     0.215912 -32.27 0.0008533733    1.526    0.345
       409 -10.6670     57.6882     35.2939   8.9031293512e+01   6.3269257008e+01      0.57279    0.3984059 -79.34  0.002562038    3.076    0.675
       410  -9.6386     60.5133     33.4725   8.7115161631e+01   6.3190712530e+01    0.2546111    0.1761758 -36.74 0.0009011755    1.267    0.211
       411 -11.9152    107.4681     29.2669   6.9185913568e+01   5.4956821062e+01    0.4815959    0.2793498 -25.37 0.0004422178    1.726    0.421
       412 -11.4299     76.5745     32.9473   8.0706101038e+01   6.0641313620e+01    0.3405564    0.2406368 -64.23  0.001628797    2.219    0.549
       413  -9.5039     48.9946     33.8751   9.2117126874e+01   6.4726384069e+01    0.2851854    0.1523076   4.60  0.000895738    3.875    0.742
       414  -9.6723     29.3182     34.0446   1.0107840046e+02   6.6878526405e+01    0.1701616    0.1295169 -47.70 0.0003649845    1.098    0.089
       415 -10.0121     86.9435     33.4701   7.7303238526e+01   5.8620473508e+01    0.2042663    0.1380329  45.49  0.001022017    1.567    0.362
       416 -10.6160     34.1760     31.4056   9.7811417168e+01   6.6930166015e+01    0.3434485      0.21654 -68.44 0.0009432196    2.215    0.549
       417 -10.9985     38.2677     26.4527   9.3861853245e+01   6.7438325627e+01    0.3648963    0.1984645  10.80 0.0008954149    2.640    0.621
       418  -9.8271    206.4898     31.4865   5.1152450716e+01   2.9442721924e+01     0.142444    0.1378958 -54.27 0.0008102914    1.028    0.027
       419  -9.7669     23.9707     30.7263   1.0242727770e+02   6.8025900533e+01    0.1991939    0.1452776 -56.59 0.0005854035    1.269    0.212
       420  -9.7925     23.1798     27.1936   1.0150332174e+02   6.8800278952e+01    0.1492235    0.1250279 -57.75 0.0002938292    1.272    0.214
       421 -10.1043    163.5245     29.9945   5.7015486131e+01   4.0889009828e+01    0.2214327    0.1480917 -23.85 0.0004735225    1.531    0.347
       422 -10.2734    158.9750     29.9664   5.7810182553e+01   4.2090884432e+01     0.223458    0.2156615  21.13 0.0003631654    1.043    0.041
       423 -10.7337     14.9996     18.5228   1.0234946857e+02   7.1149660973e+01    0.1748587    0.1437383  13.66 0.0007741676    1.439    0.305
       424 -10.1609     18.7862     29.1070   1.0439538378e+02   6.8770929837e+01    0.3053075    0.2252693  42.10  0.001396302    1.824    0.452
       425 -11.8539     18.2775     23.6225   1.0262838796e+02   6.9906163788e+01    0.2900475    0.2279983 -61.94 0.0006901662    1.366    0.268
       426 -10.9735     71.5970     29.0330   8.0828140378e+01   6.2177052129e+01     0.287324    0.1894197  40.14  0.001505663    1.622    0.384
       427 -11.0975     50.2841     28.3252   8.9207774301e+01   6.5591249817e+01    0.3094704    0.2458241  83.04 0.0007208386    2.299    0.565
       428  -9.7200    204.3199     26.6694   5.0001025555e+01   3.0580368038e+01    0.1569052   0.09996349 -58.83 0.0003446401    1.692    0.409
       429  -9.9899     10.0402     22.4888   1.0653898234e+02   7.0713188667e+01    0.1512058    0.1265982 -35.34 0.0003649367    1.128    0.114
       430 -10.2684     77.8629    248.0312   1.2068400908e+02   1.6379349972e+01    0.2560795    0.1280098 -82.64  0.001137535    2.447    0.591
       431 -11.6988     73.1825    243.8804   1.2117495283e+02   1.7600167478e+01      0.20933    0.1527344  49.41 0.0005524424    1.182    0.154
       432 -10.2610    243.0866     25.0210   4.5476202818e+01   2.1278592887e+01    0.1997987    0.1788653 -44.32 0.0003880519    1.037    0.036
       433 -10.9448    153.6120     23.1728   5.6344135365e+01   4.4342641289e+01    0.2637075    0.2403484  49.81 0.0002816042    1.066    0.062
       434 -10.0627    181.5697     27.2478   5.3217864813e+01   3.6455171108e+01    0.2772885    0.1345996 -30.58 0.0008305738    1.977    0.494
       435 -11.4921    175.9793     22.3476   5.2433355696e+01   3.8516973225e+01    0.3971548    0.2385458  45.54 0.0009013598    1.734    0.423
       436 -12.0518     76.2416    242.0382   1.2053474834e+02   1.7501142293e+01    0.3528428    0.1933916  80.66  0.001296484    2.035    0.509
       437 -11.9978    116.9776     22.6187   6.3869405105e+01   5.3662696492e+01    0.2560716    0.2307369  -8.26 0.0001940463    1.080    0.074
       438 -10.2474     62.0253     23.4459   8.2012357431e+01   6.4698230776e+01    0.2408682    0.1228165  35.53 0.0005563762    2.122    0.529
       439 -10.7338    222.2041     22.0499   4.6689557107e+01   2.6607259549e+01    0.1995694    0.1467265  41.44 0.0007766397    1.581    0.368
       440 -10.0329    132.8864     22.1603   6.0014188202e+01   4.9812179979e+01    0.2256662    0.2013821 -57.25 0.0009948814    1.247    0.198
       441 -10.3996    101.7155     21.4582   6.7428333178e+01   5.7332722688e+01    0.3656055    0.1612236 -29.02  0.001256459    2.195    0.544
       442  -9.6082     40.5691     21.5558   9.0591823969e+01   6.8061573979e+01    0.1596367     0.149046 -60.47 5.683362e-05    1.434    0.303
       443 -10.1289     36.4710     21.3871   9.2486527460e+01   6.8577590824e+01    0.3061367    0.1726466  19.42 0.0009953448    2.119    0.528
       444 -10.0573     27.7280     20.8697   9.6620643265e+01   6.9602939012e+01    0.2615939    0.1397675 -24.59  0.001337614    2.084    0.520
       445 -10.0676    141.0098     20.9789   5.7888508324e+01   4.7883727900e+01    0.1836405    0.1624826  55.53 0.0004762061    1.101    0.092
       446 -10.0935    121.7684     20.8711   6.1982677795e+01   5.2728518212e+01    0.3167435    0.1836279 -88.54  0.001113356    3.483    0.713
       447 -10.4604     92.8910     19.5690   6.9180138973e+01   5.9500132338e+01    0.3487552    0.2470149 -44.99  0.001430536    1.626    0.385
       448 -10.0381     89.4723     19.4482   7.0189924791e+01   6.0232110151e+01     0.214728    0.2061857  22.29 0.0005822412    1.155    0.134
       449 -10.6062    141.4500    247.7819   1.0995165518e+02   7.6964438380e+00    0.2152939    0.1019302  48.31 0.0007300321    1.696    0.410
       450 -11.6850     46.3004    246.1813   1.2570220889e+02   2.0428713129e+01    0.3611943    0.1651719 -88.26  0.002233386    2.295    0.564
       451  -9.1202     71.3497    248.2832   1.2177149692e+02   1.7153450564e+01   0.08852968   0.07582188  29.84 0.0007017112    1.652    0.395
       452  -9.5577    214.3078     18.3292   4.6461294887e+01   2.8991765095e+01    0.1416368    0.1042603  31.34 0.0003410541    1.660    0.398
       453 -10.5590     80.8758     17.1642   7.1929003112e+01   6.2278148220e+01    0.1899426    0.1809505 -27.76 0.0003177474    1.225    0.184
       454 -11.2500    209.3519    246.4637   9.8425104021e+01  -2.0883952813e+00    0.4284465    0.1678684  40.78  0.002346547    1.979    0.495
       455 -10.0485     45.2489     17.1574   8.6279130954e+01   6.8217152806e+01    0.1995837     0.172219  76.80   0.00078242    1.973    0.493
       456 -10.5950     31.4820     16.9847   9.2932483361e+01   6.9924153119e+01    0.2276776    0.1756703 -24.35 0.0007517774    1.082    0.076
       457 -10.4488    200.6143    244.8781   9.9646508442e+01  -6.5886899005e-01    0.2294267    0.1362775  38.12 0.0006204557    1.290    0.225
       458 -10.0234    229.8418     15.8992   4.4292502792e+01   2.5425069554e+01    0.1990685    0.1392944 -52.91 0.0007128575    1.330    0.248
       459 -12.8185    204.6450    240.3921   9.8379414068e+01  -7.6208357735e-01    0.3315807    0.2036084  26.18  0.002187074    1.364    0.267
       460  -9.8113    112.6944     15.4187   6.1845263957e+01   5.5566629529e+01    0.2133409    0.1716009  41.67 0.0007562136    1.179    0.152
       461 -10.8916    179.3622     13.7892   4.9149513187e+01   3.8561701202e+01    0.2531255    0.1941184  87.78 0.0005833124    1.342    0.255
       462 -11.5207    198.1014    240.3672   9.9464902640e+01   2.0583530548e-01    0.2105884    0.1563636  31.15 0.0001639689    1.019    0.019
       463 -11.4387    136.0725    245.6954   1.1065327672e+02   8.7561441882e+00    0.2801819    0.1793723  76.62   0.00132282    2.327    0.570
       464  -9.7497     88.8593     13.8628   6.7732610961e+01   6.1092926645e+01     0.167231    0.1630039 -65.04 0.0002719332    1.283    0.220
       465 -10.7620    134.3357    240.7213   1.1043727680e+02   9.6927982661e+00    0.1665787    0.1178015  43.82 0.0005148595    1.085    0.078
       466 -11.0186     97.2692    245.5888   1.1725741699e+02   1.4216609307e+01    0.2186249     0.143905 -51.63  0.001525371    2.148    0.534
       467  -9.8257    133.2362     12.9703   5.6278821155e+01   5.0776995270e+01     0.187807     0.119689 -22.01 0.0008070055    1.603    0.376
       468 -11.4605    164.6292    243.8548   1.0556568326e+02   4.7838804530e+00    0.2059361    0.1807677  11.17 0.0005248402    1.306    0.234
       469 -10.9158    145.9752    242.8556   1.0865172676e+02   7.6857299240e+00    0.1681545    0.1557444  79.91 0.0003890026    1.328    0.247
       470 -11.5281    142.9596    238.6477   1.0871184007e+02   8.7033623373e+00    0.2530513    0.1679688  39.09 0.0006736631    1.206    0.171
       471 -10.6808     91.7556    242.5992   1.1795181830e+02   1.5401366559e+01    0.2186731    0.1477363  45.85 0.0007322913    1.197    0.164
       472 -10.3899     62.1884    242.9214   1.2293575138e+02   1.9095508414e+01    0.1604739    0.1012918  62.98 0.0005170387    1.205    0.170
       473 -10.4267    179.4897    241.9797   1.0280899943e+02   2.7926054934e+00    0.1822113    0.1518349  51.36  0.000441071    1.341    0.254
       474  -9.9539    178.0212    238.7338   1.0264918010e+02   3.4047956889e+00    0.1574862    0.1133642  37.90 0.0004552409    1.071    0.066
       475 -11.5736    115.8426    249.2795   1.1443603373e+02   1.1142195791e+01    0.2826017    0.1989862  43.37  0.001572819    1.146    0.127
       476  -9.5773     54.8466    239.9627   1.2396880996e+02   2.0433325298e+01    0.2703922    0.1066938  89.82  0.001116461    3.314    0.698
       477 -10.1780    138.0553    240.3698   1.0975367138e+02   9.1940014978e+00    0.1594769    0.1445625  31.68 0.0005061962    1.253    0.202
       478 -10.8042    119.2663    240.9552   1.1307680690e+02   1.1843972733e+01    0.1945824    0.1144508  34.93 0.0005698999    1.602    0.376
       479 -10.8160    246.0437    239.3200   9.1568606545e+01  -6.5126103174e+00    0.2204581    0.1735909  40.96  0.001674854    1.648    0.393
       480 -10.7969    115.0530    239.0415   1.1362580115e+02   1.2724666462e+01    0.2273857    0.1630663  28.34  0.001550491    1.617    0.382
       481  -9.4711     97.4937    235.4575   1.1636669915e+02   1.5723454008e+01    0.1308545    0.1036691 -61.23 -3.507517e-05    1.614    0.380
       482 -11.1737     97.2627    239.1931   1.1672759411e+02   1.5179289699e+01    0.2759532    0.1252834  55.97  0.001254435    1.954    0.488
       483 -11.8606    217.8247    237.3344   9.5782457167e+01  -2.3605948690e+00    0.2808046    0.1851568  47.25  0.000927951    1.693    0.409
       484 -10.8421    167.8675    238.5367   1.0437036880e+02   4.9658624790e+00    0.1832115    0.1700109  49.02 0.0005877475    1.264    0.209
       485  -9.8490     83.7585    237.9093   1.1895079168e+02   1.7179291195e+01    0.2169323   0.09442241  57.40  0.001102906    2.041    0.510
       486 -10.4687    191.5502    241.0958   1.0065910796e+02   1.0960359085e+00    0.2191006    0.1884692 -61.94  0.001066931    1.815    0.449
       487 -10.5350     42.9654    235.8823   1.2570028974e+02   2.2447581168e+01    0.2309532    0.1319041  71.98  0.001652618    1.435    0.303
       488  -9.9853    105.9931    235.0214   1.1483565013e+02   1.4611212574e+01    0.1635974    0.1262959  52.29 -0.005334738    1.034    0.033
       489 -10.0612    102.6648    233.7588   1.1530654723e+02   1.5272192567e+01    0.1771774    0.1197396  65.47 0.0006126057    1.372    0.271
       490 -10.0221    197.3449    233.8359   9.8703616230e+01   1.0626311946e+00    0.1888282    0.1244082  41.37 0.0005255761    1.294    0.227
       491  -9.9168    157.0000    233.9444   1.0570473467e+02   7.2209763305e+00    0.1489687   0.06700744 -48.19 0.0005474467    2.868    0.651
       492  -9.8500    133.1828    233.8888   1.0991078339e+02   1.0834270975e+01    0.1673496    0.1255899  58.86 0.0005234847    1.251    0.200
       493  -9.0880    183.2355    232.9909   1.0100404870e+02   3.3145621483e+00    0.1154285   0.09638485 -29.77            0    1.487    0.328
       494  -9.3827    173.3071    233.3578   1.0277473553e+02   4.7942452869e+00    0.1142776   0.07856344  14.49 0.0005951751    1.728    0.421
       495 -11.0906    144.0556    232.1673   1.0778538766e+02   9.4423582568e+00    0.3447389    0.1415158  41.60  0.001519652    1.896    0.473
       496 -10.4167     90.2693    232.5157   1.1738274718e+02   1.7168811377e+01    0.3772993    0.1278195  47.03  0.001915404    2.214    0.548
       497 -10.3514     74.6749    231.5267   1.2003637507e+02   1.9375469942e+01    0.2094028    0.1369228 -62.54  0.001171576    1.869    0.465
