#   1 NUMBER                 Running object number                                     
#   2 MAG_AUTO               Kron-like elliptical aperture magnitude                    [mag]
#   3 X_IMAGE                Object position along x                                    [pixel]
#   4 Y_IMAGE                Object position along y                                    [pixel]
#   5 X_WORLD                Barycenter position along world x axis                     [deg]
#   6 Y_WORLD                Barycenter position along world y axis                     [deg]
#   7 A_WORLD                Profile RMS along major axis (world units)                 [deg]
#   8 B_WORLD                Profile RMS along minor axis (world units)                 [deg]
#   9 THETA_WORLD            Position angle (CCW/world-x)                               [deg]
#  10 FWHM_WORLD             FWHM assuming a gaussian core                              [deg]
#  11 ELONGATION             A_IMAGE/B_IMAGE                                           
#  12 ELLIPTICITY            1 - B_IMAGE/A_IMAGE                                       
         1 -12.0835    201.8810     37.4874   4.2691045437e+01   3.0848675723e+01     1.233609    0.9377491  26.93  0.006659625    1.813    0.449
         2 -11.9485    215.0168     24.4292   3.8011813301e+01   2.9398057427e+01     1.173421    0.8262169  25.77  0.006229739    2.247    0.555
         3  -9.7306    239.8945      2.1396   3.1057018659e+01   2.6402451874e+01    0.5550934    0.1947623  76.46  0.002597649    2.684    0.627
         4  -8.8546    113.9611    239.0002   1.0540570670e+02   9.9644257757e+00    0.2029343    0.1335562  61.35 0.0006981649    1.635    0.388
         5  -8.3040    238.7313    250.1426   8.2726155303e+01  -9.9533530966e+00    0.1609221    0.1282822   3.73 0.0007755784    1.151    0.131
         6 -15.4747     36.5233    236.8026   1.2059930132e+02   2.0610060001e+01     1.888929    0.8362458  42.08   0.00708577    1.870    0.465
         7 -14.7765     41.0243    247.7510   1.2046778812e+02   1.8017483860e+01     1.281781    0.3410397  37.10   0.00582415    2.995    0.666
         8 -15.4683     15.6656    215.2989   1.2325629787e+02   2.7107067178e+01     1.495312    0.5778277  64.82  0.007250032    2.518    0.603
         9 -14.2757     23.6283    238.5649   1.2308901528e+02   2.1651832144e+01    0.3514031    0.2485126  61.78  0.001783511    1.092    0.084
        10 -14.9667     20.2816    248.5861   1.2421080522e+02   2.0106454988e+01    0.4853376    0.4150581   1.88  0.003661027    2.001    0.500
        11 -17.6042      8.5289    239.0961   1.2580620529e+02   2.3047491245e+01      2.46461     1.637934 -78.91   0.01791372    1.456    0.313
        12  -9.5651    134.9109    232.9720   1.0030236958e+02   7.8465012264e+00    0.3158756    0.1300842  47.25  0.001134242    2.384    0.581
        13  -8.8252    248.2420    234.5402   7.8507176432e+01  -9.2334677383e+00     0.214593    0.1642049  42.07 0.0006792617    1.896    0.473
        14 -10.0218    125.4431    232.9548   1.0228022225e+02   9.3225722598e+00    0.3648083    0.2044164 -69.93  0.001408665    2.558    0.609
        15  -8.4269     99.7032    234.5284   1.0783422192e+02   1.2897931724e+01    0.2016115    0.1132114 -64.62 0.0009079507    2.023    0.506
        16 -10.9196     84.1401    232.1944   1.1080021461e+02   1.5559460650e+01    0.4453197    0.4010123 -65.22  0.002072505    1.302    0.232
        17  -9.6512    120.5230    231.5094   1.0312746922e+02   1.0347629540e+01    0.2434905    0.1289264 -57.73  0.001214571    2.183    0.542
        18 -10.0554    113.1536    231.5795   1.0468510042e+02   1.1459208208e+01    0.2653452    0.1919989  52.77  0.001324777    1.266    0.210
        19  -8.2676    150.5254    229.4756   9.6547528949e+01   5.9951594905e+00    0.1310702    0.1129934  31.39 0.0001323507    1.000    0.000
        20  -7.7851     73.2860    227.0141   1.1252890097e+02   1.8064892917e+01    0.2053051    0.1164469  70.12 0.0006196489    1.956    0.489
        21  -8.1160     66.5209    226.0331   1.1383497674e+02   1.9152497406e+01    0.1797884     0.142331  54.60 0.0003744435    1.086    0.080
        22  -9.3882    112.2083    224.1981   1.0396557439e+02   1.3018424562e+01    0.3755799    0.2216462  33.87  0.001213721    1.591    0.372
        23  -7.4697    134.6315    221.7155   9.8796406225e+01   9.9598594190e+00     0.133179     0.100002   5.70 0.0007018321    1.698    0.411
        24  -7.7016     93.9645    220.7697   1.0747997758e+02   1.6438550346e+01    0.1724194   0.09720537  37.41 0.0007962352    1.616    0.381
        25  -8.9047    196.1629    216.6104   8.5099632922e+01   8.2487641699e-01    0.1988854    0.1735173 -33.32 0.0006261489    1.302    0.232
        26  -9.8996    227.8558    215.7729   7.8872028016e+01  -3.8991237901e+00    0.2333517    0.1835714  13.56 0.0004160714    1.102    0.093
        27  -7.8005     63.7703    215.8254   1.1344518322e+02   2.1622508847e+01    0.1785706    0.1230893  63.15 0.0006222539    1.309    0.236
        28  -8.3431     98.8312    214.1632   1.0561380818e+02   1.7073390031e+01    0.1896411    0.1789325  47.19 0.0002535871    1.119    0.106
        29  -8.3231     75.1819    213.2097   1.1071132805e+02   2.0667762955e+01    0.4045255    0.1475627  37.69  0.001725399    2.430    0.588
        30  -7.4187     74.4921    209.5731   1.1046602932e+02   2.1540215604e+01    0.1673175     0.116288 -57.72 0.0001784582    1.559    0.359
        31  -9.4080     86.2178    239.0176   1.1106002619e+02   1.3959670458e+01    0.2261587    0.1569224  42.90  0.001388189    1.238    0.192
        32  -9.1093     58.8394    212.0690   1.1414008242e+02   2.3047493559e+01     0.201366    0.1407975  66.76 0.0005350595    1.295    0.228
        33  -8.3860    101.3144    210.9763   1.0465257180e+02   1.7361482032e+01    0.2232999    0.1764185  44.95 0.0004697765    1.146    0.127
        34  -8.5529    189.1829    210.4156   8.5422013648e+01   2.9821119813e+00     0.217927    0.1810404 -28.08 0.0002527462    1.241    0.194
        35  -7.3610     81.0000    205.9813   1.0860047580e+02   2.1416274267e+01    0.2011613   0.07247285 -64.21  0.000720998    2.859    0.650
        36  -8.2624    120.9710    204.4131   9.9282447333e+01   1.5618365363e+01    0.4131982    0.2015005  23.57  0.001086899    3.013    0.668
        37  -9.4351    165.2652    201.9748   8.8969376697e+01   8.5507695724e+00    0.2382054     0.222024  -4.79 0.0003607859    1.079    0.073
        38  -9.0100     62.9172    203.0777   1.1234279530e+02   2.4490817561e+01    0.2374996     0.162921  48.66 0.0003855402    1.328    0.247
        39  -8.1843    117.1040    200.0107   9.9505693347e+01   1.7179306012e+01    0.2096704    0.1885701  55.16 0.0003919137    1.048    0.046
        40  -8.6966    193.2800    198.2930   8.2377278734e+01   4.3870078169e+00    0.3831662    0.3022744 -34.42  0.002176722    1.298    0.229
        41  -7.8703     90.0818    196.8135   1.0535334631e+02   2.2120151560e+01    0.2121515    0.1677937  66.72 0.0006230184    1.234    0.190
        42  -9.5913    152.0500    194.9576   9.0654449880e+01   1.2234336821e+01    0.2448089    0.2171265  14.25            0    1.122    0.109
        43  -7.5454    115.1534    192.3791   9.8780447486e+01   1.9149247216e+01    0.1992346    0.1198655  47.50 9.209004e-05    1.608    0.378
        44  -7.1254    171.3178    191.6751   8.5777237217e+01   9.4444489608e+00    0.1374159    0.1141268  75.63 0.0007044826    1.673    0.402
        45  -9.2140     74.8898    190.1111   1.0807025540e+02   2.5823521065e+01    0.2808318    0.1979176 -71.01 0.0008408881    1.389    0.280
        46  -9.0304     63.6954    190.8979   1.1081750984e+02   2.7139223309e+01    0.2146425    0.1780235  59.03  0.000718559    1.115    0.103
        47  -7.6102     90.9232    189.5149   1.0414666451e+02   2.3639545269e+01    0.1923086    0.1308884  37.19 0.0009807245    1.443    0.307
        48  -8.0508    188.4932    187.6989   8.1342967828e+01   7.1245216417e+00    0.2479436    0.1754591  57.23  0.001202156    1.893    0.472
        49  -7.6162     80.2985    187.6662   1.0645303129e+02   2.5626081622e+01    0.1950849    0.1623623  76.45 0.0006174219    1.150    0.130
        50  -7.8249     82.7359    186.0089   1.0563668059e+02   2.5658153284e+01     0.220108    0.1710605  69.34 0.0008212127    1.283    0.221
        51  -7.8073    118.2886    183.4511   9.6565818983e+01   2.0598348283e+01    0.2771958    0.1397707  32.55  0.001131863    2.074    0.518
        52  -7.7316     78.2232    182.7415   1.0628989716e+02   2.7067054270e+01      0.17506    0.1559052 -40.68 0.0004285643    1.318    0.241
        53  -7.6669     90.8249    181.6539   1.0302450901e+02   2.5466197640e+01    0.3190051    0.1676464 -88.62  0.001108698    3.538    0.717
        54  -8.0730     75.1756    170.1016   1.0525666662e+02   3.0505013168e+01    0.1985655    0.1802577 -47.54 0.0003893399    1.217    0.179
        55 -10.3147     65.3702    179.4043   1.0901270623e+02   2.9605921957e+01      0.52526    0.3854558 -10.32  0.002010816    2.148    0.534
        56  -9.6723     70.6259    173.6630   1.0693066462e+02   3.0275563255e+01    0.2839166    0.2480764 -51.30 0.0008872866    1.247    0.198
        57  -8.8403     40.3138    181.0523   1.1527026310e+02   3.2204579359e+01    0.2367378    0.1889821  38.30 0.0007307981    1.361    0.265
        58  -8.4870    146.7699    180.0048   8.9127219703e+01   1.6276552492e+01    0.3052901    0.1693438  58.30 0.0008372054    2.586    0.613
        59  -7.7303     55.0000    179.9501   1.1162179246e+02   3.0782232805e+01    0.2072369   0.06924702 -67.91 0.0003302197    2.795    0.642
        60  -7.8733    109.5852    178.5588   9.7875026848e+01   2.3180283860e+01    0.2506331    0.1632792 -30.97 0.0009230337    2.107    0.525
        61  -8.4852     60.7379    176.1632   1.0974787090e+02   3.0972272803e+01    0.2364025    0.1947231 -68.59 0.0004298035    1.166    0.143
        62  -9.0255     18.2964    177.0174   1.2004635965e+02   3.5300513775e+01    0.1760943    0.1444816 -73.74  0.000417154    1.187    0.157
        63  -9.0296     14.3055    175.9206   1.2087454315e+02   3.5897671182e+01    0.1768898    0.1474367  57.91  0.000524702    1.221    0.181
        64  -8.3785     52.1139    175.0093   1.1174766161e+02   3.2302060205e+01    0.2655256    0.2270108 -11.55  0.001583543    1.588    0.370
        65 -14.4538      2.6450    203.8625   1.2516207903e+02   3.0676456745e+01     1.965218    0.3133793 -71.31  0.007387522    4.299    0.767
        66  -9.5610    175.3856    172.4644   8.1101794598e+01   1.2461135183e+01    0.3523685    0.3004237  27.16 0.0007097139    1.138    0.122
        67  -7.4558    124.2900    172.6958   9.3181678282e+01   2.1975012497e+01    0.1470644     0.114347  75.09 0.0003702528    1.570    0.363
        68  -9.2193     88.8043    165.3774   1.0096754330e+02   2.9641905336e+01    0.2025589    0.1802501  42.98 0.0001051762    1.147    0.128
        69  -9.6988     85.1764    165.1554   1.0188345447e+02   3.0247872584e+01    0.7909355    0.3564254 -75.22  0.002658051    3.442    0.710
        70  -7.7233     37.4477    171.0160   1.1492088696e+02   3.4883377366e+01    0.1946705     0.111263 -72.31 0.0006109871    1.537    0.349
        71 -10.4752     24.3934    167.8949   1.1780298239e+02   3.6896020257e+01    0.4818956    0.3228848 -53.17  0.002729987    1.587    0.370
        72  -7.0770     99.3121    167.2701   9.8548830458e+01   2.7522227042e+01    0.1393586    0.1147106 -15.89 0.0006957492    1.549    0.354
        73  -9.4361     79.7107    164.1074   1.0315377709e+02   3.1311106110e+01    0.2498071    0.2383861 -65.46 0.0005482392    1.096    0.087
        74  -8.1724     42.8206    164.5681   1.1284776747e+02   3.5868507269e+01    0.3369663    0.1872582 -38.33   0.00153426    2.530    0.605
        75  -8.6773     56.8326    163.5165   1.0908775525e+02   3.4515458117e+01    0.3552787    0.2308536  22.63   0.00117104    1.875    0.467
        76  -7.2967    240.6768    163.6821   6.6458096819e+01   2.2674691394e+00    0.1387754   0.09477734  -3.30 0.0003187546    1.669    0.401
        77  -9.1031     97.2399    163.4625   9.8423086163e+01   2.8770502238e+01    0.4386837    0.1466264  34.07  0.001179276    3.162    0.684
        78  -7.5063     28.5077    162.4926   1.1624989525e+02   3.7809032410e+01    0.1302013    0.1064875  87.21 0.0008100392    1.053    0.050
        79  -9.5841     67.5499    159.1906   1.0562401945e+02   3.4210509904e+01    0.3853812     0.281202 -41.25  0.001122751    1.562    0.360
        80  -7.6077    172.2881    159.0500   7.8944704467e+01   1.5785021337e+01    0.2102628    0.1873009 -36.54 0.0003631966    1.116    0.104
        81  -7.1818    108.2856    159.7332   9.4832835297e+01   2.7814232583e+01    0.1452993    0.1131102  72.40 0.0003323609    1.495    0.331
        82 -10.7266     86.7769    157.2340   1.0011730093e+02   3.1934414080e+01     0.607547    0.4610435 -26.17  0.001973958    1.691    0.409
        83  -7.2609     34.2672    159.1179   1.1441418928e+02   3.8074168821e+01    0.2205066   0.04924055 -53.70 0.0006986924    4.170    0.760
        84  -7.4115    127.1479    158.1764   8.9628822873e+01   2.4783320052e+01    0.1966976    0.1720336 -83.14  0.000302403    1.276    0.216
        85  -9.1439     51.8387    157.0799   1.0953195030e+02   3.6691073576e+01     0.275674    0.1984049  19.62 0.0005548153    1.713    0.416
        86  -7.6433     23.0987    157.5467   1.1711075757e+02   3.9487454968e+01    0.1633751    0.1207531  37.82 0.0006917875    1.495    0.331
        87  -8.0406     33.2544    154.9834   1.1420227301e+02   3.9180443920e+01     0.284318    0.1826044 -10.38  0.001399726    2.542    0.607
        88 -11.3346     68.3342    144.6180   1.0304315516e+02   3.7721011132e+01    0.9343206      0.57525 -81.26  0.004215328    1.893    0.472
        89  -8.7801     62.2418    136.5538   1.0340012681e+02   4.0535472303e+01    0.3208388    0.2106281 -60.90  0.001148343    1.374    0.272
        90  -8.6779     80.7199    151.7299   1.0080665038e+02   3.4201741445e+01    0.2654954    0.2198032 -13.92 0.0007505468    1.528    0.346
        91  -9.2646    111.6872    150.1517   9.2032981828e+01   2.9505496234e+01    0.2633455    0.2474873  65.72 0.0002172411    1.083    0.076
        92  -7.2416     51.3000    151.6449   1.0891805828e+02   3.8097075597e+01    0.1445338   0.09545972  73.44 0.0007037104    1.703    0.413
        93  -7.9216     56.5529    151.9423   1.0751942841e+02   3.7402616288e+01    0.2066945    0.1243782 -67.75 0.0003087493    1.515    0.340
        94 -10.4186     15.4189    144.5558   1.1777700043e+02   4.3251264330e+01     0.528301    0.2658112 -63.67  0.001651685    1.635    0.388
        95 -10.3674     12.9648    137.0785   1.1765175069e+02   4.5242688105e+01    0.4568191    0.2498659 -56.18  0.002253994    1.625    0.384
        96  -7.8410     59.9854    146.4818   1.0572091990e+02   3.8339385563e+01    0.1993204     0.100602  54.74 0.0007735738    2.429    0.588
        97  -7.6680     98.5591    153.4608   9.6234929489e+01   3.0972757214e+01    0.1466113     0.140896 -48.28 3.434462e-05    1.074    0.069
        98  -8.9279    131.7301    235.7481   1.0133272016e+02   7.8459230423e+00    0.2725765    0.1615361 -25.39  0.001233517    2.975    0.664
        99  -9.1267    242.5803    144.9445   6.2186560548e+01   5.0574471265e+00    0.2856846    0.1604946  25.97  0.001277289    2.439    0.590
       100  -7.8761    134.3306    145.1978   8.4999913431e+01   2.6397325194e+01    0.2215982    0.1424358 -57.71  0.000656857    1.696    0.410
       101  -9.0075     98.8656    143.1714   9.4113208858e+01   3.3428571783e+01    0.3426737    0.2590234  34.62 0.0009742182    1.382    0.277
       102  -9.5963      5.4531    137.1380   1.1970445979e+02   4.5731038275e+01     0.409466     0.148199 -80.37  0.001170008    2.462    0.594
       103  -8.1953     82.1670    142.1830   9.8646458268e+01   3.6350043466e+01    0.2090666     0.192846 -34.10 0.0004191362    1.164    0.141
       104  -8.0137    126.6877    147.1014   8.7404662806e+01   2.7443590646e+01     0.210917    0.1859316 -44.29 0.0002900162    1.131    0.116
       105  -7.7753    110.0586    137.8093   8.9843070746e+01   3.2760155853e+01    0.2298717    0.1990261  89.99 0.0006019146    1.299    0.230
       106  -7.7922     83.0008    138.0100   9.7593169995e+01   3.7258100312e+01    0.2197955    0.1695167  73.06 0.0003150704    1.520    0.342
       107  -7.3509    155.0071    137.0353   7.7939698695e+01   2.4004418356e+01    0.1843562    0.1696736 -37.72            0    1.069    0.065
       108  -7.4375     52.5630    137.4289   1.0639159921e+02   4.1494131386e+01    0.1381141    0.1223643 -65.20 1.329582e-05    1.040    0.039
       109  -8.1368    192.0858    133.5487   6.8835939797e+01   1.6882305430e+01    0.2287716    0.1904411 -36.21 0.0002998066    1.141    0.124
       110  -8.9942    105.2948    133.9185   9.0312701836e+01   3.4556806508e+01    0.2472779    0.2196102  32.24 0.0003517679    1.175    0.149
       111  -8.4800     28.9621    134.0472   1.1276700597e+02   4.4726242370e+01     0.189511    0.1853864  59.64 0.0005658652    1.197    0.165
       112  -8.5208    110.4824    132.1961   8.8455861516e+01   3.4027216432e+01    0.2924159    0.2395556 -10.10 0.0009388463    1.481    0.325
       113  -8.4750     72.7730    131.9131   9.9402944758e+01   4.0278528873e+01    0.2728575    0.1974494 -82.81 0.0007202766    1.574    0.365
       114  -8.1289      9.8280    132.4939   1.1802825924e+02   4.6567395212e+01    0.1859498    0.1283753   7.15  0.001101322    1.927    0.481
       115  -8.2691    250.0000    128.9469   5.7578882990e+01   6.4143592205e+00    0.2307256   0.06642686 -37.25 0.0008045307    2.957    0.662
       116  -8.0976      1.6580    146.4967   1.2154258978e+02   4.3738611165e+01    0.2299834   0.09207495 -76.78  0.001096557    1.983    0.496
       117  -8.3691    125.5494    127.6508   8.3209336766e+01   3.2195262511e+01     0.356431     0.233852  73.74  0.001336075    2.567    0.610
       118  -8.5747    120.2147    128.1504   8.4789083663e+01   3.3133692703e+01    0.2051835    0.1820561  80.70 0.0005790799    1.282    0.220
       119  -7.3537      1.4911    125.5164   1.1964397256e+02   4.8751925295e+01    0.1241406   0.09777378 -76.84 0.0008103833    1.010    0.009
       120  -8.0400     89.0269    124.0127   9.2833190242e+01   3.9752445043e+01    0.2194279    0.2053434 -80.18   0.00119562    1.104    0.094
       121  -7.2971     29.6866    124.3036   1.1117560602e+02   4.7070578366e+01    0.1320135   0.09239523  71.63 0.0003580166    1.616    0.381
       122  -7.4462     85.3467    146.2497   9.8516612444e+01   3.4857838784e+01    0.1419686    0.1139282 -16.30 0.0002270939    1.582    0.368
       123  -7.6409     70.7688    122.0391   9.8002190983e+01   4.3010640677e+01    0.1916684    0.1134286 -59.05 0.0004050074    1.566    0.362
       124  -7.3548    198.3105    120.7219   6.4507243960e+01   1.8039291208e+01    0.1448814    0.1177206 -75.89  0.000236544    1.560    0.359
       125  -7.7290    104.3977    120.2907   8.7374532141e+01   3.7984524058e+01    0.2042779    0.1445626 -62.13 0.0003060259    1.523    0.343
       126  -7.1933      6.2813    119.3717   1.1758027012e+02   4.9955542193e+01    0.1338331   0.07122298 -50.66 0.0006886808    1.699    0.411
       127  -9.2495    247.5074    115.3877   5.4990734400e+01   9.0969115563e+00    0.2610545    0.2177229 -67.48  0.001539194    1.402    0.287
       128  -7.6514    126.8806    111.8173   7.8798291810e+01   3.5525206958e+01    0.2090565    0.1865512 -80.33 0.0005283877    1.283    0.220
       129  -8.4291    109.3826    111.6621   8.3721762669e+01   3.9070255760e+01    0.2818257    0.2315453  74.39 0.0009743068    1.514    0.339
       130  -7.0033     59.3114    111.7018   9.9459519690e+01   4.7074865532e+01    0.1390202    0.1077565  75.07 0.0006086347    1.600    0.375
       131  -7.8476     42.8397    110.9054   1.0472477213e+02   4.9141393208e+01     0.209854    0.1582165 -43.13 0.0005450894    1.262    0.208
       132  -7.1650    196.6771    107.3359   6.1506046447e+01   2.0912189752e+01    0.1551014    0.1157271 -70.79 0.0007050726    1.712    0.416
       133  -8.6187    249.8097    106.4131   5.2691844243e+01   1.0133246833e+01    0.1669644     0.125596  37.44  0.000713287    1.613    0.380
       134  -7.8686      8.3335    106.3843   1.1529819436e+02   5.2956785371e+01    0.1986738    0.1130005 -45.33  0.001088002    1.638    0.389
       135  -8.2423     69.1030    103.6644   9.4364238569e+01   4.7714437131e+01    0.1983816    0.1867023 -10.95  0.001140497    1.107    0.096
       136  -8.2682    244.5307    101.9380   5.2431039165e+01   1.1860723197e+01    0.1885881    0.1134374 -14.66 0.0008084212    2.495    0.599
       137  -8.2832     35.5942     97.7438   1.0458291831e+02   5.3031714850e+01    0.2281126     0.149125  47.95  0.001186507    1.887    0.470
       138  -6.8719     98.7293     96.3191   8.2762149600e+01   4.4563620779e+01    0.1458623    0.1210964 -85.02 0.0001983999    1.563    0.360
       139  -8.0589     43.0604     93.0070   1.0089093968e+02   5.3430016708e+01    0.1986014    0.1785786 -57.59   0.00033957    1.089    0.082
       140  -7.3821     75.6636     88.2721   8.8055375347e+01   5.0304610810e+01     0.138052     0.115055  73.71 0.0002615116    1.601    0.375
       141  -8.0438     99.4610     85.9925   7.9498943464e+01   4.6667887932e+01    0.2205951    0.1947916  32.21 4.560731e-05    1.155    0.134
       142  -7.3911     62.0668     82.0277   9.1113196822e+01   5.3680449445e+01    0.1666147    0.1471224 -32.77 0.0004318153    1.007    0.006
       143  -7.8965     80.6759     78.0306   8.3257370938e+01   5.1716169117e+01    0.3072642       0.1846   5.42  0.001180091    2.803    0.643
       144  -7.8959     11.6474     75.7923   1.0897997926e+02   5.9923356815e+01    0.1704189    0.1336959 -40.04 0.0008767515    1.136    0.120
       145  -7.6653    105.9806     71.9772   7.3040666541e+01   4.8196792829e+01    0.1781076    0.1630065  26.58  0.000340974    1.076    0.070
       146  -7.0880     74.5309     71.4851   8.3347048954e+01   5.4079887788e+01     0.144101    0.1277108 -17.86 0.0002221859    1.031    0.030
       147  -7.4739     49.6704     61.2828   8.9566736449e+01   5.9693223736e+01    0.1199799    0.1068961  72.12 0.0003288005    1.607    0.378
       148  -7.3427     83.2543     59.0184   7.5997275409e+01   5.5001579560e+01    0.1679853    0.1158559 -35.81 0.0003249508    1.402    0.287
       149  -7.0887     52.3249     59.3177   8.7829415514e+01   5.9751665515e+01     0.141771   0.09228046 -17.98 0.0007044785    1.673    0.402
       150  -7.2318     58.0504     56.2000   8.4436055995e+01   5.9586236295e+01    0.1633749    0.1029352  28.34 0.0003667102    1.642    0.391
       151  -7.6596     26.0228     53.0285   9.7089096376e+01   6.3831265045e+01    0.1519189     0.120682 -34.36 0.0003408167    1.013    0.012
       152 -11.2779    193.7129     43.7205   4.5383226591e+01   3.1974720664e+01    0.6754311    0.4736973  45.94  0.002666172    1.598    0.374
       153  -8.7606    108.6028    243.7988   1.0704269964e+02   9.8888966722e+00     0.157702    0.1142082 -85.69 0.0006079901    1.684    0.406
       154  -8.2511    209.1373    239.7980   8.6452313832e+01  -4.6249709543e+00    0.1682761    0.1410647  19.05 0.0003614814    1.158    0.137
       155  -7.3096    123.0000     49.0208   6.0463153654e+01   4.8379047460e+01    0.2174168   0.08232041 -32.82            0    2.749    0.636
       156  -7.7823     28.9052     46.5643   9.3658068858e+01   6.4854253081e+01    0.1655396    0.1154344  14.60 0.0003462117    1.503    0.335
       157  -7.9398    127.9340     27.6811   5.1865619193e+01   5.0042969668e+01    0.1920657     0.156833  54.92  0.000306947    1.119    0.106
       158  -6.9663     43.6787     22.6551   7.7051997360e+01   6.7231133982e+01    0.1323763   0.08187773  -3.38 0.0003408408    1.731    0.422
       159  -7.9751    233.3122     18.9319   3.5094561960e+01   2.5981023628e+01    0.1692454    0.1363748 -56.03 0.0003783862    1.107    0.097
       160  -7.7761    245.2234     13.2576   3.2973733534e+01   2.4111882868e+01    0.1617822    0.1075407 -62.21 0.0005581999    1.255    0.203
