#   1 NUMBER                 Running object number                                     
#   2 MAG_AUTO               Kron-like elliptical aperture magnitude                    [mag]
#   3 X_IMAGE                Object position along x                                    [pixel]
#   4 Y_IMAGE                Object position along y                                    [pixel]
#   5 X_WORLD                Barycenter position along world x axis                     [deg]
#   6 Y_WORLD                Barycenter position along world y axis                     [deg]
#   7 A_WORLD                Profile RMS along major axis (world units)                 [deg]
#   8 B_WORLD                Profile RMS along minor axis (world units)                 [deg]
#   9 THETA_WORLD            Position angle (CCW/world-x)                               [deg]
#  10 FWHM_WORLD             FWHM assuming a gaussian core                              [deg]
#  11 ELONGATION             A_IMAGE/B_IMAGE                                           
#  12 ELLIPTICITY            1 - B_IMAGE/A_IMAGE                                       
         1  -9.9113    188.7364     20.1682   3.5979258753e+02   3.5115757501e+01    0.2946933    0.2253538 -23.43  0.001451251    1.525    0.344
         2  -9.8174     27.1243     14.8547   3.8626623461e+01   7.3579508892e+01    0.3759831    0.1664141 -42.20  0.001735973    2.416    0.586
         3  -9.7525     97.6770     12.0072   9.4275517890e+00   5.8883301072e+01    0.3370039    0.2157998  -2.67  0.001172672    1.960    0.490
         4 -10.2619     41.0624     13.7243   2.9734437145e+01   7.1397483055e+01    0.2447606    0.1906594  24.17 0.0002007644    1.142    0.124
         5  -8.5267     80.2543     12.0442   1.3681784948e+01   6.3155946341e+01    0.1816965    0.1758076  29.00 0.0004603372    1.094    0.086
         6  -9.2126      3.4226     12.2601   5.5138697242e+01   7.6841188219e+01    0.1536206    0.1097912 -54.21 0.0009444771    1.585    0.369
         7  -9.3445     62.7698      9.4402   1.7750875338e+01   6.7445952931e+01    0.3297403   0.08100784  50.63  0.001139265    3.113    0.679
         8  -8.5107     65.0317      4.7857   1.4357296021e+01   6.7367895248e+01    0.1813504     0.148444  44.28            0    1.055    0.052
         9  -8.1657     52.0123      3.0079   1.7915944812e+01   7.0388294898e+01    0.1530592    0.1298648  32.16            0    1.004    0.004
        10  -8.9983      2.8521      3.0627   4.9571402111e+01   7.8460659464e+01    0.2025707    0.1457053   8.99 0.0007648955    1.253    0.202
        11  -9.4619     67.5368      1.3844   1.1683163640e+01   6.7071127261e+01    0.2332905    0.1110178  62.05 0.0002223382    1.857    0.462
        12  -8.0246      6.6924      1.6756   4.4961935272e+01   7.8265737960e+01    0.1246694   0.07635634  -9.49   0.00047853    1.648    0.393
        13 -10.8196    106.3084    224.1534   6.4260675077e+01   1.2684402254e+01    0.6161772     0.514918   7.89  0.002268265    1.299    0.230
        14 -10.3688    247.3649    248.4509   4.0181186714e+01  -8.8866068829e+00    0.2739236    0.2020912   6.23  0.001509609    1.231    0.188
        15  -9.2229    214.2632    250.1794   4.5936819286e+01  -5.6570862283e+00     0.198404    0.1182964  13.02  0.001294898    1.381    0.276
        16  -9.8961    204.9901    249.4687   4.7472927003e+01  -4.5265168630e+00    0.2419482    0.1702357  22.30  0.001694807    1.270    0.213
        17 -10.7126    182.0738    225.9842   4.8227358881e+01   1.6005534219e+00    0.8466238    0.4020797  48.29  0.003518979    3.631    0.725
        18 -11.6701    166.5895    247.9798   5.4496593034e+01   3.4359340393e-01    0.8706443    0.3699627  38.62  0.004327125    2.214    0.548
        19 -11.2618    167.0843    242.0106   5.3574895239e+01   1.1593470506e+00      0.53115    0.3285491  32.52   0.00173173    1.415    0.293
        20 -10.2761    169.6387    224.9159   5.0547616903e+01   3.4683502006e+00    0.4289931    0.2694146  49.28  0.001620808    2.174    0.540
        21 -10.9668    169.6800    233.7549   5.1869878769e+01   2.0697318279e+00    0.4808472    0.4720368 -56.48  0.002480913    1.479    0.324
        22 -11.9675    162.1947    227.4395   5.2457164909e+01   4.0960380170e+00    0.8542147    0.5950425 -37.85  0.002887722    1.551    0.355
        23  -9.6424     56.6685    246.6734   7.7491169673e+01   1.4818802375e+01    0.2256604    0.1659143  51.64 0.0007116935    1.098    0.089
        24 -10.2214     26.8635    248.0116   8.3800059805e+01   1.7885058316e+01    0.3896554    0.1573108 -81.41  0.002000056    2.671    0.626
        25 -10.7193      7.2867    242.3583   8.7544187177e+01   2.0920239417e+01    0.5424573    0.3270417  37.33  0.003515102    1.406    0.289
        26 -10.2401     12.9664    249.9836   8.6678675866e+01   1.8908583312e+01    0.3333643    0.1723105  45.29  0.002064172    1.404    0.288
        27 -11.1922     19.1470    247.6393   8.5351520801e+01   1.8745343046e+01      0.71771    0.2838415  57.16  0.003780179    2.032    0.508
        28  -9.0784     12.6862    244.3512   8.6526722620e+01   2.0016916540e+01    0.2732621    0.1372558  56.47 0.0008342865    1.521    0.342
        29  -9.9755      4.1837    249.1451   8.8377151593e+01   1.9900998315e+01    0.2908755    0.1464254  52.65 0.0008689364    1.425    0.298
        30  -9.9208     34.4348    246.8476   8.2182105908e+01   1.7304626003e+01    0.2993473   0.06111564  41.89  0.001240191    2.856    0.650
        31 -10.7885     73.5189    244.5330   7.3703463994e+01   1.3167730210e+01    0.3170664    0.2360019  25.50 0.0006184541    1.324    0.245
        32 -11.2502    237.5152    240.8281   4.0601053124e+01  -7.0235116189e+00    0.4759917     0.305923  -3.76  0.002338011    1.208    0.172
        33 -11.3543    239.1725    230.0509   3.8640224050e+01  -5.8934955046e+00     0.527526    0.2848409   1.31  0.002249233    1.882    0.469
        34  -9.4365    242.8142    223.8015   3.7044095380e+01  -5.5083366072e+00    0.1805233    0.1315357 -20.15 0.0005516908    1.218    0.179
        35  -9.3933    250.5170    241.8786   3.8688753949e+01  -8.4560906196e+00    0.1913428    0.1195227 -25.58 0.0006276327    1.414    0.293
        36  -9.6864    248.8275    237.6529   3.8299598588e+01  -7.8048367366e+00    0.2364976    0.1296758 -26.46  0.001049981    1.520    0.342
        37  -9.4784    221.2592    239.8408   4.3172823120e+01  -5.1505049519e+00    0.2290682    0.1643048 -14.04 0.0008164351    1.172    0.147
        38 -10.7865     53.3988    249.4122   7.8370229573e+01   1.4686998703e+01    0.4131846    0.2566628  25.86  0.001874293    1.599    0.375
        39  -8.3460     15.9208    237.3717   8.5585383018e+01   2.1080262945e+01    0.2438342   0.06607598  36.72  0.001108023    2.485    0.598
        40 -10.3396    231.2407    234.4701   4.0646304437e+01  -5.5818095809e+00    0.2649533     0.199422  -8.52 0.0007984013    1.111    0.100
        41 -11.8092    126.4051    223.1430   5.9564341687e+01   9.9780941189e+00    0.7748333    0.6237262 -82.59  0.001797797    1.700    0.412
        42  -9.4033    157.4840    221.5547   5.2552811477e+01   5.7441313192e+00    0.2472834    0.1986495  19.10 0.0008192529    1.066    0.062
        43  -9.9795    118.0034    227.9068   6.2075635715e+01   1.0301624745e+01    0.4312682    0.2325241  46.15  0.001251173    1.824    0.452
        44  -9.2269    144.9897    227.2646   5.6057658596e+01   6.5556815077e+00     0.251619    0.1790986 -29.06  0.001023691    1.555    0.357
        45  -9.5374    249.5591    226.8404   3.6471648640e+01  -6.5976890629e+00    0.2291471    0.1329901  -4.55  0.001489275    1.519    0.342
        46  -8.1892    195.7096    227.6947   4.5875807779e+01  -4.4576011674e-01    0.1232881   0.07841106  -3.20 0.0001923535    1.573    0.364
        47  -9.1862    191.5464    227.0347   4.6559877288e+01   1.8896265983e-01    0.1770081    0.1363993  10.20 0.0001119947    1.065    0.061
        48  -9.3825     30.2731    224.8725   8.1853787011e+01   2.2195135962e+01    0.3783162    0.2218453  21.12  0.002046959    1.954    0.488
        49 -10.9840     98.1018    241.6154   6.8069823748e+01   1.0521203148e+01      0.49268    0.2972806  22.46 0.0009969437    1.650    0.394
        50  -9.3089     66.7628    223.6690   7.3392300768e+01   1.8163169575e+01    0.2203362    0.1896716  71.15 0.0005599672    1.140    0.123
        51  -8.9944    213.6086    220.7516   4.1474499046e+01  -1.7132963413e+00    0.2321664    0.1441018  34.63   0.00139884    1.730    0.422
        52  -9.8114    133.0091    220.5070   5.7719592165e+01   9.5006286963e+00    0.2626505    0.2038946  71.15 0.0008462318    1.821    0.451
        53 -10.5733    131.1109    214.8366   5.7330638048e+01   1.0847955847e+01     0.502455    0.3954641  38.77   0.00293038    1.188    0.158
        54  -9.2778    219.2798    219.0038   4.0185669602e+01  -2.1668355230e+00    0.2793002    0.1906685 -10.53  0.001807043    1.236    0.191
        55  -8.5550    149.3883    219.7709   5.4011931333e+01   7.2278919081e+00    0.2531547     0.185082 -18.04 0.0009085748    1.503    0.335
        56  -9.3029    151.5162    216.0244   5.2979599949e+01   7.5784650705e+00    0.3199366     0.190879  15.19 0.0009799504    1.874    0.466
        57 -10.2804    190.4178    216.3399   4.5048044388e+01   1.9590175782e+00    0.4807511    0.2850649 -31.76  0.002685222    1.640    0.390
        58  -9.4010    176.1708    215.9899   4.7807826134e+01   3.9994486135e+00    0.2751782     0.157178 -37.79  0.001097214    1.788    0.441
        59  -9.6915     75.1115    218.9225   7.0969793440e+01   1.8073625387e+01    0.3147812    0.2310267  76.91  0.001171195    1.476    0.323
        60  -9.4095     23.7117    216.7300   8.2874365780e+01   2.4639463239e+01    0.4488246    0.1147258  32.15  0.001802877    2.977    0.664
        61 -10.5438     20.9676    212.8797   8.3292589022e+01   2.5768555467e+01    0.3644987    0.2445448  10.95 0.0008351924    2.007    0.502
        62 -10.3244    170.7672    215.1866   4.8779629529e+01   4.9054591906e+00    0.2849246    0.2263934   7.53 0.0006582761    1.111    0.100
        63  -9.5284    202.8219    211.6452   4.1909056714e+01   1.0026995684e+00    0.4775232    0.1823828 -40.13  0.002173294    2.572    0.611
        64  -8.9959    128.3262    211.7304   5.7512039034e+01   1.1867795613e+01    0.2064707    0.1712604  45.52  0.000205792    1.219    0.180
        65 -10.0305    113.2983    212.5660   6.1132569135e+01   1.3968182998e+01    0.6222524    0.3870221   5.32  0.002781693    2.383    0.580
        66  -9.6370     64.6073    213.6317   7.2960820271e+01   2.0592999665e+01    0.5216004    0.2034919  45.65  0.002210746    2.212    0.548
        67  -8.7702    228.4720    214.2296   3.7808218712e+01  -2.6209720184e+00    0.1964751    0.1416846  14.50 0.0009450007    1.257    0.205
        68 -10.6034    212.0632    207.9650   3.9589484528e+01   3.3030684738e-01     0.527474    0.4020078 -18.49  0.003456816    1.130    0.115
        69  -9.3865    212.2268    203.5767   3.8793529507e+01   9.6544171440e-01    0.3910876    0.1659469  33.02  0.001699256    2.352    0.575
        70 -10.2729     78.1288    211.2680   6.9430816868e+01   1.9312367619e+01    0.3868162    0.2467403  26.53  0.001982513    1.561    0.359
        71 -10.0225    237.9408    210.2883   3.5572736345e+01  -3.2063929444e+00    0.2330669    0.1958776 -45.25   0.00147842    1.867    0.464
        72  -9.8037    114.7400    220.6427   6.1879170870e+01   1.2153507799e+01     0.285861    0.2009305  44.46  0.001307913    1.327    0.246
        73  -8.1027    148.7229    211.2853   5.2849000470e+01   8.8532895344e+00    0.1221779    0.1018877  57.39  0.000692414    1.512    0.339
        74 -10.0971     12.0310    206.7426   8.5053932542e+01   2.8009683583e+01    0.3351274    0.2394557 -60.05  0.001207685    1.653    0.395
        75 -11.6123     15.7224    196.7215   8.3635953707e+01   2.9987952993e+01    0.7984692    0.2990994 -53.82  0.003002579    3.395    0.705
        76  -9.0138    129.7942    201.1788   5.5560616928e+01   1.3740580873e+01    0.2838374    0.2406629  52.56  0.001616312    1.277    0.217
        77  -9.9036    166.6513    199.1014   4.6934482235e+01   8.3247592934e+00    0.4007158    0.2859657 -20.07  0.001269917    1.461    0.315
        78 -11.1826    175.9722    184.9546   4.2397711898e+01   9.4309325436e+00    0.7990829    0.5352648 -55.18  0.003023533    1.915    0.478
        79  -9.9986    171.3574    201.2052   4.6309139303e+01   7.2239973603e+00     0.335894    0.2798336 -69.71 0.0008501252    1.802    0.445
        80 -11.3911    178.4624    196.6815   4.4041161935e+01   6.9344751909e+00    0.8230234    0.4736654 -19.57  0.003023073    2.137    0.532
        81 -11.5144    172.7713    195.5547   4.5016233678e+01   8.0126720424e+00    0.7145917    0.4091282 -33.66   0.00136644    1.769    0.435
        82  -8.6007    224.4046    205.8128   3.7053237913e+01  -9.4344981895e-01    0.2104115    0.1355576 -44.46  0.001226671    1.921    0.479
        83  -9.1544     58.9603    200.3151   7.3044896674e+01   2.4334734742e+01    0.3647541    0.1471448  32.68  0.001516156    2.209    0.547
        84  -9.6583    104.5709    198.0350   6.1200825004e+01   1.8361696224e+01    0.4872172    0.3068577   8.41   0.00211694    2.289    0.563
        85  -9.6685    126.7360    196.5966   5.5556158866e+01   1.5170624484e+01    0.3351907    0.2436196   4.12  0.001249903    1.666    0.400
        86  -9.1524    124.6013    193.2086   5.5522060320e+01   1.6228383501e+01    0.3407942    0.2087377 -40.81  0.001530015    1.800    0.444
        87  -8.3018    113.5123    198.5383   5.9065280739e+01   1.6860467284e+01    0.2180629    0.1189443  43.91 0.0008532707    1.748    0.428
        88  -9.0425    112.8883    194.3981   5.8587729303e+01   1.7855130273e+01    0.3148676    0.2123407 -20.81 0.0008836374    2.084    0.520
        89  -8.8531    212.9371    199.0584   3.7863622835e+01   1.5560434081e+00    0.1975877    0.1259903  -7.58  0.000449059    1.601    0.376
        90  -8.4520     44.0492    199.0000   7.6708908066e+01   2.6467356587e+01    0.2173315   0.07055678  28.37 0.0008026026    2.944    0.660
        91  -7.9972     59.2605    196.3430   7.2559061781e+01   2.5229886132e+01    0.1301388    0.1031532 -38.44 0.0002894251    1.593    0.372
        92  -9.1874    248.4733    195.0872   3.1263107221e+01  -2.3840424200e+00    0.1813227   0.09166858 -31.72  0.001035492    1.603    0.376
        93  -8.7633    131.5150    194.9558   5.4147905954e+01   1.4740516682e+01    0.1956466    0.1415249 -53.85 0.0005051167    1.524    0.344
        94  -8.1117     66.7841    195.1465   7.0479141577e+01   2.4523208941e+01    0.2593187    0.1174036  61.32  0.000950741    2.932    0.659
        95 -10.5058     93.8955    181.4911   6.1485874512e+01   2.3818997013e+01    0.4767199    0.3261603 -41.07  0.001444477    1.688    0.407
        96 -12.0030     98.0542    188.9705   6.1524915044e+01   2.1413893449e+01    0.6463162    0.4403967  69.70  0.001137798    1.844    0.458
        97  -8.1576    117.0119    191.2283   5.7064764940e+01   1.7885969383e+01    0.1843899    0.1118085  33.90 0.0002170058    1.536    0.349
        98  -9.0744    185.5744    189.8398   4.1354400600e+01   7.0373763345e+00    0.2666627    0.1821719  21.60  0.001029941    1.443    0.307
        99  -9.7481    183.0709    185.4985   4.1044438729e+01   8.1959398492e+00    0.2817597     0.231469 -65.86 0.0009202578    1.781    0.439
       100 -10.1281    104.0589    189.4864   6.0057309255e+01   2.0351532742e+01    0.3246796    0.2492645  40.33  0.001145516    1.207    0.171
       101  -8.4425    196.9935    182.0064   3.7644297487e+01   6.6283672952e+00    0.1734822    0.1609355 -43.63 0.0006180696    1.356    0.263
       102  -9.7256    203.9974    187.9352   3.7452693805e+01   4.5802679295e+00    0.3083437    0.2556539  51.27  0.001662086    1.710    0.415
       103  -9.1612    198.9691    185.4914   3.7933428561e+01   5.7351394935e+00    0.2382836    0.1624684  32.79  0.001064137    1.503    0.335
       104  -8.7660    155.1021    187.8866   4.7457382651e+01   1.2293992529e+01     0.231552    0.1639145  -4.07  0.001131709    1.701    0.412
       105 -11.0948     20.2244    181.2870   8.1497970811e+01   3.3310365719e+01    0.6300544    0.4929993 -47.48  0.003672179    1.563    0.360
       106 -10.5725     11.1962    187.5310   8.4243743340e+01   3.2599526942e+01    0.3799857     0.271974  51.40  0.001221396    1.220    0.181
       107 -12.0374     12.5729    179.8469   8.3430176889e+01   3.4365662655e+01     1.508987    0.8775685 -84.58  0.007918427    1.542    0.351
       108 -11.7789      4.2383    171.5568   8.5163104024e+01   3.7126582507e+01    0.7326726    0.5111039  84.96  0.004247108    1.213    0.175
       109  -8.5877    165.5976    186.7750   4.4940516190e+01   1.0779908979e+01    0.1816237    0.1318471 -52.87  0.000579452    1.614    0.380
       110 -10.2361     46.7577    182.2822   7.4418002588e+01   3.0213983463e+01    0.7006762    0.2402954 -64.78  0.002231812    2.711    0.631
       111  -8.8961     48.0000    176.9953   7.3514646787e+01   3.1397590910e+01    0.3245735    0.1769728 -78.67  0.001004462    1.857    0.461
       112  -9.4660    249.9563    184.4133   2.9119438556e+01  -1.0864380515e+00    0.4214494    0.1361241 -36.62   0.00191412    2.532    0.605
       113  -9.8935    231.5216    185.4777   3.2199886562e+01   1.1113951037e+00    0.4123063    0.2223697 -10.64  0.001994703    2.363    0.577
       114 -10.0734    226.6503    183.1780   3.2574716593e+01   2.1153262975e+00    0.3996237    0.2609514  40.33 0.0008679206    1.853    0.460
       115  -8.9131    217.3496    182.8843   3.4103329189e+01   3.4606655874e+00    0.2359019     0.172991  42.78  0.001161946    1.720    0.419
       116 -10.3731    209.6882    184.9747   3.5855966261e+01   4.2301241694e+00     0.265068    0.2008538 -15.39 0.0009709566    1.147    0.128
       117  -9.6492    212.7937    182.3754   3.4807421891e+01   4.1980149026e+00    0.2304802    0.1223361  28.87  0.001063272    2.013    0.503
       118  -9.4366    108.2224    185.0533   5.8291940529e+01   2.0692757450e+01     0.369535    0.2677004  82.73   0.00153662    1.855    0.461
       119  -8.8421    111.7523    184.3733   5.7275718634e+01   2.0270664457e+01    0.2838489    0.2217101  14.20   0.00070566    1.420    0.296
       120 -11.2874    217.9682    165.3002   3.0571094781e+01   6.2113694443e+00    0.5546392    0.4509583   0.94  0.002866908    1.191    0.160
       121 -11.2898    204.0857    175.4991   3.5052896585e+01   6.6420075291e+00     0.623172     0.421434 -35.05  0.003456189    1.341    0.255
       122  -9.9448    181.9799    180.2424   4.0260555850e+01   9.3193053660e+00    0.2826984    0.1803664 -26.20  0.001408017    1.591    0.372
       123 -10.4006    179.2730    177.5902   4.0298435242e+01   1.0250528205e+01    0.5036395    0.2375509 -42.24  0.002184262    2.056    0.514
       124  -9.7614    158.1104    177.3438   4.4803834383e+01   1.3878806742e+01    0.5082609     0.255325 -36.08  0.002113885    2.135    0.532
       125  -9.2299    138.6451    179.8804   4.9807168571e+01   1.6715129994e+01    0.3500442    0.2339629  59.80  0.001563983    2.030    0.507
       126  -9.1697    105.5229    174.8720   5.7306677284e+01   2.3507521973e+01    0.3965225    0.2460725  84.51  0.001501543    2.801    0.643
       127  -8.6371    104.0241    179.7598   5.8523372079e+01   2.2602641688e+01      0.38375    0.2156658 -54.17  0.001324254    1.843    0.458
       128  -8.8599    100.9649    177.5511   5.8971623817e+01   2.3624072656e+01    0.2869462    0.1461866  28.79  0.001139753    2.065    0.516
       129  -9.1681    219.2401    178.2772   3.2898186620e+01   3.9207510311e+00    0.2436205    0.1529177 -41.64 0.0008635717    1.588    0.370
       130  -9.2988     71.4868    178.3825   6.7137384466e+01   2.7946045815e+01    0.3041269    0.2651574  -6.93  0.001059952    1.411    0.291
       131 -10.6801    152.4952    174.5229   4.5532409019e+01   1.5428086520e+01    0.5082811    0.3279864 -28.86  0.002255666    1.732    0.423
       132 -10.2124    148.6693    174.6783   4.6449129638e+01   1.6067112912e+01    0.4163073    0.3155242 -54.39  0.001817979    1.458    0.314
       133  -8.8758     89.2021    177.3050   6.2106852604e+01   2.5563496542e+01    0.2774528    0.1828924  77.38  0.001180971    1.997    0.499
       134  -9.0608    112.6073    179.2685   5.6199209795e+01   2.1294995777e+01     0.278903    0.1925772  33.96  0.001334587    1.385    0.278
       135  -8.8431    118.1654    176.0785   5.4207432405e+01   2.1084747156e+01    0.2163385    0.1945868 -22.66 0.0005468389    1.190    0.159
       136  -8.8066    240.6275    177.9958   2.9354002651e+01   1.0177375486e+00    0.1817761    0.1215439 -26.54 0.0007963705    1.193    0.162
       137 -10.2885     29.7626    171.4421   7.8089286177e+01   3.4865011121e+01    0.6797298    0.3288624 -63.67  0.002823735    1.963    0.491
       138 -11.5059    207.8912    168.7422   3.3021886204e+01   7.1963341595e+00    0.6281738    0.4332045 -44.80  0.003447954    1.517    0.341
       139  -9.9776     24.4129    174.5783   7.9853186509e+01   3.4597461341e+01    0.2761917    0.1609544  68.54 0.0008284619    1.637    0.389
       140  -8.8904    193.3692    172.6011   3.6499664372e+01   8.8445523853e+00    0.2532486    0.1671142  -1.74 0.0006759923    1.871    0.466
       141  -9.0211     92.1145    172.1730   6.0492231321e+01   2.6358163745e+01    0.3479238    0.2057355  45.62 0.0009076096    1.646    0.393
       142  -8.1184     88.0123    173.0000   6.1760341478e+01   2.6806092030e+01    0.2840057    0.1843352  34.10 0.0009272672    1.494    0.331
       143  -8.3316    224.1248    172.3254   3.0921581813e+01   4.1605101320e+00    0.1619861    0.1156654  45.63 0.0005325842    1.822    0.451
       144  -8.3817    176.9680    171.9536   3.9659070673e+01   1.1694450130e+01    0.2070985    0.1769966 -78.81   0.00111422    1.696    0.410
       145  -9.3019    177.6434    168.0775   3.8734764781e+01   1.2315930538e+01    0.3672602    0.3164219  79.25  0.001996724    1.679    0.404
       146  -8.5725    135.2014    171.4249   4.9049354625e+01   1.9148738024e+01    0.2101417    0.1352635  46.21 0.0009439698    1.611    0.379
       147  -8.6510    121.3098    169.7807   5.2242545749e+01   2.1984349674e+01    0.2819289    0.2254143  87.20   0.00111041    1.598    0.374
       148  -8.2214     55.4625    169.9392   7.0566010225e+01   3.2272947938e+01    0.2075271    0.1119505  77.12 0.0007687382    2.395    0.582
       149 -11.2175      5.6700    176.9193   8.5079977685e+01   3.5672041288e+01     0.535223    0.3361931  48.00  0.002484316    1.421    0.297
       150  -9.7890    199.8494    167.3044   3.4204326694e+01   8.7285157749e+00    0.3422744    0.2199685  -7.91  0.001020304    1.934    0.483
       151 -10.5118    149.9715    164.1584   4.4044525528e+01   1.8052221258e+01    0.5427467    0.3823666 -37.59  0.002597715    1.421    0.296
       152  -9.5577    160.1801    166.0433   4.2088132174e+01   1.5803774309e+01    0.5991671    0.2652176 -56.40  0.002032591    3.338    0.700
       153 -10.9960    248.8629    152.9251   2.3316038510e+01   3.6391229225e+00    0.5365622    0.2787034 -37.28  0.002931111    1.546    0.353
       154  -8.8284    138.7764    164.9225   4.6888065392e+01   1.9937390007e+01    0.3228419     0.229333 -89.17  0.001100204    2.374    0.579
       155  -8.7730     37.8736    164.7541   7.5088256184e+01   3.5740025198e+01    0.2892926    0.1556548  71.56 0.0008245068    2.071    0.517
       156  -8.9180    155.4355    164.2807   4.2801880313e+01   1.7027659041e+01    0.2003903    0.1410641 -55.37 0.0009420194    1.599    0.375
       157  -7.7490     80.3438    164.6568   6.2595849793e+01   3.0099401246e+01    0.1651342    0.1087463  66.17 0.0007046887    1.787    0.440
       158  -9.6923    230.0040    161.3053   2.7795411452e+01   5.0498584300e+00    0.4775903    0.2861456  16.60  0.002444377    2.183    0.542
       159 -10.1795     99.9024    158.7169   5.5950305125e+01   2.8395436539e+01    0.4641364    0.3153296 -58.59  0.002111048    1.497    0.332
       160  -8.9534     99.9536    154.0184   5.5036045519e+01   2.9561885891e+01    0.2255223    0.2101163 -22.80 0.0003417834    1.168    0.144
       161 -10.0790     23.1094    160.0820   7.8984093802e+01   3.8480984586e+01    0.4967073    0.3016684   1.93  0.001914139    2.375    0.579
       162  -8.7741     28.0437    158.0000   7.7311491624e+01   3.8556357317e+01    0.2497155    0.1593488  25.17 0.0006785607    1.705    0.414
       163  -8.5103     92.6645    160.0822   5.8263629695e+01   2.9281980728e+01    0.2591979    0.1515215  69.71 0.0009323873    2.685    0.628
       164 -10.1175    143.0165    158.4361   4.4515184633e+01   2.0582017967e+01    0.6350945    0.2742802  49.50  0.002008235    2.819    0.645
       165  -9.6628    225.0753    157.3871   2.7797646012e+01   6.4192417570e+00    0.2191865    0.1920868 -45.47 0.0008920857    1.344    0.256
       166  -9.7038    166.0435    156.9012   3.8867840594e+01   1.6597374166e+01     0.431709    0.2752103  57.47  0.001879239    2.138    0.532
       167  -9.1341    105.1147    157.5616   5.4263699856e+01   2.7770731035e+01    0.3023792    0.2295803  84.13 0.0008451391    1.658    0.397
       168 -10.8820    208.5672    156.3618   3.0372531218e+01   9.2126001263e+00    0.7094423    0.2769332  37.97  0.002879516    2.910    0.656
       169 -11.6448    205.8116    150.2062   2.9561970304e+01   1.0750020941e+01    0.6771472    0.5254112 -50.87  0.003505594    1.435    0.303
       170 -10.1388    206.7783    142.4306   2.7717328623e+01   1.1957165536e+01    0.3582587    0.2706277 -30.53  0.001339378    1.158    0.136
       171  -8.7548    127.5171    156.8315   4.8072611232e+01   2.3855128500e+01    0.2387607     0.207709  -8.85 0.0006044082    1.270    0.213
       172 -10.6193    247.1162    162.2947   2.5389252807e+01   2.4782214634e+00    0.9733905     0.335286 -28.39  0.003826161    3.169    0.684
       173 -10.1597    134.5821    153.7115   4.5603829152e+01   2.3238182474e+01    0.5820208     0.397258  63.75  0.001751666    1.987    0.497
       174  -8.4220    119.4966    154.9857   4.9805783498e+01   2.5785140556e+01    0.2330266    0.1535163 -57.63  0.001013032    1.598    0.374
       175  -9.2419     82.0058    154.4429   6.0377013453e+01   3.2470833030e+01    0.2872601    0.2110091  88.17 0.0006749915    1.579    0.367
       176  -9.5491     68.6540    154.1565   6.4370187270e+01   3.4594479432e+01    0.4109915    0.2315062  59.92  0.001267641    2.130    0.530
       177  -8.6154     49.9186    155.1277   7.0284388034e+01   3.6878433812e+01    0.2686004    0.1375176  57.22  0.001064121    2.190    0.543
       178  -8.9934      1.3967    162.7236   8.5444121438e+01   3.9580572336e+01    0.2363117    0.1097215 -87.13  0.000550354    1.880    0.468
       179  -8.8854    195.0483    153.7283   3.2280186980e+01   1.1973321424e+01    0.1926625    0.1742798  -3.62 0.0006170099    1.078    0.072
       180  -9.7114      4.9933    151.8770   8.3721600387e+01   4.2137764425e+01    0.4282379    0.1970173  54.26  0.001353513    2.076    0.518
       181  -9.0803    189.7302    150.7620   3.2656184546e+01   1.3463952207e+01    0.2769765    0.2274538  50.44  0.000869916    1.440    0.306
       182  -9.8183    118.5234    144.9790   4.7937539661e+01   2.8371540462e+01     1.088978    0.6319107  65.90  0.003733887    2.977    0.664
       183  -9.1671    108.1950    138.6884   4.9447076839e+01   3.1894664397e+01    0.5327591    0.2933093  60.59  0.001840513    2.714    0.632
       184  -8.3851     82.7723    149.4052   5.9230469138e+01   3.3659869215e+01    0.2060952    0.1512563  18.92  0.000417183    1.596    0.374
       185  -8.6601     27.8589    148.7292   7.6398267974e+01   4.1056810835e+01    0.2940103    0.1525273  72.42  0.001216602    2.167    0.538
       186 -10.0589     70.1344    143.4792   6.2077512409e+01   3.7218428498e+01    0.7178169    0.3905896 -53.46  0.002953082    1.793    0.442
       187  -9.3584     39.4307    147.2790   7.2539899835e+01   4.0238203188e+01     0.481216    0.2019148  61.35  0.001598162    3.327    0.699
       188 -11.3232    244.8302    143.8238   2.2073324485e+01   5.5996502138e+00    0.7500045    0.3283645 -30.76   0.00355088    1.995    0.499
       189  -9.9401    196.1217    145.9698   3.0401007269e+01   1.3206408976e+01    0.4001563    0.3089884 -81.99  0.001904709    2.117    0.528
       190  -8.4411    133.9998    147.2382   4.4339632058e+01   2.4833101388e+01    0.2334501    0.1720303 -22.83  0.001040819    1.629    0.386
       191  -8.5870     77.1253    147.1559   6.0548795477e+01   3.5157821589e+01    0.2318453    0.2119636 -21.47  0.001064824    1.247    0.198
       192  -9.7665     56.0122    145.2714   6.6912616887e+01   3.8748006974e+01    0.5638341    0.2671885  53.16  0.001555854    2.436    0.589
       193  -9.1085     61.5309    145.0000   6.5094069358e+01   3.8065379119e+01    0.4332788    0.1639558  29.57  0.001496067    2.745    0.636
       194  -9.4616    148.8828    144.9797   4.0154180149e+01   2.2409082226e+01    0.4714838      0.33187 -89.44  0.001885777    2.499    0.600
       195  -9.3335    106.9915    144.8746   5.1148398516e+01   3.0579527796e+01    0.5216131    0.3102555  76.16  0.001669991    3.486    0.713
       196  -8.2426     13.4930    146.4430   8.0695388827e+01   4.2940247668e+01    0.1407959    0.1169921  78.17 6.220195e-05    1.064    0.060
       197  -9.1098    125.3224    143.2294   4.5708805722e+01   2.7469143095e+01    0.3883281     0.256025 -87.18  0.001416257    2.733    0.634
       198  -8.6188     87.4335    144.0176   5.6770998268e+01   3.4289649515e+01    0.4592199    0.2791887  35.08  0.001583888    1.661    0.398
       199  -7.7721    165.3267    143.7097   3.6105560736e+01   1.9439651238e+01    0.1449421     0.120834 -88.02  0.000379532    1.617    0.381
       200 -11.0933    223.0561    148.4115   2.6278651048e+01   8.2086754260e+00    0.4807237    0.3932876  18.71  0.001980626    1.339    0.253
       201  -9.8458    192.6408    134.2611   2.8425043058e+01   1.6019479921e+01    0.3107238    0.2093464  52.83  0.001170971    1.755    0.430
       202 -10.9129    197.6707    136.5278   2.8020618567e+01   1.4658477526e+01    0.5481574    0.4006723   6.35  0.002689237    1.745    0.427
       203  -9.2740     23.8412    138.5832   7.6565266354e+01   4.4187654414e+01    0.4780847    0.1963153  59.78  0.001707438    3.021    0.669
       204 -10.0808     18.7403    133.9587   7.7756802584e+01   4.5890804395e+01    0.3503027    0.2548672 -21.13  0.001301083    1.757    0.431
       205  -9.6291     24.9048    127.1384   7.4797301944e+01   4.7225232877e+01    0.4484979    0.2621399 -57.77  0.001537806    1.569    0.363
       206  -9.8996    234.2939    136.8293   2.2143006563e+01   8.3080351378e+00    0.3508311    0.2267859 -18.46   0.00119124    1.628    0.386
       207 -10.2135     41.6244    134.8256   7.0064994004e+01   4.3392158725e+01    0.6654102      0.39461 -66.98  0.001928531    1.539    0.350
       208 -10.6440     45.3704    131.0537   6.8179038115e+01   4.3987223735e+01     1.011315    0.4607799 -84.70  0.003393226    3.051    0.672
       209  -8.5499    161.9947    137.0108   3.5288450004e+01   2.1494487196e+01     0.243701    0.1849564  -6.06  0.001005778    1.656    0.396
       210  -8.3409     91.3009    135.6244   5.3832261144e+01   3.5798881133e+01    0.2094424    0.1535367  26.59 0.0007210474    1.502    0.334
       211  -9.3870    110.2937    131.6375   4.7213545454e+01   3.3238913309e+01    0.5780497    0.3320048  45.44  0.002308355    1.781    0.438
       212  -9.5388     83.5789    131.8895   5.5461005791e+01   3.8128537648e+01    0.4220979    0.2674435  68.50   0.00145939    2.199    0.545
       213  -9.6306    209.5248    131.6307   2.4870457923e+01   1.3374582860e+01    0.2838343    0.2648381 -21.11   0.00106122    1.097    0.089
       214  -9.5743    160.7129    130.6206   3.4047688570e+01   2.3096000571e+01    0.3182649    0.2648648 -51.00  0.000926096    1.200    0.167
       215  -9.4923    131.8057    130.7772   4.1069678327e+01   2.9082264874e+01    0.5652166    0.2504284 -54.95  0.001646094    2.597    0.615
       216  -9.4178    134.0542    124.4933   3.8922232326e+01   3.0057485903e+01    0.4753778    0.2709875  25.72  0.001417315    2.581    0.613
       217  -8.0153    143.2746    131.6210   3.8368831432e+01   2.6505163442e+01    0.1599733    0.1238704 -78.83 0.0007001204    1.701    0.412
       218  -9.2384     13.2913    129.6945   7.9159333502e+01   4.7480354363e+01    0.4503034    0.1981542  60.10  0.001770743    2.608    0.617
       219 -10.7636    245.3008    127.6976   1.8718301506e+01   8.0199521447e+00    0.5608308    0.3559698 -73.42  0.002539075    3.498    0.714
       220  -9.5368     99.5625    128.5157   4.9673461168e+01   3.6100960866e+01    0.5159138    0.3321116  89.37  0.001855422    2.634    0.620
       221  -8.6443    168.1543    128.1812   3.1841140048e+01   2.2063557473e+01    0.4732528    0.1544937 -49.97  0.001372579    3.712    0.731
       222  -8.6864    153.0291    129.0580   3.5411752195e+01   2.5028440427e+01    0.2477272    0.1904734 -76.95 0.0007477409    1.729    0.422
       223  -8.6570     73.0389    129.0367   5.8312654438e+01   4.0639477506e+01    0.2644314    0.1843769  72.15   0.00104395    1.782    0.439
       224 -10.2400    233.2303    127.3570   2.0297439541e+01   1.0004770070e+01    0.2274843    0.2237805  51.61 0.0007225708    1.282    0.220
       225 -11.1824    226.6131    124.3617   2.0603948035e+01   1.1606167778e+01    0.6923836    0.4554732  85.60  0.002831873    3.182    0.686
       226 -10.1434    117.4448    125.1298   4.3577795372e+01   3.3389173128e+01    0.5143772    0.4361531  -7.35  0.001553675    1.412    0.292
       227  -9.3912    113.8697    121.3572   4.3646569624e+01   3.5037537978e+01    0.4555932    0.2869075 -61.88  0.001825541    1.809    0.447
       228 -10.4779    118.8144    118.5251   4.1502456749e+01   3.4685067904e+01     1.163093    0.4085225 -37.98  0.003120528    4.007    0.750
       229 -10.9099    107.9358    123.0971   4.5827008191e+01   3.5820000162e+01     1.027003    0.6233841  46.97  0.004192525    1.704    0.413
       230 -11.0632    107.0642    113.7903   4.3683482170e+01   3.8281694914e+01     1.126313     0.857489 -23.39  0.004476144    1.612    0.380
       231  -9.9133     60.2135    124.6473   6.1812219620e+01   4.3778304587e+01    0.6935644    0.3571058  70.14   0.00214219    3.732    0.732
       232  -9.8138    202.6775    136.2889   2.7077431679e+01   1.3784511168e+01    0.2733809    0.2310765  27.63  0.000437254    1.307    0.235
       233  -9.8346     44.3577    123.2255   6.7205961085e+01   4.6261532105e+01    0.6231189    0.3192408  65.47  0.002077814    2.845    0.649
       234  -9.6462    181.9776    119.0255   2.6825226262e+01   2.1023436840e+01    0.3432045    0.2212092  -7.64  0.001355673    2.603    0.616
       235  -9.0661    149.6089    123.9079   3.4930948076e+01   2.6866040519e+01    0.2905083    0.2291252  54.58 0.0006013053    1.369    0.270
       236  -9.6675     28.6761    122.6794   7.2822474833e+01   4.8101251164e+01    0.5177653    0.3115931  66.97  0.002308939    1.893    0.472
       237  -9.4880     28.5971    117.2356   7.2030685474e+01   4.9606105755e+01    0.7451319    0.2093173 -44.61  0.002080831    4.658    0.785
       238  -8.5252     84.0138    122.0043   5.3084585747e+01   4.0647043987e+01    0.2508255    0.1940956 -18.86 0.0006885352    1.647    0.393
       239  -7.7746    158.3571    121.6692   3.2359845381e+01   2.5471032654e+01     0.160537    0.1227745 -82.02 0.0007043541    1.790    0.441
       240  -7.8515    194.0000    119.9036   2.4829988626e+01   1.8425024642e+01    0.2334966   0.07478546 -39.24 0.0005293441    2.778    0.640
       241  -9.2411    142.2206    119.4644   3.5574264339e+01   2.9432309975e+01    0.3973914    0.2652231 -70.42  0.001576369    2.129    0.530
       242  -8.6143     71.4155    120.1756   5.6938505587e+01   4.3270815990e+01     0.220256    0.1485382 -74.14 0.0009339311    1.642    0.391
       243 -10.4961     15.3890    113.5305   7.6503412088e+01   5.1735326224e+01    0.8968234    0.4468797 -79.30  0.003176372    1.847    0.459
       244  -9.8714     22.4252    109.9629   7.3272415053e+01   5.2153946222e+01    0.4125159    0.2769262 -79.63  0.001200186    1.387    0.279
       245 -10.7657     30.9861    100.5529   6.8168664285e+01   5.3926253304e+01    0.9921201    0.3105914  41.64  0.003263623    3.562    0.719
       246 -10.9343     23.4332     92.5753   6.9824716617e+01   5.6768640912e+01    0.5685952    0.4206886 -70.86  0.001594715    1.236    0.191
       247 -11.0814     17.1421    104.1837   7.4491261504e+01   5.4149212770e+01    0.5983295    0.3531689 -55.12  0.001466454    1.502    0.334
       248 -10.7185     23.9565    102.7390   7.1475303947e+01   5.3989665235e+01      1.20515    0.5050585  64.26  0.003578558    4.695    0.787
       249  -8.6662    131.2477    118.6936   3.8161387508e+01   3.1985885355e+01    0.3666662    0.2290538  89.91  0.001123016    3.782    0.736
       250 -10.2993    248.5202    116.9472   1.6078527063e+01   9.1693250022e+00    0.3239938    0.2296619 -29.44  0.001992106    1.193    0.162
       251  -9.3486      2.3128    115.8244   8.1659140945e+01   5.1949912497e+01    0.5904952    0.2124792  77.11  0.001948792    3.747    0.733
       252  -9.9570    185.3144    113.9553   2.4955979906e+01   2.1298360214e+01    0.3906858    0.3296025  89.98  0.001699842    1.447    0.309
       253  -8.8736    183.5909    109.7089   2.4218044821e+01   2.2459626072e+01    0.3084465    0.2006063  53.63  0.001445434    1.708    0.414
       254  -9.5553     92.7914    112.5073   4.7827909220e+01   4.1458924774e+01    0.4405517    0.3084432 -89.17   0.00146963    2.071    0.517
       255  -9.4274     79.1429    112.3395   5.2381262270e+01   4.4029499065e+01    0.4943253    0.3141637 -88.75  0.001813272    2.534    0.605
       256  -9.4986     66.5184    110.4944   5.6430253771e+01   4.6631653262e+01    0.3504882      0.22177  71.34 0.0009736955    2.337    0.572
       257  -9.3845    133.6295    108.1472   3.4707936868e+01   3.3836714858e+01    0.6677597    0.2324387 -43.50  0.002081242    2.801    0.643
       258 -11.0014    132.9875    101.6535   3.3050819915e+01   3.5406439585e+01      0.94223    0.5041501  30.48  0.002917811    2.839    0.648
       259 -11.0774    249.6461    103.3732   1.3108809346e+01   1.1047901460e+01    0.8108568    0.2481737 -31.02  0.002914449    3.499    0.714
       260  -9.0698     59.4542    109.4942   5.8814576017e+01   4.7980488224e+01    0.2687374    0.1449604 -59.70 0.0006760558    1.743    0.426
       261 -10.1378     45.9558    102.4089   6.2437435752e+01   5.1732621777e+01     0.804116    0.3981444  63.89  0.002535788    3.851    0.740
       262  -8.6801    150.4986    103.9826   2.9477279610e+01   3.0904591359e+01    0.3247452    0.1827952 -56.29  0.001239604    2.075    0.518
       263  -8.6706     93.9350    103.5732   4.5021324689e+01   4.3456732143e+01    0.3240078    0.2139699  19.98  0.001279087    2.057    0.514
       264  -8.9726      6.9455    102.9776   7.8448454222e+01   5.5153527075e+01    0.2244956    0.1450278  64.39 0.0006866169    1.685    0.407
       265  -9.8684    108.7914     98.4060   3.8835441164e+01   4.1570920899e+01     0.600884    0.4234082  83.84  0.001870654    2.155    0.536
       266  -8.4246     82.4630    100.0039   4.7921640527e+01   4.6570179359e+01    0.2259397     0.141568 -78.51 0.0008077236    2.524    0.604
       267  -9.7223     64.1695     96.0908   5.3617735090e+01   5.0767006464e+01    0.5677919    0.3419579  78.00  0.001909826    3.331    0.700
       268  -8.7436    119.0995     93.3155   3.4314599590e+01   4.0408540541e+01    0.4246057    0.1413629  55.32  0.001096157    4.347    0.770
       269  -9.8741     61.5330    105.9596   5.7187532631e+01   4.8608658382e+01    0.2816885    0.2352365  18.03 0.0006086511    1.329    0.248
       270  -8.6421    108.1720     91.8750   3.7050388008e+01   4.3195255727e+01    0.3120748    0.2120874  19.70  0.001229007    2.121    0.528
       271  -9.5475     44.8499     91.5641   6.0302576115e+01   5.4743300003e+01    0.5316351    0.2552045  16.69  0.001962975    2.783    0.641
       272  -9.6778      4.9519     91.2211   7.7704642640e+01   5.8405872368e+01    0.4189941    0.1948126  76.72  0.001639003    2.834    0.647
       273  -9.0440    124.3632     90.6595   3.2067501799e+01   3.9765507028e+01    0.3433231    0.2539906 -79.03 0.0008816347    1.788    0.441
       274  -8.6306     95.0681     96.9782   4.2739299495e+01   4.4822628179e+01    0.2532697    0.1967799  88.97 0.0007292422    1.680    0.405
       275  -9.6573     34.8675     89.4043   6.4102962563e+01   5.6492535887e+01    0.5254499    0.2907518 -86.47  0.002027751    2.596    0.615
       276  -9.5540     36.3967     81.3347   6.1389447349e+01   5.8410376851e+01     0.527704    0.2825991 -13.26  0.001923863    3.138    0.681
       277  -9.4246      8.0779    108.1812   7.8645577245e+01   5.3681570944e+01    0.2213513    0.1671449 -50.82 0.0007615651    1.278    0.218
       278  -9.2174     86.5405     86.6655   4.2470090057e+01   4.8996965040e+01    0.3659553    0.2683424  77.18  0.001308063    1.927    0.481
       279  -8.4901     64.6566     86.6875   5.0718449820e+01   5.3052791908e+01    0.2489444     0.178347 -20.76  0.001098649    1.744    0.427
       280  -9.4552     48.2369     84.1174   5.6842796246e+01   5.6206742505e+01    0.4538132    0.2588323  65.53  0.001509334    3.220    0.689
       281  -9.7080      7.8436     84.1695   7.5313675475e+01   6.0107335004e+01     0.339114    0.1834232 -51.06  0.001257157    1.595    0.373
       282  -9.1188    185.6238     82.4943   1.6856880066e+01   2.6928956745e+01    0.3589618    0.2243644  36.65  0.001335861    2.194    0.544
       283  -8.8742    116.8835     83.0155   3.1723474513e+01   4.3125390383e+01    0.2312485    0.2243914 -22.90 0.0003133226    1.073    0.068
       284  -9.0389    104.5047     82.7035   3.5257750152e+01   4.6038018512e+01    0.3473195    0.2488128 -81.62    0.0010688    2.044    0.511
       285  -9.5776     24.5289     80.4981   6.6733843260e+01   5.9842627659e+01    0.3846645    0.2506186  77.21  0.001332381    2.066    0.516
       286  -9.5061    176.0069     78.0265   1.7234711902e+01   2.9902232540e+01    0.4639602    0.2805023 -87.35  0.001529826    2.564    0.610
       287  -8.2933    184.3045     77.6798   1.5789171005e+01   2.8046019674e+01    0.1525789    0.1029463 -64.58 0.0003092484    1.632    0.387
       288  -9.1373     49.8244     76.7770   5.3953586986e+01   5.7804564040e+01    0.3499555     0.206895  15.30 0.0009821357    2.156    0.536
       289  -8.0039    216.4953     76.4753   1.1019898289e+01   2.1273775644e+01    0.1350717     0.115923 -44.78   0.00030525    1.064    0.060
       290  -8.2358    105.3549     76.3104   3.2867844016e+01   4.7196571584e+01     0.162605    0.1256863   9.62  0.000704373    1.729    0.422
       291  -8.5046    127.8753     75.0658   2.6247886756e+01   4.2087415660e+01    0.2696968    0.1713397 -64.81 0.0007431395    2.076    0.518
       292  -9.8490     10.4112     74.1508   7.2216623428e+01   6.2549748454e+01    0.3136922    0.2049939  14.44  0.001327531    1.723    0.420
       293  -9.7511     27.4399     71.2145   6.2942210783e+01   6.1919666150e+01    0.5628432     0.255461 -21.30  0.001843836    3.992    0.749
       294  -8.5201     95.4944     71.4820   3.4298474066e+01   5.0428161649e+01     0.285256     0.142296 -53.27   0.00102321    2.375    0.579
       295  -8.2137    196.7602     71.3780   1.2308400340e+01   2.6271463964e+01    0.1865264    0.1265052  50.61 0.0006415863    1.713    0.416
       296  -9.2108     82.6279     72.6633   3.9162878578e+01   5.2944066835e+01     0.395282    0.2824384 -84.26  0.001378603    2.238    0.553
       297  -9.1734     51.4715     69.3151   5.0762408677e+01   5.9337017183e+01     0.404944     0.248061 -74.97  0.001379914    2.630    0.620
       298  -8.7075     16.5931     69.9226   6.8126221195e+01   6.3194812703e+01    0.2609918    0.1644846 -84.11  0.001010697    1.860    0.462
       299  -8.9067      1.5140     68.7641   7.5695106928e+01   6.4390175597e+01    0.2571874    0.1012796 -65.04  0.001112351    1.990    0.497
       300  -8.9338      5.3264     68.3277   7.3625528890e+01   6.4316755201e+01    0.1483435   0.07912017 -41.52 0.0007050213    1.700    0.412
       301  -8.5690     37.6695     64.2827   5.5663399418e+01   6.2442795967e+01     0.213721    0.1660609  72.82 0.0009429609    1.795    0.443
       302  -8.1113    110.2988     63.6436   2.7001073261e+01   4.8511334848e+01    0.1606235    0.1199177 -73.26 0.0007035843    1.703    0.413
       303  -8.6777     84.9929     63.4844   3.4943466530e+01   5.4354627360e+01    0.2244021    0.1291497  24.62 0.0008100463    2.617    0.618
       304  -9.5387     18.3166     61.4508   6.4971155320e+01   6.5146061594e+01    0.3001016    0.2198257 -32.26 0.0008707303    1.288    0.223
       305  -8.3679     50.7874     60.5737   4.7926430299e+01   6.1421469955e+01    0.2964894    0.1952967 -75.72  0.001228212    2.530    0.605
       306  -8.2338    100.6299     60.3056   2.8599705988e+01   5.1431100050e+01    0.1588993     0.121213 -84.35 0.0004197001    1.756    0.430
       307  -9.2395     73.4020     59.5070   3.7730026465e+01   5.7567213649e+01    0.3491476    0.2432298 -70.01  0.001041727    2.155    0.536
       308  -8.0646    111.2529     58.0439   2.4712572151e+01   4.9285454516e+01    0.1919445    0.1315814 -35.50 0.0003780785    1.500    0.333
       309  -9.4748     39.3765     57.6683   5.2454775661e+01   6.3736668165e+01    0.2737844    0.2101074 -11.54  0.001393147    1.389    0.280
       310  -9.7806      7.3121     57.4151   7.0052342324e+01   6.6901342093e+01    0.2470471    0.1860873  53.51  0.001289238    1.669    0.401
       311 -10.1804      2.4403     55.9291   7.2500567880e+01   6.7519855807e+01     0.434763    0.1991954 -62.90  0.001815557    1.777    0.437
       312  -8.6708     63.0093     54.9807   4.0182202082e+01   6.0489915197e+01    0.2215432    0.1847745  89.47 0.0006074464    1.672    0.402
       313  -8.0413    100.5334     54.4634   2.6411533800e+01   5.2500261938e+01    0.1504383    0.1442817  31.60 -8.885728e-07    1.047    0.045
       314  -8.5844     54.4958     54.0105   4.3596139279e+01   6.2208222217e+01    0.2013902    0.1297558 -70.04 0.0008104765    2.642    0.622
       315  -8.9328     26.4399     54.5238   5.8259645540e+01   6.6009589658e+01    0.2413704     0.129353   5.88  0.001033043    2.409    0.585
       316  -8.4807     20.4960     52.9926   6.1115748849e+01   6.6952527002e+01    0.1764156    0.1174848  87.67 0.0007409402    2.398    0.583
       317  -8.8341     92.6795     50.6646   2.7328378999e+01   5.5006925848e+01    0.2938224    0.1635019 -54.65  0.000889383    2.368    0.578
       318 -11.2184     45.5692     48.9211   4.5795237826e+01   6.4708067740e+01    0.2972135    0.2517872 -23.80  0.000422178    1.106    0.096
       319  -8.4372     31.1661     51.2192   5.4405703113e+01   6.6215043230e+01    0.1775218    0.1645104  88.63 0.0006080172    1.365    0.267
       320  -8.7841     76.7174     49.5856   3.2393673717e+01   5.8766059797e+01    0.2939458    0.1351091  43.00  0.001141668    2.148    0.534
       321  -8.2522     81.8271     46.8426   2.9372615097e+01   5.8131780610e+01    0.1926664    0.1741775 -75.59 0.0003983458    1.302    0.232
       322  -8.4577     64.8429     46.3682   3.5720992802e+01   6.1785112166e+01    0.2169122    0.1268501  32.62 0.0009489498    1.823    0.452
       323  -8.8959     22.6444     46.4875   5.7509823573e+01   6.8205786369e+01     0.261935    0.1300751  21.39  0.001200424    2.136    0.532
       324  -8.8669      1.7026     45.9074   7.0373412848e+01   6.9929055753e+01    0.1965932    0.1389612 -43.17 0.0005195311    1.172    0.147
       325  -8.5378    150.0000     44.4804   1.1677543935e+01   4.1615176663e+01    0.3041617   0.08142173 -31.17 0.0009067097    3.790    0.736
       326  -7.7723    130.6388     45.7100   1.5678607386e+01   4.6391705796e+01    0.1535463    0.1103329  33.64 0.0007026508    1.694    0.410
       327  -9.1884     16.3965     43.0815   6.0057397780e+01   6.9552871185e+01    0.5076934     0.132655 -61.44  0.001603672    4.322    0.769
       328  -8.5921     58.2361     42.8019   3.6990492941e+01   6.3700869708e+01    0.2283519    0.1645686 -88.04 0.0009614874    2.818    0.645
       329 -10.0448      4.7898     40.8498   6.6819445363e+01   7.0914742117e+01    0.4609495    0.2361871 -84.63  0.001899547    3.298    0.697
       330  -8.7427    114.0324     41.2109   1.7701007414e+01   5.1279491764e+01    0.2184376    0.1832254  40.47 0.0002841282    1.236    0.191
       331  -8.2723     69.1712     41.1824   3.1607714175e+01   6.1814841217e+01    0.1889267    0.1724153 -82.38 0.0005627028    1.365    0.268
       332  -8.6421    123.5290     40.0412   1.5135702372e+01   4.9026853995e+01    0.2171469    0.1850464  66.34 0.0003164485    1.113    0.102
       333  -8.5875     84.1423     39.6094   2.5450044739e+01   5.8781826235e+01    0.2885814    0.1589748  40.43  0.001234217    1.852    0.460
       334  -8.5346     36.8900     40.6472   4.6742246129e+01   6.7662876928e+01    0.1892309     0.119658  41.11 0.0007962104    1.757    0.431
       335  -9.4604    216.0967     38.4608   1.9813008067e+00   2.6763848665e+01     0.204722    0.1971847  12.06 0.0007802593    1.412    0.292
       336  -8.7138     26.0891     36.2849   5.1086256142e+01   6.9956952722e+01    0.2165814    0.1715362 -63.34 0.0009671391    1.594    0.373
       337  -8.2338    106.4910     36.5534   1.7712773666e+01   5.3834820263e+01    0.1459826    0.1352946  50.52 3.862892e-05    1.046    0.044
       338  -8.3377     38.0242     35.4559   4.3632746108e+01   6.8482591236e+01    0.1854474    0.1101111   7.91 0.0004455731    2.331    0.571
       339  -9.5759    221.8342     33.0627   2.4283233570e-01   2.6235136939e+01    0.2174622    0.1767759 -16.25  0.001359088    1.599    0.375
       340  -8.5776    119.4819     33.5327   1.3570799441e+01   5.0940285591e+01    0.2472292    0.1201121 -42.38 0.0007524681    2.125    0.529
       341  -9.2256     21.1532     34.3162   5.3316491368e+01   7.0920941161e+01    0.1938269    0.1460201 -29.86   0.00113431    1.169    0.144
       342 -10.0404      6.6852     33.5216   6.2869192760e+01   7.2395090594e+01     0.270012    0.2003628 -20.72 0.0008863701    1.220    0.181
       343  -8.1769     60.5021     32.5184   3.1045457507e+01   6.4987623238e+01    0.1366148    0.1293562  18.21 0.0001178332    1.083    0.076
       344  -8.2458     49.7027     32.4018   3.5950840317e+01   6.7069680834e+01    0.1323099    0.1105067 -75.57   0.00069957    1.820    0.451
       345  -8.9125     12.8154     31.0034   5.7457056249e+01   7.2426309571e+01    0.1862522    0.1486267  88.43  0.000758138    1.961    0.490
       346  -9.1342    147.8201     28.1800   6.7570770300e+00   4.4297225814e+01    0.1978423    0.1638802  44.48  0.001089898    1.368    0.269
       347  -8.1078    101.3448     28.6911   1.5765179533e+01   5.6153945929e+01    0.1474158     0.107573 -72.54 0.0007044379    1.700    0.412
       348  -9.0665      2.1629     27.8260   6.3906969010e+01   7.3896550156e+01    0.2577991     0.154513  -5.71 0.0006606066    1.702    0.412
       349  -8.2427     81.6404     27.3306   2.0674093090e+01   6.1102877310e+01    0.1438668    0.1091473 -73.96  0.000704165    1.796    0.443
       350  -8.1154     61.7061     26.6661   2.7551604411e+01   6.5609351775e+01    0.1426156    0.0996405  14.81  0.000298296    1.640    0.390
       351  -9.8239     44.3711     25.1710   3.4779055240e+01   6.9179054030e+01     0.238133    0.1929279  20.72 0.0003541168    1.135    0.119
       352  -8.5887    110.4889     24.1184   1.1794644194e+01   5.4387847887e+01    0.1907949    0.1416757 -26.23 0.0003808328    1.468    0.319
       353  -8.6349     66.8506     23.7891   2.4030238320e+01   6.4904611125e+01    0.1752332    0.1629144 -82.53  0.000379075    1.326    0.246
       354  -8.4659     63.4867     20.9848   2.3843503897e+01   6.5991546633e+01    0.2274633     0.153183 -73.63 0.0009809599    2.888    0.654
       355  -8.3846     58.8377     22.1325   2.6334513021e+01   6.6824050426e+01    0.1858505    0.1426803  20.30 0.0002370341    1.291    0.226
       356 -10.0923     13.0916     21.0552   5.2300075095e+01   7.4329382530e+01    0.2730554    0.2098988   0.17 0.0006992947    1.192    0.161
       357 -10.3284    195.5892    248.6585   4.9062593441e+01  -3.3280144604e+00    0.3284285    0.1841339  26.32  0.001561883    1.492    0.330
       358  -8.4396     84.8560     21.1386   1.6789298047e+01   6.1095568623e+01    0.2010709     0.180253 -72.00 0.0005183526    1.282    0.220
       359  -8.2164     48.3071     21.6712   3.0829801947e+01   6.8974426357e+01    0.1228507    0.1083283 -75.75 0.0003260839    1.657    0.397
       360  -9.0401     40.9854     21.0247   3.4203678900e+01   7.0400944709e+01    0.1973368     0.169084   7.67  0.001217239    1.019    0.019
       361  -8.3569     73.9660     19.5027   1.9327036107e+01   6.3839778774e+01    0.1869115    0.1206253  87.25 0.0008090197    2.510    0.602
       362  -8.5732      1.4848     19.5286   6.0728478149e+01   7.5621415717e+01    0.1239479   0.09868915 -27.12 0.0004645868    1.003    0.003
       363  -8.8224    147.9929    248.9956   5.8357120493e+01   2.6037963908e+00    0.1857234    0.1337536  50.25  0.001136079    1.717    0.418
       364  -8.1608    107.5102     16.5456   9.3269958865e+00   5.5958474584e+01    0.1397178     0.124449  60.62 0.0002202449    1.038    0.036
       365  -8.7083     50.6136     15.2465   2.6010158285e+01   6.9374645440e+01    0.2339815    0.1356171  31.35 0.0006128274    1.735    0.424
       366 -11.8643     90.0321    230.7700   6.8734504780e+01   1.3652813215e+01     1.964502    0.7866222 -73.10  0.007589678    4.001    0.750
       367 -10.2042    107.2516    246.5087   6.6603037845e+01   8.4313567936e+00    0.5084376    0.2908955 -76.76  0.002585886    2.786    0.641
       368 -10.5321    107.7210    238.1633   6.5587451518e+01   9.8506462559e+00    0.3931582    0.2885438 -58.12  0.002405049    1.637    0.389
       369 -10.5171    101.1415    233.4656   6.6520710361e+01   1.1620307485e+01    0.5285913    0.3124928  64.83  0.002555766    2.334    0.572
       370  -8.7308     32.0163     11.4741   3.3351703657e+01   7.3281564406e+01    0.1857325    0.1131516  37.48 0.0007164509    1.530    0.347
       371 -11.3626     98.9466    225.4025   6.6101738864e+01   1.3479203011e+01    0.4865223    0.3957148 -32.01  0.002005525    1.498    0.333
       372 -11.6037     95.3668    217.6897   6.6028376751e+01   1.5538353397e+01    0.5648029     0.384557  49.90  0.001848465    1.388    0.280
       373 -10.4270     99.9909    217.4778   6.4910696821e+01   1.4920884658e+01     0.305876    0.2214108  54.23 0.0008412918    1.390    0.280
       374 -11.3109    173.7981    245.0162   5.2673867039e+01  -1.4768213105e-01    0.6022679    0.4140431 -40.30  0.003865521    1.693    0.409
       375  -8.9077    100.8746    247.1215   6.8034967357e+01   9.1681935662e+00    0.1616106     0.132231  12.28 0.0003610975    1.306    0.234
