#   1 NUMBER                 Running object number                                     
#   2 MAG_AUTO               Kron-like elliptical aperture magnitude                    [mag]
#   3 X_IMAGE                Object position along x                                    [pixel]
#   4 Y_IMAGE                Object position along y                                    [pixel]
#   5 X_WORLD                Barycenter position along world x axis                     [deg]
#   6 Y_WORLD                Barycenter position along world y axis                     [deg]
#   7 A_WORLD                Profile RMS along major axis (world units)                 [deg]
#   8 B_WORLD                Profile RMS along minor axis (world units)                 [deg]
#   9 THETA_WORLD            Position angle (CCW/world-x)                               [deg]
#  10 FWHM_WORLD             FWHM assuming a gaussian core                              [deg]
#  11 ELONGATION             A_IMAGE/B_IMAGE                                           
#  12 ELLIPTICITY            1 - B_IMAGE/A_IMAGE                                       
         1 -13.7143      5.5474     12.4681   2.9191295942e+02   7.6052208414e+00     0.180421   0.05711046 -56.73   0.01343973    2.926    0.658
         2 -13.7561    202.2872      9.2221   2.8956685936e+02   6.4389676198e+00   0.08197697   0.05854897 -16.50  0.008436217    1.721    0.419
         3 -13.3989    189.2242     27.1568   2.8983078333e+02   6.3140107558e+00   0.06095453   0.05652471   5.36  0.006230862    1.091    0.083
         4 -10.3877      1.5015     51.9268   2.9220120412e+02   7.1776912952e+00   0.01669126   0.01118587 -63.81 0.0005005675    1.542    0.351
         5  -8.8976    156.3380    250.3063   2.9157876511e+02   3.9574134282e+00  0.007056866  0.005031329 -23.01   0.00070414    1.677    0.404
         6 -11.5539    139.1724    248.5557   2.9177035778e+02   4.0823880232e+00    0.0245789   0.01627328 -68.27  0.002511152    1.621    0.383
         7 -10.6147    126.9836    249.9901   2.9192267205e+02   4.1403782750e+00   0.01251715  0.008422187  17.51 0.0006455827    1.573    0.364
         8 -10.6650     98.3421    248.8869   2.9225351825e+02   4.3278514524e+00     0.014372    0.0126834  49.26  0.001704253    1.154    0.134
         9 -10.3963     67.5053    249.5768   2.9262119212e+02   4.5079369569e+00   0.01749492   0.01074638 -50.99  0.001429079    1.630    0.386
        10 -11.0132     30.1463    249.7596   2.9306275309e+02   4.7332737287e+00   0.02298615   0.01616658  41.12  0.001348456    1.409    0.290
        11 -11.5632     35.3875    244.5685   2.9296956987e+02   4.7609799586e+00   0.03953831   0.02466101 -15.06  0.003583483    2.279    0.561
        12 -14.9345      3.3734    231.1354   2.9326593150e+02   5.1098332829e+00    0.8041432          nan -59.97   0.03212276   10.238    0.902
        13 -13.5505      9.6667    206.8226   2.9304467177e+02   5.3507252320e+00   0.05964359    0.0521762 -41.29  0.002735804    1.168    0.144
        14 -14.4059     56.7369    212.6334   2.9252444606e+02   4.9975952569e+00    0.4446011   0.04636865  38.45   0.02194253    6.473    0.846
        15 -10.0815     66.4233    242.8667   2.9259332707e+02   4.5915468242e+00   0.01263464   0.01156386 -55.00 0.0005315436    1.109    0.098
        16 -10.3108    161.8612    248.8941   2.9150513695e+02   3.9398500271e+00   0.01071629  0.009173296 -24.95 0.0006879867    1.245    0.197
        17 -12.6171     43.3496    234.1700   2.9281277253e+02   4.8318938184e+00   0.02087624   0.01624974 -31.08 0.0007897318    1.401    0.286
        18  -8.6642     26.8038    239.5680   2.9304055518e+02   4.8706004192e+00  0.009563849  0.005841526  39.99 0.0006335334    1.609    0.379
        19  -9.9566    183.6287    238.3545   2.9118475619e+02   3.9276084433e+00   0.01324428  0.008029573  -1.90  0.001158886    2.361    0.576
        20 -11.2333    147.6913    230.0873   2.9155787342e+02   4.2422030034e+00   0.02388329  0.008777118  24.39  0.001771148    2.901    0.655
        21  -9.8947     46.5879    248.5863   2.9286180559e+02   4.6466953192e+00   0.01626751   0.01119407  69.68  0.001003057    1.866    0.464
        22 -13.8251     49.3153    225.2419   2.9268836743e+02   4.8980628016e+00   0.05794433   0.04784182 -84.49  0.004617891    1.348    0.258
        23  -9.0920    177.4007    227.2160   2.9119041013e+02   4.0934542970e+00  0.009088485  0.006525707 -80.16 0.0004765745    1.625    0.385
        24  -9.1489     34.2057    229.4983   2.9289235208e+02   4.9411723709e+00    0.0131465  0.009992408  64.54 0.0008628843    1.523    0.343
        25 -14.7536     17.6910    169.1903   2.9272203980e+02   5.7339612231e+00    0.2867456     0.133582 -84.68    0.0175918    5.123    0.805
        26 -10.7740    173.0966    221.5151   2.9120645747e+02   4.1851729330e+00    0.0224665   0.01533561  56.02  0.001766793    1.675    0.403
        27 -10.3182    198.1596    245.1676   2.9105507306e+02   3.7605721026e+00   0.00967397   0.00786905  59.78 0.0007576654    1.343    0.255
        28 -10.7518     95.2172    242.1387   2.9224945717e+02   4.4243554546e+00   0.01929589   0.01169232 -75.33  0.001734632    1.977    0.494
        29  -8.8214    152.4912    212.9529   2.9139721135e+02   4.4094231358e+00  0.009415025  0.006609163 -61.24 0.0002924571    1.450    0.311
        30 -12.4314     26.9198    203.4846   2.9282085691e+02   5.2841383664e+00   0.02846532   0.01477395  41.76  0.001110797    1.929    0.482
        31  -9.6883    192.0772    193.1787   2.9081046759e+02   4.3939652020e+00   0.01833319   0.01035413  80.96  0.001416104    3.233    0.691
        32 -11.6248     73.0875    191.4347   2.9220298031e+02   5.1412669812e+00   0.01510812   0.01239183 -38.85 0.0005129681    1.267    0.210
        33 -11.3701     67.8130    199.3652   2.9231332928e+02   5.0823982345e+00   0.01970099   0.01170124 -38.06  0.001314378    1.917    0.478
        34  -8.5017    105.1930    181.1578   2.9176174498e+02   5.0632867721e+00  0.008550178  0.007331918  61.05            0    1.252    0.201
        35 -10.8503     82.1317    178.6364   2.9201855898e+02   5.2329896811e+00   0.01208067   0.01119082 -39.33 0.0003874598    1.097    0.089
        36 -13.1989     69.5604    176.5382   2.9215419705e+02   5.3337479300e+00   0.02785571   0.01434621 -39.14  0.001873795    2.296    0.564
        37 -11.7470     88.8136    168.9553   2.9188089015e+02   5.3033171335e+00   0.03065206   0.02961863 -59.53  0.003828592    1.057    0.054
        38 -11.5801     32.8606    156.8567   2.9246808090e+02   5.7832345395e+00   0.02800336   0.01124333 -69.40  0.002069454    3.154    0.683
        39 -10.3210    234.7930    158.3804   2.9009530436e+02   4.5310442749e+00   0.01300833  0.005604551 -65.69  0.001038904    2.560    0.609
        40 -10.2140    193.5508    157.3325   2.9057475406e+02   4.7959711297e+00    0.0186001   0.01208779  69.65  0.001221987    2.098    0.523
        41 -11.9102     89.5521    152.1919   2.9177028431e+02   5.4911700044e+00   0.01425108   0.01189581 -26.06 0.0006155854    1.289    0.224
        42 -12.4804     66.9973    144.0600   2.9198718291e+02   5.7221046083e+00   0.04068282   0.02793199  67.18  0.004066058    1.845    0.458
        43  -9.8247    100.7386    152.5803   2.9164058772e+02   5.4184044333e+00   0.01259155   0.01219204 -49.27 0.0007976741    1.049    0.047
        44  -9.0986    103.3708    148.3703   2.9158390851e+02   5.4506287391e+00   0.01151971  0.007277101 -41.12 0.0007345668    1.705    0.414
        45 -12.5272     28.8148    141.1962   2.9242082734e+02   5.9875956099e+00   0.03696037   0.01450355 -52.89  0.003001304    2.448    0.592
        46 -10.0240    174.4673    137.9566   2.9068162056e+02   5.1350769204e+00   0.02040411   0.01097843  56.16   0.00172838    2.464    0.594
        47  -9.5842    111.1274    137.6624   2.9142718462e+02   5.5260781196e+00   0.01788579   0.01005752 -31.31  0.001555935    2.344    0.573
        48 -11.7938     58.1314    133.0614   2.9202505771e+02   5.9023688658e+00   0.04532889   0.02017714 -79.75  0.002940845    4.439    0.775
        49 -10.7957     98.6206    135.1671   2.9155965813e+02   5.6311225980e+00   0.01454523   0.01087149 -37.12 0.0005533764    1.431    0.301
        50  -9.3869    168.1169    131.9518   2.9071990661e+02   5.2428354022e+00   0.01062151  0.008401938  59.35 0.0006226411    1.394    0.283
        51  -8.6811    192.0561    144.0065   2.9051113363e+02   4.9579168770e+00  0.007891109  0.007607136 -56.90 0.0004066876    1.058    0.055
        52 -11.7593     25.8776    127.1878   2.9237047538e+02   6.1662269355e+00   0.02849572   0.01158723  16.14  0.001963949    3.594    0.722
        53  -8.6304     71.6632    125.2759   2.9181785942e+02   5.9091707513e+00  0.006967646  0.004910434  56.52 0.0004415014    1.609    0.378
        54  -9.3371    107.9829    124.2706   2.9138277969e+02   5.6989140034e+00  0.008979468  0.008149304  23.45 0.0002346322    1.082    0.076
        55 -10.5956     83.4958    244.5197   2.9240206113e+02   4.4685155544e+00   0.02332374   0.00979504  48.22    0.0017723    2.898    0.655
        56  -9.5336    155.4344    120.6853   2.9080083101e+02   5.4497055312e+00   0.01984885   0.01002754  55.12  0.001602353    2.697    0.629
        57 -10.4684    168.0786    113.3284   2.9060678424e+02   5.4565871216e+00   0.01608273   0.01238274  57.99  0.001016985    1.436    0.304
        58  -9.2895    203.1838    111.7730   2.9018329995e+02   5.2591431136e+00  0.009477055  0.007668514 -27.04  0.000673946    1.347    0.258
        59 -10.4414     44.4725    109.1827   2.9204128051e+02   6.2595786870e+00   0.02095062  0.006381598  41.00  0.001453023    3.273    0.694
        60  -9.3707    155.4024     75.7727   2.9052716768e+02   5.9647286650e+00  0.009650804  0.005942704 -49.71  0.000666058    1.635    0.388
        61 -11.6644      3.4262     62.6185   2.9224348556e+02   7.0434234115e+00   0.02611507   0.01880773 -52.12  0.001357479    1.393    0.282
        62  -9.3397     18.6274     66.9361   2.9208989455e+02   6.9014725982e+00   0.01218406  0.008918533  35.26 0.0004450755    1.326    0.246
        63 -10.7418     17.9030     56.7718   2.9203659549e+02   7.0224101687e+00   0.03379701  0.009296065  37.72  0.002336652    3.275    0.695
        64 -10.4307    248.1168    248.7820   2.9048922193e+02   3.4132938585e+00   0.01835429   0.01092808 -27.18  0.001642424    2.252    0.556
        65 -10.9325      5.8252     52.8818   2.9215584495e+02   7.1404613794e+00   0.01547399   0.01066091  43.36 0.0006137743    1.464    0.317
        66 -10.3073     81.3291    248.8098   2.9245358702e+02   4.4324887688e+00   0.01412788   0.01113556  58.18 0.0009179534    1.390    0.280
        67  -9.3481     75.6416    244.3055   2.9249335694e+02   4.5188551539e+00   0.01050185  0.007423694  62.23 0.0006633603    1.684    0.406
