#   1 NUMBER                 Running object number                                     
#   2 MAG_AUTO               Kron-like elliptical aperture magnitude                    [mag]
#   3 X_IMAGE                Object position along x                                    [pixel]
#   4 Y_IMAGE                Object position along y                                    [pixel]
#   5 X_WORLD                Barycenter position along world x axis                     [deg]
#   6 Y_WORLD                Barycenter position along world y axis                     [deg]
#   7 A_WORLD                Profile RMS along major axis (world units)                 [deg]
#   8 B_WORLD                Profile RMS along minor axis (world units)                 [deg]
#   9 THETA_WORLD            Position angle (CCW/world-x)                               [deg]
#  10 FWHM_WORLD             FWHM assuming a gaussian core                              [deg]
#  11 ELONGATION             A_IMAGE/B_IMAGE                                           
#  12 ELLIPTICITY            1 - B_IMAGE/A_IMAGE                                       
         1 -14.1602    204.5085     18.6761   6.1771532501e+01   3.2299921929e+01      1.94971     1.407311  33.95  0.008423957    2.014    0.503
         2 -11.3479      2.0741     14.0795   1.1404450944e+02   7.0626060877e+01    0.3003449    0.1487558 -44.06  0.001606467    1.802    0.445
         3 -11.6113      2.0689      4.0582   1.0985896666e+02   7.1980228208e+01    0.5668817    0.1892258 -41.68  0.003106369    2.633    0.620
         4 -13.7864    210.0026     12.4881   5.9790747755e+01   3.1726478618e+01     2.937351     1.602619  27.78  0.001446813    5.439    0.816
         5 -11.2251     81.8771    249.2856   1.3606066275e+02   1.2053186859e+01    0.3116542    0.1834742  58.80  0.001779211    1.455    0.313
         6 -11.8397    139.3631    248.0804   1.2484801115e+02   3.1004516741e+00    0.4423659    0.2942833 -70.39  0.002427027    1.929    0.482
         7 -12.0049    126.5908    245.8551   1.2707083543e+02   5.6355764769e+00    0.3959596    0.2720584  67.97  0.002211569    1.575    0.365
         8 -11.9383    101.2788    249.3263   1.3240356214e+02   9.0872039284e+00    0.6415225    0.3700569  63.28  0.003309605    1.732    0.422
         9 -13.2351    108.3349    246.4174   1.3071270342e+02   8.5155337716e+00     1.403399    0.3284681  47.52  0.004795671    3.735    0.732
        10 -11.9944     99.5738    237.5000   1.3138263213e+02   1.1638809261e+01    0.5853807     0.358542 -80.33  0.002189118    1.877    0.467
        11 -11.0479     93.0819    249.8629   1.3401839828e+02   1.0256541917e+01    0.4001424    0.3377675  20.46  0.001445314    1.690    0.408
        12 -12.5197     88.8413    244.3632   1.3424103522e+02   1.1959222280e+01    0.6727822    0.3795655  68.33  0.002831233    1.873    0.466
        13 -12.5744      5.2303    246.3031   1.4915111238e+02   2.2275306118e+01     1.364669    0.6667493  80.38  0.008543673    1.648    0.393
        14 -14.4537     34.1063    246.1961   1.4436614914e+02   1.9078740844e+01     12.74033     3.677471  30.11   0.02714054   17.108    0.942
        15 -12.4823     15.5473    241.4299   1.4718944888e+02   2.2133209719e+01     1.204601    0.3073572  55.87  0.005248851    3.400    0.706
        16  -9.9620     28.4025    234.5733   1.4452661175e+02   2.2066602610e+01    0.2267043    0.1006742  77.19  0.001127254    2.322    0.569
        17  -9.9542     42.5198    231.9887   1.4178140733e+02   2.0903164037e+01    0.1706303     0.100287 -76.34 0.0005040633    1.531    0.347
        18 -15.6770      7.8548    196.7610   1.4550820609e+02   3.2236200951e+01     8.619626     1.328921 -72.29   0.01975323    4.631    0.784
        19 -11.6771     20.4154    230.0283   1.4561176971e+02   2.3890016739e+01    0.4116171    0.2363138  41.49  0.001997788    1.805    0.446
        20 -10.9201     75.3498    228.6720   1.3518648330e+02   1.7145478394e+01    0.2941604    0.1682486  70.37   0.00144126    1.817    0.450
        21 -10.3294     69.0755    227.8843   1.3634091805e+02   1.8216177355e+01    0.2864411    0.1440346  69.01  0.001335099    2.250    0.556
        22 -10.9214    162.8103    248.5948   1.2030895056e+02  -9.3513103271e-01    0.2863052    0.2392418 -17.32  0.001790028    1.455    0.313
        23 -14.1360     45.9016    216.3738   1.3975670030e+02   2.3786673286e+01     1.191859    0.7342321  68.91  0.006118936    1.458    0.314
        24 -12.7197     38.6100    225.8463   1.4199454703e+02   2.2661921090e+01    0.3348087    0.2959972  89.50 0.0007396105    1.287    0.223
        25 -11.9294     62.5849    217.5305   1.3654827226e+02   2.1339105904e+01    0.4772287    0.2229175  51.77  0.002023192    1.955    0.488
        26 -10.3769    171.9983    246.1825   1.1814724236e+02  -2.0817221198e+00    0.1819654    0.1405454 -12.01  0.001057708    1.620    0.383
        27  -8.7790     78.4669    208.4820   1.3220546773e+02   2.1051741887e+01    0.1360269    0.1133992  77.83 5.804804e-05    1.026    0.025
        28 -10.7218    227.9154    204.3008   9.9920637164e+01  -4.5885844968e+00    0.3081574    0.2346969 -56.19 0.0007558813    1.739    0.425
        29 -11.8625     51.3590    235.6308   1.4045968766e+02   1.9028306019e+01    0.4422975    0.2806177 -80.92  0.001701076    1.428    0.300
        30  -9.8830    192.1641    193.1158   1.0479815329e+02   3.8511455742e+00    0.5247268    0.2489737 -61.88  0.001518742    5.144    0.806
        31 -11.5676     64.6670    193.1323   1.3328237786e+02   2.6550046825e+01    0.3921677    0.2564124 -48.90  0.001298182    1.802    0.445
        32 -10.5800    104.1162    236.8507   1.3040239992e+02   1.1040920363e+01    0.2070683    0.1523747  66.84 0.0005287138    1.253    0.202
        33  -8.6068    181.5246    192.4741   1.0690202127e+02   6.0198594286e+00     0.144052    0.1374837  17.12 1.465841e-05    1.015    0.015
        34 -11.7529     69.9723    185.9546   1.3113903134e+02   2.7487418915e+01    0.3019028    0.2555264 -51.67 0.0004603144    1.357    0.263
        35 -11.1749     79.4623    174.1810   1.2716979978e+02   2.8904266609e+01    0.2669604    0.2445134 -85.02 0.0004201067    1.064    0.060
        36 -13.3243     66.7018    171.5239   1.2984779038e+02   3.1400456291e+01    0.5299854    0.2861186 -45.63  0.001878444    2.184    0.542
        37 -10.5814    104.2452    172.9422   1.2093520617e+02   2.5155188882e+01     0.663826    0.1520354  46.94   0.00174652    4.948    0.798
        38 -10.2665    231.0238    168.9811   9.2226363799e+01   1.0884245821e+00     0.172694     0.158737 -18.91 0.0007646151    1.017    0.017
        39 -12.1340     58.3886    133.0672   1.2559054466e+02   4.1854215391e+01     2.470978    0.8044746 -71.42  0.004935999   10.006    0.900
        40 -12.9476     67.9063    144.6852   1.2513034236e+02   3.7773825966e+01     1.205262    0.6837128 -85.74  0.003044582    2.545    0.607
        41  -9.8244     99.0710    149.9441   1.1787849556e+02   3.1618066439e+01    0.2905482    0.2578101 -37.81 0.0007983173    1.234    0.189
        42  -9.1446    102.0247    145.7249   1.1623719340e+02   3.2124243274e+01     0.352052    0.1867121 -36.48  0.001310499    2.537    0.606
        43 -12.1561     87.9788    148.8457   1.2057337559e+02   3.3743328665e+01    0.3013891    0.2602492 -39.93 0.0004886491    1.261    0.207
        44 -11.2990     38.3504    146.6443   1.3324248851e+02   4.0891878143e+01    0.3176724    0.2241484  41.96 0.0009680746    1.593    0.372
        45 -14.8226     53.5408    208.8189   1.3746971863e+02   2.4471392528e+01     4.829977     1.161991  52.66   0.01483358    5.196    0.808
        46  -9.6405    110.4712    135.5401   1.1177302809e+02   3.3030707982e+01    0.3237598    0.2260357 -14.36  0.001169826    2.289    0.563
        47 -10.6757     97.7636    132.5907   1.1454224151e+02   3.6037479696e+01    0.2931857    0.2465396 -24.90 0.0009535447    1.375    0.273
        48  -9.2898    107.2176    122.8552   1.0967473591e+02   3.6627765982e+01    0.2085349    0.1939146 -69.22 0.0003031633    1.073    0.068
        49 -11.7012     55.2898    230.2012   1.3923480640e+02   1.9629635785e+01    0.3904425    0.2231541  64.38  0.002188283    1.571    0.363
        50 -11.1391    168.0334    113.0049   9.1920563123e+01   2.5781062290e+01    0.3769764    0.3103312 -80.35 0.0009238569    1.393    0.282
        51 -11.3365     22.3914    236.3510   1.4570043014e+02   2.2389975206e+01    0.2937278    0.2269658 -60.50  0.001275436    1.705    0.413
        52  -9.4426    204.4395    111.0119   8.4054744673e+01   1.7769363456e+01    0.3373167    0.1863456  35.52  0.001286263    2.543    0.607
        53 -12.1610     86.8000    165.8852   1.2399900857e+02   2.9774053409e+01    0.9141832    0.5839937  60.06  0.004276642    1.737    0.424
        54 -11.2032      1.6433     89.7565   1.3461227161e+02   5.6824139389e+01    0.4329369   0.09327162 -64.00   0.00168506    3.255    0.693
        55  -8.6745    184.7086     77.6272   7.9324355990e+01   2.8591400272e+01    0.1478422     0.118896  12.55 0.0007023544    1.726    0.421
        56  -9.4629    157.4835     77.4793   8.4712155993e+01   3.5163544350e+01    0.1489597     0.143669  79.97 0.0001095418    1.010    0.010
        57  -8.6498    109.0962     42.5533   8.5535943209e+01   5.1575922166e+01    0.1879388    0.1246404  50.81 0.0003569537    1.446    0.308
        58 -11.0212    245.5876    249.1685   1.0477455854e+02  -1.3928874541e+01    0.2638379    0.1595624  39.51  0.001459105    1.735    0.424
        59 -11.2912    189.8446     15.4982   6.2718895525e+01   3.6094108616e+01    0.2712409    0.2128685  86.32 0.0009010722    1.102    0.093
        60 -10.3326    185.5097    250.0000   1.1609648551e+02  -4.9319195573e+00    0.2888111   0.06249595  40.12 0.0009384394    3.965    0.748
        61 -11.7642    133.8921    247.4972   1.2584676530e+02   4.1205403120e+00    0.3662851    0.2538053  50.87   0.00190518    1.249    0.199
