#   1 NUMBER                 Running object number                                     
#   2 MAG_AUTO               Kron-like elliptical aperture magnitude                    [mag]
#   3 X_IMAGE                Object position along x                                    [pixel]
#   4 Y_IMAGE                Object position along y                                    [pixel]
#   5 X_WORLD                Barycenter position along world x axis                     [deg]
#   6 Y_WORLD                Barycenter position along world y axis                     [deg]
#   7 A_WORLD                Profile RMS along major axis (world units)                 [deg]
#   8 B_WORLD                Profile RMS along minor axis (world units)                 [deg]
#   9 THETA_WORLD            Position angle (CCW/world-x)                               [deg]
#  10 FWHM_WORLD             FWHM assuming a gaussian core                              [deg]
#  11 ELONGATION             A_IMAGE/B_IMAGE                                           
#  12 ELLIPTICITY            1 - B_IMAGE/A_IMAGE                                       
         1 -14.6303    246.9292      5.2543   3.5059769313e+02   2.3668477296e+01     1.331382    0.8062298 -57.64  0.008901555    1.259    0.206
         2 -15.1661    213.9574     14.3793   3.5424259097e+02   2.9387433147e+01     1.290181    0.5409216  75.51  0.006273855    2.370    0.578
         3 -13.1038     10.7345     15.9807   5.5623286758e+01   7.6634803568e+01    0.3717919    0.1842798 -46.51  0.001307233    1.816    0.449
         4 -14.5551    189.7228      7.7522   3.5415376473e+02   3.5567700716e+01    0.8895196    0.4534876 -72.41  0.004357122    1.861    0.463
         5 -11.1526     65.1802     11.6822   1.6674618924e+01   6.7724876507e+01    0.1952501    0.1908631 -53.65 0.0004069247    1.171    0.146
         6 -12.6293      3.9812     10.7773   5.9773570636e+01   7.8217675121e+01    0.3046403    0.2111855  27.57  0.001822167    1.539    0.350
         7 -12.3776      2.8593      4.2563   5.7307850269e+01   7.9599209430e+01    0.3020725    0.2306648 -75.67  0.001857607    1.761    0.432
         8 -12.5038    178.7462      3.7803   3.5383744153e+02   3.8603329516e+01    0.2475356    0.1861762 -76.54 0.0003073766    1.119    0.106
         9 -10.8709     87.3314    224.7425   6.4538839895e+01   1.7070945139e+01      0.32512   0.09431613  29.36  0.001211112    2.861    0.650
        10 -11.8117     52.7392    223.2977   7.2719913383e+01   2.1649360032e+01    0.4825319    0.1828081  29.71  0.002186317    2.090    0.522
        11 -11.2871     62.1858    221.0924   7.0271364191e+01   2.0965545708e+01    0.4063951   0.08804443  38.38  0.001512754    2.885    0.653
        12 -11.5791     99.6492    220.6621   6.1188777249e+01   1.6172553359e+01    0.4136842    0.2178759  30.84  0.001902912    1.527    0.345
        13 -10.3298     69.4767    220.5291   6.8450858921e+01   2.0176689882e+01    0.1314198    0.1039743  39.49 0.0001839479    1.012    0.012
        14 -10.6931    184.5098    219.5036   4.2597659824e+01   4.5820562510e+00    0.1232791   0.09338427   8.79 0.0008099902    1.055    0.052
        15 -10.0849    107.8625    217.8740   5.8924055372e+01   1.5545100020e+01    0.5777683    0.1973904  42.88  0.002299718    2.610    0.617
        16 -11.4737     86.5102    216.4382   6.3906926397e+01   1.8760478730e+01    0.4890661    0.2016969  39.36  0.002112995    1.887    0.470
        17 -10.9941    162.7686    217.2065   4.6591587226e+01   7.8618162313e+00    0.3239165    0.1406616  32.11  0.001559492    1.918    0.478
        18 -10.0825     94.6541    217.2911   6.2017515754e+01   1.7489643407e+01    0.1388269   0.08266005  50.80 0.0007027296    1.661    0.398
        19 -11.1686     75.7914    217.2227   6.6611748481e+01   2.0022860453e+01    0.3498272    0.1026044  40.73  0.001372335    2.529    0.605
        20 -10.7106     23.0957    216.8909   7.9515221732e+01   2.6111339145e+01    0.2185624    0.1470127  27.51  0.001328304    1.374    0.272
        21  -9.6969    137.6586    215.6758   5.1777377214e+01   1.1674334613e+01     0.133773   0.09045289   1.15 0.0007050951    1.729    0.422
        22 -10.5446    120.8256    215.3264   5.5568169882e+01   1.4161572792e+01    0.2871584   0.08545203  38.20  0.001088376    2.671    0.626
        23 -11.4060     64.7391    213.7145   6.9039376100e+01   2.2133015597e+01    0.3876119    0.2029884  38.04   0.00161281    1.480    0.324
        24 -11.8782     31.5413    215.0849   7.7377889707e+01   2.5639563292e+01    0.4594255    0.1697349  23.34  0.001975462    2.595    0.615
        25 -11.2794     54.7469    213.8579   7.1548710218e+01   2.3319797345e+01    0.3455943    0.1235945  45.12   0.00149157    2.201    0.546
        26 -10.5889    144.9874    213.4480   4.9842037124e+01   1.0988788750e+01    0.3046979   0.09750874  37.71  0.001207636    2.619    0.618
        27 -10.6037    113.7938    213.6138   5.7001621032e+01   1.5483588685e+01    0.2582739    0.1091619  30.04  0.001119722    1.996    0.499
        28 -11.3470     44.3263    212.4762   7.4057008143e+01   2.4808583710e+01    0.3589757    0.1647165  35.76  0.001773944    1.659    0.397
        29 -10.4494    170.9937    212.7676   4.4244987223e+01   7.3892057956e+00     0.172796   0.08796968  31.06 0.0008876572    1.665    0.399
        30 -11.1180    156.1965    212.3033   4.7250055556e+01   9.5584269044e+00    0.3013601    0.1495766  27.80  0.001484071    1.750    0.428
        31 -10.6787    126.7357    211.8647   5.3741643073e+01   1.3921180631e+01    0.2719526    0.1201208  39.11  0.001228252    1.917    0.478
        32 -11.1261    101.4613    212.2167   5.9793296610e+01   1.7507749812e+01    0.3529074    0.1420212  37.45  0.001536123    1.957    0.489
        33 -10.1868     70.6650    212.2701   6.7427629341e+01   2.1677101345e+01      0.14019   0.07914007  50.28 0.0003546187    1.594    0.373
        34 -11.1909     95.5252    209.7159   6.0957868370e+01   1.8831194926e+01     0.278412    0.1704829  41.86  0.001057215    1.377    0.274
        35 -13.8533    226.8596    205.3151   3.2843049742e+01   1.1112062894e+00    0.7343504    0.3978447  26.12  0.004519802    1.694    0.410
        36 -10.7634    163.2615    208.7023   4.5216596801e+01   9.1143073561e+00    0.2639179    0.1338842  15.46  0.001163382    2.471    0.595
        37 -10.5809    133.8695    208.7411   5.1668046331e+01   1.3423382425e+01    0.3329086    0.1353161  28.75  0.001390717    2.234    0.552
        38 -10.6458    109.0145    209.4866   5.7628581335e+01   1.6944611117e+01    0.2166526    0.1116632  32.33  0.001031502    1.587    0.370
        39 -11.8912     79.6756    208.1105   6.4751365632e+01   2.1339931319e+01    0.4104733    0.2318661  45.43  0.001742555    1.519    0.341
        40 -10.8509     58.1799    209.4137   7.0334501783e+01   2.3830292144e+01    0.3234125   0.09575868  31.72  0.001256933    2.533    0.605
        41 -10.6637     26.0243    209.4681   7.8457752848e+01   2.7375516884e+01    0.1921443    0.1024079  30.87  0.001019992    1.561    0.359
        42 -10.7952     20.9381    209.4986   7.9721787356e+01   2.7862916520e+01    0.1892476    0.1033695  29.50  0.001024867    1.566    0.361
        43  -9.9495      9.0133    210.0000   8.2659713435e+01   2.8839734303e+01    0.1906393   0.05885025  23.85 0.0007918356    2.869    0.652
        44 -11.3645     34.2958    207.2019   7.6256714832e+01   2.7014723467e+01    0.3075961    0.1711166  31.07  0.001291415    1.508    0.337
        45 -11.2091    193.6426    207.1974   3.8957107032e+01   5.0928440539e+00    0.2648395      0.14277  29.16  0.001472673    1.632    0.387
        46 -11.2509    178.8261    206.8163   4.1751127935e+01   7.1868001651e+00    0.3334357    0.1459269  24.59  0.001508854    2.329    0.571
        47 -11.1970    207.5467    205.3963   3.6136006564e+01   3.5063273792e+00    0.2898822    0.1561159  14.34  0.001494852    1.961    0.490
        48 -10.8975    150.1202    205.7643   4.7586034474e+01   1.1519583834e+01    0.3250417    0.1571911  22.72  0.001445018    2.161    0.537
        49 -11.3606    119.2337    205.8998   5.4700844325e+01   1.6117094939e+01    0.4479193    0.1792066  25.95  0.001739118    2.579    0.612
        50 -11.3382     88.4560    205.6012   6.2257558183e+01   2.0645391643e+01    0.3620876    0.1800209  36.13  0.001418095    1.609    0.379
        51 -10.7677     72.8226    205.4254   6.6228946674e+01   2.2808266928e+01    0.3101288    0.1511382  39.48   0.00114708    1.629    0.386
        52 -11.4347     50.1219    206.3426   7.2154055403e+01   2.5441472006e+01    0.4507341    0.1419186  27.30   0.00173631    2.742    0.635
        53 -10.4312     16.0339    206.0226   8.0794906911e+01   2.9061527741e+01    0.1559389    0.1147252  41.94 0.0008160948    1.111    0.100
        54 -10.5672     40.3098    205.5337   7.4618505649e+01   2.6726977174e+01    0.2467151    0.0963406  33.09  0.001107065    1.966    0.491
        55 -10.0539    158.0156    205.0000   4.5757232910e+01   1.0475644094e+01    0.2171539   0.06368624  34.35 0.0008000888    2.926    0.658
        56 -10.3730    141.1763    204.6082   4.9406043346e+01   1.3056423928e+01     0.198934    0.1099001  24.03 0.0009564834    1.704    0.413
        57 -11.9061      9.4069    202.9115   8.2333631032e+01   3.0317803797e+01    0.4357724    0.1963122  17.47  0.002076769    2.422    0.587
        58 -11.9127     59.4405    201.7151   6.9356816029e+01   2.5312948391e+01    0.4903067    0.1685636  37.06  0.001863352    2.168    0.539
        59 -11.3523    198.6667    200.8852   3.6999234776e+01   5.3043352875e+00    0.3105861    0.1536219  26.52  0.001620457    1.890    0.471
        60 -11.1683    187.0565    200.9203   3.9190900454e+01   6.9065324828e+00    0.2873884    0.1547111  19.77   0.00146797    1.886    0.470
        61 -10.6774    111.3982    201.8412   5.6055449878e+01   1.8062498253e+01    0.2743049   0.07971273  34.61 0.0009720773    2.744    0.636
        62 -11.3773    102.6966    200.4648   5.8040451837e+01   1.9630868015e+01    0.4714505    0.2014735  34.09  0.002018237    1.914    0.478
        63 -11.6390     27.6993    201.1415   7.7605645843e+01   2.9006757939e+01    0.3261012    0.1658341  27.70  0.001358066    1.731    0.422
        64 -10.7088     68.6776    200.1271   6.6783620974e+01   2.4476589114e+01    0.2594168    0.1422828  39.12  0.001275105    1.471    0.320
        65 -11.5031     43.6282    199.3620   7.3329191326e+01   2.7703687605e+01    0.3677982    0.1761832  32.81  0.001364717    1.695    0.410
        66 -10.9834     36.1481    200.5472   7.5374468553e+01   2.8263745614e+01    0.2418433     0.101598  31.67  0.001106944    1.907    0.476
        67 -11.5532     20.0831    199.5875   7.9493519827e+01   3.0086664030e+01    0.2774189    0.2152524   1.31  0.001354933    1.660    0.398
        68 -14.2802    234.5453    198.0142   3.0420495033e+01   1.0970138296e+00    0.8151346     0.566685 -32.41   0.00565272    1.501    0.334
        69 -11.5369    212.4124    198.9042   3.4217567619e+01   3.7469202754e+00    0.3241615    0.1472494  27.63  0.001598195    2.120    0.528
        70 -11.2940    166.0099    198.9331   4.3102009680e+01   1.0276227910e+01    0.4416669    0.1678719  27.00  0.001719645    2.875    0.652
        71 -10.4848    132.9316    199.7782   5.0585458556e+01   1.5175439512e+01    0.3356391   0.09171924  35.67  0.001164737    3.010    0.668
        72 -10.2974     75.1558    199.3813   6.5006045850e+01   2.3774145758e+01    0.2165092   0.09700853  39.94 0.0009509487    1.794    0.442
        73 -11.1012     51.1278    198.7793   7.1300160810e+01   2.6963963751e+01      0.35804    0.1397446  34.11  0.001552008    1.990    0.497
        74 -10.9924     82.5175    197.4845   6.2866171219e+01   2.3163951944e+01    0.3757541     0.174917  36.84  0.001545856    1.733    0.423
        75 -10.6326    142.2534    196.8804   4.7985316806e+01   1.4259128163e+01    0.3339151    0.1394626  39.91  0.001413984    2.148    0.535
        76 -10.7024    179.0317    195.6745   3.9897729571e+01   8.8602128054e+00    0.3035589    0.1334423  29.36  0.001383221    2.156    0.536
        77 -11.0411     62.9366    196.0968   6.7914629809e+01   2.6097721568e+01    0.2888824    0.1547244  38.53  0.001203727    1.510    0.338
        78 -11.1976    203.9609    195.1994   3.5087379114e+01   5.3853102877e+00    0.2685076    0.1402822  26.04  0.001264801    1.815    0.449
        79 -10.6802     24.9905    194.9686   7.7981632617e+01   3.0645625706e+01    0.1817353     0.150016 -14.53 0.0007662916    1.632    0.387
        80 -11.8633      3.9022    194.4115   8.3455758122e+01   3.2635654374e+01    0.4115342    0.2059237  20.04  0.002119559    2.026    0.506
        81 -14.3688    244.0457    196.1174   2.8651439211e+01   2.1358227614e-01    0.7243323    0.6126535  -5.58   0.00571494    1.301    0.231
        82 -11.0444    194.6464    193.9937   3.6591934961e+01   6.8557191011e+00    0.2778604    0.1501466  23.54  0.001453085    1.801    0.445
        83 -11.3391     31.6089    193.3708   7.6124932966e+01   3.0342521060e+01    0.2470325    0.1818511  13.88  0.001069474    1.543    0.352
        84 -10.7315    210.5756    193.2569   3.3586722867e+01   4.7597134339e+00    0.2085158    0.1218219  13.51 0.0009501308    1.781    0.439
        85 -11.3020    151.8442    193.0745   4.5211894728e+01   1.3436681829e+01    0.4782096    0.1768054  34.64  0.001924991    2.377    0.579
        86 -10.8857    126.6780    193.4104   5.1117372323e+01   1.7343450516e+01    0.4006671    0.1437921  34.00  0.001535786    2.387    0.581
        87 -10.0281     56.3485    193.6973   6.9465111188e+01   2.7460147927e+01    0.1504529   0.08215168  53.28  0.000703988    1.694    0.410
        88 -11.4242     38.1588    192.7718   7.4319919921e+01   2.9784647110e+01    0.3200724    0.1717949  34.24  0.001115934    1.539    0.350
        89 -11.5201    217.4654    191.6202   3.2125170015e+01   4.0662051375e+00    0.3398487    0.1835675  36.76  0.001939094    1.905    0.475
        90 -11.4745     92.2313    192.2828   5.9683202564e+01   2.2870759507e+01    0.4634418    0.1965244  28.54  0.001857324    2.186    0.542
        91 -11.2582    115.9045    192.1416   5.3578895476e+01   1.9284932934e+01    0.4917322    0.1701237  35.09  0.001852187    2.410    0.585
        92 -11.2287     16.8052    191.6618   7.9986997378e+01   3.2159522842e+01    0.2826509    0.1746692  42.14  0.001119113    1.303    0.233
        93 -11.2592    187.3412    190.3920   3.7366724304e+01   8.4525084972e+00    0.3247434     0.191807  11.92  0.001651566    1.927    0.481
        94 -11.4795    225.4045    189.7510   3.0490235506e+01   3.2823213049e+00    0.3066458    0.1931973  -2.22  0.001874209    1.562    0.360
        95 -10.8391    105.6692    189.7418   5.5834922645e+01   2.1368913021e+01    0.3052576    0.1584516  39.44  0.001378646    1.645    0.392
        96 -10.5010    206.7390    189.3692   3.3594573976e+01   5.8277124721e+00    0.1725319   0.09843896  22.90  0.000944957    1.702    0.412
        97 -10.9213    200.5092    188.9534   3.4643072299e+01   6.7617852277e+00     0.242928    0.1478557  16.29  0.001318188    1.658    0.397
        98 -11.8998     69.6306    189.0119   6.5376117547e+01   2.6793414065e+01    0.5055934    0.1722594  31.78  0.001781358    2.412    0.585
        99 -11.4601     47.5012    188.2586   7.1412982503e+01   2.9760910998e+01    0.4336506     0.145014  38.21   0.00172134    2.256    0.557
       100 -10.4477    180.2208    188.6017   3.8457526896e+01   9.7956779736e+00     0.183013    0.1073582  23.10 0.0009372374    1.655    0.396
       101 -10.7784    173.4980    188.4820   3.9799093679e+01   1.0842104671e+01    0.2372406    0.1110854  25.54  0.001028456    2.283    0.562
       102 -11.4825     80.9026    187.8357   6.2160420548e+01   2.5486583611e+01     0.413439    0.2250338  27.73    0.0018732    1.699    0.411
       103 -11.4367      8.9468    187.8280   8.1917314634e+01   3.3709271908e+01     0.291145    0.1705728  19.59  0.001407828    1.768    0.434
       104 -11.0692      2.2643    187.6966   8.3681310099e+01   3.4270076616e+01    0.2276167    0.1587277  13.02  0.001143229    1.645    0.392
       105 -10.3837    210.8243    187.4156   3.2538389358e+01   5.5392345675e+00    0.1688176   0.09882593  20.81 0.0009404824    1.685    0.406
       106 -11.0284     28.5580    187.4840   7.6588500751e+01   3.1999486195e+01     0.256346    0.1149865  26.48 0.0008044474    2.008    0.502
       107 -12.4143    238.8436    185.5152   2.7653299538e+01   2.1370859388e+00    0.2663428    0.1500197   9.69  0.001467407    1.993    0.498
       108 -11.2434     89.5336    185.5971   5.9534380868e+01   2.4715987489e+01    0.4392126    0.1481442  37.53  0.001624266    2.387    0.581
       109 -11.5388     22.2243    186.0881   7.8246113852e+01   3.2938121045e+01    0.3292757    0.1745265  22.16  0.001388207    1.868    0.465
       110 -12.6748    249.3746    183.4599   2.5747005935e+01   1.1216315581e+00    0.3050666    0.1710157 -21.50  0.001933685    1.496    0.331
       111 -11.4825    232.2270    184.8956   2.8566552332e+01   3.0442263378e+00    0.3128906     0.134234  24.41  0.001507442    2.790    0.642
       112 -11.2657    218.8984    184.8067   3.0707129190e+01   4.8013684398e+00    0.2593093      0.18052   7.91  0.001351526    1.325    0.246
       113 -12.0865    166.2185    182.8236   4.0336456845e+01   1.2933713861e+01    0.5830986    0.2435547  31.66   0.00243297    2.322    0.569
       114 -12.4031    159.6617    182.9060   4.1766519237e+01   1.3977045997e+01    0.6271732    0.3870188  24.59  0.003164847    1.563    0.360
       115 -10.8196    140.5528    184.6784   4.6410966237e+01   1.6774423682e+01    0.2979313    0.1532725  23.64  0.001255937    2.140    0.533
       116 -10.8643    192.7818    184.2777   3.5258682177e+01   8.5830534746e+00    0.2810428    0.1348687  32.80  0.001371972    1.974    0.493
       117 -10.9186    131.6756    182.9031   4.8241661736e+01   1.8575324921e+01    0.3516176    0.1690507  27.54  0.001447277    2.106    0.525
       118 -12.2882     58.5365    181.1694   6.7646112902e+01   3.0054237763e+01    0.5724576    0.2231334  37.98  0.001727303    2.055    0.513
       119 -11.8065     36.9946    182.2916   7.3879227597e+01   3.2334621717e+01     0.421408    0.2056948  31.86   0.00141644    1.742    0.426
       120 -11.7445    225.5555    180.2948   2.8822093905e+01   4.5218635762e+00    0.2723213    0.1464862   4.01  0.001319307    2.629    0.620
       121 -11.0084    204.2231    180.9355   3.2559140779e+01   7.4030990938e+00    0.2215418    0.1600266  24.38   0.00135979    1.292    0.226
       122 -11.2236     68.1631    180.8450   6.4872757780e+01   2.8856163190e+01    0.3609579    0.1486768  40.63  0.001467612    2.009    0.502
       123 -11.8122     14.0738    180.8776   8.0231787634e+01   3.4887186474e+01    0.3718005    0.1753538  21.54  0.001433551    2.098    0.523
       124 -13.2074    245.7127    178.4739   2.5419069327e+01   2.1776828718e+00    0.5336179    0.2499411  20.22  0.002725994    2.771    0.639
       125 -10.8637    184.3750    180.9547   3.6286494886e+01   1.0378124686e+01    0.2693626    0.1509659  20.10  0.001300008    1.977    0.494
       126 -11.1010    175.7758    179.0406   3.7666011648e+01   1.2042807408e+01    0.3217271    0.1877444  10.47  0.001455678    2.297    0.565
       127 -11.1944    112.8045    179.8420   5.2506087103e+01   2.2303614050e+01      0.42955    0.1576262  38.62  0.001600879    2.327    0.570
       128 -10.8222      6.8639    179.6655   8.2174335557e+01   3.5763400254e+01    0.1797382    0.1740659 -89.16 0.0009215643    1.248    0.198
       129 -11.3253      2.1252    178.2120   8.3426627428e+01   3.6464152556e+01    0.3309657    0.1394222  37.79  0.001078572    1.869    0.465
       130 -10.5378     85.5028    178.8795   5.9743927130e+01   2.6818314431e+01    0.2568554    0.1426883  36.46  0.001162045    1.540    0.350
       131 -11.1854     76.8687    179.2151   6.2211934925e+01   2.8012077730e+01    0.3807837    0.1607345  37.38   0.00154371    1.961    0.490
       132 -11.3971     21.6567    178.9950   7.8007534456e+01   3.4655160050e+01    0.2826406    0.1763723  26.58 0.0009943754    1.522    0.343
       133 -11.0641     99.8006    178.0037   5.5683072181e+01   2.4799220380e+01    0.4438749    0.1472629  40.24  0.001566397    2.561    0.610
       134 -11.8492     29.3166    177.2515   7.5709141292e+01   3.4331970369e+01    0.3748522    0.2258104  19.81  0.001325123    1.733    0.423
       135 -10.7287    123.0314    177.6014   4.9513367305e+01   2.1076159177e+01    0.3440331    0.1258389  34.92  0.001256439    2.426    0.588
       136 -11.2930     47.7715    176.8214   7.0320952374e+01   3.2414003303e+01    0.3912326    0.1463454  34.73  0.001577716    2.144    0.534
       137 -10.4908    206.7536    175.4454   3.1117753040e+01   7.8424715702e+00    0.1727588    0.1054205  22.10 0.0009441503    1.661    0.398
       138 -11.2440    193.5222    173.4277   3.3154054426e+01   1.0150946194e+01    0.3424224    0.2029243  -3.19  0.001604139    2.334    0.572
       139 -10.8877    218.9905    173.3511   2.8648058285e+01   6.3808226152e+00    0.2285696    0.1454923  -9.00  0.001304362    1.622    0.384
       140  -9.9888    139.9757    175.0000   4.4884659848e+01   1.8725303211e+01    0.2423289   0.07380415  36.65 0.0008048863    2.959    0.662
       141 -11.3112    212.1181    180.8124   3.1151657941e+01   6.2927095246e+00    0.3228319    0.1505203  26.51  0.001563302    2.330    0.571
       142 -11.8062     63.0299    172.0110   6.5332750023e+01   3.1637297924e+01    0.6311083     0.259566  24.90  0.002375623    2.495    0.599
       143 -11.1668    184.9007    171.8405   3.4513519401e+01   1.1768351019e+01    0.2939841    0.1707017  17.69  0.001392961    2.054    0.513
       144 -10.8137     91.4094    172.4772   5.7180958811e+01   2.7366614433e+01     0.311022    0.1301823  33.27  0.001181516    2.105    0.525
       145 -12.3888     16.0513    170.7976   7.9163482842e+01   3.7122970644e+01     0.462641    0.2514352  25.54  0.001673819    1.747    0.427
       146 -10.8810    225.7232    170.9839   2.7125642650e+01   5.7693194227e+00    0.2366785     0.126986  13.18  0.001151521    2.550    0.608
       147 -10.4298     39.9816    175.5058   7.2478185426e+01   3.3625267341e+01    0.2091113    0.1240155  28.43 0.0007255391    1.557    0.358
       148 -11.0689    109.2648    169.8241   5.1827378741e+01   2.5045482124e+01    0.5312209     0.141519  39.20   0.00165979    3.168    0.684
       149 -11.7265     81.3049    170.2613   5.9749704141e+01   2.9439913897e+01    0.5510156    0.1863462  31.65  0.001912045    2.634    0.620
       150 -11.0310     37.3382    169.0744   7.2716565510e+01   3.5481636832e+01    0.2816851     0.171128  37.08 0.0009256315    1.429    0.300
       151 -11.8583     27.2397    168.0739   7.5676245917e+01   3.6766296577e+01    0.4213465    0.2685679  -2.68  0.002002431    2.185    0.542
       152 -11.6117     47.2368    167.4959   6.9573867764e+01   3.4744316921e+01    0.4044788    0.1733773  36.37  0.001317067    1.944    0.486
       153 -12.4868      5.1838    167.0765   8.2161926240e+01   3.8889702762e+01    0.4434929    0.2849707  13.62  0.001692001    1.744    0.427
       154 -11.4836    248.2135    167.5896   2.3148378348e+01   3.2388278624e+00    0.1486365   0.09396102  19.79 0.0008351748    1.663    0.399
       155 -10.5055    199.3810    167.3520   3.0932860940e+01   1.0185931547e+01    0.2284875    0.1011927  26.72 0.0009339476    2.878    0.653
       156 -10.6055    177.9830    167.0268   3.4982692292e+01   1.3706144748e+01    0.2251877    0.1522204   1.12  0.001127525    1.780    0.438
       157 -11.4652     52.3529    173.0278   6.8603502889e+01   3.2771338964e+01    0.3168149    0.1862088  32.18  0.001209007    1.512    0.338
       158 -12.9219     33.6792    154.8075   7.2588642438e+01   3.9450222110e+01     0.495455    0.2872327  27.90  0.001530307    1.639    0.390
       159 -13.7700     13.5209    152.7588   7.8909229212e+01   4.1809794136e+01    0.8114119    0.4215207  27.67  0.003401852    1.805    0.446
       160 -12.7131     56.2511    163.4056   6.6366564185e+01   3.4635087964e+01    0.6007487    0.3467948  30.71  0.002127156    1.588    0.370
       161 -13.3140     41.9108    157.6556   7.0228185073e+01   3.7828433894e+01    0.6155761    0.4051966  24.38  0.001819178    1.522    0.343
       162 -10.5132    221.3606    164.8213   2.6688602183e+01   7.2505631035e+00    0.2131622   0.08863433  42.40  0.001003409    2.648    0.622
       163 -13.4258     49.4099    159.1414   6.8009983802e+01   3.6565315997e+01    0.6898875    0.3540403  42.04  0.002080903    1.706    0.414
       164 -11.4680     14.5129    163.9798   7.9248062806e+01   3.8920834865e+01     0.309663    0.1765675  25.32 0.0009162454    1.691    0.409
       165 -11.6196     21.6806    162.1290   7.6952127991e+01   3.8761598873e+01    0.3664541    0.1819409  25.42  0.001307661    1.911    0.477
       166 -11.2999    103.1529    161.2077   5.2058128689e+01   2.8014791523e+01    0.5000458    0.1986865  33.82  0.001804611    2.322    0.569
       167 -11.8738      4.7988    160.7392   8.2016597010e+01   4.0465576708e+01    0.3092331    0.1992787  38.63  0.001213486    1.377    0.274
       168 -10.5061    117.6406    158.7773   4.7620613336e+01   2.6015704120e+01    0.2025638     0.145102 -65.55 0.0009520839    1.689    0.408
       169 -11.5127     82.8034    158.3333   5.7533601953e+01   3.2053294752e+01    0.5126917    0.1766797  44.12  0.001721474    2.718    0.632
       170 -10.9600     72.0025    158.0000   6.0785269591e+01   3.3788263564e+01    0.2536823   0.07891218  30.47 0.0008052958    2.962    0.662
       171 -11.5460     64.9797    155.9674   6.2691232621e+01   3.5309380355e+01    0.4188754    0.1635214  53.45   0.00137205    3.149    0.682
       172 -12.4049      2.9351    153.5173   8.2283451446e+01   4.2385232466e+01    0.4734814    0.2388391  67.88  0.002282784    1.799    0.444
       173 -11.1589     96.4513    154.5807   5.2836202347e+01   3.0702829905e+01    0.4467486    0.1390265  34.08  0.001403874    2.969    0.663
       174 -10.9069    149.7580    174.6241   4.2519346940e+01   1.7128698197e+01    0.3496884    0.1582589  26.29  0.001326477    2.621    0.619
       175 -11.8039    108.5413    152.2121   4.8908892513e+01   2.9128135035e+01    0.7148391    0.2513783  34.33  0.002354863    2.745    0.636
       176 -12.8010     24.9002    154.3757   7.5377510305e+01   4.0423451074e+01    0.5506805    0.2710895  31.30  0.001551462    1.821    0.451
       177 -12.2020     53.3180    149.1417   6.5537294609e+01   3.8622356417e+01    0.5520781    0.1725582  40.69  0.001892834    2.705    0.630
       178 -11.2223     83.1494    149.2087   5.5935651301e+01   3.4226478938e+01    0.3452198    0.1274674  25.82  0.001038567    3.418    0.707
       179 -12.6681     24.1112    147.1920   7.5058004428e+01   4.2342225097e+01    0.4285904    0.1819704  50.51  0.001761112    2.192    0.544
       180 -12.7735    237.7419    144.7103   2.0390212905e+01   7.6891370253e+00    0.5842382    0.2701713  28.49  0.002731778    3.041    0.671
       181 -12.0629     31.2792    143.8815   7.2340637747e+01   4.2520671828e+01    0.3515825    0.1547401  40.59  0.001464667    1.999    0.500
       182 -10.6935     81.3656    142.7061   5.5367698876e+01   3.6133164370e+01    0.1664122    0.1086634  59.96 0.0007029079    1.714    0.417
       183 -12.9073      5.6767    145.5910   8.1043728910e+01   4.4204042354e+01    0.4908356    0.2296371  37.34  0.002092337    1.876    0.467
       184 -14.7358     16.1523    137.5065   7.6999572739e+01   4.5538843415e+01     1.365666    0.4483994  41.54  0.005251055    2.592    0.614
       185 -13.8416      4.9631    130.0261   8.0439926335e+01   4.8271081468e+01    0.8915194    0.3162165 -82.33 0.0003649239    2.600    0.615
       186 -10.9267     58.6755    132.3189   6.1245090183e+01   4.2284548705e+01     0.163871    0.1061188  61.05 0.0003529892    1.675    0.403
       187 -11.7208     36.0517    130.7125   6.9191719589e+01   4.5511000600e+01    0.2038718    0.1834498  47.30 0.0006581251    1.071    0.067
       188 -10.3783     73.6747    129.3174   5.5456278266e+01   4.0792529746e+01    0.1654585    0.1126945  63.78 0.0004493806    1.673    0.402
       189 -11.4105     24.6717    126.3311   7.2909814205e+01   4.7793053371e+01    0.1577856   0.09202443  57.63 0.0002807184    1.713    0.416
       190 -10.2353     35.3120    121.3204   6.8249107537e+01   4.8108215130e+01    0.1499275    0.1061537 -37.04 0.0004285798    1.650    0.394
       191 -10.6280      2.4942     96.4749   7.9094621948e+01   5.7268183525e+01    0.1344052    0.1218249 -89.17 0.0001127559    1.013    0.012
       192 -12.0187    122.8362     63.7166   2.1509022493e+01   4.5273978553e+01    0.2620952    0.2487628 -75.80 0.0002760919    1.059    0.055
       193 -10.1839    162.0215     61.9319   1.2710495330e+01   3.5582143208e+01    0.1731878     0.159884 -69.17 0.0003235998    1.021    0.020
       194 -11.6057     28.8718     60.5722   5.9321866525e+01   6.4795841045e+01    0.5140092    0.2315504  12.11  0.001850013    2.777    0.640
       195 -11.7544    231.8495     57.4560   2.7745161108e+00   2.0662031231e+01    0.5778018    0.1939223 -51.37  0.002305983    3.099    0.677
       196 -10.0867    115.2748     54.7330   2.0337290070e+01   4.8793804158e+01     0.150303    0.1173941 -80.86  0.000181126    1.477    0.323
       197 -11.8048     39.3134     51.4105   5.0180516977e+01   6.5703440796e+01     0.543952    0.1441069 -44.45  0.001595374    4.169    0.760
       198 -11.6540    149.5221     50.9878   1.1576786516e+01   4.0443426083e+01    0.2634334    0.2080303  72.01 0.0003231521    1.211    0.174
       199 -11.9542     12.7245     47.9908   6.6012953018e+01   6.9270077098e+01     0.219965      0.18905   3.59 0.0002515988    1.186    0.157
       200  -9.8406    143.7030     42.2740   9.7961102195e+00   4.3236415994e+01    0.1508358    0.1063045 -71.74 0.0001813402    1.527    0.345
       201 -11.1053      2.5109     52.9984   7.3902280545e+01   6.8548162668e+01    0.2062878   0.06673889 -51.27 0.0008098544    2.491    0.599
       202 -12.2513      8.9085     25.5356   6.1705989778e+01   7.4745284221e+01    0.3608744    0.1528018 -53.45  0.001190194    2.020    0.505
       203 -11.1437     80.6528    231.9346   6.6774184037e+01   1.6606013305e+01    0.2740268    0.1437057  37.71  0.001465932    1.436    0.304
       204 -10.5603     88.0135    231.4716   6.5020389174e+01   1.5748325609e+01    0.2044926   0.09892036  32.12 0.0009506604    1.584    0.369
       205 -10.7481    117.2151    229.8159   5.8154634166e+01   1.2150480611e+01    0.2174819    0.1133544  56.38 0.0009647668    2.905    0.656
       206 -12.1436      3.9666     15.8624   6.2262888571e+01   7.7157463342e+01    0.2842174    0.1535589  22.30  0.001496352    1.853    0.460
       207 -10.7549    103.0469    230.5341   6.1455426699e+01   1.3937807260e+01    0.2085641   0.09960464  32.19  0.001035639    1.610    0.379
       208 -10.7047     94.5468    228.5136   6.3213750687e+01   1.5426937398e+01    0.2589867   0.07669673  39.13  0.001037652    2.497    0.600
       209  -9.6727    110.6474    227.3130   5.9362002084e+01   1.3473793602e+01    0.1336501   0.08169853  50.53 0.0006540335    1.729    0.422
       210 -10.9856     42.1634     19.3373   3.2814382851e+01   7.1612438719e+01    0.2883049    0.1115219  36.76  0.001092572    2.627    0.619
       211 -11.1490     74.4731    225.1187   6.7639387289e+01   1.8659542076e+01    0.2770181    0.1447614  37.92  0.001449408    1.455    0.313
