#   1 NUMBER                 Running object number                                     
#   2 MAG_AUTO               Kron-like elliptical aperture magnitude                    [mag]
#   3 X_IMAGE                Object position along x                                    [pixel]
#   4 Y_IMAGE                Object position along y                                    [pixel]
#   5 X_WORLD                Barycenter position along world x axis                     [deg]
#   6 Y_WORLD                Barycenter position along world y axis                     [deg]
#   7 A_WORLD                Profile RMS along major axis (world units)                 [deg]
#   8 B_WORLD                Profile RMS along minor axis (world units)                 [deg]
#   9 THETA_WORLD            Position angle (CCW/world-x)                               [deg]
#  10 FWHM_WORLD             FWHM assuming a gaussian core                              [deg]
#  11 ELONGATION             A_IMAGE/B_IMAGE                                           
#  12 ELLIPTICITY            1 - B_IMAGE/A_IMAGE                                       
         1  -8.4822    166.4678      3.4663   3.5760350393e+01   4.2699474904e+01      0.20673    0.1792107  80.93 0.0005421151    1.065    0.061
         2  -8.2591    236.0050    244.9952   7.7555076952e+01  -9.6043803198e+00    0.1813321    0.1112258  -1.59 0.0003889852    1.589    0.371
         3  -8.5056    196.7850    250.0065   8.5576543986e+01  -5.2185523708e+00    0.1939501    0.1475222  23.90 0.0004911494    1.131    0.116
         4  -7.2292     83.1421    250.5970   1.0877905695e+02   1.1116358041e+01    0.1904279   0.07042945  51.21 0.0003927252    2.609    0.617
         5  -7.0535    250.6827    242.6908   7.4651475569e+01  -1.1035623824e+01    0.1179067    0.0696843  -3.33 0.0001926916    1.636    0.389
         6  -9.0236    195.7563    232.3605   8.3016724296e+01  -2.3942473437e+00    0.2888211    0.2321377  61.76  0.001122814    1.948    0.487
         7  -7.6497    249.6556    228.3012   7.2451117638e+01  -9.0103429113e+00   0.09603591   0.09420033   9.62 0.0007038143    1.680    0.405
         8 -10.2906    215.9145    226.4299   7.8157151387e+01  -4.3477200151e+00    0.2250312    0.1912031  -4.04 0.0002778403    1.079    0.073
         9  -8.9565    185.0714    222.0609   8.3464980568e+01   9.0313075447e-01    0.2206855    0.2033828  -3.78 0.0002995105    1.120    0.107
        10  -8.9811    183.8911    226.4177   8.4423698657e+01   3.4578771792e-01     0.266961    0.2019776  30.07 0.0003580093    1.201    0.168
        11  -9.9445     12.7445    221.6296   1.2088705247e+02   2.5429528616e+01    0.4808081    0.3059309 -47.45  0.002836765    2.237    0.553
        12  -7.7047    105.9272    220.1856   1.0044599758e+02   1.3862720192e+01    0.2062912    0.1663529  66.73 0.0007429925    1.271    0.213
        13  -6.8747     55.7615    220.0262   1.1169388410e+02   2.0981053025e+01    0.1414396   0.09945715 -80.06            0    1.393    0.282
        14  -7.4935    195.5861    218.4755   8.0738339766e+01  -1.0524162309e-01    0.1300075    0.1122964   3.07 3.081829e-05    1.014    0.014
        15  -8.5396    186.0184    217.4320   8.2492628164e+01   1.5524972569e+00    0.2222184    0.1857529 -33.21 0.0001426444    1.250    0.200
        16  -8.0808    212.9083    214.3807   7.6651215978e+01  -2.0262974511e+00    0.2127211    0.1726553   0.36 0.0005431628    1.078    0.073
        17  -9.9674    152.7553    211.4961   8.8587888529e+01   8.0493343320e+00    0.2397923    0.2308774  -9.63  0.000268748    1.092    0.084
        18  -8.4504    104.9461    207.0768   9.8887887669e+01   1.6822237081e+01     0.201093    0.1878091  47.88 0.0003243557    1.046    0.044
        19  -6.7625     64.3615    207.2985   1.0846278303e+02   2.2700727277e+01    0.1263655    0.1033921 -24.39 0.0007034361    1.715    0.417
        20  -7.2389    138.9648    198.9865   8.9631074454e+01   1.2928684106e+01    0.1667409    0.1527207  33.50 0.0009458603    1.025    0.024
        21  -7.6025    133.1010    198.9282   9.0990202426e+01   1.3947293970e+01    0.2032496    0.1792403  65.72            0    1.222    0.182
        22  -8.5948    175.4294    197.0164   8.1110965137e+01   7.0244181808e+00    0.2347567    0.1898849  32.93 0.0002142342    1.189    0.159
        23  -8.2110    161.1807    194.7577   8.3819815766e+01   9.9374591398e+00    0.3474205    0.1967599 -58.14  0.001493278    2.227    0.551
        24  -9.2900     36.9316    195.2742   1.1365785897e+02   2.8826477610e+01    0.2182202    0.2087176 -43.15 0.0003885696    1.329    0.247
        25  -7.4703    103.7619    192.4298   9.7011928344e+01   2.0303575873e+01    0.1990422    0.1369433  24.21 0.0009475287    1.642    0.391
        26  -7.3610     43.9539    192.3445   1.1170566666e+02   2.8720580714e+01    0.1912137    0.1100037  -4.64 0.0007035483    4.290    0.767
        27  -7.6922    222.9998    188.0075   6.9931664514e+01   8.3093890331e-01    0.1896669    0.1371681  -6.34  0.001048727    1.451    0.311
        28  -7.7784     84.0260    184.9721   1.0083468351e+02   2.5143988030e+01     0.209996    0.1691231 -26.92 0.0003628431    1.594    0.373
        29  -7.6770    102.8535    183.8867   9.5889723400e+01   2.2438635143e+01    0.2085074    0.1873681 -32.55 0.0002903992    1.260    0.206
        30  -7.6910    107.8894    180.2266   9.4007331982e+01   2.2462481421e+01    0.1916576    0.1720561 -17.85 0.0006126983    1.292    0.226
        31  -8.8461     39.2347    179.8378   1.1155746366e+02   3.2254329123e+01     0.212403    0.1888771 -77.13 0.0002591566    1.119    0.106
        32  -7.3517    126.2960    176.6526   8.8738353251e+01   2.0087181167e+01    0.1527594    0.1162221  77.36 0.0003139264    1.675    0.403
        33  -7.1047    143.3681    170.3080   8.3328559106e+01   1.8385570055e+01    0.1568705     0.118398  -3.79 0.0007036075    1.757    0.431
        34  -7.8005     50.4400    169.7022   1.0747468548e+02   3.3454192936e+01     0.216555    0.1701449 -11.91 0.0008594144    1.756    0.431
        35  -7.5533    134.8700    166.1650   8.4590772737e+01   2.0918827539e+01    0.2219034     0.198649  73.89 0.0003074427    1.225    0.184
        36  -6.9843    177.2739    163.3019   7.4097986667e+01   1.3431378406e+01    0.1456365    0.1126886  -8.17 0.0003327857    1.536    0.349
        37  -7.2819     62.9852    160.9755   1.0285271535e+02   3.4048386651e+01    0.2157702    0.1612793 -34.50 0.0005684619    1.624    0.384
        38  -9.6388    181.8709    144.1427   6.8971406828e+01   1.6467429841e+01    0.2856502    0.2395857 -38.25 0.0002798603    1.146    0.127
        39  -8.5429    125.2629    141.7571   8.1918817079e+01   2.8448417016e+01    0.2631801    0.2467225  -3.25 0.0003136368    1.149    0.129
        40  -8.1314    187.2750    140.9787   6.7144237249e+01   1.6024443423e+01    0.2668962      0.21401  30.24 0.0006912965    1.354    0.262
        41  -6.9850    186.6390    134.2957   6.5765276252e+01   1.7496821640e+01    0.1499085    0.1179264 -86.26  0.000299911    1.707    0.414
        42  -7.8160     88.3897    132.9322   9.0386199993e+01   3.7307480668e+01    0.2205659    0.1923506  35.40 9.973528e-05    1.191    0.160
        43  -7.3099    210.7083    130.7405   6.0388362761e+01   1.3368890099e+01    0.1332343    0.1084882  -0.72 0.0001536194    1.494    0.331
        44  -7.2983    118.2006    125.3730   8.0038475155e+01   3.3682977910e+01    0.2248664     0.142456  51.26 0.0009422621    1.701    0.412
        45  -6.8065     89.2716    124.3126   8.8219489092e+01   3.9275074182e+01    0.1508608    0.1152409 -24.89 0.0003501598    1.552    0.356
        46  -7.1315    130.8066    116.1451   7.4336843968e+01   3.3209867557e+01    0.2034084     0.179604 -10.12 0.0003259495    1.281    0.219
        47  -8.2009    238.4881    114.4020   5.2393820606e+01   1.1029442649e+01     0.196246    0.1514294 -67.98 5.045399e-05    1.455    0.313
        48  -8.7831     73.6796    110.9510   9.0044563529e+01   4.5024436746e+01    0.2504674    0.2241665  41.52 0.0002157833    1.183    0.155
        49  -7.9633    108.1022     99.7080   7.6334892665e+01   4.1517471435e+01    0.3565282    0.2333608  25.52 0.0007320478    1.856    0.461
        50  -9.0011    187.3179     97.3686   5.6867059980e+01   2.4516229934e+01    0.3947062    0.2728986 -26.34  0.001081825    1.700    0.412
        51 -10.2317     91.6611     92.6529   7.9428816362e+01   4.6208519620e+01    0.2631516     0.253905 -17.93  0.000297669    1.002    0.002
        52  -7.9216    103.1232     91.8960   7.5641638553e+01   4.4189444532e+01    0.2167141    0.2027174 -85.89            0    1.196    0.164
        53  -7.2537    163.4225     85.4649   5.8493149783e+01   3.2154324761e+01    0.1447492    0.1435025 -70.69 0.0001735635    1.060    0.056
        54  -7.2025     56.9723     84.2427   8.9091003169e+01   5.3603412647e+01    0.1668692    0.1165532  28.50 0.0003957244    1.503    0.335
        55  -7.6481    139.5787     70.9797   5.9679927926e+01   4.0305627496e+01    0.2090198     0.143868 -39.76 0.0009869152    1.494    0.331
        56  -6.9544    137.2616     58.9837   5.6646883987e+01   4.2844986260e+01    0.1732221    0.1257835 -37.43 0.0003782052    1.445    0.308
        57  -6.9226    172.0370     50.0032   4.7370127879e+01   3.5920237256e+01    0.1632764    0.1409332  75.59 0.0009331889    1.080    0.074
        58  -7.4700    122.9218     47.9332   5.6546462288e+01   4.7862989871e+01    0.1796345    0.1611133 -76.30  0.000367714    1.254    0.202
        59  -7.7768    162.1596     44.0779   4.7401626407e+01   3.9111468130e+01    0.1954304    0.1791584  36.47  0.000330459    1.243    0.196
        60  -7.6467    154.4140     42.1984   4.8222108683e+01   4.1225031428e+01    0.2219719    0.1693703  53.79 0.0005257287    1.258    0.205
        61  -8.9826    123.0258     35.9345   5.2613977875e+01   4.9488257471e+01    0.2925389    0.2260295 -17.94 0.0003661051    1.491    0.329
        62  -8.4530    228.0633     31.2161   3.5919996076e+01   2.5772873784e+01    0.1923024    0.1550844 -54.64 0.0005182734    1.154    0.133
        63  -8.1059    240.2021     26.3656   3.3874083031e+01   2.3885052920e+01    0.1779893    0.1409698 -45.62 0.0008141451    1.290    0.225
        64  -7.6697    116.7796     20.8160   4.8937242159e+01   5.2708352630e+01    0.1665934    0.1449274 -87.08 0.0002532735    1.287    0.223
        65  -7.2706     91.6607     21.3147   5.5303619313e+01   5.8199339697e+01    0.1238511    0.1015366 -81.25 0.0007047532    1.700    0.412
        66  -7.7246     15.1198     18.1319   8.5319472185e+01   7.0774574852e+01    0.1355799    0.1180077 -10.46 -0.0006383859    1.253    0.202
        67  -7.0904    189.8460     16.1789   3.6352330800e+01   3.5984426196e+01    0.1566023    0.1333399  64.97 0.0002542613    1.246    0.197
