#   1 NUMBER                 Running object number                                     
#   2 MAG_AUTO               Kron-like elliptical aperture magnitude                    [mag]
#   3 X_IMAGE                Object position along x                                    [pixel]
#   4 Y_IMAGE                Object position along y                                    [pixel]
#   5 X_WORLD                Barycenter position along world x axis                     [deg]
#   6 Y_WORLD                Barycenter position along world y axis                     [deg]
#   7 A_WORLD                Profile RMS along major axis (world units)                 [deg]
#   8 B_WORLD                Profile RMS along minor axis (world units)                 [deg]
#   9 THETA_WORLD            Position angle (CCW/world-x)                               [deg]
#  10 FWHM_WORLD             FWHM assuming a gaussian core                              [deg]
#  11 ELONGATION             A_IMAGE/B_IMAGE                                           
#  12 ELLIPTICITY            1 - B_IMAGE/A_IMAGE                                       
         1  -8.5386    111.7389     34.4311   8.8687038599e+01   5.3245486061e+01    0.2503719    0.1633558 -41.73 0.0006589726    1.652    0.394
         2  -7.9996     17.0230     14.0348   1.1639834058e+02   7.1308755164e+01    0.1448854    0.1359723 -67.97 0.0005631224    1.617    0.382
         3  -8.6230     55.5546     10.3259   9.6592052558e+01   6.7210851293e+01    0.1979351    0.1768436   5.46 0.0007099157    1.186    0.156
         4  -8.1004     47.5289      9.6200   9.9591743845e+01   6.8500449181e+01    0.2109591   0.09888982 -42.44  0.001027865    2.443    0.591
         5  -8.4946     90.7027      9.0982   8.3935597067e+01   6.0919958172e+01    0.1979245    0.1540726 -39.03 0.0009977845    1.502    0.334
         6  -7.7561     69.3586      7.7823   9.0110959786e+01   6.5203351399e+01    0.1681646    0.1062705 -12.33 0.0003774522    1.553    0.356
         7  -7.6329     83.5122     11.0052   8.6960229426e+01   6.2172706270e+01    0.1723873    0.1004249 -47.08 0.0008086085    2.408    0.585
         8  -7.8450    101.0779      7.8012   8.0542304388e+01   5.8825720642e+01    0.1740376   0.09858689  57.65 0.0005534232    1.703    0.413
         9  -8.7484     33.5593      5.4478   1.0383920047e+02   7.0909120248e+01    0.2670358    0.1812298 -54.53  0.001288611    2.566    0.610
        10  -8.4731     78.9843      3.5166   8.4830032818e+01   6.3852380052e+01    0.2421454    0.1550495 -36.55  0.001137528    1.789    0.441
        11  -7.5449     44.6660      3.3182   9.7561166395e+01   6.9715163495e+01    0.1030844   0.09360938 -48.89 0.0004963457    1.696    0.410
        12  -8.0223     15.6732      3.2996   1.1200096550e+02   7.3113172028e+01   0.09117191   0.08643688 -44.60 0.0004112908    1.636    0.389
        13  -8.3469    236.3317      2.0224   5.9292945338e+01   2.5434465108e+01     0.180335    0.1527583 -53.59 0.0006895217    1.121    0.108
        14  -7.5813    115.3502      2.6732   7.5034800728e+01   5.6031406472e+01    0.1346751    0.1009467 -65.34 0.0007048611    1.759    0.432
        15  -8.3884     62.3274      1.6366   8.9535626346e+01   6.7113383101e+01    0.1913976    0.1411425  52.08 0.0005680435    1.613    0.380
        16  -7.9039     39.4401      1.5104   9.8939956478e+01   7.0665818917e+01    0.1164966   0.09273166  -6.57 0.0001280485    1.047    0.045
        17  -8.8047      9.6112    244.3548   1.5128479552e+02   2.4673419317e+01    0.1795672    0.0716699  90.00 0.0008243746    2.171    0.539
        18 -10.1256    248.6941    241.9012   1.1017254208e+02  -9.5523939237e+00     0.406031      0.19286 -29.66   0.00166407    2.340    0.573
        19  -9.1163    247.6522    234.5818   1.0918768994e+02  -8.6549562455e+00    0.2146752     0.155602  11.02  0.001008874    1.142    0.125
        20  -9.5958    246.6150    229.5880   1.0855121562e+02  -7.9736430743e+00    0.4343432    0.2033735 -23.98  0.001936758    2.369    0.578
        21  -8.4625     94.0734    249.6589   1.3787232464e+02   1.3438548046e+01    0.2566158    0.1092273  63.80  0.001247237    2.723    0.633
        22  -8.7338    202.0258    243.5208   1.1823588995e+02  -2.6641930970e+00    0.1798621    0.1634233 -69.42 0.0006939317    1.676    0.403
        23  -8.9103    169.2945    243.5186   1.2397754518e+02   2.6202692829e+00    0.2191052    0.1738215  64.05 0.0006197253    1.449    0.310
        24  -8.6512     78.0858    243.7096   1.4012451392e+02   1.6648322871e+01    0.2683884    0.1064069  63.42  0.001283211    2.772    0.639
        25  -9.0669    194.5199    240.4227   1.1910340257e+02  -1.0827588142e+00    0.2799222    0.2112221 -62.79  0.001172824    2.143    0.533
        26  -9.9788    160.3258    240.4553   1.2518751455e+02   4.5107999898e+00    0.3775569    0.2506579 -85.80  0.001703918    2.790    0.642
        27  -9.2849    183.1608    240.1931   1.2107443976e+02   7.9572659080e-01    0.3765638    0.2278951  64.15  0.001931122    2.657    0.624
        28  -7.8006    153.3985    242.1790   1.2664492406e+02   5.3988941221e+00     0.141397    0.1107835 -80.65 0.0005715696    1.720    0.419
        29  -8.8642    146.7383    240.2986   1.2761425526e+02   6.7567481843e+00    0.3361764    0.1973408  71.77  0.001688482    2.719    0.632
        30  -7.8248    214.3613    241.2440   1.1578539921e+02  -4.3407408463e+00    0.1323355    0.1088084 -37.52  0.000669775    1.619    0.382
        31  -8.6614    240.5938    240.2898   1.1124149572e+02  -8.2171924364e+00    0.1998512    0.1024412 -24.99  0.001176372    2.186    0.543
        32  -8.1178    191.5363    249.6571   1.2089308559e+02  -1.7388250693e+00    0.1909126    0.1151504  52.17 0.0007605981    1.724    0.420
        33  -9.1315    135.6902    238.7301   1.2942688903e+02   8.7836533829e+00    0.1964071    0.1550183 -85.98 0.0007113369    1.531    0.347
        34  -8.7582    129.2590    239.0761   1.3063026709e+02   9.7618135169e+00    0.2342354    0.1206483  60.32  0.001010213    2.086    0.521
        35  -9.0344    230.9654    237.0893   1.1234361663e+02  -6.4358568855e+00    0.2197014    0.1970491 -51.97  0.001052813    1.803    0.445
        36  -8.4330    208.8750    238.1425   1.1627086552e+02  -3.1108418101e+00    0.1674366    0.1424259  39.69 0.0006306733    1.252    0.201
        37  -8.1466     25.4575    236.9542   1.4847446748e+02   2.4283295153e+01    0.1585476   0.05806974  75.70 0.0008081343    2.781    0.640
        38 -10.0967    215.0241    233.3801   1.1448841998e+02  -3.5227151258e+00    0.4647294    0.3458957  89.25  0.002399317    3.535    0.717
        39  -8.9662    203.3156    234.9526   1.1676689962e+02  -1.8272885800e+00    0.2406193    0.1955039 -77.98  0.001196545    2.182    0.542
        40  -9.6973    175.8813    233.5861   1.2146658771e+02   2.8906229965e+00    0.3887336    0.2311867 -60.09  0.002089366    2.673    0.626
        41  -8.4779    170.3882    236.1699   1.2281395628e+02   3.4483785820e+00    0.1418972    0.1155494 -69.90 0.0007354238    1.699    0.411
        42  -8.8683     79.1741    234.7062   1.3920244121e+02   1.8020367603e+01    0.2774822    0.1383926  71.51  0.001493473    2.194    0.544
        43  -7.6114     58.9837    237.0000   1.4289867107e+02   2.0319105511e+01    0.1753327   0.05056995  40.22 0.0008026126    2.944    0.660
        44  -9.3001    108.8946    234.4739   1.3383374017e+02   1.3696381288e+01    0.4033172    0.1819989  56.10  0.001967471    2.030    0.507
        45  -8.2487     99.8140    234.6362   1.3549784642e+02   1.5047678022e+01    0.2216901    0.1248458  75.98  0.001212704    2.126    0.530
        46  -9.5562      8.2016    234.4412   1.5110516549e+02   2.6500768016e+01    0.1750006   0.09702401 -76.20  0.001274054    1.755    0.430
        47  -8.1438    122.7524    234.1647   1.3126821009e+02   1.1576740688e+01    0.1848178    0.1292501  73.81 0.0009511746    1.537    0.349
        48  -8.5867     92.4289    232.2866   1.3661067398e+02   1.6541674468e+01    0.2582309    0.1556577  83.75  0.001528923    1.856    0.461
        49  -9.0066     68.5894    232.6860   1.4090941632e+02   1.9815983360e+01     0.376603    0.1499332  66.33  0.001739949    2.965    0.663
        50  -9.2057    235.9958    231.0911   1.1055569740e+02  -6.5389353895e+00    0.3038636    0.1908142  10.49 0.0005597452    1.625    0.385
        51  -8.6077    194.6590    232.8463   1.1798599312e+02  -1.4006711906e-01    0.1950153    0.1658862  38.63  0.000672986    1.144    0.126
        52  -8.5285    144.9617    233.4819   1.2710583804e+02   8.0725196328e+00    0.2680754    0.1385726  62.97  0.001248923    2.656    0.624
        53  -8.5708    140.1930    230.1521   1.2757479396e+02   9.3802185247e+00    0.3138661    0.1494372  55.85  0.001207948    2.152    0.535
        54  -9.5238    186.5985    230.8306   1.1913627710e+02   1.4706224191e+00    0.3019681    0.2285964  82.52  0.001480676    2.239    0.553
        55  -7.9443     88.2372    242.3559   1.3825777306e+02   1.5452717649e+01    0.1838775    0.1100749  79.13  0.000819149    1.758    0.431
        56  -9.2193    151.4928    229.0011   1.2532670502e+02   7.6691516837e+00    0.2823703    0.1968043 -89.18  0.001140083    2.174    0.540
        57  -9.4144    148.7988    224.9023   1.2529100351e+02   8.7636875162e+00    0.3243349    0.2242222  77.05  0.001494042    1.958    0.489
        58  -8.6534      1.9162    231.1224   1.5195803736e+02   2.7682515229e+01    0.1670914   0.08518016  67.09 0.0007174506    1.370    0.270
        59  -8.0796    229.8255    229.0226   1.1126538357e+02  -5.3515403442e+00    0.1545064    0.1391038 -73.34 0.0006747538    1.946    0.486
        60  -8.8046    162.5991    228.1263   1.2314689610e+02   5.9199394198e+00    0.3135175    0.1870358  63.22   0.00107468    2.200    0.546
        61  -9.0183    128.0630    227.5292   1.2952056874e+02   1.1801805285e+01    0.2834971    0.1628158  62.29   0.00133608    1.843    0.457
        62  -8.2357    120.2699    228.0947   1.3104469535e+02   1.2970458492e+01    0.2367182    0.1232584  61.04 0.0008605275    2.032    0.508
        63  -8.7529      8.4782    227.9754   1.5078998821e+02   2.7606227380e+01     0.152015   0.05378138  73.81 0.0007352714    2.526    0.604
        64  -8.1843    223.2536    227.0161   1.1206889521e+02  -4.0772012307e+00    0.2019034    0.1434596 -11.18 0.0008325213    1.520    0.342
        65  -9.5000    225.4064    221.7599   1.1084444984e+02  -3.7892512396e+00    0.2443804    0.1999369 -22.43 0.0006094737    1.377    0.274
        66  -8.0344     49.6102    226.8839   1.4381563235e+02   2.3282435980e+01    0.2091154   0.06790363  61.82 0.0009048453    3.266    0.694
        67  -8.8908     38.7757    226.4267   1.4566571126e+02   2.4655953046e+01    0.2495089    0.1271471 -86.18  0.001377419    1.797    0.444
        68  -8.6327    200.0222    226.3010   1.1604286990e+02  -1.7766291512e-01    0.1724771    0.1353673  35.12 0.0005002761    1.055    0.052
        69  -8.9856     94.1852    224.4462   1.3552828293e+02   1.7650236127e+01    0.3720301    0.1765492  67.53  0.001699998    2.622    0.619
        70  -8.8203    180.7102    224.1934   1.1923518608e+02   3.3935257403e+00    0.2329342    0.2002152 -73.09 0.0008080148    1.602    0.376
        71  -8.9057    104.7776    223.7039   1.3346544389e+02   1.6168797057e+01    0.3062139    0.1817251  79.27  0.001617377    2.065    0.516
        72  -9.0259    216.3972    223.5688   1.1270806893e+02  -2.5451939807e+00    0.2150567      0.19883  66.68 0.0009488143    1.551    0.355
        73  -9.1168    173.1216    223.0800   1.2047718689e+02   4.8632889562e+00    0.2409105    0.2005416 -74.21 0.0009530959    1.635    0.388
        74  -8.2105    113.9871    224.0385   1.3176481627e+02   1.4663194702e+01    0.2009366    0.1237683  68.65  0.001015778    1.732    0.423
        75  -9.4138    192.5558    221.3882   1.1663486153e+02   1.7525308801e+00    0.2947151    0.2440152  86.72  0.001138622    1.856    0.461
        76  -8.1723    140.5367    222.8027   1.2657832642e+02   1.0501936119e+01    0.1546261    0.1159916 -83.22 0.0009317739    1.685    0.407
        77  -9.2618    238.9530    221.2899   1.0845473741e+02  -5.8836429653e+00    0.2205412    0.2157679  -4.20 0.0009242799    1.510    0.338
        78  -9.0349    160.0231    221.0766   1.2264777058e+02   7.4358031048e+00    0.4504059    0.2091701  57.99  0.001440943    2.916    0.657
        79  -9.0977    120.3312    219.4619   1.3002220384e+02   1.4431300799e+01    0.3754274    0.1965303  67.57   0.00172832    2.596    0.615
        80  -8.4095     82.8344    220.6078   1.3727584631e+02   2.0004660543e+01     0.300106     0.134976  67.15  0.001378527    2.712    0.631
        81  -8.0281     73.1874    221.1266   1.3911856430e+02   2.1266336614e+01    0.1722366    0.1073329  68.74 0.0007327841    1.387    0.279
        82  -8.2017     27.5848    220.8080   1.4725460382e+02   2.6935591780e+01    0.1902186   0.08360666 -74.43  0.001136839    2.095    0.523
        83  -8.3394      6.3222    221.6550   1.5086631142e+02   2.8944909837e+01    0.1140533   0.04964318  65.99 0.0007050033    1.733    0.423
        84  -8.6416    202.8269    220.0016   1.1455097210e+02   1.8564627614e-01    0.1933189    0.1697344 -31.37   0.00113327    1.374    0.272
        85  -8.3785    249.3545    218.6635   1.0627866066e+02  -7.1842284915e+00    0.2135362    0.1533334  56.81  0.001270127    2.252    0.556
        86  -9.5092    246.6817    216.3583   1.0632620061e+02  -6.5136377279e+00    0.3191205      0.19978 -18.77  0.001959089    1.624    0.384
        87  -8.9121    206.0864    226.3074   1.1496210204e+02  -1.1899806173e+00     0.193565    0.1794837 -32.46 0.0006724838    1.386    0.278
        88  -8.6920    210.2030    218.6646   1.1301073295e+02  -8.8650672738e-01    0.2339128    0.1658863 -30.61 0.0009007593    1.611    0.379
        89  -8.4482    179.4672    217.9756   1.1853010239e+02   4.5128106287e+00    0.1632398    0.1275369 -44.53 0.0006405498    1.559    0.358
        90  -9.2432    132.9340    216.0613   1.2716030171e+02   1.2918507852e+01    0.4313395    0.2421707  72.32  0.001931121    2.833    0.647
        91  -8.4517     62.1332    217.5679   1.4085878484e+02   2.3410077551e+01    0.2539047    0.1316235  71.81   0.00106171    1.882    0.469
        92  -8.9124     51.5279    217.1688   1.4277290279e+02   2.4835138295e+01    0.2284077    0.1263479  83.88  0.001016857    1.688    0.408
        93  -8.5660    169.2950    216.4019   1.2020971997e+02   6.5387021362e+00    0.2441638     0.171988  81.95 0.0008931415    2.329    0.571
        94  -8.6091    143.0756    216.6424   1.2527309105e+02   1.1084802878e+01     0.248196    0.1765506  76.58 0.0008675411    1.749    0.428
        95  -7.8721    111.9872    217.4809   1.3139415635e+02   1.6131449724e+01    0.1845162   0.08122081  58.17 0.0005717896    2.452    0.592
        96  -8.2854     18.7193    216.2651   1.4852721102e+02   2.8708903437e+01     0.232689   0.07415545 -76.08  0.001209587    2.736    0.635
        97  -8.9462    232.3419    214.3539   1.0840578843e+02  -4.0069787370e+00    0.2541581    0.2012547 -33.53 0.0009272545    1.525    0.344
        98  -8.6019    185.8027    214.5436   1.1681124186e+02   3.9047704834e+00    0.2139354    0.1689062 -67.83 0.0007951122    1.840    0.456
        99  -8.2999    154.6306    215.1660   1.2283535663e+02   9.3164200786e+00    0.1852207    0.1510201  80.59  0.000753462    1.467    0.318
       100  -8.8970     93.5397    214.3606   1.3461020611e+02   1.9576229469e+01    0.3984225    0.1602321  57.47  0.001274227    2.577    0.612
       101  -9.5729    214.0835    212.0884   1.1122528635e+02  -6.7518539169e-01    0.3494322    0.2929704  64.27  0.001584778    1.663    0.399
       102  -9.2192     73.3413    212.0402   1.3826432534e+02   2.2942930143e+01    0.5470811    0.2000958  63.45  0.002076696    3.896    0.743
       103  -8.6115    224.7347    212.5609   1.0941908914e+02  -2.5329777691e+00    0.2161158    0.1618752 -39.77 0.0009383072    1.665    0.399
       104  -8.7480    161.7490    212.5710   1.2108164001e+02   8.4783887737e+00    0.2270441    0.1919664  72.70 0.0007993305    1.349    0.259
       105  -7.8653    106.5675    212.8280   1.3190493200e+02   1.7837680668e+01    0.1580708    0.1098829 -87.89 0.0005678483    1.583    0.368
       106  -8.9237    204.4251    210.9626   1.1278319474e+02   1.1459150120e+00    0.2489159    0.2093076 -78.59 0.0009048046    1.889    0.471
       107  -9.5323    175.7136    210.3450   1.1805588338e+02   6.3343887636e+00    0.4062409    0.2663558  71.93  0.001333342    2.535    0.606
       108  -9.5027      7.2025    210.5040   1.5021129515e+02   3.0913593875e+01    0.4472975    0.1249281  71.92  0.001806878    4.375    0.771
       109  -8.3484    192.4272    210.6427   1.1494578333e+02   3.3037880927e+00    0.1983463    0.1259057 -45.83 0.0007169854    1.933    0.483
       110  -8.8408    147.9990    210.5429   1.2346021235e+02   1.1250483734e+01    0.2759279    0.1885654  70.85  0.001219503    1.817    0.450
       111  -8.8351    116.2467    210.4457   1.2971280603e+02   1.6706048290e+01     0.292213     0.181124  74.54 0.0008816021    1.954    0.488
       112  -8.6899     32.9875    210.9882   1.4570188403e+02   2.8183384699e+01    0.2935693    0.1062153  64.39  0.001414806    2.704    0.630
       113  -9.3983    236.6903    207.9825   1.0655309788e+02  -3.9276690191e+00    0.3397684    0.2470301 -38.48  0.001715111    1.694    0.410
       114  -8.4803     85.4801    209.8076   1.3569641090e+02   2.1633652458e+01    0.2478633    0.1439917  79.17  0.001237148    1.910    0.476
       115  -7.9369     46.3821    209.7634   1.4316150357e+02   2.6870952300e+01    0.2553353   0.07079961  58.41 0.0009684814    4.016    0.751
       116  -9.4773    246.3967    207.3013   1.0479072887e+02  -5.4060331422e+00     0.248426    0.1958325 -13.11  0.000687508    1.238    0.192
       117  -8.0992    156.4901    208.0203   1.2142240562e+02   1.0163347468e+01    0.1705041    0.1313796 -55.77 0.0008807943    1.546    0.353
       118  -8.4083    139.1508    207.9344   1.2483426121e+02   1.3255781489e+01    0.2479172    0.1706576  73.46 0.0009015434    1.767    0.434
       119  -8.2371    126.4005    208.3322   1.2742475415e+02   1.5388154647e+01    0.1598128    0.1190887 -79.17 0.0008043007    1.548    0.354
       120  -9.0980     99.4654    206.1298   1.3252689875e+02   2.0210115398e+01    0.3456328    0.1884297  75.11   0.00143914    2.422    0.587
       121  -8.6528     56.8443    205.7829   1.4086496161e+02   2.6348691153e+01    0.3401871    0.1320486  64.36   0.00149013    2.960    0.662
       122  -8.7264     11.6097    206.7910   1.4926289461e+02   3.1196469710e+01    0.1543593   0.07414024  84.60 0.0009498523    1.699    0.411
       123  -9.3139    194.9363    203.6442   1.1330605302e+02   3.8870770590e+00    0.3827076    0.3401259 -64.92  0.001732641    1.498    0.333
       124  -9.1611    192.3529    197.3649   1.1271066243e+02   5.3137540390e+00    0.2825142     0.246771 -73.29 0.0008627065    1.550    0.355
       125  -9.0484    183.8281    203.9786   1.1547112887e+02   5.8543979915e+00    0.2929394    0.2249792  66.62 0.0009017005    1.649    0.394
       126  -8.5975    131.3693    204.1306   1.2585562169e+02   1.5292585255e+01    0.2808962     0.178966  75.41 0.0008507546    2.083    0.520
       127  -7.9897    109.1706    205.2215   1.3047220730e+02   1.8832522547e+01    0.1785402    0.1285828  74.46 0.0008940953    1.387    0.279
       128  -7.9331     92.3412    205.6681   1.3389533411e+02   2.1398815151e+01    0.1355491    0.0792843  68.18 0.0007051336    1.749    0.428
       129  -8.5898     24.5609    205.4658   1.4687645823e+02   3.0152707228e+01    0.1112042   0.07991931  75.09 8.499982e-05    1.006    0.006
       130  -9.5718    163.9784    203.0887   1.1918601301e+02   9.6292520689e+00    0.4423355    0.2331695  56.92  0.001167018    2.195    0.544
       131  -9.4095    250.0733    201.7835   1.0318645588e+02  -5.3242947494e+00     0.339101    0.1677514 -30.74   0.00141325    2.055    0.513
       132  -8.3114     48.4228    202.2938   1.4219077694e+02   2.8082808185e+01    0.2700942    0.1112035  63.79 0.0009482798    2.454    0.593
       133  -7.8039     41.3118    202.9874   1.4360105016e+02   2.8789852007e+01    0.1875885   0.06884644  82.78  0.000703996    4.196    0.762
       134  -9.3514    243.1404    200.7622   1.0416172088e+02  -4.0806258656e+00    0.2945175    0.1841429 -31.14 0.0008452506    1.677    0.404
       135  -8.1050    222.1450    201.2833   1.0790336205e+02  -6.0901077481e-01    0.2070962    0.1652194 -62.93 0.0009342227    2.039    0.510
       136  -8.5140    210.9287    201.6964   1.1000148581e+02   1.3022164279e+00    0.2206908    0.1691505 -57.01 0.0006873066    1.904    0.475
       137  -9.0348    140.6255    201.1875   1.2356222158e+02   1.4191406972e+01    0.3587464     0.221419  71.70  0.001276102    2.268    0.559
       138  -8.4823     80.1092    201.6735   1.3590386060e+02   2.3992841235e+01    0.2944643     0.130676  66.02  0.001253866    2.867    0.651
       139  -7.6367     73.2949    202.6204   1.3736012913e+02   2.4774044840e+01    0.1322241    0.0751361  71.34 0.0007021364    1.752    0.429
       140  -8.5859    227.3325    203.1124   1.0731215655e+02  -1.7446025005e+00    0.3600394    0.1993566 -12.83  0.001727018    2.450    0.592
       141  -9.4850    149.5193    198.6480   1.2137639452e+02   1.3037673147e+01    0.4214876    0.2758162  88.93  0.001449332    2.567    0.610
       142  -9.1871    236.8906    198.1596   1.0475262906e+02  -2.7132867908e+00    0.3258178    0.2102954 -35.66  0.001747285    1.716    0.417
       143  -8.8718    123.9808    199.2984   1.2668141832e+02   1.7464952737e+01     0.294856    0.1924553  86.73  0.001487568    2.045    0.511
       144  -9.2762    113.1348    198.6053   1.2881459927e+02   1.9438174523e+01    0.4409611    0.2335254  69.82   0.00167888    2.705    0.630
       145  -9.0442     88.6943    198.5415   1.3382091515e+02   2.3343029913e+01    0.3499601    0.1945029  80.24  0.001394332    2.254    0.556
       146  -8.5102    177.1686    199.0522   1.1593531244e+02   7.8615397245e+00    0.2301134    0.1785708  53.86 0.0006516037    1.286    0.222
       147  -8.5055    202.1694    197.7386   1.1092059312e+02   3.4534986893e+00    0.2024431    0.1794917 -47.72  0.000658312    1.398    0.285
       148  -9.0315     61.6265    197.2229   1.3915654913e+02   2.7430210160e+01    0.3634384    0.1686696  69.09  0.001724048    2.428    0.588
       149  -9.1264     12.9665    197.6797   1.4852606080e+02   3.2827107241e+01    0.2885036    0.1131242  73.11  0.001505498    2.386    0.581
       150  -8.7064    215.8709    195.6904   1.0802261115e+02   1.2740793538e+00     0.220433    0.1853769 -40.67 0.0006785484    1.435    0.303
       151  -7.9957    132.9671    195.9778   1.2435420233e+02   1.6511898425e+01    0.2093277    0.1467182  74.13 0.0007900788    1.668    0.401
       152  -7.7345     53.3883    196.2240   1.4070501895e+02   2.8685779301e+01     0.169753   0.09312985  89.75 0.0009406293    1.762    0.432
       153  -9.5539    245.9713    192.9314   1.0223727365e+02  -3.5550172651e+00    0.4067282    0.2443538 -23.93  0.001502641    1.659    0.397
       154  -8.7475    224.3377    194.2926   1.0624062428e+02  -3.3551385994e-02    0.2547244    0.2043169 -45.86  0.001045822    1.604    0.376
       155  -7.3205    209.3234    195.6657   1.0921849354e+02   2.4576691332e+00    0.1222792    0.1044566  77.96 0.0007050696    1.709    0.415
       156  -8.9381    185.3310    194.8041   1.1361492147e+02   7.0246528236e+00    0.2351133    0.2242031  55.96 0.0007759904    1.179    0.152
       157  -8.8855    161.1676    194.5477   1.1836257427e+02   1.1604365013e+01    0.2751397    0.2044767  74.75 0.0009025899    1.730    0.422
       158  -8.7044     77.0158    193.8500   1.3568771312e+02   2.6003448802e+01    0.2097934    0.1554796 -89.38 0.0006136672    1.244    0.196
       159  -8.8002     43.7168    193.2241   1.4236267060e+02   3.0463753180e+01    0.3426101    0.1490765  74.81  0.001603638    2.646    0.622
       160  -7.8340    241.4667    192.4408   1.0290775463e+02  -2.7388953324e+00    0.1259722    0.1054319  13.09 0.0001677437    1.025    0.025
       161  -8.0235    205.3420    191.7863   1.0925206821e+02   3.7628293755e+00    0.1706328    0.1203919 -23.82 0.0005195565    1.571    0.363
       162  -8.0951    198.9214    191.9401   1.1049123744e+02   4.9322285433e+00    0.1950202    0.1630478  80.17 0.0006411523    1.707    0.414
       163  -8.0867    179.0004    191.9065   1.1434739875e+02   8.6909165047e+00    0.2025114    0.1595869  73.71  0.000510426    1.656    0.396
       164  -8.5995    172.3228    191.8443   1.1566356172e+02   9.9674079450e+00    0.2370564    0.1971168  82.96 0.0009334022    1.531    0.347
       165  -9.1868    139.5377    190.6763   1.2217899617e+02   1.6318119026e+01     0.371004    0.2510726  85.32  0.001176016    2.101    0.524
       166  -8.9312     21.5512    191.3604   1.4653560934e+02   3.3245473621e+01    0.3493488    0.1141723  58.89  0.001644493    2.834    0.647
       167  -8.5644    148.4286    189.2534   1.2009884948e+02   1.4937755477e+01     0.257749    0.1883829 -79.06 0.0009686236    1.792    0.442
       168  -8.1671      6.3326    190.6567   1.4935511965e+02   3.4823050548e+01    0.1196967   0.05583136  67.16 0.0007050669    1.757    0.431
       169  -8.9603    216.5503    188.0439   1.0648049953e+02   2.2561261522e+00    0.2609931    0.2315219 -46.89 0.0007847221    1.415    0.294
       170  -9.1927    156.0528    187.4926   1.1822492221e+02   1.3823610908e+01    0.3120362    0.2240731 -64.43 0.0009430594    1.711    0.415
       171  -8.9141    129.2523    188.6443   1.2402381794e+02   1.8570063781e+01    0.2792705    0.1936771  74.40 0.0009751014    1.692    0.409
       172  -9.9369    121.0285    186.9400   1.2551313412e+02   2.0362960438e+01     0.525239    0.2818018 -77.47  0.002143977    3.015    0.668
       173  -8.6956     34.3976    188.4054   1.4382016883e+02   3.2503431738e+01    0.2718149    0.1176038  68.34  0.001256439    2.345    0.574
       174  -8.3638    231.0434    194.4873   1.0509115451e+02  -1.2307531930e+00     0.195382    0.1550834 -19.18 0.0007031509    1.272    0.214
       175  -8.3589    237.1736    188.0415   1.0281219832e+02  -1.4211155210e+00    0.2331675    0.1601362  -8.51  0.001134471    1.516    0.341
       176  -8.1718    230.7956    187.7582   1.0387017689e+02  -2.6676204890e-01    0.1608761    0.1520233  49.89 0.0006245297    1.366    0.268
       177  -8.7511    191.4734    187.4706   1.1110525018e+02   7.0440255786e+00    0.2706673     0.220876  81.93  0.001002643    1.739    0.425
       178  -9.1489     54.7230    186.8396   1.3956419192e+02   3.0444501812e+01    0.3877538    0.1807392  77.53  0.001442834    2.633    0.620
       179  -8.7584    249.2389    185.7840   1.0033269983e+02  -3.1763768345e+00     0.250985    0.1835639 -46.38 0.0009588539    1.861    0.463
       180  -8.6830    164.9324    186.8362   1.1628661536e+02   1.2246442900e+01    0.2608286    0.2124692 -86.19   0.00106768    1.574    0.365
       181  -9.2716    109.4802    186.0176   1.2785198089e+02   2.2534538603e+01    0.3913876    0.2427968  80.67  0.001168004    2.084    0.520
       182  -8.8204    182.8970    184.9461   1.1232623893e+02   9.1081061446e+00    0.2912943    0.1915863 -55.73 0.0008748125    1.956    0.489
       183  -8.8594    210.2192    184.5174   1.0698105342e+02   3.9561229876e+00    0.2233649    0.1786425 -30.06 0.0004810227    1.334    0.250
       184  -8.8270    202.8864    184.7275   1.0840092179e+02   5.3072865398e+00    0.2307979    0.1971525 -47.32 0.0006726664    1.398    0.285
       185  -9.1125     66.7455    184.3920   1.3679740308e+02   2.9389168257e+01     0.375282    0.1846045  65.46  0.001081961    2.202    0.546
       186 -10.3918     92.0154    188.6587   1.3193777849e+02   2.4825007968e+01    0.8620472    0.2425396  51.07  0.002981914    3.692    0.729
       187  -9.0369    224.2373    183.1428   1.0415037608e+02   1.5654247629e+00    0.3455568    0.1744881 -30.97  0.001369699    2.096    0.523
       188  -8.5244    197.1459    183.7191   1.0930888093e+02   6.5626362432e+00    0.2423739     0.154568 -53.84 0.0007825082    2.097    0.523
       189  -9.0254    174.1068    183.4092   1.1380849197e+02   1.1076486842e+01    0.3073126    0.2182673 -66.58 0.0008463074    1.955    0.489
       190  -8.2066      2.0962    183.8441   1.4977650722e+02   3.6549911102e+01    0.1800912     0.096025  49.07  0.001151803    1.674    0.403
       191  -8.8792    241.4145    182.0470   1.0092829637e+02  -1.3438669306e+00    0.3621193    0.2605352 -68.27  0.001729873    3.073    0.675
       192  -9.1416     44.4115    182.5419   1.4129403535e+02   3.2591596864e+01    0.3036397    0.1614739  70.71  0.001099941    1.803    0.445
       193  -8.3015    235.5233    181.2507   1.0178754453e+02  -1.9835315895e-01    0.2999238    0.1228866 -31.00  0.001286918    2.548    0.607
       194  -9.1249    147.4794    180.5356   1.1883133561e+02   1.6752153598e+01    0.3365862    0.2461831  85.90  0.001169252    1.816    0.449
       195  -9.6753     25.6637    179.0075   1.4484617021e+02   3.5368469085e+01    0.6243201    0.2203363  80.26  0.002375875    4.144    0.759
       196  -8.5897    137.5209    179.2020   1.2073817532e+02   1.8895181874e+01    0.2992638    0.2087371 -89.61  0.001073494    1.942    0.485
       197  -9.4479    191.5987    178.3085   1.0935872820e+02   8.5250284553e+00    0.3021246    0.2601068  72.89 0.0005972869    1.442    0.307
       198  -8.1515    169.4692    178.9094   1.1393170360e+02   1.2780450291e+01    0.1925593    0.1402061 -47.68   0.00100585    1.531    0.347
       199  -9.0990     35.9995    177.0015   1.4255137674e+02   3.4709283958e+01    0.4683658    0.1799373  82.48  0.001818768    3.785    0.736
       200  -9.5052    248.4703    176.5985   9.8666459710e+01  -1.8272045859e+00    0.4028684    0.2589655 -45.85  0.002139608    2.022    0.505
       201  -8.6401    250.5222    172.9256   9.7593369868e+01  -1.6841172770e+00    0.1836643    0.1629321 -14.74 0.0004624034    1.172    0.147
       202  -8.5237    231.0473    177.2617   1.0178596397e+02   1.1734941248e+00    0.2100278    0.1810007 -53.11 0.0005253258    1.551    0.355
       203  -8.4464    217.6385    177.4373   1.0423403870e+02   3.6366560546e+00    0.2361746    0.1986955 -66.90 0.0009033103    1.716    0.417
       204  -8.5223    205.2615    177.7627   1.0661053555e+02   5.9511673528e+00    0.2388713    0.2110933 -72.61  0.001094099    1.524    0.344
       205  -8.5334    129.1118    177.4919   1.2228082642e+02   2.0796535021e+01    0.2866736    0.1999411  86.22 0.0009509154    1.838    0.456
       206  -9.2412    183.1856    176.1648   1.1062031364e+02   1.0551084870e+01    0.3247418    0.2374542 -58.45 0.0006237631    1.725    0.420
       207  -9.2202    158.8246    174.8930   1.1541510514e+02   1.5618283727e+01    0.4145612    0.2969348 -79.88  0.001434394    2.006    0.502
       208  -9.4858    104.5656    175.0282   1.2732447880e+02   2.5632748952e+01    0.5346416    0.2693041  68.67   0.00202561    3.152    0.683
       209  -7.9597     97.7462    177.6250   1.2921924428e+02   2.6209551018e+01    0.1908107    0.1085846  51.46  0.000939942    1.610    0.379
       210  -9.0892     88.9773    177.0377   1.3107966849e+02   2.7722695416e+01    0.2658683    0.1692108  71.15  0.001023119    1.650    0.394
       211  -9.9471     57.3543    173.2884   1.3760585435e+02   3.2992028302e+01    0.7760307    0.3257578  79.24  0.002640949    4.625    0.784
       212  -8.9322     13.0778    176.7748   1.4722130886e+02   3.7034821835e+01    0.2575972    0.1164828  72.23  0.001397923    2.024    0.506
       213 -10.6378     75.9612    170.5867   1.3313586025e+02   3.1059647701e+01     1.133726    0.4224033 -77.80  0.003588615    4.849    0.794
       214  -8.9024     78.8802    158.6580   1.3081854001e+02   3.3272959474e+01    0.3820416    0.1722048  30.97  0.001568855    2.887    0.654
       215  -8.4931    224.4762    174.4455   1.0239574300e+02   2.8013879271e+00    0.2166219    0.1215876 -45.32 0.0007174646    2.147    0.534
       216  -7.9813    241.4496    174.4628   9.9424178085e+01  -3.0336152093e-01    0.1293693    0.1135948   6.13 0.0001080632    1.049    0.046
       217  -9.4920    175.6620    172.1636   1.1137981689e+02   1.2762066317e+01    0.3650558    0.2463766 -43.24   0.00105576    1.616    0.381
       218  -8.4757    143.0573    172.6803   1.1840478379e+02   1.9127092744e+01    0.2324675    0.1926994 -77.51 0.0006768761    1.349    0.259
       219  -8.7426    134.7317    171.8614   1.2008894793e+02   2.0883250460e+01    0.2524143    0.1892202 -80.94 0.0007656112    1.586    0.369
       220  -9.5609    121.5272    170.4755   1.2279658178e+02   2.3620314141e+01    0.3952437    0.2681794  88.86   0.00110572    1.902    0.474
       221  -9.1916     45.1144    170.9646   1.4003955360e+02   3.4981288536e+01     0.370028    0.1787633  89.34  0.001452536    2.210    0.547
       222  -8.9938    230.0686    169.6895   1.0043633027e+02   2.4627037444e+00    0.4203877    0.1762758 -40.43  0.001760202    2.549    0.608
       223  -8.3176    205.9147    170.4796   1.0503848685e+02   6.9944551431e+00    0.2400043    0.1908732 -56.26  0.000672397    1.599    0.375
       224  -8.5943    198.4731    170.3399   1.0644495166e+02   8.4952915142e+00    0.2496801    0.2161741  64.23 0.0009695648    1.356    0.262
       225  -8.1881    237.2990    169.4478   9.9123364632e+01   1.1592367256e+00    0.2090752    0.1539607 -48.48 0.0008392514    1.734    0.423
       226  -9.2255    167.4353    168.9250   1.1246542536e+02   1.5016212076e+01    0.3678056    0.2592847  78.16  0.001026911    2.099    0.523
       227  -8.4275    149.7810    169.5211   1.1636323491e+02   1.8436474207e+01    0.2593682    0.1871846 -74.75 0.0008004358    1.788    0.441
       228  -7.9122    244.4150    169.1965   9.7858657227e+01  -9.3450805328e-02    0.1714949    0.1163857 -39.32 0.0006159736    1.607    0.378
       229  -8.2355     88.8177    168.7748   1.2996613740e+02   2.9527007853e+01    0.2544338    0.1538838  84.71 0.0009550085    2.031    0.508
       230  -8.2070    218.9435    168.3741   1.0217188081e+02   4.7809105003e+00    0.1913424    0.1622265  32.76 0.0005069852    1.112    0.101
       231  -7.9327    211.3967    168.1573   1.0352855922e+02   6.2884374605e+00     0.188383     0.127427 -47.92 0.0006026901    1.754    0.430
       232  -8.5345    111.9731    167.7706   1.2451367224e+02   2.5899261811e+01    0.3009462    0.1847508  78.06  0.001317781    2.260    0.558
       233  -8.9548    191.9224    166.6664   1.0699213141e+02   1.0440228674e+01    0.2566697    0.2047536 -48.51 0.0006537438    1.412    0.292
       234  -8.9095    184.9954    166.7785   1.0840664810e+02   1.1832206962e+01     0.238583    0.2031171 -40.45 0.0006027026    1.266    0.210
       235 -10.1067     95.0868    163.1439   1.2767649249e+02   2.9761384915e+01    0.8056344    0.4024233  75.33  0.002657032    4.257    0.765
       236  -9.1256     20.7137    166.3453   1.4488489432e+02   3.8531632637e+01    0.3442838    0.1426894  64.94  0.001199545    2.476    0.596
       237  -9.9373    136.6404    164.4607   1.1833462423e+02   2.2025658894e+01    0.5783677    0.2991789  60.87  0.002077874    2.534    0.605
       238  -8.4217    233.9790    165.0227   9.8790229025e+01   2.4229163221e+00    0.2014145    0.1814594  -7.81 0.0005198018    1.083    0.077
       239  -8.6828    159.5697    164.3654   1.1325426605e+02   1.7479318432e+01    0.2851191     0.214946 -85.84 0.0006858131    1.809    0.447
       240  -9.1849     33.5835    163.4005   1.4183356214e+02   3.7897021443e+01    0.4974051    0.1763337  57.20  0.002140541    3.070    0.674
       241  -8.4611    239.8524    164.1808   9.7602297123e+01   1.4537149751e+00     0.187532    0.1760852 -23.67  0.000541854    1.221    0.181
       242  -8.6595    212.9034    163.6330   1.0231153947e+02   6.7182477403e+00    0.2576775    0.1951078 -43.73 0.0006732157    1.466    0.318
       243  -8.2680     56.1300    164.3520   1.3686584781e+02   3.5103313119e+01    0.2169222     0.122639  25.73  0.001073299    2.489    0.598
       244  -9.5170    246.0072    161.9924   9.6109471965e+01   6.4198563806e-01    0.4041758    0.1784067 -35.12  0.001801148    2.188    0.543
       245  -8.6400    204.8780    162.9696   1.0369527884e+02   8.4381416678e+00    0.2372061    0.1901042 -42.30 0.0006131029    1.358    0.264
       246  -9.5560      3.4872    162.4395   1.4822680794e+02   4.0847310778e+01    0.3763767    0.1417395  54.67  0.001602403    2.414    0.586
       247  -7.9480    221.9843    161.9668   1.0028790594e+02   5.1899024840e+00    0.1658467    0.1494467   0.51 0.0003444217    1.038    0.037
       248  -9.0947    177.5768    160.7650   1.0870487995e+02   1.4450115674e+01    0.3217041    0.2558085 -74.05 0.0009530562    1.645    0.392
       249  -8.7822    151.6546    161.1080   1.1434495797e+02   1.9726660916e+01     0.310857    0.2348845 -86.36  0.001058383    1.732    0.423
       250  -8.7935     61.0437    160.6974   1.3529119876e+02   3.5289285351e+01    0.3772311    0.1604553  58.56  0.001436901    2.735    0.634
       251  -8.1658    242.1619    159.8689   9.6310852679e+01   1.6551052413e+00    0.1830849     0.141252   1.54  0.000356975    1.281    0.219
       252  -8.5719    227.4898    159.3023   9.8735861694e+01   4.5298710860e+00    0.2642965    0.2053742 -62.14   0.00103457    1.854    0.461
       253  -9.7582    250.1917    157.7571   9.4533567614e+01   4.8726278579e-01    0.3371098    0.1729409 -31.22 0.0008410864    1.844    0.458
       254  -8.3186    237.1952    159.2199   9.7020326299e+01   2.6807304579e+00     0.173392    0.1564425 -45.85 0.0006384634    1.340    0.254
       255  -9.2500    167.6760    157.4547   1.1011482867e+02   1.7140332358e+01    0.3509217    0.2688352 -81.40  0.001090412    1.776    0.437
       256  -8.3802    128.0897    158.7338   1.1922378190e+02   2.4866320264e+01    0.2491222    0.1931262 -76.16 0.0007863843    1.421    0.296
       257  -9.6655    105.7349    157.9482   1.2432322447e+02   2.9116161519e+01    0.4627433    0.3004937  83.60  0.001108764    1.989    0.497
       258  -8.4996    196.4968    157.8695   1.0425500315e+02   1.1027376123e+01    0.2598848    0.2234259  81.74 0.0007785475    1.487    0.327
       259  -8.4337    188.3925    157.7951   1.0586157514e+02   1.2731855416e+01    0.2615696    0.1379713 -45.15 0.0007571516    2.051    0.512
       260  -8.5419    218.0236    156.6351   9.9881379624e+01   6.8240921670e+00    0.2672487    0.1849443 -50.31    0.0010242    1.754    0.430
       261  -9.0699    157.6019    156.0177   1.1201049875e+02   1.9520627394e+01    0.3223321    0.2472032 -72.83 0.0009270379    1.612    0.379
       262  -9.4086    119.6082    155.4321   1.2059317115e+02   2.7172653760e+01    0.4368446    0.2790231 -84.51  0.001652989    2.216    0.549
       263  -9.4392     81.6538    154.8665   1.2958913711e+02   3.3711984276e+01    0.4934988    0.2645007  69.31  0.001370848    2.504    0.601
       264  -8.6037    144.9439    155.1431   1.1466489768e+02   2.2295697284e+01    0.3611482    0.2446935  81.20  0.001119354    2.187    0.543
       265  -9.2287     49.6714    155.2468   1.3728602536e+02   3.7921312901e+01    0.3787519    0.1957101  65.88  0.001643366    2.134    0.531
       266  -8.6336    237.4340    150.4750   9.5109595697e+01   3.9531813112e+00    0.4036795    0.1747897  32.30  0.001500305    3.061    0.673
       267  -8.6925    239.7173    153.3324   9.5337540429e+01   3.0824735824e+00    0.2183232      0.15673 -50.01 0.0005739899    1.736    0.424
       268  -7.9422    204.7915    155.3658   1.0210036933e+02   9.7365675402e+00     0.186946    0.1721583 -33.68 0.0004985571    1.150    0.130
       269  -9.6680    132.7814    153.0858   1.1705472964e+02   2.5155725186e+01    0.4487705    0.3202697  83.65  0.001088733    1.825    0.452
       270  -8.9765    133.4778    148.4974   1.1597679459e+02   2.5995398331e+01    0.2788782    0.2583965 -54.88 0.0009610611    1.135    0.119
       271  -9.4929     68.0920    153.8795   1.3271565434e+02   3.5884563036e+01    0.4388801    0.2308495  67.95  0.001454788    2.362    0.577
       272  -8.0661    232.6157    153.8026   9.6658724859e+01   4.3801023150e+00    0.1874142    0.1224425 -41.20 0.0006355551    1.619    0.382
       273  -8.1175    151.5883    152.7916   1.1268597651e+02   2.1415112570e+01    0.2001552    0.1409264 -61.11 0.0005600523    1.621    0.383
       274  -9.2016     20.1510    152.8158   1.4386552062e+02   4.1521465803e+01    0.1839399    0.1236671  74.92 0.0005796815    1.282    0.220
       275  -9.7268     29.5778    150.9642   1.4152349148e+02   4.1048559571e+01    0.3787311    0.1766147  71.34  0.001805515    2.445    0.591
       276  -8.7164      2.8985    151.1354   1.4757697078e+02   4.3301714198e+01    0.2936199    0.1260444 -85.94   0.00159122    1.901    0.474
       277  -9.4831    248.7995    149.3946   9.2983064470e+01   1.9518061993e+00    0.2905372    0.1966746 -29.03 0.0007912746    1.379    0.275
       278  -8.9448    247.0809    143.9925   9.2090903399e+01   3.0742176587e+00      0.24828    0.1776523 -34.45 0.0005126725    1.346    0.257
       279  -9.4229    243.1627    150.0715   9.4056889377e+01   2.9141256285e+00    0.3108478    0.1789942 -32.23 0.0009445105    1.651    0.394
       280  -8.8709    189.4353    150.2543   1.0402685424e+02   1.3872112597e+01    0.3362834    0.2313935 -61.54 0.0008942475    1.954    0.488
       281  -7.9773    182.4082    151.3006   1.0569726285e+02   1.5183654290e+01    0.1960793    0.1397828 -53.12 0.0005366711    1.596    0.374
       282  -8.3818    162.4358    150.7513   1.0984644947e+02   1.9550898901e+01    0.2627856    0.1453194 -49.72 0.0006741914    1.955    0.488
       283  -8.5640     98.2185    150.6850   1.2488135707e+02   3.2015078495e+01    0.2959646    0.1967221  87.06 0.0009052551    1.840    0.456
       284  -8.3079    212.9738    149.9742   9.9372714545e+01   8.9489216220e+00    0.2130471    0.2048205  -4.94 0.0004823822    1.074    0.069
       285 -10.0092     40.0125    147.9989   1.3873161291e+02   4.0645305401e+01    0.5312675    0.2554967  73.24  0.002202706    2.585    0.613
       286  -8.4996    198.8691    149.1224   1.0189200232e+02   1.2060647593e+01     0.212862    0.1971938 -79.89 0.0004923587    1.284    0.221
       287  -9.0231     90.6826    148.3813   1.2633752268e+02   3.3774625447e+01    0.3491746    0.2172668  66.62  0.001121956    1.846    0.458
       288  -9.4784     88.1852    144.9946   1.2638039684e+02   3.4944833163e+01    0.4241726    0.2635572 -85.06  0.001764462    1.958    0.489
       289  -8.8862    233.3670    147.6122   9.5183494861e+01   5.1903650932e+00     0.246141    0.2004635 -29.08 0.0006192359    1.193    0.162
       290 -10.2660    148.9995    144.7820   1.1158694897e+02   2.3598823355e+01    0.6560243    0.4264244 -76.55  0.001659138    2.401    0.583
       291  -8.3781    151.4141    135.8144   1.0904511777e+02   2.4945651218e+01    0.3067815    0.1734793  38.33  0.001253433    1.877    0.467
       292  -8.9813     78.0606    147.0612   1.2925246985e+02   3.6021896054e+01    0.3036898    0.1940388  89.89 0.0008062999    1.776    0.437
       293 -10.3023     54.6711    144.3341   1.3467936904e+02   3.9801123676e+01    0.8518373    0.4040167  78.48  0.003139525    3.465    0.711
       294  -8.8841     56.9962    135.5039   1.3281824173e+02   4.1552961886e+01     0.308282    0.1816314  14.85  0.001403425    2.936    0.659
       295  -8.4027    223.3208    146.9826   9.6814867243e+01   7.3106245622e+00    0.2261933    0.2015486  85.35 0.0006147604    1.470    0.320
       296  -9.7322    139.1366    145.2577   1.1397791020e+02   2.5543760033e+01    0.4160786    0.2934992 -84.02    0.0011491    1.951    0.487
       297 -10.1841    106.7792    144.6837   1.2168642595e+02   3.1883728697e+01    0.6872783    0.3955807  78.35  0.002382324    3.070    0.674
       298  -8.2010    105.0126    139.0000   1.2103473196e+02   3.3480413150e+01    0.2056669    0.1612479  23.22 0.0007458922    1.620    0.383
       299  -9.4349     13.3616    146.3101   1.4484377650e+02   4.3534804788e+01    0.3375396     0.166645  66.03  0.001424579    2.011    0.503
       300  -9.4519    240.8230    144.7136   9.3280245878e+01   4.1721690869e+00    0.3539113    0.2433916  18.85  0.001800604    1.648    0.393
       301  -7.9686    206.5533    146.5040   9.9819150148e+01   1.0883664768e+01    0.1434136     0.136186  10.85 0.0002455805    1.016    0.016
       302  -8.0946    175.4287    146.2124   1.0604863150e+02   1.7646901091e+01    0.2024136    0.1418454 -55.29 0.0006183828    1.635    0.388
       303  -9.8392    125.0635    142.8697   1.1684116799e+02   2.8872240016e+01    0.5233534    0.3376438 -84.28  0.001526543    2.338    0.572
       304  -8.2231    194.3866    144.1379   1.0166935062e+02   1.3912185257e+01    0.2033096    0.1356294 -50.85 0.0004703225    1.705    0.413
       305  -8.8734    165.6660    143.9503   1.0765892061e+02   2.0205163029e+01     0.311785    0.2300395  71.19 0.0008375387    1.678    0.404
       306 -10.9240     68.6189    139.6185   1.3045450962e+02   3.9080881273e+01    0.9616605     0.469173 -68.46  0.003812006    1.972    0.493
       307  -9.4068      3.0804    142.1171   1.4686134281e+02   4.5241652621e+01    0.3752088    0.1553252  64.87  0.001660906    2.527    0.604
       308  -7.8259    250.5774    140.8418   9.0837959591e+01   2.8764965611e+00    0.1880439    0.1161306 -40.96  0.000652197    1.649    0.393
       309  -8.7846    243.1424    139.6038   9.1767082116e+01   4.4974736960e+00    0.3040852    0.2113021 -62.58  0.001444459    2.245    0.555
       310  -9.8116     23.5511    138.3945   1.4166163850e+02   4.4430484120e+01    0.4823448     0.216453  70.22  0.002179481    2.724    0.633
       311  -7.7775    218.6201    138.7789   9.5821437351e+01   9.6352167700e+00    0.1925336    0.1304346 -43.15 0.0003982488    1.538    0.350
       312  -8.8784    172.2735    138.0229   1.0487866524e+02   1.9923684173e+01    0.4033555    0.2204231 -54.11  0.001058214    2.209    0.547
       313  -8.0860    207.6543    138.0636   9.7695859240e+01   1.2106838914e+01    0.2280571    0.1735065 -53.48 0.0007033924    1.520    0.342
       314  -8.6799    197.5044    137.6033   9.9556508903e+01   1.4407985420e+01    0.2753851    0.2329539 -61.34 0.0007464572    1.378    0.274
       315  -8.4235    162.6904    136.5040   1.0663731167e+02   2.2342714158e+01    0.2461385    0.1849911 -71.69 0.0006206378    1.688    0.407
       316 -10.4200     83.4223    132.7935   1.2542857172e+02   3.8502213745e+01    0.5667699    0.3040667 -72.38  0.001362304    2.135    0.532
       317  -9.4224     39.1717    136.4071   1.3752916455e+02   4.3376219113e+01    0.2892231    0.1700534  77.38  0.001050648    1.820    0.450
       318  -8.8456    250.7243    130.2142   8.8453982716e+01   4.4354430324e+00      0.42332    0.1146892 -31.49  0.001333931    3.691    0.729
       319  -8.9622    248.2994    135.2204   8.9957108823e+01   4.1544754049e+00    0.3016469     0.214424 -38.06 0.0007782791    1.374    0.272
       320  -8.6148    246.9017    130.1961   8.9050936835e+01   5.1908936917e+00    0.2312699    0.1739999 -39.35 0.0006209093    1.313    0.239
       321  -8.7192    192.3038    134.1449   9.9787706515e+01   1.6191492963e+01    0.4280079    0.1469531 -39.48  0.001417169    2.945    0.660
       322  -8.2945    192.9562    130.3258   9.8752298665e+01   1.6747080880e+01    0.2546099     0.202642 -50.11 0.0005541428    1.343    0.255
       323  -8.1132    187.6592    135.8237   1.0112509178e+02   1.6918301729e+01    0.2104393    0.1366325 -48.09 0.0003958285    1.654    0.395
       324  -8.4796    182.1071    141.7307   1.0363504815e+02   1.7040381802e+01    0.2507516    0.2051243 -55.92 0.0005614504    1.358    0.263
       325 -10.5775    132.5646    130.9514   1.1243669182e+02   2.9971055165e+01    0.7789655    0.5094563 -65.42  0.002393425    1.812    0.448
       326  -9.2231    112.9159    133.2399   1.1785779644e+02   3.3338833121e+01    0.3976125     0.271722 -76.82  0.001186227    1.775    0.437
       327  -8.1033    237.5670    133.7205   9.1367560650e+01   6.5200660987e+00    0.1911038    0.1245754 -41.60 0.0009347428    1.552    0.356
       328  -7.9958    231.5027    133.9947   9.2454028759e+01   7.7200688647e+00    0.2063241     0.132616 -33.84 0.0003827492    1.489    0.328
       329  -8.6157    179.5657    133.8411   1.0234569675e+02   1.9106027974e+01    0.2840796    0.2199403 -68.40 0.0007494235    1.617    0.382
       330  -9.2683    143.1077    131.5783   1.1002719066e+02   2.7621445366e+01    0.4031134    0.2768654 -76.28 0.0008517505    2.033    0.508
       331 -10.4201     98.2373    130.2702   1.2103845176e+02   3.6659184920e+01    0.7015898    0.2941459 -58.71   0.00169319    2.418    0.586
       332  -8.6698     98.7745    120.8328   1.1890193742e+02   3.8732164543e+01    0.2934657    0.2200498  11.93  0.001304944    1.942    0.485
       333  -8.3570    204.7017    130.5843   9.6512025885e+01   1.4065799261e+01    0.2474449    0.1760621 -56.43 0.0006958084    1.698    0.411
       334  -9.7553     73.2196    129.3892   1.2752121395e+02   4.0813828690e+01    0.4570856     0.273301  83.79  0.001396301    2.306    0.566
       335 -10.0555     12.9432    129.2345   1.4334413444e+02   4.7365664288e+01    0.4991146    0.2280058  78.61  0.002216289    2.474    0.596
       336  -7.8596    220.7440    130.0070   9.3411439970e+01   1.0646767476e+01    0.1870566    0.1207366 -34.06 0.0005578183    1.508    0.337
       337  -8.1758    211.7100    129.3473   9.4899239923e+01   1.2729234087e+01    0.2626443    0.1707732 -47.82 0.0006872047    1.672    0.402
       338  -8.4280    161.5341    129.5589   1.0527212221e+02   2.4002961378e+01    0.2809011    0.1417191 -54.03  0.001031714    2.375    0.579
       339  -9.4481    152.8093    128.5345   1.0702831995e+02   2.6153288995e+01    0.5614135    0.2761971 -48.29  0.001464646    2.111    0.526
       340  -8.3742     25.4533    130.2605   1.4027954381e+02   4.6104850682e+01    0.2152164    0.1085731   5.88 0.0009064444    4.408    0.773
       341  -7.8238      1.4817    130.4549   1.4628809640e+02   4.7908010939e+01    0.1152806   0.08549231 -89.78 4.753931e-05    1.048    0.045
       342  -8.0027    186.3193    129.6615   9.9943192733e+01   1.8373742852e+01    0.1548552    0.1214977 -80.35 0.0006622196    1.709    0.415
       343 -10.6772     44.9220    123.7332   1.3424909309e+02   4.5693506759e+01     1.003392    0.4794124  77.01  0.003787679    3.694    0.729
       344 -10.3433     59.9493    125.0571   1.3035865310e+02   4.3615979868e+01     0.747502     0.404502  83.64  0.002586314    2.828    0.646
       345  -8.5365     59.6276    115.4244   1.2874140909e+02   4.5907649817e+01    0.3181573    0.2135906  -6.68  0.001496042    2.652    0.623
       346 -10.4847    238.3257    125.7199   8.9407971435e+01   7.6237401937e+00    0.3001744    0.2809215  41.22 0.0002881267    1.151    0.131
       347  -7.8620    228.5261    125.7364   9.1050565141e+01   9.6820289149e+00    0.1975229    0.1293887 -44.09 0.0008064447    1.569    0.363
       348  -8.9661    179.2218    124.8240   1.0025393174e+02   2.0916911690e+01    0.2985647    0.2570724 -84.37 0.0007790092    1.371    0.271
       349 -10.1373     28.5507    122.6034   1.3852110240e+02   4.7579333689e+01     0.702019    0.3184343  77.77  0.002870377    3.339    0.701
       350  -8.9390     26.8129    114.2198   1.3786842811e+02   4.9657604753e+01    0.2280621    0.1611691  -9.82  0.001338133    2.154    0.536
       351  -9.9942    117.9861    125.2451   1.1481061802e+02   3.4163104143e+01    0.5605064    0.3747086  82.94  0.001558676    2.228    0.551
       352  -8.4511    188.5050    123.9827   9.8118924331e+01   1.8938491369e+01     0.229191    0.1493126 -40.15 0.0006014278    1.545    0.353
       353  -9.0781    158.6850    121.8174   1.0404146080e+02   2.6220789754e+01     0.381667      0.27291 -78.00  0.001318449    1.985    0.496
       354  -9.6381     71.5392    120.1989   1.2627731570e+02   4.3198081736e+01    0.5525209    0.3128478 -86.68  0.001782693    2.593    0.614
       355  -7.8520    203.1471    122.1636   9.4783721088e+01   1.5910685518e+01    0.2058371    0.1749677 -63.52 0.0003980976    1.353    0.261
       356  -7.9599    195.0320    122.0522   9.6333984768e+01   1.7791725944e+01    0.2326476     0.183863 -73.73 0.0005556062    1.630    0.386
       357  -8.7714    171.9828    121.6439   1.0102457827e+02   2.3205478058e+01    0.2845179    0.2222123 -50.83 0.0004248644    1.337    0.252
       358  -9.9668    130.9967    118.7742   1.0996456626e+02   3.2950598435e+01    0.6404993    0.4188368 -78.48  0.002196583    2.364    0.577
       359 -10.0484    133.4812    109.6208   1.0703288814e+02   3.4397596433e+01    0.7413241    0.3230281 -48.09  0.001971588    2.316    0.568
       360 -10.0261    141.4599    118.2196   1.0722804030e+02   3.0821515631e+01    0.5743023    0.3105433 -56.88  0.001408819    2.180    0.541
       361  -9.6329      2.8923    117.3777   1.4473226787e+02   5.0714083583e+01    0.4391803    0.2020398  75.55  0.002224023    2.432    0.589
       362  -7.7080    231.4634    117.5236   8.8612949938e+01   1.0387511922e+01    0.1428151    0.1339825 -33.34 0.0008082079    1.066    0.062
       363 -10.0266    109.2120    114.1557   1.1454356672e+02   3.8345074296e+01    0.5936564    0.3595619 -73.86  0.001377152    2.404    0.584
       364  -9.1776    109.3508    107.3501   1.1283622072e+02   3.9844342468e+01    0.3443683    0.2450812  20.09  0.001555048    1.921    0.480
       365  -7.9276    219.3063    116.6968   9.0488052823e+01   1.3201250038e+01    0.1453806    0.1152901 -69.43 0.0002404225    1.600    0.375
       366  -9.1431    168.2648    129.2505   1.0369621240e+02   2.2550866739e+01    0.3512362    0.2516176 -62.84 0.0006216442    1.695    0.410
       367  -8.5491    185.5569    115.9944   9.6731976060e+01   2.1123193341e+01    0.2298071    0.1493698 -40.99 0.0005018812    1.542    0.351
       368  -7.6546    250.3661    115.2719   8.5099430774e+01   6.7729365330e+00    0.1402366    0.1018659  15.97  0.000700031    1.665    0.399
       369  -8.1814    193.0556    115.1017   9.4993430369e+01   1.9525995358e+01    0.2342409     0.182178 -69.03 0.0004922991    1.601    0.375
       370  -8.0519    153.2900    115.6423   1.0374331875e+02   2.8715322508e+01    0.1602137    0.1226538 -80.24 0.0007026978    1.686    0.407
       371  -9.9085     78.9764    112.6786   1.2264740701e+02   4.3859926884e+01    0.5574064    0.3574694  88.43  0.001893097    2.211    0.548
       372  -8.6276     78.6802    105.2645   1.2109512380e+02   4.5618665639e+01    0.3271762    0.2554348 -17.17  0.001331939    1.712    0.416
       373  -8.5489    167.3261    114.1853   1.0016368473e+02   2.5762158484e+01     0.239403    0.1965821 -23.68 0.0006880565    1.346    0.257
       374  -9.9901     92.6647    112.5264   1.1872750804e+02   4.1693404113e+01    0.4740363    0.3083768 -74.53  0.001267798    1.862    0.463
       375  -8.9800     92.4099    105.7735   1.1721432430e+02   4.3280150604e+01    0.5508661     0.351952 -12.69  0.002062777    3.318    0.699
       376  -8.5166    174.9774    112.3417   9.8017846195e+01   2.4319655562e+01    0.2953543    0.2110551 -57.04 0.0006911984    1.586    0.369
       377  -8.9911    159.2964    111.9446   1.0139690558e+02   2.8086442156e+01    0.3174978    0.2313277 -63.79 0.0007823606    1.635    0.388
       378 -10.0588    121.5151    111.9417   1.1071822063e+02   3.6413627712e+01    0.4720629    0.3307227 -75.32  0.001080154    1.859    0.462
       379 -10.1205     66.4498    109.9385   1.2570108160e+02   4.6295372815e+01     0.588761    0.2775425 -65.20  0.002034537    2.094    0.523
       380  -9.6556     14.2802    111.3309   1.4098833502e+02   5.1306962560e+01    0.3096073    0.1662066  81.76  0.001358274    2.016    0.504
       381  -9.2195     43.0903    109.6438   1.3249371669e+02   4.9164038820e+01    0.3028753    0.1711961  15.85  0.001478946    2.627    0.619
       382 -10.4947    248.2406    108.3118   8.3793785714e+01   8.2760909311e+00    0.4910927    0.2826261 -42.62  0.002312175    1.670    0.401
       383  -8.8476    250.0240    101.6074   8.1953367011e+01   8.9288836263e+00    0.4037199    0.1614701 -24.18 0.0009322102    3.188    0.686
       384  -8.0806    189.0900    108.0301   9.3972048097e+01   2.1768963209e+01    0.2387366    0.1826198 -68.19 0.0004827584    1.613    0.380
       385  -9.5154    150.7918    103.3499   1.0110383195e+02   3.1810025575e+01      0.49961     0.318511 -69.45  0.001577384    2.377    0.579
       386  -9.4011    139.8708    104.6876   1.0412461147e+02   3.4032463883e+01    0.3973393    0.2982439 -81.69  0.001028349    1.768    0.435
       387 -10.4220     45.4944    102.3508   1.3046604145e+02   5.0598619818e+01     0.697957    0.3834801  78.02  0.002962404    2.996    0.666
       388  -8.9345     45.4543     92.8154   1.2859217783e+02   5.2793985221e+01    0.3552641    0.2376809  -5.45  0.001848365    2.262    0.558
       389 -10.6101     22.9726    102.7805   1.3732223039e+02   5.2595185596e+01    0.7251467    0.3609269  73.40  0.002762023    2.953    0.661
       390  -8.6689    166.6599    104.2784   9.7707223672e+01   2.7871384563e+01     0.265806    0.2314666 -69.89 0.0005690991    1.259    0.206
       391 -10.6099    109.0688     98.8595   1.1071348418e+02   4.1777333679e+01    0.9204769    0.5283276  71.02  0.001566446    3.500    0.714
       392  -9.0719    107.8099     92.7816   1.0941241071e+02   4.3345506724e+01    0.6158676    0.3114482  27.40  0.002108227    3.281    0.695
       393  -9.8192    128.5878    102.2600   1.0634649567e+02   3.7028932140e+01    0.3615662    0.2943082 -84.03 0.0008410314    1.469    0.319
       394  -9.0172      6.9080    103.0239   1.4205108484e+02   5.3672951659e+01    0.2411878    0.1483067  75.25  0.001232941    1.710    0.415
       395  -8.2035    175.5145    102.0029   9.5174357982e+01   2.6174236336e+01    0.2412283    0.1529025 -40.52 0.0007838475    1.575    0.365
       396  -8.2841    159.8213    101.1295   9.8392955972e+01   3.0125890358e+01    0.2411385    0.2069124 -70.20 0.0005286019    1.288    0.224
       397  -9.1046     82.0726    100.0507   1.1886116284e+02   4.6285160733e+01     0.337093    0.2396395 -81.54 0.0007974854    1.745    0.427
       398  -9.0827     95.0528     97.0816   1.1426503080e+02   4.4778361079e+01    0.3202309     0.222376 -64.38 0.0006819416    1.550    0.355
       399 -10.0517     63.9384     95.9441   1.2343394578e+02   4.9863020424e+01     0.525893    0.3323332  83.21  0.001726948    2.492    0.599
       400  -8.4303    151.9364     95.0108   9.8526075388e+01   3.3215914519e+01    0.2529865    0.1935503  13.74 0.0007350116    1.734    0.423
       401  -8.3799    176.5075     93.3724   9.2606341676e+01   2.7551001119e+01    0.3203527    0.2103829 -55.64 0.0008957911    1.749    0.428
       402  -8.1766    164.8232     94.1577   9.5336017541e+01   3.0275344187e+01    0.2387105    0.2072047 -71.82 0.0005007753    1.269    0.212
       403 -10.6429    123.7088     91.0229   1.0451093833e+02   4.0450583412e+01    0.7280454    0.5607125 -15.94  0.001933082    1.632    0.387
       404  -9.5121    138.9147     92.1026   1.0087042588e+02   3.6843155649e+01    0.4239995    0.2939161 -57.60 0.0009180447    1.621    0.383
       405  -9.4949      5.3446     92.1460   1.4111708482e+02   5.6196780623e+01    0.3247168    0.1733661  59.72  0.001182577    2.321    0.569
       406  -8.2393    157.8438     91.6126   9.6187850477e+01   3.2463138194e+01    0.2592317     0.181796 -44.95 0.0005930048    1.436    0.304
       407  -9.4718     34.8958     89.8543   1.3139291226e+02   5.4520462429e+01     0.445256    0.2378188 -84.24  0.001547134    2.449    0.592
       408  -9.1281     22.6406     90.4039   1.3543754859e+02   5.5432102135e+01    0.2781017    0.1857103 -43.77   0.00104397    1.494    0.330
       409  -8.0997    150.9558     89.2877   9.7122138896e+01   3.4575079339e+01    0.2170281    0.2077703  54.29 0.0004651257    1.041    0.039
       410  -8.9830     66.2983     87.4816   1.2065211488e+02   5.1459461785e+01     0.571883    0.3063953  11.46  0.002086591    3.999    0.750
       411  -9.9929     86.4783     85.7974   1.1381001002e+02   4.8747144333e+01    0.6654849    0.3673009 -55.27  0.001628629    1.798    0.444
       412  -7.9181    164.1599     87.2084   9.3506647274e+01   3.1754683021e+01    0.2198673    0.1812565 -67.42 0.0004847691    1.365    0.267
       413  -9.7469     48.5714     84.4159   1.2572764769e+02   5.4355453136e+01     0.459675    0.2892439  75.26  0.001728942    2.533    0.605
       414  -7.6592    179.3069     85.6636   8.9871921394e+01   2.8259505317e+01    0.1629263    0.1211034 -70.82 0.0003893014    1.675    0.403
       415  -9.7521    104.8351     83.3903   1.0757749622e+02   4.5925948069e+01    0.4679073    0.3302686 -74.16  0.001005275    1.983    0.496
       416  -8.7018    105.0293     77.4545   1.0572796393e+02   4.7116050469e+01    0.3598092    0.2395376  25.80  0.001611891    1.880    0.468
       417  -8.3561    157.8660     84.0912   9.4004643050e+01   3.3891078668e+01    0.2366025    0.2094906 -69.87 0.0003554166    1.219    0.180
       418  -9.2189    140.6107     82.4463   9.7607209156e+01   3.8364205187e+01    0.3694923    0.2629016 -50.73 0.0008205962    1.471    0.320
       419  -7.9475    185.2817     82.6652   8.7844810464e+01   2.7286442717e+01     0.160064    0.1186983 -67.01 0.0006905475    1.616    0.381
       420  -7.4590     35.6594     82.2981   1.2959281229e+02   5.6152689762e+01    0.1225016   0.09087745  76.17 0.0007034071    1.664    0.399
       421  -9.6912     24.8393     80.5360   1.3289943779e+02   5.7475142961e+01    0.4465231    0.2577436  88.58  0.001561615    2.323    0.569
       422  -9.2724      9.7152     80.9229   1.3805315606e+02   5.8431971655e+01    0.2781172    0.1649425  62.10   0.00111858    2.179    0.541
       423  -8.3812    150.3433     80.8254   9.4769423246e+01   3.6344996345e+01    0.3010914    0.2271656 -68.60 0.0008510831    1.635    0.388
       424  -8.9068    119.2289     80.1897   1.0251868112e+02   4.3632649414e+01    0.3625632    0.2477306 -60.73 0.0008637854    1.758    0.431
       425  -9.0735     74.3895     80.2322   1.1610004534e+02   5.1890244008e+01    0.3280051    0.2309303 -70.65 0.0009583024    1.701    0.412
       426  -8.5591    166.8485     79.7092   9.0737693086e+01   3.2463053822e+01     0.265326    0.2137105 -23.92 0.0006442437    1.341    0.254
       427  -8.7609     64.4354     63.7787   1.1461494039e+02   5.6818163208e+01    0.5814921    0.2820654 -27.08  0.002122506    3.499    0.714
       428  -9.2333     65.4709     77.9793   1.1842559968e+02   5.3671709362e+01    0.3030193    0.2121503 -59.49  0.001439824    1.378    0.274
       429  -9.8190     63.3942     73.6382   1.1791881493e+02   5.4894092956e+01    0.4772097    0.2475704 -62.07   0.00133654    2.171    0.539
       430  -7.6718    184.4149     78.4715   8.6821599669e+01   2.8233283570e+01    0.1533157    0.1489686 -62.83 0.0001173434    1.019    0.019
       431  -8.1286     49.0215     78.4623   1.2414515395e+02   5.5630410877e+01    0.1732897    0.1078213 -11.36 0.0008089621    2.531    0.605
       432  -8.0726    157.1565     76.2695   9.1830041655e+01   3.5510408779e+01     0.217838    0.1792524 -64.90 0.0005888563    1.357    0.263
       433  -8.7535    140.3799     75.2795   9.5470708425e+01   3.9785242147e+01     0.285825    0.2197471 -68.80 0.0007493929    1.601    0.375
       434  -9.3346    127.9883     75.3363   9.8648811778e+01   4.2655223854e+01    0.3570549    0.2744314 -63.59 0.0007959643    1.537    0.350
       435  -8.3317    163.5033     73.3016   8.9540478130e+01   3.4448073173e+01     0.291905    0.1453952 -41.40 0.0009189745    2.005    0.501
       436  -9.8066     82.6046     71.5532   1.1085929154e+02   5.2422798713e+01    0.8359992    0.3567445 -43.06  0.003195684    2.207    0.547
       437  -8.3346    151.4795     73.4991   9.2272692681e+01   3.7419386725e+01    0.1535821    0.1521819  77.50 -3.094908e-05    1.009    0.009
       438  -8.5004    115.8160     73.1442   1.0126841764e+02   4.5758959415e+01    0.2274975    0.2028526 -74.06 0.0005885672    1.274    0.215
       439  -9.2855    105.9422     72.0257   1.0375361339e+02   4.8025581650e+01     0.323208     0.203922 -51.29 0.0005414637    1.665    0.399
       440  -8.3482     42.4182     72.4365   1.2494484110e+02   5.7666945472e+01    0.3128444    0.1172043 -63.60  0.001219083    2.820    0.645
       441  -7.7839    175.4926     72.5247   8.6835036943e+01   3.1529901693e+01    0.1542889     0.150938 -88.14 5.618736e-05    1.010    0.010
       442  -9.2173     95.1562     71.1107   1.0672540378e+02   5.0296746963e+01     0.378685    0.2314993 -58.32 0.0008531396    1.964    0.491
       443  -7.6621    170.6595     71.3256   8.7450163729e+01   3.2971520247e+01    0.1647452    0.1204827 -72.84  0.000705129    1.730    0.422
       444  -9.4996     51.3958     69.6307   1.2099596736e+02   5.7277391331e+01    0.4043579    0.2216771 -68.93   0.00142724    2.337    0.572
       445  -8.6971     28.4802     70.9980   1.2959983236e+02   5.9283317117e+01    0.2686931    0.1566509 -32.20  0.001078695    1.920    0.479
       446  -8.3503     31.6923     68.6245   1.2787440897e+02   5.9523087426e+01    0.2154919    0.1414685 -40.54 0.0009756218    1.406    0.289
       447  -8.9137     16.6920     70.3766   1.3371305389e+02   6.0305166750e+01    0.2665956    0.1614166 -77.94 0.0009519325    1.664    0.399
       448  -8.2317    156.8744     69.8507   8.9926475283e+01   3.6724822887e+01    0.2144422    0.1816848 -69.65 0.0004034744    1.318    0.242
       449  -8.9062    147.1777     68.3725   9.1667339270e+01   3.9397452278e+01    0.3416955    0.2356669 -49.60 0.0009799954    1.548    0.354
       450  -8.8792    138.7214     66.2024   9.2995709653e+01   4.1839943015e+01    0.3551137    0.2183745 -54.57 0.0009172109    1.959    0.490
       451  -8.8861    121.5942     66.1367   9.7394856946e+01   4.5828354777e+01    0.3180635    0.2379539 -63.90 0.0008932529    1.666    0.400
       452  -8.9308    110.1444     63.8664   9.9844639036e+01   4.8731218453e+01    0.3565947    0.2209439 -48.34 0.0008719179    1.697    0.411
       453  -8.7201     37.0559     64.4415   1.2482802621e+02   5.9924528576e+01    0.2347294    0.1615581 -72.32 0.0008334128    1.610    0.379
       454  -8.7840    192.1533     63.6557   8.1157669955e+01   2.8692872452e+01    0.2534083     0.215193 -24.22  0.000370254    1.247    0.198
       455  -7.2117    187.3396     63.6793   8.2006041465e+01   2.9933784401e+01    0.1632691    0.1156017 -69.68 0.0003088537    1.716    0.417
       456  -8.1521    158.1375     62.1203   8.7232118634e+01   3.7724772610e+01    0.2097798    0.1777402 -65.21   0.00033197    1.294    0.227
       457  -9.2370     97.7546     60.6795   1.0246611444e+02   5.1833032565e+01    0.3012508     0.244473  59.13 0.0008706668    1.437    0.304
       458  -9.6252     73.3262     59.5415   1.1011381413e+02   5.6346658634e+01    0.3814419    0.2259672 -53.91 0.0009893981    1.790    0.441
       459  -7.6372    164.3354     60.2814   8.5358852553e+01   3.6439307863e+01    0.1584581    0.1170259  27.94 0.0004917564    1.617    0.382
       460  -8.1113     88.9785     59.6903   1.0490428859e+02   5.3668869992e+01    0.2528881    0.1696998 -52.69 0.0006800557    1.622    0.383
       461  -8.3758    147.0775     59.3045   8.8770613765e+01   4.0980964781e+01    0.2120084     0.198776  66.02 0.0004482411    1.076    0.071
       462  -8.9825    130.8472     57.8205   9.2175855956e+01   4.5177069028e+01    0.3270341    0.2060283 -40.09 0.0007772151    1.600    0.375
       463  -9.8852     23.3952     56.5432   1.2799367911e+02   6.2776507033e+01    0.4236654    0.2570181 -85.58  0.002170614    2.515    0.602
       464  -9.5583      7.3987     57.2291   1.3443432313e+02   6.3683541461e+01    0.2664917    0.1799475 -87.28  0.001118034    1.712    0.416
       465  -8.3432    140.0257     56.3125   8.9419295866e+01   4.3219888749e+01    0.2688045    0.2026174 -60.06 0.0004990005    1.569    0.363
       466  -9.2815    119.0251     55.4456   9.4456659669e+01   4.8308761687e+01    0.4738282    0.2147259 -43.92   0.00136795    2.315    0.568
       467  -9.6120     54.3252     55.6397   1.1570983224e+02   5.9816220243e+01    0.3403303    0.2244322 -62.49  0.001075784    1.769    0.435
       468  -8.7726     44.0410     55.5518   1.1961326998e+02   6.1052356489e+01    0.2367072    0.1628502 -64.75 0.0008627488    1.617    0.382
       469  -8.6143    105.8541     53.3866   9.7454597269e+01   5.1520066217e+01    0.2660773    0.1924357 -52.94    0.0007442    1.592    0.372
       470  -9.5373     92.3585     50.6218   1.0059144129e+02   5.4701260242e+01    0.4449402    0.2309693 -48.55  0.001311826    2.157    0.536
       471  -9.6786    247.4183     49.9692   6.9829968088e+01   1.7055881537e+01    0.2361187    0.2225025 -57.27 0.0003027307    1.079    0.073
       472  -8.3155    144.5880     49.0285   8.5911466739e+01   4.3250112764e+01     0.224143     0.147463 -30.64 0.0006510303    1.568    0.362
       473  -8.4519    129.8680     49.1644   8.9429516325e+01   4.6833273954e+01    0.2229601    0.2024876 -71.88 0.0005389699    1.249    0.199
       474  -8.9707    120.9993     47.3600   9.1054591176e+01   4.9196990471e+01    0.3003595    0.2089553 -31.14 0.0004774893    1.450    0.310
       475  -8.4398    112.3471     47.0095   9.3273155137e+01   5.1199302813e+01    0.2377803    0.2029605 -80.49 0.0005522663    1.509    0.337
       476  -9.0610     82.1198     46.4987   1.0242802611e+02   5.7306619910e+01    0.2898424    0.2213546 -45.29 0.0006589324    1.355    0.262
       477  -7.8167    150.4946     45.4768   8.3430444554e+01   4.2290457994e+01    0.1501602     0.143697  45.12 0.0001440492    1.021    0.020
       478  -8.4937     44.9362     44.7370   1.1569454149e+02   6.3080532899e+01    0.2354514    0.1608437 -52.65 0.0006013743    1.428    0.300
       479  -8.9221     16.4686     44.6635   1.2760434929e+02   6.5712044739e+01    0.2419457    0.1681977 -72.21 0.0009197451    1.602    0.376
       480  -8.8778    133.1127     43.6143   8.6678647656e+01   4.6906283279e+01    0.2992552    0.2148964 -58.62 0.0008445587    1.721    0.419
       481  -8.8176     58.1811     42.6266   1.0966505944e+02   6.1785131600e+01    0.3092567    0.1931823 -59.91  0.001148563    2.211    0.548
       482  -8.3608     92.4083     42.7635   9.7617892805e+01   5.6027832445e+01    0.1996419    0.1266664 -24.07 0.0006661882    1.652    0.395
       483  -9.3255     69.6831     41.1219   1.0474991440e+02   6.0333267659e+01    0.5047512    0.2570087 -41.98  0.002106227    1.843    0.457
       484  -9.4553      5.2559     42.2013   1.3176291175e+02   6.6886586823e+01     0.272918     0.172229 -80.08  0.001233274    1.904    0.475
       485  -8.9144    105.9685     41.4207   9.2991518898e+01   5.3470109762e+01    0.2607277    0.1889605 -47.21 0.0005922774    1.545    0.353
       486  -8.7268     36.7795     40.9236   1.1773447379e+02   6.4698131243e+01    0.2551371    0.1489238 -55.92 0.0007741514    1.720    0.419
       487  -7.8507    140.4310     41.5033   8.4249393127e+01   4.5412039498e+01    0.1473286    0.1409195  33.49 0.0001094695    1.021    0.020
       488  -8.8321     95.4132     38.0105   9.4819581194e+01   5.6190739184e+01    0.2803155    0.1946874 -48.96  0.001036127    1.693    0.410
       489  -8.2375     80.5793     36.7997   9.9165902587e+01   5.9206136183e+01    0.1829435    0.1203265 -44.23  0.000466695    1.619    0.382
       490  -9.5504     26.2039     35.4642   1.2041752476e+02   6.6738961030e+01    0.3219718    0.1997987 -60.23 0.0009697058    1.733    0.423
       491  -8.0881    125.9087     35.3877   8.5421895179e+01   4.9828540945e+01    0.2040526    0.1742686  41.48 0.0005013493    1.114    0.103
       492  -8.4373    218.6241    248.1315   1.1606773003e+02  -5.7692151063e+00    0.1919617    0.1364691 -44.53  0.001290383    2.054    0.513
       493  -9.0691     48.5357     33.5784   1.1001855179e+02   6.4675968080e+01    0.2150347    0.1940803 -32.45 0.0006609124    1.198    0.165
       494  -8.4172    119.1873     33.2197   8.6271791075e+01   5.1713015240e+01    0.1906949    0.1671817 -58.15 0.0004865614    1.332    0.249
       495  -8.7198     60.6088     32.6280   1.0476137452e+02   6.3166366252e+01    0.2039687    0.1848076 -33.54 0.0005246149    1.223    0.182
       496  -8.7976     72.0731     31.0152   9.9771625896e+01   6.1600107937e+01    0.2487893    0.1746908 -40.86 0.0006666219    1.469    0.319
       497  -7.5675    139.2599     31.6475   8.1017142213e+01   4.7055748367e+01    0.1464584    0.1092516 -59.76 0.0004239825    1.611    0.379
       498  -9.1443     12.8968     30.6035   1.2486392460e+02   6.8686479330e+01    0.2476319    0.1477967 -62.28  0.001364809    1.702    0.413
       499  -8.3257     41.9768     30.2838   1.1147135468e+02   6.6051054108e+01    0.1680757    0.1412883 -16.00 0.0005206104    1.061    0.058
       500  -9.3587    143.0281     28.2336   7.9017215959e+01   4.6537058142e+01    0.3860115    0.2581918  31.65  0.001328069    1.669    0.401
       501  -8.2084    101.4287     29.2263   8.9494783269e+01   5.6225352361e+01    0.1871094    0.1244624 -40.38 0.0005893926    1.622    0.383
       502  -8.8404     81.5596     27.7993   9.5089038354e+01   6.0396946349e+01    0.2751154    0.2123012 -61.20 0.0007664942    1.918    0.479
       503  -8.9220      3.4230     27.5653   1.2840760350e+02   6.9831419710e+01    0.2056247    0.1660263 -74.11 0.0007951934    1.503    0.335
       504  -8.3278     88.5144     34.5303   9.5604155421e+01   5.8083377900e+01    0.1358356    0.1239896  -0.94 7.686739e-05    1.026    0.025
       505  -8.9459     91.8591     26.3658   9.1160458052e+01   5.8601358522e+01    0.2827131    0.1728815 -43.00 0.0005308434    1.858    0.462
       506  -7.9984    104.3862     23.1295   8.6165438354e+01   5.6384169751e+01    0.1877618    0.1210908 -38.16 0.0007813603    1.668    0.401
       507  -8.1584     34.7840     23.1769   1.1170962993e+02   6.8073541495e+01    0.1692531    0.1331923  84.83 0.0009437714    2.805    0.643
       508  -8.8768     63.6188     21.1003   9.8565479392e+01   6.4473661662e+01    0.2709204    0.1976773 -51.90 0.0008646885    1.896    0.473
       509  -8.9322     48.4855     21.7465   1.0499078122e+02   6.6623681249e+01    0.2219539    0.1784128 -37.91 0.0006836045    1.316    0.240
       510  -8.2819     19.8892     21.5979   1.1815267038e+02   6.9787470174e+01    0.1865397    0.1170659 -48.83 0.0007959811    1.428    0.300
       511  -8.3903     12.3570     21.0750   1.2170170781e+02   7.0464915159e+01    0.2322144    0.1594566  60.00  0.001153467    3.007    0.667
       512  -7.5847    120.6814     21.3132   8.1305316696e+01   5.2874824862e+01     0.138526    0.1087408 -67.16 0.0006781859    1.648    0.393
       513  -8.9145     74.0388     19.5111   9.4016318577e+01   6.2918075327e+01    0.2710173     0.184063 -47.32 0.0008635828    1.896    0.472
       514  -8.1803     88.0456     17.6858   8.8580702660e+01   6.0489422002e+01     0.218041    0.1666648 -31.46 0.0005953673    1.367    0.268
       515  -8.0318     38.8248     18.5876   1.0781495186e+02   6.8348072368e+01    0.1448049    0.1096526  37.71 0.0005743426    1.643    0.391
       516  -7.8974    112.8454     16.8649   8.1407098848e+01   5.5217783791e+01    0.1757946    0.1611128 -56.71 0.0003801883    1.292    0.226
       517  -8.2361     29.9594     16.1570   1.1086490111e+02   6.9734460661e+01    0.1641785    0.1445038 -33.32 0.0006914387    1.313    0.239
       518  -8.5738      7.6978     15.5485   1.2193461373e+02   7.1753611241e+01    0.1657586    0.1239351 -64.52 0.0005691028    1.698    0.411
       519  -9.1711    175.8043    247.7202   1.2337136506e+02   1.0121164744e+00    0.2954819    0.2068706  68.03  0.001054568    2.010    0.502
       520  -8.5686    156.4463    248.3539   1.2684955226e+02   4.0407587494e+00    0.2782244    0.1555156  57.97  0.001338257    1.931    0.482
       521  -7.9924    113.3181    248.7835   1.3446946891e+02   1.0738291221e+01    0.1860839    0.1000105 -75.60 0.0008707285    2.573    0.611
       522  -9.2394    103.9803    246.9578   1.3592344090e+02   1.2420199194e+01     0.376576    0.1896695 -84.62  0.001851812    3.124    0.680
       523  -8.6712     60.4120    249.1844   1.4348785343e+02   1.8082799622e+01    0.1718081   0.09277823  52.15 0.0004472317    1.358    0.264
       524  -8.9285    243.1166    246.7827   1.1182355233e+02  -9.2434404594e+00    0.2728915    0.1498977 -24.10  0.001731941    2.024    0.506
       525  -9.1471    232.7952    246.9007   1.1352890341e+02  -7.7578703601e+00    0.2580843    0.1700782 -26.99  0.001224317    1.762    0.433
       526  -9.3232    210.8032    246.6032   1.1717005388e+02  -4.3996050235e+00     0.213062     0.183035 -55.67 0.0007344885    1.816    0.449
       527  -8.4447    132.1103    247.8692   1.3108310979e+02   7.9791253576e+00    0.2106377      0.13888  69.14 0.0006976591    1.685    0.407
       528 -10.0335    224.0294    244.3175   1.1460292195e+02  -6.1735999678e+00    0.3883888    0.2296036 -44.99  0.002195183    2.545    0.607
       529  -9.2839    147.4689    246.5323   1.2822005508e+02   5.7356197266e+00    0.3056056    0.1575104  61.03  0.001542526    2.432    0.589
       530  -9.0840    120.2755    245.4348   1.3291607437e+02   1.0189496624e+01    0.3309716    0.1843973  71.04  0.001751959    2.334    0.572
       531  -8.3532     67.6831    245.4336   1.4202141653e+02   1.7760416095e+01    0.2057776    0.1091292  87.18  0.001121046    2.005    0.501
       532  -8.1932    139.9695    244.9695   1.2937190347e+02   7.1616874899e+00    0.2321159    0.1168471  68.88   0.00094692    4.034    0.752
