#   1 NUMBER                 Running object number                                     
#   2 MAG_AUTO               Kron-like elliptical aperture magnitude                    [mag]
#   3 X_IMAGE                Object position along x                                    [pixel]
#   4 Y_IMAGE                Object position along y                                    [pixel]
#   5 X_WORLD                Barycenter position along world x axis                     [deg]
#   6 Y_WORLD                Barycenter position along world y axis                     [deg]
#   7 A_WORLD                Profile RMS along major axis (world units)                 [deg]
#   8 B_WORLD                Profile RMS along minor axis (world units)                 [deg]
#   9 THETA_WORLD            Position angle (CCW/world-x)                               [deg]
#  10 FWHM_WORLD             FWHM assuming a gaussian core                              [deg]
#  11 ELONGATION             A_IMAGE/B_IMAGE                                           
#  12 ELLIPTICITY            1 - B_IMAGE/A_IMAGE                                       
         1 -11.6451     31.0382     15.5509   6.2615872590e+01   6.9168553660e+01    0.3242847    0.1311582 -37.55   0.00150486    2.044    0.511
         2 -11.0614    214.3294     10.7679   1.4473255499e+01   3.0079580121e+01    0.2345961    0.1659484 -89.85 0.0006537199    1.326    0.246
         3 -10.6810     79.0576      7.8898   3.9337177481e+01   6.3172368160e+01    0.2107284    0.1856922  44.87 0.0008591463    1.323    0.244
         4 -11.2371     84.0060      8.4637   3.7995089632e+01   6.2168392023e+01    0.2393295    0.1444679  40.63 0.0007640064    1.485    0.327
         5 -10.4389     54.3252     11.1212   5.0099547167e+01   6.6918388747e+01    0.2169051    0.1461046  18.39  0.001316649    1.394    0.283
         6 -11.9900     42.2689     10.6691   5.5113368429e+01   6.8616537723e+01    0.3868651    0.1403645  42.02  0.001709265    3.505    0.715
         7 -11.8542     19.8972      4.7606   6.3193743787e+01   7.1874306090e+01    0.1839027    0.1521228  25.77  0.001381318    1.618    0.382
         8 -10.4630      4.3275      5.6699   7.2032294776e+01   7.2904662619e+01   0.08843129   0.08346926 -68.58 0.0007051164    1.709    0.415
         9 -10.5544     88.2068      4.3856   3.4852168177e+01   6.1756623252e+01    0.1717459    0.1187856  60.46 0.0007392321    1.671    0.402
        10 -10.2027    101.5020      2.5089   3.0337972386e+01   5.9143125727e+01    0.1333307    0.1121229  30.73 -0.0002529826    1.008    0.008
        11 -10.9671    108.9581    238.2839   8.6210144108e+01   1.2230492364e+01    0.3274909    0.1605861 -52.90  0.001758173    2.609    0.617
        12 -10.4984     93.2517    248.9174   9.0004805946e+01   1.2824196843e+01    0.1792637     0.122806 -73.70 0.0006207239    1.649    0.394
        13 -10.2419     84.9718    250.6521   9.1571179823e+01   1.3723778280e+01    0.2569745   0.08550498  41.24    0.0012354    2.503    0.600
        14 -13.6501     32.6364    206.5874   9.7500165942e+01   2.8400142818e+01    0.7121962    0.4653612  85.70  0.002359762    1.222    0.182
        15 -13.9925     65.8219    243.9145   9.4305880963e+01   1.7463377817e+01    0.7647936    0.4510841  74.55  0.002718153    1.497    0.332
        16 -15.4120     54.8615    229.6541   9.5156601385e+01   2.1397022487e+01     2.351981      1.04073  62.04   0.01302372    1.970    0.492
        17 -15.8188     93.4117    191.1327   8.3912915363e+01   2.3531371787e+01     2.463112     1.438079 -75.32   0.01263773    1.849    0.459
        18 -14.0086     39.0071    246.7384   9.8891934201e+01   2.0307245078e+01    0.7488783    0.4253018  46.94  0.003856395    1.506    0.336
        19 -15.8771     69.4163    208.2796   9.0696606264e+01   2.3550782152e+01     4.522937    0.8273025  51.18   0.01378573    5.580    0.821
        20 -11.1661    209.0318    237.7809   6.7687909802e+01  -4.2343588764e+00    0.3748292    0.1460199  31.64  0.001127032    2.571    0.611
        21 -11.2697     83.5604    227.3023   8.9802626557e+01   1.7954479095e+01    0.4301637    0.2155939  71.60  0.001907372    2.299    0.565
        22 -11.0401     91.0303    236.5376   8.9293476767e+01   1.5230207303e+01    0.2665625     0.196173  60.92  0.001347541    1.035    0.034
        23 -11.1558     88.4350    230.9778   8.9248976530e+01   1.6586538571e+01    0.4232028     0.194765 -67.67  0.002260256    2.403    0.584
        24 -11.0128    214.3826    233.2885   6.6027630836e+01  -4.5444778860e+00    0.2207484    0.1631642  16.64 0.0002113231    1.236    0.191
        25 -11.1975    114.0090    233.0307   8.4724592172e+01   1.2327498171e+01    0.2334895    0.1658738  85.54 0.0003367794    1.558    0.358
        26 -10.6897    113.2346    228.0201   8.4318235791e+01   1.3314807002e+01    0.2312544    0.2061234 -83.25  0.001108503    1.276    0.216
        27 -10.5610     97.9431    233.5334   8.7750563002e+01   1.4725313539e+01    0.2059562    0.1512446  85.57 0.0006394003    1.362    0.266
        28 -10.1761    180.7679    232.8112   7.2134000785e+01   1.1659923440e+00    0.1670088     0.131713  54.74  0.001057587    1.336    0.251
        29 -16.6775     68.2443    187.8908   8.8863496654e+01   2.7885812044e+01     2.883552     2.424863  76.05   0.01925099    1.059    0.056
        30 -11.9686    220.1649    230.9807   6.4620518365e+01  -5.1983672159e+00    0.2473055    0.1998391  27.29 0.0004510503    1.082    0.076
        31 -10.3909    131.1721    232.3991   8.1431002924e+01   9.6538232059e+00    0.2437484    0.1010424  39.85  0.001130043    2.088    0.521
        32 -11.1895    192.0058    225.9885   6.9002744896e+01   2.0152841966e-01    0.2184359    0.1720269 -83.20  0.001258243    2.156    0.536
        33 -10.3948     77.8372    228.8566   9.0991709465e+01   1.8484960309e+01    0.1652592    0.1339459  60.57 0.0006035789    1.145    0.127
        34 -15.5225     20.3931    214.3097   1.0015194131e+02   2.8201595385e+01       1.8716    0.7856352  88.00  0.009224103    2.150    0.535
        35 -11.4371    214.8356    226.4454   6.4849811608e+01  -3.7451464735e+00    0.2089861    0.1777231  47.92 0.0006446628    1.396    0.284
        36 -11.6486    125.6088    221.9024   8.1218885814e+01   1.2365329065e+01    0.3305717    0.2299163 -65.74  0.001785101    1.677    0.404
        37 -16.8331     27.2295    235.8337   1.0018751826e+02   2.3529259985e+01     1.982037     1.343543  68.03   0.01535889    1.033    0.032
        38  -9.9462     95.0352    227.5691   8.7697616179e+01   1.6217882691e+01    0.1788184   0.09754199  45.20 0.0005921467    1.526    0.345
        39 -10.3666     54.4991    250.5172   9.6628031219e+01   1.7798948760e+01    0.2242033   0.08598449  41.03  0.001176605    2.275    0.561
        40 -10.7608    159.9387    221.7274   7.4500340889e+01   6.4739108891e+00    0.2706725    0.1762143  26.66 0.0009313563    1.724    0.420
        41 -11.2608    223.1899    220.2833   6.2307509900e+01  -4.3366492922e+00    0.2387693    0.1913846  43.58 0.0004376203    1.363    0.267
        42 -11.0472    189.0126    220.5121   6.8710041161e+01   1.5158243052e+00    0.2076953    0.1075011  42.08  0.001036099    1.605    0.377
        43 -11.9264    118.0305    215.6576   8.1932730781e+01   1.4745931014e+01     0.450867     0.216828 -66.19  0.002128933    2.594    0.614
        44 -15.7225      8.9311    227.4790   1.0271381048e+02   2.6909225677e+01     1.089188    0.7097377  77.16  0.008236558    1.076    0.071
        45 -10.1080    207.4974    218.4886   6.4892549389e+01  -1.4291128977e+00    0.1298933    0.1050029  26.22 -0.0001106793    1.019    0.019
        46 -11.3188    173.6470    219.9286   7.1572416814e+01   4.3290616090e+00    0.2514236    0.2010775 -65.68   0.00106828    1.672    0.402
        47 -11.1768    184.1427    213.8558   6.8580888371e+01   3.3896594855e+00    0.1931277    0.1617188  48.69 0.0003506866    1.185    0.156
        48 -11.8598    124.8406    212.4228   8.0161558357e+01   1.4195623029e+01    0.4105703    0.3055117  80.71  0.002409162    1.479    0.324
        49 -10.3418    103.0300    213.9798   8.4700670147e+01   1.7487052071e+01    0.1673945    0.1482821  22.31 0.0003768872    1.537    0.349
        50 -11.2271    142.3227    211.9949   7.6588947430e+01   1.1236119237e+01    0.2344142      0.15927  52.00 0.0009631562    1.283    0.220
        51 -11.7075    138.9117    209.8008   7.6964752280e+01   1.2230874180e+01    0.5164067    0.3743022  -6.31  0.002564468    2.533    0.605
        52  -9.6729    247.3069    212.7008   5.6699403776e+01  -7.3010472123e+00    0.1036448   0.09782942  48.86 0.0002791188    1.593    0.372
        53 -10.7652    210.1134    211.6995   6.3251013615e+01  -9.3105462244e-01    0.2041104    0.1485139  49.19 0.0008418432    1.466    0.318
        54 -11.7347    154.0787    210.8309   7.4055798343e+01   9.3364131610e+00    0.3369216    0.2928552  12.93  0.002079771    1.360    0.265
        55 -11.5671    228.7045    208.1690   5.9190754840e+01  -3.6621082045e+00    0.2852376    0.2478175 -11.67  0.001881307    1.218    0.179
        56  -9.8199    160.2999    206.6527   7.2159722089e+01   8.9234566016e+00    0.1335138   0.09933805  72.49 0.0007037341    1.684    0.406
        57 -10.7054    123.9499    205.7352   7.9448155111e+01   1.5592766831e+01     0.207782    0.1845464 -82.22  0.000633111    1.210    0.173
        58 -13.5989    146.3387    202.4675   7.4362444513e+01   1.2225666104e+01    0.7835857    0.4636849  59.82   0.00376081    1.874    0.466
        59 -12.7852    124.3947    195.8218   7.7958759205e+01   1.7425587986e+01    0.4941824    0.3798094 -33.07  0.002721619    1.812    0.448
        60 -12.1176    134.8855    198.6455   7.6165169038e+01   1.5014202513e+01     0.324292    0.2048606  55.48  0.001370739    1.493    0.330
        61 -14.7332     87.8057    204.6629   8.6683394760e+01   2.1638083565e+01     1.326892    0.8361526  83.43  0.007380628    1.686    0.407
        62 -10.7131    245.1224    197.8171   5.4343176276e+01  -5.0438464361e+00    0.2130203    0.1795017   9.39 0.0004190792    1.060    0.057
        63 -11.4508    194.0355    193.4844   6.3116784795e+01   4.7978004191e+00    0.3431975    0.2225672  29.08  0.001148318    1.519    0.342
        64 -11.2350    225.0063    199.3264   5.8253791043e+01  -1.7967500980e+00    0.2489245    0.2456441  88.11  0.001652016    1.418    0.295
        65  -9.8547    172.7001    195.3188   6.7756940023e+01   8.5653662239e+00    0.1340796    0.1053319  73.20 0.0003872949    1.620    0.383
        66 -10.2516    212.3815    200.1706   6.0774970386e+01   3.4049098006e-01    0.1694562    0.1246446 -45.75 0.0008098311    1.691    0.409
        67 -10.5496    212.4812    193.4403   5.9509067326e+01   1.3367444581e+00    0.2240916    0.1255192 -48.87  0.001029954    2.384    0.581
        68 -10.9434    163.7343    193.1190   6.9230846855e+01   1.0670161640e+01    0.2537385    0.1699372  50.69   0.00099313    1.392    0.282
        69 -11.3130    111.6581    192.1548   8.0148476809e+01   2.0354476856e+01    0.2536719    0.2343627  80.21 0.0004722761    1.120    0.107
        70 -11.5620    110.4692    188.0035   7.9817354410e+01   2.1405459860e+01    0.2631767    0.2292071 -84.55 0.0005336025    1.149    0.129
        71 -12.6704    190.0313    195.1754   6.4222196129e+01   5.2823055424e+00    0.4900088     0.400413  27.38  0.002847563    1.121    0.108
        72  -9.9862    121.4827    200.4887   7.9235662074e+01   1.7021699853e+01    0.1919507    0.1095324  51.27 0.0007415988    1.550    0.355
        73 -12.1344      7.5217    187.0213   1.0088571416e+02   3.4788645894e+01    0.5200406    0.2989187  70.71  0.002680721    1.381    0.276
        74 -11.6898     10.8460    183.5842   1.0005176335e+02   3.5197130882e+01    0.3076187    0.2231991  65.81  0.001470817    1.185    0.156
        75 -11.1978     17.4118    187.4986   9.9053756074e+01   3.3793094115e+01    0.3902779    0.1777053 -68.98  0.002268409    1.935    0.483
        76 -10.0764    220.0061    187.6855   5.6979154626e+01   8.2081081212e-01    0.1920447    0.1577161  25.54 0.0004996844    1.072    0.067
        77 -10.9509    123.7202    187.7668   7.6901165207e+01   1.9151511694e+01    0.2771337    0.1942327  63.92 0.0009263752    1.438    0.304
        78 -11.3140    135.8259    187.1812   7.4179316355e+01   1.7070411839e+01    0.1862496    0.1667689  16.14 0.0006546245    1.345    0.256
        79 -10.7301    248.3833    185.9393   5.1481565866e+01  -3.9863405490e+00    0.2462831    0.1761445  33.50 0.0005795605    1.312    0.238
        80 -12.2763    128.8440    184.6290   7.5291562341e+01   1.8864487685e+01    0.4088681    0.2826543  33.43   0.00159289    1.555    0.357
        81 -10.4167      2.1216    182.8281   1.0165117549e+02   3.6096596200e+01    0.1588507    0.1045499  71.58  0.000382468    1.179    0.152
        82 -11.2986    145.2028    182.4295   7.1344450269e+01   1.6245962021e+01    0.3468941    0.1130756  49.68  0.001066279    3.171    0.685
        83 -11.5344     23.2772    177.3098   9.7176763374e+01   3.5356360439e+01    0.6195732    0.2298729  85.61  0.002644696    3.214    0.689
        84 -11.0781     17.5500    179.7779   9.8500337515e+01   3.5378228899e+01    0.2280089    0.1484718 -72.67 0.0009015144    1.391    0.281
        85 -12.1467    190.8985    178.9211   6.0990974894e+01   7.8712024042e+00    0.3897666    0.2670873   6.15  0.001800085    2.022    0.505
        86 -11.6119     42.7983    179.1139   9.3316089586e+01   3.2928721356e+01    0.2989737    0.2441238 -21.60  0.001907255    2.091    0.522
        87 -11.4935     45.8624    176.0385   9.2375316831e+01   3.3243454007e+01    0.4022991    0.1808221  58.54  0.001973852    2.215    0.549
        88 -11.7241     46.9553    170.5938   9.1590398246e+01   3.4307948557e+01    0.3491861    0.2460723 -46.97  0.001380269    1.865    0.464
        89 -11.4220    154.8924    177.8670   6.8417954576e+01   1.5259667423e+01    0.2247451    0.1940741  17.14  0.001231798    1.313    0.238
        90 -10.4328    164.6674    177.3079   6.6193142521e+01   1.3425567402e+01    0.1453685    0.1108432  74.64 0.0001946086    1.668    0.400
        91 -12.2245    137.6490    176.9017   7.2054532127e+01   1.8798503184e+01    0.3250124    0.1952216  50.29  0.001320984    1.555    0.357
        92 -11.6083     53.7078    246.2562   9.6485584069e+01   1.8616453516e+01    0.5053816    0.3000764  56.66   0.00331514    1.236    0.191
        93 -11.0767    101.0366    176.0004   8.0162617231e+01   2.5521948171e+01    0.1964213    0.1710035  75.18 -0.003769674    1.018    0.017
        94 -12.1070    152.5692    168.5415   6.7187481281e+01   1.7577937490e+01    0.5229193    0.1453821 -48.25  0.001615273    3.884    0.743
        95 -10.4556      2.2561    170.7305   1.0091316754e+02   3.8576212452e+01    0.1970477    0.1261506 -50.25  0.001093373    2.086    0.521
        96 -12.1499     51.6362    166.7212   9.0137504469e+01   3.4617235014e+01    0.6010439    0.2050447  47.98  0.002588562    2.785    0.641
        97 -12.9591    130.5896    169.4032   7.2333995251e+01   2.1698956237e+01    0.4469523    0.3044714  33.91  0.001732721    1.579    0.366
        98 -13.4375    124.9021    168.8391   7.3543009823e+01   2.2884623601e+01    0.4940696    0.4293649  40.14  0.002781228    1.185    0.156
        99 -11.7065     82.1920    169.2888   8.3502742033e+01   2.9954248791e+01    0.3334399    0.2042457  46.99  0.000790238    1.551    0.355
       100 -15.5675     15.4190    238.0757   1.0216980272e+02   2.4384636334e+01    0.8507581    0.5178809 -85.73  0.006491208    1.427    0.299
       101 -10.7603     40.4765    168.5076   9.2794094562e+01   3.5493936503e+01    0.2627165    0.1018468 -72.14  0.001230952    2.240    0.553
       102 -11.5491    172.3764    166.9725   6.2512358887e+01   1.3836490275e+01    0.3720545    0.1818182 -47.18  0.001505821    2.239    0.553
       103 -11.5116     28.4114    166.2585   9.5194327298e+01   3.7235024546e+01    0.4240203    0.1718412  32.41  0.002132747    2.769    0.639
       104 -10.6837     11.0561    167.6671   9.8944887502e+01   3.8507290489e+01    0.2636029    0.1719681  46.61  0.001382913    1.570    0.363
       105 -10.0239     18.9620    166.9856   9.7258681488e+01   3.7965085115e+01    0.1628025    0.1215613 -54.77  0.001107597    1.627    0.385
       106 -11.2136    205.3688    165.0516   5.5241594098e+01   7.3592950707e+00    0.2520633    0.1873634  30.09 0.0004989526    1.307    0.235
       107 -12.1162     73.2638    163.1009   8.4724669422e+01   3.2632683430e+01    0.2801672    0.2446553 -82.95  0.001759745    1.090    0.083
       108 -10.4712     57.3672    163.5243   8.8467095223e+01   3.4636246711e+01    0.2366689    0.1233123  34.81  0.001190003    2.118    0.528
       109 -11.0059     35.9626    162.9838   9.3239781197e+01   3.7194528295e+01    0.1861774    0.1435771  84.11  0.000351796    1.049    0.047
       110 -11.7672     28.0551    160.1557   9.4716853217e+01   3.8610199303e+01    0.3125224    0.1976134 -86.80 0.0007890059    1.301    0.231
       111 -14.2382     21.6816    153.1841   9.5491210131e+01   4.0741175393e+01     1.088097    0.7864174  57.67  0.007379347    1.358    0.264
       112 -12.4142    170.7047    160.0925   6.1465398759e+01   1.5523416134e+01    0.4185081    0.3449797 -22.15   0.00215365    1.384    0.278
       113  -9.5294    224.7143    160.7414   5.0579011975e+01   4.1798994422e+00    0.1385166    0.1019227  11.63 0.0001912695    1.483    0.325
       114 -10.4732    209.9775    160.5580   5.3371131858e+01   7.1912065033e+00    0.2262208    0.1346353  42.52  0.001028651    1.606    0.377
       115 -11.8775     45.0455    159.3625   9.0811701959e+01   3.7026099148e+01    0.4786491    0.2320307  20.08  0.002089021    3.629    0.724
       116 -12.4858    127.0179    156.1605   7.0730023001e+01   2.5237959487e+01    0.4362379      0.29427  64.58 0.0002735694    1.682    0.405
       117 -12.1740    130.9283    155.8010   6.9727306932e+01   2.4561148465e+01    0.3466645    0.2781932  26.10 0.0004477412    1.450    0.310
       118 -13.2573    112.1283    156.6820   7.4409283897e+01   2.7883056701e+01    0.5239326    0.4073362  46.43  0.002783143    1.253    0.202
       119 -12.4129    100.8871    155.1145   7.6865780879e+01   3.0190689566e+01    0.4270239    0.2159876  49.28  0.001477464    1.960    0.490
       120 -10.6246      8.2855    156.3900   9.8695671882e+01   4.1152191771e+01    0.2624443    0.1103198  71.71 0.0008056746    2.495    0.599
       121 -11.8336     81.3890    155.9724   8.1757037960e+01   3.3085843699e+01    0.3040267    0.1917319  41.35 0.0009292188    1.614    0.380
       122 -10.7820    141.4483    154.9445   6.7066533946e+01   2.2657323025e+01    0.2218419    0.1474205 -51.74 0.0006424206    1.576    0.365
       123 -10.2521      2.7269    154.5293   9.9742855409e+01   4.1973647968e+01    0.2385024    0.1006971  89.13  0.000992913    2.063    0.515
       124 -11.3110    212.1400    153.9124   5.1498886994e+01   7.8943133838e+00    0.2148881    0.2058895 -77.50 0.0005529837    1.259    0.206
       125 -12.4806     84.8336    149.4839   7.9882543518e+01   3.4063189196e+01    0.5861921    0.2153807 -58.77  0.002277924    2.539    0.606
       126 -11.9328     80.9385    148.6900   8.0726057774e+01   3.4832856180e+01    0.3816187    0.2146413  77.66  0.001575467    2.607    0.616
       127 -11.7457     71.7186    153.7154   8.3771330312e+01   3.4990808575e+01     0.349669    0.2073234  43.04  0.001795894    1.698    0.411
       128 -10.3357     50.7792    154.2021   8.8871854920e+01   3.7542587444e+01     0.165597    0.1346872 -59.03 0.0005250531    1.322    0.244
       129 -10.8999     37.3600    154.4247   9.2039779320e+01   3.8964030055e+01    0.2473064    0.1553803  26.31  0.001419652    2.066    0.516
       130  -9.3209    232.2963    152.2649   4.7335059280e+01   4.0537486480e+00    0.1399942    0.1025436  10.88 0.0001908007    1.511    0.338
       131 -12.2578    126.5426    151.5226   6.9944735381e+01   2.6352673865e+01    0.3623497    0.2310963  48.01 0.0008068433    1.512    0.339
       132 -13.3910    102.1040    142.3491   7.4252427866e+01   3.2913224590e+01    0.7532698    0.4212181  52.01  0.001489502    1.868    0.465
       133 -11.5906     44.7804    150.6342   8.9866084470e+01   3.9035300226e+01    0.3083833    0.1720719 -72.97  0.001070006    1.541    0.351
       134 -11.5625    171.9890    150.7118   5.9175486064e+01   1.7107428452e+01    0.2235068    0.2028286  45.00  0.001184645    1.054    0.052
       135 -11.3073     60.3224    150.3063   8.6069132122e+01   3.7281921163e+01    0.2506004    0.1870609  79.72  0.001315686    1.269    0.212
       136 -10.3853    180.4956    150.4957   5.7263452104e+01   1.5303761277e+01     0.151101      0.14367  32.26 -0.0001664757    1.001    0.001
       137 -10.4864     53.0529    149.1464   8.7686548027e+01   3.8435449489e+01    0.2584787    0.1438793  82.12  0.001234468    2.096    0.523
       138 -10.7658    154.7830    149.1971   6.2750262536e+01   2.1111344102e+01    0.2072225    0.1794518  14.96 0.0004734236    1.323    0.244
       139 -11.2416     97.2928    149.0297   7.6693111318e+01   3.2184502693e+01    0.2056449    0.1754014 -76.35  0.001151827    1.112    0.101
       140 -11.4064     24.9170    144.9700   9.3949933055e+01   4.2291443858e+01    0.2367272    0.1933484 -82.37 0.0003355524    1.078    0.072
       141 -10.2576    224.0609    148.0487   4.7914847884e+01   6.4224396450e+00    0.2186177    0.1803374 -70.59 0.0007267282    1.687    0.407
       142 -10.7233    133.2926    148.3535   6.7671428447e+01   2.5727631674e+01    0.1484163    0.1204332 -10.83 0.0007030067    1.682    0.405
       143 -12.1051    147.2114    150.2763   6.4748578945e+01   2.2473228864e+01    0.3590643    0.2753078  68.31  0.001727869    1.474    0.321
       144 -13.2727    109.0610    148.4041   7.3642369056e+01   3.0303138610e+01    0.7651106    0.3518718 -48.21  0.002945774    2.286    0.563
       145 -12.5214     79.9646    142.2132   7.9904809945e+01   3.6486023357e+01    0.4945033    0.2752629  56.99  0.002258458    2.013    0.503
       146 -10.9436     50.5205    143.4948   8.7562759069e+01   4.0035470076e+01    0.1883654    0.1710275  44.57 0.0007619499    1.296    0.228
       147 -11.3023     54.3350    144.7151   8.6778776715e+01   3.9308033720e+01    0.2987964    0.1792875  67.42  0.001430699    1.831    0.454
       148 -10.6875     57.3453    143.3201   8.5831431840e+01   3.9270083697e+01    0.3419619    0.1808881  54.98  0.001604715    2.038    0.509
       149 -12.3889     37.4808    143.7059   9.0800564702e+01   4.1388741336e+01    0.4252749    0.2858959  -3.25  0.002270095    2.696    0.629
       150 -12.2148     93.4129    139.9068   7.6028003133e+01   3.4937886010e+01    0.5169954    0.2625111 -72.58 0.0008651046    2.565    0.610
       151 -11.8925     11.4785    141.1361   9.6725260927e+01   4.4252668174e+01    0.4111567    0.1853566  61.26  0.002009316    2.382    0.580
       152 -11.5836     12.6616    133.8310   9.5759541480e+01   4.5794285394e+01    0.4555858    0.2404669  85.09  0.002539827    1.793    0.442
       153 -12.4315    140.1761    140.1536   6.4254021343e+01   2.6125229051e+01    0.6250499     0.236586 -38.40  0.001900789    3.648    0.726
       154 -11.3317    133.9402    131.0000   6.3741407323e+01   2.9442874713e+01    0.3153848     0.208223  35.71  0.001010184    1.630    0.387
       155 -11.1903    138.0467    130.8177   6.2670418349e+01   2.8625020797e+01    0.3494949    0.2715179  56.54 0.0008732151    1.314    0.239
       156 -11.5005    140.2507    134.3934   6.2945771166e+01   2.7373043635e+01    0.3841508    0.2421443  48.74 0.0009991195    1.566    0.362
       157 -12.3433    143.8269    132.3744   6.1602401580e+01   2.7054873335e+01     0.396725    0.3269553  11.42  0.001098344    1.512    0.339
       158 -11.7549     88.3241    153.6219   7.9693759426e+01   3.2570494483e+01    0.2799797    0.2109197 -60.03  0.001465066    1.303    0.232
       159 -11.2972     30.6586    139.9359   9.2027016907e+01   4.2911834601e+01    0.2252661    0.1644536  53.88 0.0008216107    1.419    0.295
       160 -11.5390     36.9738    138.5086   9.0297651761e+01   4.2633006098e+01    0.2397875    0.1823065  -8.87  0.001432535    2.052    0.513
       161 -11.2256     40.5075    137.5529   8.9291018293e+01   4.2497419280e+01    0.2018334    0.1611132  37.01 0.0005242165    1.467    0.318
       162 -11.1979    159.5105    137.5166   5.9043499951e+01   2.2539876851e+01    0.3106814    0.1539852 -44.65  0.001029836    2.081    0.519
       163  -9.7866     51.1353    138.1836   8.6677795746e+01   4.1199531952e+01    0.1733396    0.1299041  82.65 0.0002720036    1.274    0.215
       164 -11.0891     53.1931    135.5750   8.5772750838e+01   4.1571542627e+01    0.3643638    0.1725519  48.93   0.00170441    2.265    0.558
       165  -9.9187    133.4526    135.4862   6.4878281060e+01   2.8544982952e+01     0.151503    0.1458293  79.07 0.0001151054    1.008    0.008
       166 -11.9078     61.7104    134.4941   8.3383417102e+01   4.0794365349e+01     0.423726    0.2157709  41.70  0.002037023    2.046    0.511
       167 -11.8644     36.4709    131.7662   8.9570154376e+01   4.4238810070e+01    0.3340084    0.2191721 -34.30  0.001844189    2.113    0.527
       168 -11.5826     20.9644    132.0911   9.3540964417e+01   4.5543110937e+01    0.2890237    0.1389328  57.14  0.001486964    2.316    0.568
       169 -12.2973    103.4487    132.9763   7.2051764242e+01   3.4853032637e+01    0.3461105    0.2769886  25.43  0.001781944    1.489    0.328
       170 -11.8109     30.5357    129.9093   9.0861383876e+01   4.5222642128e+01    0.3326973    0.1757783  77.80  0.001634605    2.244    0.554
       171 -12.8509    153.4881    129.7269   5.8636243839e+01   2.5519656131e+01    0.5626693    0.3118728  41.54  0.002257514    1.815    0.449
       172 -10.7173     92.1785    129.1330   7.4275061093e+01   3.7660866340e+01     0.201196    0.1636457  81.89 0.0007208048    1.307    0.235
       173 -11.3236     84.4333    128.7030   7.6283850174e+01   3.8988304547e+01    0.2735364    0.1320283 -63.73  0.000832398    2.084    0.520
       174 -11.8949     59.2989    126.8640   8.2787766295e+01   4.2889617266e+01    0.3443331    0.2301628 -64.02  0.001880437    1.308    0.236
       175 -10.7315     15.2748    127.1207   9.4426068252e+01   4.7111403919e+01    0.2208426    0.1785481 -59.39  0.001402805    1.272    0.214
       176 -12.7242    158.2058    128.5911   5.7240665541e+01   2.4708115224e+01    0.5231894    0.4253819 -72.05  0.002475948    1.446    0.308
       177 -11.0508    190.0367    121.9550   4.8479660884e+01   1.8701728793e+01    0.4075315    0.2709642 -87.99   0.00147953    2.869    0.651
       178 -11.2818     67.5070    122.4878   7.9762968644e+01   4.2876866458e+01    0.2671065      0.21119  87.59 0.0006713081    1.302    0.232
       179 -10.2914     49.1310    122.8819   8.4916591589e+01   4.5005519554e+01    0.2017848    0.1532608  81.24 0.0006262024    1.342    0.255
       180 -10.6941     11.0425    123.4159   9.5102790919e+01   4.8249888634e+01    0.2089546    0.1249575  49.15   0.00117376    1.829    0.453
       181 -10.7496    205.4978    121.5035   4.5225482934e+01   1.5188636515e+01    0.2608918    0.2461637 -26.70 0.0005548386    1.046    0.044
       182 -10.5152     36.3719    120.7316   8.8081772224e+01   4.6808267878e+01    0.2598106    0.2241154  67.90  0.001259804    1.224    0.183
       183 -10.9934     31.7371    119.4355   8.9160523035e+01   4.7533348763e+01    0.2673142    0.1983585  37.98  0.001021528    1.566    0.361
       184 -12.4392     54.4962    117.4937   8.2521875185e+01   4.5667285947e+01    0.5447925     0.342234  81.35  0.002686224    2.011    0.503
       185 -11.6390     49.5206    115.7092   8.3625962895e+01   4.6645387226e+01    0.3729874    0.3015622  -6.94  0.001798187    1.669    0.401
       186 -11.2502     23.5044    115.9367   9.0929793839e+01   4.9030288915e+01     0.520067    0.2517104 -82.98  0.002577827    2.042    0.510
       187 -12.0780    100.2783    119.5909   7.0038219886e+01   3.8523003029e+01    0.5826644    0.2852709  54.05   0.00164618    2.536    0.606
       188 -10.1408      1.8203    120.6392   9.7156224918e+01   4.9463065229e+01    0.1397595   0.09493545  46.72 0.0006462742    1.667    0.400
       189 -11.5041     42.2140    121.0480   8.6530129633e+01   4.6163647286e+01    0.4254069    0.2993491  -0.38  0.001993171    2.165    0.538
       190 -10.6651    155.4984    117.4770   5.5126565547e+01   2.7668262520e+01    0.2820716    0.1499214  58.00  0.000791715    2.234    0.552
       191  -9.5207      8.7373    116.6495   9.4970352122e+01   4.9925617976e+01    0.1190725   0.06738482 -54.76 0.0004783724    1.612    0.380
       192 -10.5964    105.3745    114.8228   6.7528352857e+01   3.8715743602e+01    0.2161379    0.1320259 -43.40 0.0009446864    1.670    0.401
       193 -10.9880     70.2849    114.9691   7.7536058122e+01   4.4276874185e+01    0.1985057    0.1579662 -60.52 0.0001675131    1.126    0.112
       194 -11.6066    191.7638    112.0645   4.5608415144e+01   2.0188151978e+01    0.4399284    0.3056119  15.57 0.0005776293    2.038    0.509
       195 -10.5354     64.4985    114.5034   7.9111918591e+01   4.5151456371e+01    0.1365373    0.1197416 -75.21 -9.759922e-05    1.048    0.046
       196 -10.4826    108.5123    112.5254   6.6105660355e+01   3.8663204366e+01    0.3153882    0.1431626 -50.65    0.0011998    2.127    0.530
       197 -10.3265     82.4822    113.5047   7.3717290620e+01   4.2860932871e+01    0.1417308    0.1298044 -61.95 0.0008102889    1.024    0.023
       198 -12.1467     56.9945    106.6950   7.9791616301e+01   4.7907498677e+01    0.3683036    0.2578009  73.31  0.001596614    1.771    0.435
       199 -11.8907     53.5170    110.9259   8.1625071817e+01   4.7321062416e+01    0.3281131    0.2481893 -73.40 0.0007285801    1.204    0.170
       200 -11.3680     50.2771    107.8252   8.2005393063e+01   4.8407504634e+01    0.2811677    0.1913274 -38.05  0.001352094    1.641    0.391
       201 -10.5341    242.0253    111.3181   3.6214616552e+01   8.7741399298e+00    0.1977516    0.1828489  41.72 0.0004868283    1.154    0.133
       202 -10.1656    210.7403    110.4550   4.1454434005e+01   1.5978316519e+01    0.2102548    0.1425642  39.81 0.0005882345    1.557    0.358
       203 -10.9836    160.1965    108.0647   5.1546771626e+01   2.8536781725e+01    0.3249841    0.2206109 -26.70   0.00136527    1.733    0.423
       204 -10.3202    217.7110    108.0281   3.9557799395e+01   1.4780775425e+01    0.2098203    0.1921717 -32.00  0.000311621    1.056    0.053
       205 -10.4769     91.9716    108.2548   6.9782544299e+01   4.2570252009e+01    0.1921659    0.1902281 -63.18 0.0002920342    1.069    0.064
       206 -11.0443    153.7285    107.5306   5.2955731498e+01   3.0164102862e+01    0.3060964    0.1523385  43.83 0.0007578126    2.028    0.507
       207 -11.1933     79.1669    101.6630   7.2019273805e+01   4.6115427292e+01    0.3813086     0.248469 -66.90  0.001786674    1.620    0.383
       208 -10.8892     75.2581     98.0108   7.2346203776e+01   4.7529542050e+01    0.3494334    0.2027508  28.60  0.001621989    2.042    0.510
       209  -9.6597    155.6656    103.3257   5.1350400977e+01   3.0580606753e+01    0.1646999    0.1273418 -84.26 0.0005765291    1.715    0.417
       210 -10.0009    116.9284    103.7441   6.1541199741e+01   3.9015065845e+01    0.1976239    0.1318208  41.15 0.0008805412    1.546    0.353
       211 -11.2685     59.7436     92.1357   7.5838706238e+01   5.0941722222e+01    0.3522382    0.2835693 -75.11  0.001965082    1.288    0.224
       212 -13.2381     53.5696     85.3081   7.6254890848e+01   5.3215177815e+01    0.6615379    0.4551048  61.04  0.003502791    1.962    0.490
       213 -10.8319     60.1987     95.9234   7.6552338728e+01   5.0019143661e+01    0.2533323     0.213882  45.02 0.0009539076    1.339    0.253
       214 -10.5376    237.8984     98.8830   3.3869099653e+01   1.1721412790e+01    0.2146494    0.1974645 -46.31 0.0003766903    1.067    0.063
       215 -10.7355     21.3066     97.6352   8.8936199770e+01   5.3376014693e+01    0.3133643    0.1730922 -43.62  0.001308808    1.824    0.452
       216 -10.0281    173.3102     98.3197   4.5891516091e+01   2.7324445643e+01    0.1625475    0.1263281  12.06  0.000608707    1.644    0.392
       217  -9.8430     94.3038     98.6768   6.6734789259e+01   4.4367118279e+01    0.1460711    0.1142704  87.77 0.0006214983    1.638    0.389
       218  -9.6004    197.4722     96.4605   4.0357176742e+01   2.1709909291e+01    0.1534081    0.1524388 -25.71 2.723793e-05    1.005    0.005
       219 -11.2474    150.3298     95.5468   5.0489916603e+01   3.3431827325e+01     0.397396    0.2100913 -33.22  0.001480278    2.121    0.528
       220  -9.6989    191.0057     94.7518   4.1176821393e+01   2.3621845575e+01    0.2049718    0.1337374  53.73 0.0003658144    1.537    0.350
       221  -9.5794     34.6907     94.3073   8.4251753362e+01   5.3066345158e+01     0.122329   0.08913463  78.71 0.0002724256    1.615    0.381
       222 -11.2260     54.2791     92.6607   7.7703966161e+01   5.1468229717e+01    0.2219296    0.1935459  85.00 0.0007880401    1.276    0.216
       223  -9.9230     21.5111     91.4840   8.7883404711e+01   5.4752677395e+01    0.1222152   0.09732708 -66.37 0.0001830399    1.017    0.017
       224 -10.4695      3.5426     89.2672   9.3091710916e+01   5.6338098480e+01    0.3327194   0.09131954 -60.92  0.001282499    2.364    0.577
       225 -10.0460     95.0521     89.4720   6.4055053151e+01   4.6290257405e+01    0.2074295    0.1452753  38.42 0.0003903979    1.515    0.340
       226 -10.0085     11.6587     87.4444   9.0319523053e+01   5.6297264480e+01    0.2092497   0.08762971 -68.82 0.0005435765    1.854    0.461
       227 -11.0997    208.2190     86.7856   3.5763365476e+01   2.0772889428e+01    0.2698838    0.2477724  14.37 0.0003701372    1.190    0.160
       228  -9.5488    105.8026     87.0461   6.0133898695e+01   4.4845976430e+01    0.1948648    0.1133384 -46.85  0.000312158    1.657    0.396
       229 -12.6361     50.7353     79.4146   7.5786714933e+01   5.4845670730e+01    0.7083992    0.2291979  42.11  0.002634664    3.939    0.746
       230 -12.0664     57.9397     99.6302   7.8061504460e+01   4.9437841530e+01    0.3913873    0.3155101 -45.02  0.001694925    1.192    0.161
       231 -11.1169    211.6474     81.7905   3.3831618756e+01   2.0777414634e+01    0.2627796    0.2589118 -70.82 0.0002710206    1.019    0.019
       232 -10.5085    207.4563     79.4631   3.3933425413e+01   2.2211954107e+01    0.3494447    0.2485746  -6.83  0.001006123    1.889    0.471
       233 -10.6491    153.0630     80.7295   4.5501354149e+01   3.5695020012e+01    0.2859092    0.2219703 -37.92 0.0006736196    1.301    0.231
       234 -12.2055     22.2304     79.5310   8.5513213454e+01   5.7372998319e+01    0.5673011    0.1054227 -57.74  0.002145742    3.171    0.685
       235 -12.0009     28.8887     79.8722   8.3334342713e+01   5.6800915465e+01    0.2789714    0.1921216  36.81  0.001711323    1.757    0.431
       236 -10.6408     88.3464     79.0325   6.3171517365e+01   4.9700707406e+01    0.2722061    0.2177378  47.04  0.001203079    1.384    0.278
       237 -10.8000    183.3492     77.4592   3.7883399239e+01   2.8673286217e+01    0.3261218    0.2630323  36.09  0.001557654    1.330    0.248
       238 -10.8806    111.9845     76.4788   5.5138195229e+01   4.5826291553e+01      0.33004    0.2527315  16.89 0.0009291227    1.547    0.354
       239 -10.9502    115.5233     74.9669   5.3634720779e+01   4.5399197099e+01    0.3130873    0.2504244 -13.30  0.001451333    1.412    0.292
       240 -11.1519     75.1253     75.5257   6.6467152067e+01   5.2543735876e+01    0.2557685    0.2294132 -21.76 0.0003939779    1.097    0.089
       241 -13.5554     32.1086     73.4035   8.0828999784e+01   5.7964556745e+01    0.6982532    0.3893252 -34.51  0.003729472    1.887    0.470
       242 -12.9619     31.9659     64.7277   7.8816232354e+01   5.9846539178e+01    0.5625109    0.3113919  42.82  0.003003077    2.372    0.578
       243 -10.4549     51.2128     74.1396   7.4286751915e+01   5.5949206311e+01    0.1704827     0.148892 -84.42 0.0004899608    1.351    0.260
       244 -10.5489     94.4689     72.0738   5.9106424330e+01   5.0083385627e+01     0.216238    0.1354405 -43.82 0.0003837489    1.514    0.339
       245 -11.4052    100.5859     69.5686   5.6390401365e+01   4.9454448992e+01     0.412938    0.1364086 -43.19  0.001387115    2.909    0.656
       246 -11.0733    197.7027     66.4438   3.2051044094e+01   2.6844403686e+01    0.4523599    0.3045763  26.39  0.001485544    2.029    0.507
       247 -10.0063    188.4758     65.5095   3.3447571630e+01   2.9380758520e+01    0.2974491    0.1252686 -44.65   0.00102946    2.484    0.597
       248 -11.4345    177.8723     64.5565   3.5196597674e+01   3.2288869476e+01    0.2933709    0.2532917 -34.60 0.0003378974    1.185    0.156
       249 -10.4860    207.8039     62.1864   2.9170583797e+01   2.4932466211e+01    0.3517892    0.1995501  -0.29  0.001081871    4.209    0.762
       250  -9.7664    113.6107     62.8080   5.0234582141e+01   4.8134289479e+01    0.1985518    0.1362374 -48.24 0.0001518466    1.564    0.361
       251 -10.1270    101.5249     63.4813   5.4099447386e+01   5.0457175539e+01    0.1463026    0.1347452  -9.66 -2.211322e-05    1.033    0.032
       252 -10.6351     45.9201     60.8433   7.2556036715e+01   5.9344381857e+01     0.203885    0.1509257 -30.30 0.0006184966    1.264    0.209
       253 -10.4535    166.0353     58.4932   3.5751297514e+01   3.6347716729e+01    0.2246187    0.2075014 -34.61 0.0003178557    1.115    0.103
       254 -10.0901    109.1982     59.6292   5.0456755497e+01   4.9638255827e+01     0.212202    0.1326262  35.89 0.0009517155    1.669    0.401
       255 -10.6834      3.9402     59.1644   8.8011935846e+01   6.2819681612e+01    0.2141518    0.1522934 -11.57   0.00116595    1.668    0.401
       256 -11.9262     52.9111     56.9071   6.8738438051e+01   5.9365038097e+01    0.5428709    0.2515606  46.30  0.002326552    3.182    0.686
       257 -10.1598    153.5086     57.4978   3.8153414561e+01   3.9711401924e+01    0.1542498    0.1474976  36.11 -2.325314e-05    1.027    0.026
       258 -10.7417     28.1531     55.4495   7.7860718471e+01   6.2097228367e+01    0.2542658    0.1826751  54.45  0.001537777    2.018    0.505
       259  -9.3758    115.6734     54.3206   4.6723981367e+01   4.9206499127e+01    0.1455996    0.1190824 -77.27 0.0004248938    1.684    0.406
       260 -10.0205    167.1324     52.0584   3.3515976420e+01   3.7079484433e+01    0.2239577    0.1971314  28.47 0.0002816911    1.208    0.172
       261 -10.3092     94.8069     51.5681   5.2086750175e+01   5.3929321375e+01    0.2639785    0.1334933  39.79  0.001133512    2.021    0.505
       262 -11.1945     45.3944     50.0825   6.9465510315e+01   6.1567983853e+01    0.2390109     0.194226  76.70  0.001154676    1.961    0.490
       263 -10.2189     30.6484     50.4851   7.5477230335e+01   6.2902707804e+01    0.2112955    0.1180658  21.68  0.001186912    2.085    0.520
       264 -10.4996     18.3123     49.0725   8.0076737666e+01   6.4108928336e+01    0.1698027    0.1221062 -51.64 0.0003917188    1.106    0.096
       265 -10.4471      1.4906     47.5088   8.6512786975e+01   6.5329750986e+01    0.2103566    0.0599447 -54.96 0.0007411119    2.183    0.542
       266 -11.3822    196.9382     45.2273   2.6153558554e+01   3.0274309817e+01    0.4803526    0.2848045 -84.85  0.001217866    2.372    0.578
       267 -10.2020     51.2356     42.9423   6.4708318861e+01   6.2258554095e+01    0.1681441   0.09345476 -45.40 0.0006781517    1.597    0.374
       268 -10.2702    122.2227     41.4379   4.0304837189e+01   4.9817203698e+01    0.2025658    0.1410299  64.37 0.0009474913    1.668    0.400
       269 -10.2456    104.6768     39.8562   4.4663749585e+01   5.3904449349e+01     0.201341    0.1601495  32.07 0.0004513703    1.206    0.171
       270 -10.7091     32.1912     40.3410   7.1671643353e+01   6.4749749807e+01    0.2691636    0.1642447  29.45 0.0009631842    1.914    0.478
       271 -10.5638     36.5016     39.5210   6.9566115957e+01   6.4500786363e+01    0.2101091    0.1830545 -14.67 0.0007876032    1.144    0.126
       272 -11.6912     55.8739     37.4131   6.0802570350e+01   6.2665858223e+01    0.3875114    0.2814401  22.47  0.001389868    1.434    0.302
       273 -11.2007      9.6996     37.0170   8.0393168035e+01   6.7012058042e+01    0.1850426    0.1479057 -10.92 0.0009164953    1.339    0.253
       274 -10.0734    169.5074     36.4594   2.8146576485e+01   3.8702990100e+01    0.1490506    0.1398785  75.15 0.0001043807    1.034    0.033
       275 -11.7096     31.7962     32.1674   6.8985013639e+01   6.6295710976e+01    0.3966402     0.172591 -42.16  0.002048324    1.835    0.455
       276 -11.4693     77.7798     31.0360   4.9945372308e+01   6.0376466596e+01    0.2230058    0.2160399  63.51 0.0005077426    1.402    0.287
       277 -11.0376    156.0233     31.0249   2.8915686642e+01   4.2930559503e+01    0.2209051     0.210753  59.93 0.0003656807    1.028    0.027
       278 -11.7349     71.7770     29.9857   5.1685544594e+01   6.1542172594e+01    0.2310907    0.1807206  25.47  0.001377154    1.247    0.198
       279  -9.7053     18.3873     30.1569   7.4331160821e+01   6.7759468855e+01    0.1480124   0.09474277 -57.33 0.0002671703    1.557    0.358
       280 -11.3541    106.8246     31.7611   4.0909573114e+01   5.4637685199e+01    0.3539549      0.26723  12.82  0.001871302    1.386    0.279
       281  -9.9926    125.6423     26.3125   3.3838914167e+01   5.1093806274e+01    0.1427114    0.1116868 -73.12 0.0005464844    1.741    0.426
       282  -9.5267    118.9766     25.9752   3.5365743490e+01   5.2696234363e+01    0.1674007    0.1525614  21.18 0.0003315917    1.027    0.026
       283 -10.4329     21.7965     34.1969   7.4150012622e+01   6.6762249901e+01    0.1697244    0.1070158 -32.20   0.00077537    1.326    0.246
       284 -11.5147     84.2527     23.7968   4.4672843847e+01   6.0257584451e+01     0.467463    0.3190953 -59.67  0.002225395    2.631    0.620
       285 -10.2815    174.2280     24.0178   2.3446513699e+01   3.9024311801e+01    0.1790583    0.1224348 -26.38 0.0005383104    1.594    0.372
       286  -9.7304     20.9828     22.7568   7.0428610489e+01   6.8885998636e+01    0.1319045   0.08985622  11.20 0.0008607311    1.572    0.364
       287 -10.3430    134.7736     22.5651   3.0353488911e+01   4.9336619415e+01    0.1930195    0.1347502  71.75 0.0004169941    1.575    0.365
       288 -10.8856     99.9687     18.7118   3.7620346100e+01   5.7781960005e+01    0.1894978     0.160212  28.84 0.0004229298    1.056    0.053
       289 -10.7660     75.0091     18.0030   4.5338587104e+01   6.2697081790e+01     0.170867     0.159142 -60.02  0.001091631    1.561    0.359
       290 -10.4883    238.1440    248.7223   6.4269622090e+01  -1.0014994345e+01    0.1715934    0.1468605  -7.72 0.0009829918    1.365    0.268
       291 -10.4008    215.8761     15.3623   1.5497011227e+01   2.9180066361e+01    0.1934823    0.1618031  76.83  0.001117317    1.117    0.105
       292 -10.0891    115.4514    245.7010   8.5790750293e+01   1.0009653552e+01    0.1309158    0.1130941 -57.13 0.0009403335    1.541    0.351
       293 -11.5789     83.2547    243.4446   9.1275983562e+01   1.5164942889e+01    0.4869945    0.2341515 -83.45  0.001817432    2.626    0.619
       294  -9.4127     84.3155    237.7176   9.0601456717e+01   1.5996095400e+01    0.1575435   0.08154258  77.58 0.0007077509    2.299    0.565
       295 -10.5854     81.9735    234.3225   9.0723595244e+01   1.6923520018e+01     0.280222    0.1613961 -76.92  0.001703495    1.854    0.461
       296 -10.9996    179.8002    244.6270   7.3973731082e+01  -3.0718061378e-01    0.1931191     0.170505  52.01 0.0004092967    1.252    0.201
       297 -10.0090    103.5690    244.9734   8.7838528429e+01   1.1944443413e+01     0.150388    0.1086899 -75.03  0.000840949    1.574    0.365
       298 -10.2498    133.3639    240.8936   8.2018341922e+01   7.9247394191e+00    0.2239707    0.1325847  52.06 0.0009708952    1.380    0.276
       299 -12.6321    116.1351    240.2086   8.5099959548e+01   1.0792198825e+01    0.2510452    0.1879922  56.25 0.0005129274    1.041    0.039
