#   1 NUMBER                 Running object number                                     
#   2 MAG_AUTO               Kron-like elliptical aperture magnitude                    [mag]
#   3 X_IMAGE                Object position along x                                    [pixel]
#   4 Y_IMAGE                Object position along y                                    [pixel]
#   5 X_WORLD                Barycenter position along world x axis                     [deg]
#   6 Y_WORLD                Barycenter position along world y axis                     [deg]
#   7 A_WORLD                Profile RMS along major axis (world units)                 [deg]
#   8 B_WORLD                Profile RMS along minor axis (world units)                 [deg]
#   9 THETA_WORLD            Position angle (CCW/world-x)                               [deg]
#  10 FWHM_WORLD             FWHM assuming a gaussian core                              [deg]
#  11 ELONGATION             A_IMAGE/B_IMAGE                                           
#  12 ELLIPTICITY            1 - B_IMAGE/A_IMAGE                                       
         1 -16.5864    247.1596     92.2943   4.4406996734e+01   1.3320482945e+01     6.702885      1.54018 -38.44   0.02234432    3.808    0.737
         2 -10.0273     40.7864     14.3799   6.6986302204e+01   6.8364783182e+01    0.1636974    0.0934522  27.92 0.0002637373    1.569    0.363
         3 -11.7184    160.3168    239.0066   8.9487667272e+01   1.1239082078e+00    0.2380967    0.1731531  50.40  0.001330319    1.609    0.379
         4 -10.9110    144.8546    232.5301   9.1834667868e+01   4.6559584410e+00    0.2453412    0.1848135 -77.61  0.001264607    1.924    0.480
         5 -10.5994    191.4863    226.5289   8.1007990942e+01  -1.3538317077e+00     0.131724    0.1117137   2.92 0.0002497746    1.001    0.001
         6 -10.9563    162.7751    225.0695   8.6772767570e+01   3.2654012321e+00    0.2595743    0.1817326 -22.94   0.00136941    1.597    0.374
         7 -10.0898     99.4751    225.4585   1.0102262329e+02   1.3052881019e+01    0.1353942    0.1209264  51.05 0.0001453642    1.011    0.010
         8 -10.1024    114.6578    223.3259   9.7262946390e+01   1.1189934534e+01    0.1444893    0.0990885  63.34 0.0007051084    1.736    0.424
         9 -10.0567    174.3114    222.6545   8.3906736893e+01   1.9154034896e+00    0.1267322     0.107711  69.87 0.0004476604    1.708    0.414
        10 -11.0135    193.4085    221.1931   7.9702595222e+01  -7.2537837722e-01    0.1769268    0.1234514 -50.13 0.0009532752    1.738    0.425
        11 -10.6442    126.0195    220.5120   9.4252295219e+01   9.9917494097e+00    0.2094314    0.1259774  36.33 0.0004736497    1.519    0.342
        12 -11.5710    204.8150    217.7930   7.6832093500e+01  -1.8224264369e+00    0.1622075    0.1571005 -15.77 0.0006333329    1.340    0.254
        13 -10.5969    143.9653    216.4696   8.9531845693e+01   7.9330677338e+00    0.2179759    0.1873859 -42.40  0.001248416    1.236    0.191
        14 -10.2916    111.6805    216.3274   9.6959325052e+01   1.3145765072e+01    0.1449893     0.102159  65.57 0.0007047093    1.683    0.406
        15 -11.0906    199.1451    214.8984   7.7439393313e+01  -4.9167993792e-01    0.1898685    0.1810156 -14.65 0.0007901876    1.259    0.206
        16 -11.6621    185.8725    214.2641   8.0030480372e+01   1.6444658079e+00    0.3064439    0.1950371 -48.82  0.001044924    1.768    0.434
        17 -10.2210    154.4944    214.4993   8.6839628085e+01   6.6142429828e+00    0.1386816    0.1277956  19.08 -5.733263e-05    1.031    0.030
        18 -11.7589    217.8863    210.5866   7.3020453226e+01  -2.4954328339e+00    0.2509079    0.1684589 -51.53  0.001338452    1.944    0.486
        19 -10.9015    177.1225    209.7026   8.1059549883e+01   3.8723973724e+00    0.2385547     0.189426 -51.30  0.001318865    1.451    0.311
        20 -10.9072    116.4035    209.7176   9.4865385074e+01   1.3838525672e+01    0.2674477    0.1414221 -62.83  0.001138016    2.196    0.545
        21 -13.0223    186.2168    204.3048   7.8157172548e+01   3.4260918616e+00    0.5101802    0.3238448 -55.61  0.002442419    2.024    0.506
        22 -11.5155    198.5343    203.8526   7.5547869187e+01   1.5587720766e+00    0.2827549    0.2207572 -48.73  0.001217673    1.477    0.323
        23 -13.2047    164.5718    200.8721   8.2197506818e+01   7.6710134077e+00    0.8452824    0.4329873 -38.47  0.003622724    2.047    0.512
        24 -11.8243    162.3173    193.3405   8.1304381357e+01   9.6020830411e+00     0.453656     0.309987 -53.28   0.00173937    1.602    0.376
        25 -10.9304    148.6374    197.4200   8.5195352760e+01   1.1112362081e+01    0.3530198    0.1914037 -66.41  0.001302246    3.042    0.671
        26 -11.2725    124.1021    197.2306   9.1004084360e+01   1.5356045812e+01    0.2813798    0.1968383  88.00  0.001244499    2.118    0.528
        27 -10.7411    203.0443    197.0730   7.3371276672e+01   2.0824408350e+00    0.1968809    0.1744168 -81.73  0.001126629    1.697    0.411
        28 -10.4752    193.4809    195.9595   7.5086010554e+01   3.8192943005e+00    0.2125875    0.1292515 -41.58  0.001031507    1.591    0.371
        29 -10.8173    209.5602    194.7247   7.1646611562e+01   1.4877240088e+00    0.1860205    0.1699099 -86.22 0.0007558873    1.623    0.384
        30 -11.3561    205.9752    191.1149   7.1648411642e+01   2.7070249508e+00      0.27268    0.1851917 -48.19  0.000945366    1.594    0.373
        31 -10.8336    186.3780    193.2220   7.6034210242e+01   5.5134288307e+00    0.1993358    0.1297953 -51.05 0.0009550457    1.709    0.415
        32 -10.7255    199.6041    190.7613   7.2842384611e+01   3.7988707720e+00    0.2722594    0.1218934 -38.83  0.001136201    2.113    0.527
        33 -12.1380    172.3447    190.4064   7.8507950576e+01   8.4648862515e+00    0.3206926    0.2476306 -59.42  0.001050673    1.555    0.357
        34 -10.2205    179.4049    190.2581   7.6943230770e+01   7.2771439535e+00     0.195511    0.1344735 -52.67  0.000944596    1.627    0.385
        35 -10.7303    210.5064    188.9989   7.0357446113e+01   2.3740968747e+00    0.2089491    0.1232393 -41.05 0.0009929936    1.583    0.368
        36 -11.1852    138.7455    188.1949   8.5849236737e+01   1.4859748617e+01     0.360635    0.1794666 -56.76  0.001409357    2.259    0.557
        37 -10.4584    192.5357    187.3140   7.3603441009e+01   5.6242464062e+00    0.2606808    0.1322044 -47.07  0.001118404    2.007    0.502
        38 -10.7275    129.1274    187.4089   8.8050809150e+01   1.6730718870e+01    0.3697504    0.1737695 -60.34  0.001359326    2.570    0.611
        39 -10.6031    217.5074    187.0100   6.8642209146e+01   1.6354533829e+00    0.2094223    0.1195765 -38.83  0.001029162    1.579    0.367
        40 -11.3212    165.2578    185.8812   7.9207504623e+01   1.0646065143e+01    0.3991994    0.2548154 -55.78  0.001484066    1.794    0.442
        41 -10.8549    211.8255    201.7840   7.2547504163e+01  -1.0854735720e-01    0.1662758    0.1613647 -36.64  0.000681953    1.348    0.258
        42 -11.1936     96.5587    187.4363   9.6279514744e+01   2.2202794278e+01    0.4284598    0.1462706  47.40  0.001362526    3.332    0.700
        43 -11.6149    204.0444    183.9823   7.0627902876e+01   4.3436827563e+00    0.4156272    0.1910078 -48.21  0.001713019    2.312    0.567
        44 -11.4261    224.6998    183.6367   6.6660749869e+01   1.1259117018e+00    0.2578502    0.1506399 -55.96  0.001157083    2.490    0.598
        45 -10.4507    182.8815    183.5588   7.4880622151e+01   8.0171640147e+00    0.2498977    0.1645461 -46.33  0.001200368    1.522    0.343
        46 -12.4027    174.2080    182.3581   7.6517622049e+01   9.7890802412e+00    0.4784486    0.3063807 -44.72  0.001656172    1.535    0.348
        47 -11.9558    147.5307    178.6104   8.1898535233e+01   1.5429342551e+01    0.4447629    0.2456349 -56.39  0.001808744    2.029    0.507
        48 -11.3247    137.9951    177.8895   8.4071455260e+01   1.7334893923e+01     0.349465    0.2124134 -45.82  0.001521879    1.648    0.393
        49 -11.3854    120.2422    184.5346   8.9745684967e+01   1.8947688941e+01    0.4779899    0.1878981 -64.79  0.001376484    4.258    0.765
        50 -11.1006    192.1517    176.9753   7.1610906780e+01   7.7114129551e+00    0.3516121     0.195857 -42.82  0.001581637    1.698    0.411
        51 -11.8238    243.9023    181.1001   6.2841758126e+01  -1.2695691670e+00    0.2674952    0.1480459 -40.71  0.001188976    1.580    0.367
        52 -10.1118    218.4138    176.1887   6.6332529673e+01   3.4469923517e+00    0.1958954    0.1186254 -48.12 0.0009486224    1.713    0.416
        53 -11.6357    183.0654    174.9133   7.3090487681e+01   9.7348330477e+00    0.4218073    0.2155296 -40.96  0.001775423    1.868    0.465
        54 -11.1391     77.8416    175.7326   9.9345325435e+01   2.7989274984e+01    0.2995094    0.1868768  81.81  0.001250049    2.159    0.537
        55 -11.7884    177.3533    170.2789   7.3359044275e+01   1.1731457334e+01    0.4140041    0.2680809 -39.54  0.001430538    1.479    0.324
        56 -11.3436    205.9390    168.9451   6.7209433832e+01   6.8822378927e+00    0.3353515    0.1922357 -48.72  0.001225613    1.787    0.440
        57 -11.1476    121.9759    169.5840   8.6488640686e+01   2.2206144639e+01      0.39649    0.2601765 -86.76  0.001528237    2.503    0.600
        58 -10.6335    167.7704    168.0907   7.5024366888e+01   1.3981196975e+01    0.3393591    0.1753458 -49.06  0.001364413    1.947    0.486
        59 -10.7287    149.5693    168.8185   7.9423519161e+01   1.7257010171e+01     0.221397    0.1466425 -60.13 0.0009547606    1.738    0.425
        60 -10.8985    185.1285    166.3705   7.0870406731e+01   1.1108701083e+01     0.296917    0.2072479 -48.09  0.001122211    1.429    0.300
        61 -11.9699    192.1721    163.5791   6.8816984944e+01   1.0384381065e+01    0.6038681    0.2202727 -44.49  0.002157464    2.576    0.612
        62 -11.9102    138.8373    163.4126   8.0926973073e+01   2.0537065515e+01    0.6014453    0.2550283 -57.57  0.001974189    2.913    0.657
        63 -12.6311    213.1091    163.3590   6.4692229720e+01   6.7127081278e+00    0.3849503    0.2527432 -43.02  0.001434134    1.398    0.285
        64 -10.6779     79.9901    163.9901   9.6821578249e+01   3.0664604515e+01    0.3173672    0.1620799  69.18 0.0009539251    4.091    0.756
        65 -11.9486    205.6709    161.4348   6.5691571792e+01   8.3777526879e+00    0.4028662    0.2453747 -44.33  0.001199617    1.529    0.346
        66 -10.4492    159.3853    163.1974   7.5908905946e+01   1.6646231309e+01     0.226202    0.1425291 -56.73 0.0009554654    1.776    0.437
        67 -11.9557    154.8303    240.7297   9.0906892062e+01   1.6413743464e+00      0.22148    0.1604583 -61.50 0.0009701073    1.830    0.454
        68 -12.5035    189.9158    147.8007   6.5841270460e+01   1.4015473346e+01    0.8751233    0.3036718 -38.42  0.002888664    2.925    0.658
        69 -10.6667    182.0371    140.6700   6.5851015804e+01   1.7041098621e+01    0.2796146    0.1979153 -50.72  0.001317605    1.400    0.286
        70 -10.2397    128.2301    158.2553   8.2543757618e+01   2.3775356195e+01    0.2502457     0.128599 -61.65   0.00088595    2.415    0.586
        71 -11.1963    219.6358    136.8855   5.7897292541e+01   1.0546953839e+01    0.5239246    0.1187496 -41.20  0.001561875    3.848    0.740
        72 -10.3921    105.4988    157.9992   8.8588221720e+01   2.8004277053e+01     0.222075    0.1381442 -83.14 0.0008105092    2.550    0.608
        73 -11.0093    167.5833    155.5272   7.2353517283e+01   1.6741891078e+01    0.4529043    0.1435372 -45.56  0.001416963    3.027    0.670
        74 -11.3590    197.9436    135.3560   6.1462510190e+01   1.4956948940e+01    0.5990952    0.2005259 -41.72  0.002039891    2.726    0.633
        75 -11.1797     22.9938    137.7032   1.0947094197e+02   4.4336668930e+01    0.2995066     0.150211  79.29  0.001183487    2.804    0.643
        76 -10.5396    192.5658    136.6980   6.2807954538e+01   1.5751446728e+01    0.2881804    0.1355047 -38.56 0.0009478049    2.030    0.507
        77 -10.3979    187.6936    134.5461   6.3281742880e+01   1.7164215486e+01     0.276255    0.1281226 -42.96  0.001067738    1.995    0.499
        78 -10.7393    179.2226    132.5239   6.4546877725e+01   1.9312255457e+01    0.3103515    0.1987053 -43.84  0.001252703    1.464    0.317
        79 -11.2177     83.8451    132.1706   8.9451803825e+01   3.8240625325e+01    0.4148872    0.2708228  66.47  0.001627857    2.172    0.540
        80 -10.7021     81.9732    154.8247   9.4613118982e+01   3.2720413867e+01    0.2640184    0.1634372  60.52  0.001088486    2.029    0.507
        81 -11.1625    131.8727    131.0081   7.5362200584e+01   2.9545069951e+01    0.3926266    0.2158342 -68.35  0.001254936    3.222    0.690
        82 -11.1371    107.3536    145.3612   8.5421561033e+01   3.0834861950e+01    0.4823065    0.2972682  80.70  0.001603287    3.303    0.697
        83 -11.9527    221.1770    128.5385   5.5825999944e+01   1.1813775775e+01     0.383772    0.1723459 -31.50  0.001478266    2.541    0.606
        84 -10.9242     49.7968    155.2085   1.0401751834e+02   3.7046451705e+01    0.2548243    0.1322487  66.52 0.0009535148    2.813    0.644
        85 -10.7512     68.6281    154.3108   9.8391207113e+01   3.4830827704e+01    0.1594752    0.1083093  67.39 0.0007033697    1.775    0.437
        86 -10.5736    168.4236    128.7162   6.5957953447e+01   2.2372273253e+01    0.3160376    0.1419567 -48.47  0.001141673    2.213    0.548
        87 -10.9295    152.4854    128.0277   6.9448964230e+01   2.5905494220e+01    0.3792046    0.1470001 -50.84  0.001215051    2.774    0.639
        88 -11.2716     99.1831    128.1986   8.3881064327e+01   3.6592350700e+01    0.4030034    0.2532921 -85.40  0.001411328    2.944    0.660
        89 -10.6519     73.3262    129.6567   9.2187459773e+01   4.0530507981e+01    0.1574507    0.1165147  75.51  0.000705089    1.739    0.425
        90 -11.0609     12.4025    128.6170   1.1152771994e+02   4.7481387538e+01    0.2724143    0.1091747 -87.91 0.0009576212    3.409    0.707
        91 -10.2064    162.0000    135.0181   6.8914973502e+01   2.2361329125e+01    0.2631531   0.08576234 -44.78 0.0008016298    2.937    0.659
        92 -10.9835    133.0205    152.7247   8.0105287543e+01   2.4178482068e+01    0.3253616     0.205558 -77.99  0.001167741    2.721    0.632
        93 -10.9504    179.7752    123.2335   6.2221405957e+01   2.1115472843e+01    0.4491264    0.1894857 -37.38  0.001591388    2.439    0.590
        94 -10.9745    117.7782    125.1969   7.7757663383e+01   3.3770662920e+01    0.2695792    0.1782308  83.79  0.000955624    2.811    0.644
        95 -11.3142     59.2767    123.9752   9.5515678784e+01   4.3971897055e+01    0.5088231    0.2860382  89.09  0.001745352    3.432    0.709
        96 -11.8646     43.3816    121.9131   1.0037847356e+02   4.6426897947e+01    0.6318513    0.2982858 -81.25   0.00215538    3.404    0.706
        97 -11.6441     28.0593    121.5938   1.0543334595e+02   4.8030526358e+01     0.664382    0.3045746  80.27  0.001877107    5.774    0.827
        98 -10.3746    188.4782    122.9865   6.0422245203e+01   1.9339702082e+01    0.2394201    0.1380551 -43.31   0.00103404    1.602    0.376
        99 -10.8031    192.9444    129.0026   6.0964772648e+01   1.7220076114e+01    0.3179582    0.1940151 -41.75  0.001437605    1.505    0.335
       100 -10.4257    158.3760    120.5868   6.6218499523e+01   2.6262874703e+01    0.3223716    0.1299654 -54.85 0.0009584925    3.392    0.705
       101 -10.4736    172.4557    119.9876   6.2958977572e+01   2.3344923936e+01    0.2462053    0.1443394 -42.85  0.001037422    1.616    0.381
       102 -11.1845    141.5232    118.5485   6.9749144416e+01   3.0354503298e+01    0.5418284    0.2550504 -61.50  0.001579389    3.795    0.737
       103 -10.7399    204.7240    129.8484   5.8956615808e+01   1.4705680412e+01    0.2782681    0.1826415 -55.23 0.0009373784    1.610    0.379
       104 -12.0487    200.1831    147.7672   6.3803257621e+01   1.2062174231e+01    0.6552458    0.2014823 -43.06  0.002166467    2.958    0.662
       105  -9.7717    203.2951    115.3312   5.5889179128e+01   1.7774188311e+01     0.142029    0.1126976  -7.09  0.000424113    1.636    0.389
       106 -10.4507    185.5979    114.7036   5.9000844031e+01   2.1593612761e+01    0.2977556    0.1382061 -38.01  0.001136271    2.113    0.527
       107 -11.2002    109.0167    114.0276   7.7412895818e+01   3.8141927272e+01    0.3659969    0.2242455 -71.91  0.001323758    2.631    0.620
       108 -10.4460    192.5565    113.9882   5.7508332003e+01   2.0258070658e+01    0.2372418    0.1352584 -42.05  0.001033807    1.613    0.380
       109 -11.3680     79.2800    112.8007   8.6355177953e+01   4.3817382512e+01    0.4425271    0.2761201 -79.46  0.001683574    2.613    0.617
       110 -11.1683     92.8616    112.7535   8.1985136498e+01   4.1496403809e+01    0.2993884    0.2104402 -81.39  0.001168809    2.091    0.522
       111 -10.6449    174.4762    110.4879   6.0182418378e+01   2.4840569252e+01    0.3301384    0.1427059 -42.57  0.001213796    2.186    0.542
       112 -10.6324    159.0000    110.9851   6.3636380552e+01   2.8154721859e+01    0.2636693   0.08572969 -42.66 0.0008060105    2.967    0.663
       113 -11.0389     66.4985    110.5133   9.0067408146e+01   4.6348866713e+01    0.2724683    0.1436829 -67.64   0.00103601    2.376    0.579
       114 -11.0596     13.9814    110.0067   1.0831683827e+02   5.2054490945e+01    0.3476099    0.1702096 -84.11  0.001482947    2.429    0.588
       115 -10.0943    182.6150    108.2163   5.7995724119e+01   2.3510640499e+01    0.2148186    0.1372627 -33.65 0.0009516971    1.621    0.383
       116 -10.4062    189.2793    106.8087   5.6389142993e+01   2.2339179406e+01    0.3136509    0.1129504 -46.37  0.001071816    2.663    0.624
       117 -12.4832     45.4063    102.0098   9.5492445246e+01   5.1179126794e+01     0.717921    0.4086347  74.46  0.002439345    4.190    0.761
       118 -12.0952     21.9569    100.5050   1.0379205175e+02   5.3812498820e+01    0.8669188    0.4299949 -89.19  0.003192131    3.586    0.721
       119 -10.9429      2.8773    117.0063   1.1305858874e+02   5.0999383646e+01     0.322466    0.1439556  82.12  0.001250899    3.248    0.692
       120 -10.3670      6.3274    102.6591   1.0984014154e+02   5.4343322499e+01    0.1292082   0.09089841  69.92 0.0007051428    1.736    0.424
       121 -10.7524    128.3225    101.6715   6.8651366014e+01   3.6896696075e+01    0.1594663    0.1248351 -85.98 0.0007048994    1.693    0.409
       122 -12.5191    234.1060    146.8554   5.7609482473e+01   6.1957945964e+00    0.4183564    0.1858819 -46.69  0.001348722    2.091    0.522
       123 -11.8492     63.3503     95.5678   8.7363262253e+01   5.0387009188e+01    0.4473485    0.2550965 -73.34  0.001672198    2.941    0.660
       124 -11.4844    108.3244     98.5416   7.3382630531e+01   4.1788726291e+01    0.2810053    0.2343424  70.21  0.001117127    1.437    0.304
       125 -10.4108    138.3421     91.6701   6.3285237030e+01   3.6735735496e+01    0.1598745    0.1215688 -82.84 0.0007051239    1.746    0.427
       126 -11.4384     34.5944     88.7023   9.6415712609e+01   5.5515191987e+01      0.52189    0.2311173 -69.38  0.001968711    2.978    0.664
       127 -11.0583      4.5399     89.8314   1.0836419200e+02   5.7525203436e+01    0.3309829     0.113514 -70.88  0.001320322    2.711    0.631
       128 -10.9121    124.3178     90.6567   6.6593804139e+01   4.0067385087e+01    0.1576064    0.1226915 -82.77 0.0007049011    1.718    0.418
       129 -11.1959     86.2859     86.4455   7.6759868427e+01   4.8665850043e+01     0.257075    0.1881827 -67.64  0.001182935    1.801    0.445
       130 -11.7533     48.3873     84.0564   8.9817576154e+01   5.5039578522e+01    0.4449665      0.28448 -88.14  0.001765738    3.235    0.691
       131 -11.1765    104.3986     82.6045   6.9840832500e+01   4.5938447935e+01    0.2983326     0.131033 -55.22  0.000955996    3.344    0.701
       132 -10.5242    182.1000    149.6977   6.7882107306e+01   1.5143200046e+01    0.2792741    0.1919024 -49.80  0.001062965    1.445    0.308
       133 -11.6106     24.1108     78.8729   9.8218728372e+01   5.8741156603e+01    0.5818657    0.2111159 -64.56  0.002214437    2.970    0.663
       134 -11.1147    177.2545    158.8548   7.0941257323e+01   1.4154040151e+01       0.4289     0.205451 -42.58  0.001687776    1.984    0.496
       135 -11.2503     82.2963     72.4716   7.3717817977e+01   5.2253202361e+01    0.2506022    0.1823212 -63.10  0.001193881    1.837    0.456
       136 -11.5374     51.1029     68.8145   8.4192192407e+01   5.7970093786e+01    0.4754886    0.1940718 -59.23  0.001618196    3.798    0.737
       137 -10.9951     39.2861    147.7047   1.0598446055e+02   4.0187148954e+01    0.3470416     0.157069  65.15  0.001136031    3.926    0.745
       138 -10.3789    157.3769    155.1886   7.4634550662e+01   1.8822927475e+01    0.2297384    0.1428006 -56.55 0.0009521045    1.784    0.439
       139 -11.6477     56.0746    145.8773   1.0066283530e+02   3.8710885721e+01    0.4291197    0.2232597  68.08  0.001495747    3.288    0.696
       140 -10.9248     73.1985     58.8489   7.2282394874e+01   5.6434152865e+01    0.3009913    0.1035834 -47.45  0.001028388    3.421    0.708
       141 -11.9621    148.3416    143.2843   7.4105098023e+01   2.3330376687e+01    0.6735644    0.3130965 -59.14  0.002170634    3.033    0.670
       142 -12.0019      7.8058     53.8916   9.8875317538e+01   6.5323278909e+01     0.678646          nan -54.86  0.002026247    5.249    0.809
       143 -11.2470     45.0436     49.7382   8.0162423231e+01   6.2451544454e+01    0.2337153    0.1603915 -26.94 0.0007093671    1.350    0.259
       144 -11.0402     30.7271     49.6491   8.6585980114e+01   6.4204588989e+01    0.3893521     0.102635 -50.66  0.001396264    3.615    0.723
       145 -10.1391    208.5972    143.7923   6.1349878460e+01   1.1266677704e+01    0.2079843    0.1235368 -49.32 0.0009447309    1.649    0.394
       146 -11.2933    195.4777    143.1686   6.3698177289e+01   1.3878010175e+01    0.2901406    0.2305926  -5.25  0.001466074    1.500    0.333
       147 -11.6504      4.9296     39.8619   9.6034655988e+01   6.8267693325e+01    0.4708147    0.1445878 -61.09  0.001776549    4.088    0.755
       148 -11.3349    125.1601    143.1599   8.0025339179e+01   2.8003683213e+01    0.4069321    0.2564416 -81.80  0.001407843    2.949    0.661
       149 -10.8976     16.6673     42.8041   9.0990549275e+01   6.6841230876e+01    0.2646419   0.07568295 -45.71  0.001102789    2.715    0.632
       150 -10.6831     88.3131    143.9880   9.0631299849e+01   3.4493152973e+01    0.2502308    0.1284831 -79.44  0.000704141    4.207    0.762
       151 -11.9569    204.5126    154.4101   6.4416752141e+01   9.9528781575e+00      0.34501    0.2106033 -36.48  0.001171728    1.508    0.337
       152 -11.1767     27.6010     29.6053   8.0306611180e+01   6.8023365030e+01    0.2459761   0.08168372 -32.68 0.0009574071    3.372    0.703
       153 -10.5329    151.4303    159.7403   7.7048764001e+01   1.8959926992e+01    0.3028551    0.1491172 -52.22  0.001134813    2.115    0.527
       154 -11.7126    196.5228    156.5555   6.6435034765e+01   1.0994744816e+01     0.438279    0.2626403 -47.77  0.001447352    1.628    0.386
