#   1 NUMBER                 Running object number                                     
#   2 MAG_AUTO               Kron-like elliptical aperture magnitude                    [mag]
#   3 X_IMAGE                Object position along x                                    [pixel]
#   4 Y_IMAGE                Object position along y                                    [pixel]
#   5 X_WORLD                Barycenter position along world x axis                     [deg]
#   6 Y_WORLD                Barycenter position along world y axis                     [deg]
#   7 A_WORLD                Profile RMS along major axis (world units)                 [deg]
#   8 B_WORLD                Profile RMS along minor axis (world units)                 [deg]
#   9 THETA_WORLD            Position angle (CCW/world-x)                               [deg]
#  10 FWHM_WORLD             FWHM assuming a gaussian core                              [deg]
#  11 ELONGATION             A_IMAGE/B_IMAGE                                           
#  12 ELLIPTICITY            1 - B_IMAGE/A_IMAGE                                       
         1 -13.6692      5.3808    171.3640   1.5224799574e+02   3.7186185822e+01     2.344507    0.6354627 -70.62   0.01114344    3.232    0.691
         2 -12.1161      2.2764     80.7375   1.4738168314e+02   5.7674746740e+01     1.167279   0.06577884 -76.33  0.002575921    9.200    0.891
         3 -13.4780    192.1158     24.7748   7.3188243983e+01   3.4039403444e+01     1.504724     1.471967   2.79  0.007059251    1.041    0.040
         4 -13.4388    207.7469      6.4017   6.5950319830e+01   3.1997060111e+01     1.315843    0.9227745  30.00  0.006977127    1.644    0.392
         5 -12.5527      2.8636      3.6943   1.3006338990e+02   7.5752435394e+01    0.8617462    0.6609197  59.55  0.005429737    1.988    0.497
         6 -12.7889      2.5398     18.5189   1.3602219181e+02   7.2527855487e+01     1.085402    0.4111878 -56.98  0.005301191    1.841    0.457
         7  -9.5396     29.8355    249.1489   1.5064203482e+02   2.1845826779e+01    0.1511289   0.09026385  55.64  0.001057395    1.221    0.181
         8 -12.2619    173.2731    248.5085   1.2608714313e+02   5.8347640642e+00    0.4879853    0.2599256  26.96  0.003258003    1.459    0.315
         9  -9.0761      2.1408    249.3936   1.5505958672e+02   2.4130582785e+01    0.1317897     0.101668  76.91 0.0009237782    1.302    0.232
        10 -10.4519    237.7400    247.1247   1.1551027499e+02  -1.8351102778e+00    0.1847824    0.1066709 -24.85  0.001373251    1.932    0.482
        11  -8.2469     25.2914    247.2918   1.5131802825e+02   2.2517056827e+01    0.0730305   0.06931959  20.72   0.00044415    1.549    0.354
        12  -9.5405     20.3027    247.1735   1.5212355329e+02   2.2966138472e+01     0.207918   0.09133381  36.01  0.001478313    1.747    0.427
        13 -13.2196    133.9986    245.9652   1.3256992387e+02   1.1011045845e+01    0.8280025    0.3377928  39.03  0.004887631    1.814    0.449
        14  -9.8562     29.5840    243.6046   1.5048304045e+02   2.2678411993e+01    0.1818691    0.1078143  56.69 0.0004838321    1.254    0.202
        15  -9.2159     25.7292    240.9576   1.5102911079e+02   2.3414672999e+01    0.1540245   0.08723871  47.58 0.0002329056    1.249    0.199
        16 -11.4884     57.4728    211.8783   1.4386465076e+02   2.5006821372e+01     1.218027    0.2481312  50.91  0.004422967    5.073    0.803
        17 -12.5559     51.2604    218.6240   1.4547339150e+02   2.4521050434e+01     1.317854    0.6815056  72.25  0.008276685    2.069    0.517
        18 -13.8661     42.9507    230.4736   1.4762837726e+02   2.3437848298e+01    0.7633896     0.426988  42.47  0.003085908    1.347    0.258
        19 -10.5426     95.5605    240.2866   1.3886589453e+02   1.6367669125e+01       0.2308    0.1337448 -45.83  0.001184315    2.436    0.590
        20 -11.9429    183.3492    235.7990   1.2284783837e+02   5.9468883225e+00    0.5176126    0.3856561 -78.57  0.002936844    4.133    0.758
        21  -8.5770     12.5069    240.4843   1.5319624054e+02   2.4611010495e+01   0.09241828   0.06610032  55.47 -2.409256e-05    1.038    0.036
        22 -13.3366    105.1037    230.3363   1.3629910093e+02   1.6656253925e+01     2.352512          nan  39.49  0.005093523   12.758    0.922
        23 -11.5397     83.2155    224.9305   1.3991574091e+02   2.0054585749e+01     1.117169   0.03609887  43.94  0.003122181    8.043    0.876
        24 -13.2419    128.2221    231.9961   1.3220996873e+02   1.3548435501e+01     1.267778    0.2385097  34.98  0.004690711    4.267    0.766
        25 -11.1862    154.6176    229.0381   1.2708049334e+02   1.0512825083e+01    0.3513853    0.1234292  29.29  0.001607386    2.811    0.644
        26  -9.7083      3.6905    227.3902   1.5431879994e+02   2.7339553846e+01    0.2608475    0.1546037  31.23  0.002040786    1.646    0.392
        27  -9.7744    172.8190    222.2080   1.2294051762e+02   8.9293978514e+00    0.1622844    0.1108823  13.64  0.001086455    1.371    0.271
        28  -9.0175     27.9657    222.0235   1.4991807863e+02   2.6178696038e+01    0.1641845     0.120451  21.32  0.001279961    1.676    0.403
        29 -10.1055     32.3591    218.7381   1.4897894083e+02   2.6321645670e+01    0.3370454    0.2208814  29.17   0.00250868    1.568    0.362
        30 -12.8274     37.6742    237.5599   1.4887566068e+02   2.2845302949e+01     0.244912    0.2289001  78.62 0.0007543078    1.369    0.270
        31 -10.6309     37.6348    213.7871   1.4776110287e+02   2.6659892135e+01     0.271745     0.252297  76.24  0.001782078    1.280    0.219
        32  -9.1061     83.1524    219.1102   1.3946043124e+02   2.0974414738e+01    0.1544505    0.1034278  55.83 0.0009040507    1.347    0.258
        33 -10.3461     20.9243    211.2880   1.5076218881e+02   2.8586753359e+01    0.3458079    0.1967088  30.32  0.002179545    1.718    0.418
        34 -12.2568     10.4920    206.4887   1.5251584767e+02   3.0273745040e+01    0.5048009    0.3703706  26.35  0.002952802    1.570    0.363
        35 -11.5295     63.2606    202.2854   1.4203092189e+02   2.6041685986e+01    0.2021043    0.1984617 -57.79 0.0005701886    1.307    0.235
        36  -9.2248     52.9482    203.7632   1.4420479284e+02   2.6877762595e+01    0.2175408     0.114588  48.22  0.001364129    1.536    0.349
        37 -11.8550     19.3444    173.3052   1.4933484053e+02   3.5736081840e+01     1.543215    0.4443538  68.49  0.005655787    4.918    0.797
        38  -9.4937    249.9812    249.7618   1.1402395418e+02  -3.4326215065e+00    0.1305549   0.05957706  29.68 0.0008643855    1.612    0.380
        39 -13.3784      4.3154    112.3583   1.4938877984e+02   5.0038023961e+01     1.447423    0.5777379  68.34  0.006606334    2.677    0.626
        40 -11.3366      2.5859    151.4434   1.5203296334e+02   4.1446732168e+01    0.9645013    0.2512586 -85.72  0.004017069    3.506    0.715
        41 -12.9427     10.0428    157.1422   1.5057660631e+02   3.9742690283e+01     1.117399    0.5296759  65.40  0.006362072    1.884    0.469
        42 -13.8092      5.0571    142.7876   1.5102720091e+02   4.3136776912e+01     1.547196    0.9330729 -70.33  0.009861178    1.529    0.346
        43  -9.3217    191.3758    192.3611   1.1513239391e+02   1.0081669086e+01     0.301329    0.2034816 -64.85   0.00138006    4.170    0.760
        44  -9.6798     10.6876    196.1449   1.5211658689e+02   3.2091854306e+01    0.1773353    0.1643064  36.24  0.001541705    1.378    0.274
        45 -11.8376     69.4210    193.5488   1.4004475547e+02   2.6916423578e+01     0.213222     0.211998 -69.10 0.0005067583    1.252    0.201
        46 -13.0634     66.1907    178.5478   1.3936834207e+02   3.0108139267e+01    0.4348854    0.2543604 -42.86  0.001748568    2.344    0.573
        47 -10.6625     79.3698    180.0558   1.3658510961e+02   2.8251376539e+01    0.2026224    0.1853724  59.03 0.0003868898    1.056    0.053
        48 -11.6700     86.4928    170.5170   1.3387729612e+02   2.9195329425e+01     0.557834    0.4950372 -20.35  0.003719931    1.384    0.277
        49 -12.6816      2.4058    130.5385   1.5104556596e+02   4.5995868514e+01     1.279655    0.3603678 -74.35  0.005679447    2.792    0.642
        50 -10.0897     98.5747    154.0683   1.2874542804e+02   3.0834508388e+01    0.3367967    0.2342793 -45.77 0.0007644386    1.566    0.362
        51  -9.2348    101.5007    149.8828   1.2736921257e+02   3.1263604645e+01    0.1891266    0.1762561 -11.51 0.0005441388    1.185    0.156
        52 -11.7642     87.3566    153.4363   1.3141244262e+02   3.2538442413e+01    0.2605642    0.2322457 -25.71 0.0005513506    1.317    0.240
        53 -10.2377     27.4328    155.2269   1.4637081901e+02   3.8784499489e+01    0.1663526   0.09393546  84.50 0.0007114382    1.668    0.401
        54  -8.8811    135.0306    150.0312   1.1933850335e+02   2.5900479399e+01    0.2142395    0.1674775  71.22  0.001136525    1.745    0.427
        55 -12.0643     67.5793    144.1980   1.3516466474e+02   3.7066952654e+01    0.4776654    0.3746171  53.58  0.001607093    1.225    0.183
        56  -8.9348    134.0000    144.4779   1.1852256720e+02   2.7128703656e+01    0.2829198   0.07806448 -47.80 0.0008425722    3.812    0.738
        57  -9.1796    194.8739    198.7543   1.1552973247e+02   8.7466460288e+00    0.2447599    0.1680616 -53.78  0.001397652    2.620    0.618
        58  -9.8415    109.8392    138.4883   1.2330638169e+02   3.2338886878e+01    0.4067164    0.2476613 -23.60  0.001730494    2.607    0.616
        59  -8.1824    173.7566    137.3005   1.0814188730e+02   2.1269491999e+01    0.1218561    0.1114598 -66.65 0.0001547052    1.486    0.327
        60 -10.5012     97.2807    135.7794   1.2606122970e+02   3.4865438951e+01    0.2341022    0.2157608  21.44 0.0004284712    1.133    0.117
        61  -8.4538     85.4770    135.5761   1.2915585227e+02   3.6628825057e+01    0.1343574     0.120321  68.58 0.0007570554    1.116    0.104
        62 -11.2184     64.6891    141.6770   1.3558934107e+02   3.7969820415e+01    0.3478539    0.2468012 -50.57 0.0009360024    1.502    0.334
        63  -8.9328    116.2104    130.2147   1.2006950035e+02   3.3015304611e+01    0.2327298    0.1468529 -14.14 0.0009384677    2.727    0.633
        64  -8.9235    107.0686    124.7220   1.2134662726e+02   3.5706168697e+01    0.1846003    0.1678646  27.50 0.0002618018    1.108    0.098
        65  -9.7815    168.0951    113.2858   1.0371619852e+02   2.6493798722e+01    0.2639976    0.2258398 -50.26 0.0008341796    1.376    0.273
        66  -9.6351    225.4985    249.5068   1.1771631438e+02  -6.1706095299e-01    0.1043101   0.06907719  17.16 0.0008106438    1.008    0.008
        67  -9.6124    156.4942     75.0755   9.5608607291e+01   3.5718945891e+01    0.2386345    0.1456012 -32.61 0.0006871065    1.568    0.362
        68  -9.4581    242.3307     84.6755   8.3437397569e+01   1.5679937163e+01    0.1331413   0.09515847 -48.95 0.0007050404    1.703    0.413
        69  -9.4034     18.0132     56.5193   1.3745020939e+02   6.2767917902e+01    0.1753372   0.08840239  48.24 0.0008102728    2.574    0.611
        70 -11.2134      1.9960     45.6383   1.4279594755e+02   6.6197273271e+01    0.5226489   0.09295809 -71.91  0.001714006    4.026    0.752
        71 -11.4327      3.0367     38.5178   1.4090009501e+02   6.7860671464e+01     0.548309    0.2374427  80.75  0.002066405    4.027    0.752
        72 -10.7190    161.3609    249.4023   1.2820312694e+02   7.2172512559e+00    0.1997904    0.1032049  32.81      0.00132    1.413    0.292
        73  -9.3079     89.2009    250.1878   1.4071142470e+02   1.5724238689e+01    0.1397515   0.08724606  50.35  0.000489532    1.315    0.240
        74  -9.8864     81.8225    249.0975   1.4190626913e+02   1.6684178674e+01    0.1585547    0.1010851  51.85 0.0006571204    1.287    0.223
