#   1 NUMBER                 Running object number                                     
#   2 MAG_AUTO               Kron-like elliptical aperture magnitude                    [mag]
#   3 X_IMAGE                Object position along x                                    [pixel]
#   4 Y_IMAGE                Object position along y                                    [pixel]
#   5 X_WORLD                Barycenter position along world x axis                     [deg]
#   6 Y_WORLD                Barycenter position along world y axis                     [deg]
#   7 A_WORLD                Profile RMS along major axis (world units)                 [deg]
#   8 B_WORLD                Profile RMS along minor axis (world units)                 [deg]
#   9 THETA_WORLD            Position angle (CCW/world-x)                               [deg]
#  10 FWHM_WORLD             FWHM assuming a gaussian core                              [deg]
#  11 ELONGATION             A_IMAGE/B_IMAGE                                           
#  12 ELLIPTICITY            1 - B_IMAGE/A_IMAGE                                       
         1 -11.3365      2.0654     21.3336   9.4045239629e+01   7.1485593375e+01    0.3090619    0.2198541 -37.47  0.002113849    1.185    0.156
         2 -10.6096     14.4417      9.1800   8.1352815067e+01   7.2382623333e+01    0.2872866    0.1722744 -17.83 0.0006515412    1.446    0.309
         3 -11.2980     14.7253     21.6877   8.6942131008e+01   7.0465401081e+01    0.6373052    0.2542486  31.78  0.003202955    2.732    0.634
         4  -8.9094     20.3090     17.7039   8.2090298973e+01   7.0547784635e+01    0.3547122    0.1523146 -31.31  0.001803942    2.173    0.540
         5 -11.8183     12.7296     15.9346   8.5546945828e+01   7.1549899433e+01    0.4170512     0.261062   3.57  0.002286935    1.449    0.310
         6 -11.4517     75.6784     21.3255   5.9460148023e+01   6.1639249729e+01     0.450814    0.4097576 -56.84  0.002335704    1.505    0.336
         7 -11.8150    234.9056     15.0638   3.1186041728e+01   2.6415119676e+01    0.2416045    0.1738348 -67.33 0.0003280977    1.120    0.107
         8 -11.8982     83.8739     14.8992   5.4218360151e+01   6.0699256482e+01    0.4845834      0.25894  24.63 0.0007280276    2.240    0.554
         9 -10.3385     65.8115     14.1444   5.9762813301e+01   6.4311218382e+01    0.2630403    0.1462471 -41.27  0.001345866    2.351    0.575
        10 -10.2296     22.3356      9.5261   7.7054030305e+01   7.1484865099e+01    0.3165181    0.1583643  12.90  0.001661933    2.213    0.548
        11 -11.4853     34.6966     12.5180   7.2119892086e+01   6.9535701286e+01    0.3578696    0.2712395   1.08  0.001416733    1.062    0.058
        12 -11.8648     30.5593      7.5185   7.1686511468e+01   7.0716648926e+01    0.5372493    0.2535269  28.02  0.002909337    1.951    0.487
        13 -10.3260     27.8816      2.6534   7.0523932743e+01   7.1648762857e+01    0.2472591     0.144137 -25.20  0.001537486    1.627    0.385
        14 -10.6213     40.5681      7.5678   6.6874567234e+01   6.9286208630e+01     0.336429    0.1981319   0.28   0.00150099    1.845    0.458
        15 -10.3445     37.5488      6.0751   6.7522903881e+01   6.9904797051e+01    0.2789985    0.1723084 -44.22    0.0012799    2.463    0.594
        16 -10.9225    171.9927     11.9475   3.6430606861e+01   4.0688313319e+01    0.1881711    0.1604743 -89.37  0.000319473    1.029    0.028
        17 -11.1676    133.9125     11.4277   4.1693083407e+01   4.9783487798e+01    0.3671804    0.2066489  56.89  0.001378326    1.504    0.335
        18 -11.0444    126.3954     10.8179   4.2811614640e+01   5.1610960952e+01    0.4308493    0.2381293  79.81    0.0012708    2.068    0.516
        19 -10.2192     44.7658     10.7222   6.6544129686e+01   6.8282285768e+01    0.3508269    0.1782932  15.74  0.001666311    2.509    0.601
        20 -10.2929    118.7816      9.5952   4.3827261674e+01   5.3495966951e+01    0.2534879    0.2219325  -2.55  0.001495538    1.312    0.238
        21 -10.0352    115.3046      8.0086   4.3959900533e+01   5.4437391075e+01    0.2965243    0.1372894 -48.95 0.0008902113    3.034    0.670
        22 -10.3944     57.3462      9.2687   6.0661641334e+01   6.6354007388e+01    0.3052009    0.1868619 -41.97  0.001286754    2.245    0.555
        23 -10.2975     89.5982     13.2877   5.1940325346e+01   5.9664117114e+01    0.3101941    0.1907996 -21.50  0.001698761    1.802    0.445
        24 -10.0316      2.4288      6.9056   8.7572510856e+01   7.3770513846e+01    0.2134024     0.154034   1.28 0.0009407465    1.203    0.169
        25 -10.8645    151.0001      5.9707   3.7459687702e+01   4.6219843817e+01    0.1936005    0.1640903  77.56 0.0003466049    1.015    0.015
        26 -10.5888    119.6638      3.8196   4.1695852768e+01   5.3780134865e+01    0.2931411    0.2116208  48.59  0.001396687    1.227    0.185
        27 -10.2957    103.8326      3.2299   4.4602120911e+01   5.7437976753e+01     0.293804    0.2358756 -69.49  0.001819875    1.578    0.366
        28  -9.7224     74.9720      3.6772   5.2114709724e+01   6.3554055361e+01    0.1784507    0.1288091  43.80 0.0004711796    1.151    0.131
        29 -10.8703     57.8079      2.0286   5.7046624367e+01   6.6974375391e+01    0.2267448    0.1809204  18.16 0.0003060813    1.066    0.062
        30 -10.0446    188.5060      6.5215   3.3287926349e+01   3.7390595930e+01    0.1234367    0.1033195  89.37 0.0001150248    1.036    0.034
        31  -9.7999    176.5942      2.7867   3.3570229095e+01   4.0486845496e+01    0.1644419     0.103776 -46.35 0.0006459454    1.605    0.377
        32 -10.9445     21.1342      1.9845   7.3795739941e+01   7.2584126019e+01     0.280812    0.1489971  24.53  0.001184169    1.672    0.402
        33 -10.3020    162.2431      2.3923   3.5048433623e+01   4.3876235707e+01    0.1824842    0.1037987  83.86 0.0009509343    1.650    0.394
        34  -9.4843     90.8230      2.1421   4.7164217074e+01   6.0381927291e+01    0.1677538    0.1219365  29.85 0.0004998928    1.299    0.230
        35 -11.3257     80.2842      1.6977   4.9729491607e+01   6.2638029400e+01    0.2600426    0.1454206  53.31  0.001432449    1.502    0.334
        36  -8.9409      5.2685      2.2654   8.3442247178e+01   7.4204001150e+01    0.1087206    0.0637494 -12.41 0.0002425144    1.465    0.317
        37 -11.4024    218.3920      7.3554   3.0866614938e+01   3.0695706577e+01    0.2342199    0.1719986 -85.72 0.0005845439    1.139    0.122
        38  -9.4613     11.1299      1.3345   7.9288218267e+01   7.3776310556e+01    0.1397773   0.08706047  30.30 0.0004856091    1.743    0.426
        39  -9.5842    226.4408    164.0375   6.4191664893e+01   4.5609517222e+00    0.2074449    0.1191086 -36.99 0.0006746347    1.544    0.352
        40 -10.9952     28.5268    250.5159   1.1966708749e+02   1.7672033348e+01     0.355752   0.09218263  33.21  0.001516419    3.383    0.704
        41 -12.0336     18.1993    248.7791   1.2149148918e+02   1.9095398820e+01    0.2963525    0.2526405 -35.61  0.002162344    1.861    0.463
        42 -12.0403      3.9638    232.7494   1.2334470004e+02   2.3668850440e+01    0.3034885    0.2121854  81.09   0.00213294    1.148    0.129
        43 -12.9930      9.8114    228.6053   1.2201925054e+02   2.3977425089e+01    0.7350953    0.2626252 -79.93  0.003583381    2.541    0.606
        44 -12.1313      2.6154    224.0965   1.2318299196e+02   2.5577616296e+01    0.6063957    0.2633213  85.29  0.003203848    2.094    0.522
        45 -13.0396     10.2801    245.7189   1.2279156730e+02   2.0482519055e+01    0.6316211    0.4334882 -88.15  0.004480913    1.315    0.240
        46  -9.5625     21.9975    160.5154   1.1415177162e+02   3.8560327664e+01    0.1713409    0.1314518  24.54 0.0006149291    1.536    0.349
        47  -9.3040    247.3213    155.3202   5.8915319085e+01   2.7047583589e+00    0.1327952   0.09218367  -9.54 0.0005172629    1.670    0.401
        48 -11.3973      5.9743    153.3924   1.1771207494e+02   4.1570272160e+01    0.5772853    0.1952224  15.52  0.002298648    4.063    0.754
        49  -9.7477     27.2349    147.4112   1.1122589265e+02   4.1384648481e+01    0.2137127    0.1409227 -78.15 0.0006030227    1.355    0.262
        50 -10.6833     23.0987    146.8810   1.1234043824e+02   4.1877742399e+01    0.2123175     0.138313 -42.68  0.001122601    1.675    0.403
        51  -9.4928    236.4876    139.0143   5.7295435736e+01   7.2863686489e+00    0.1861756     0.107736 -19.40 0.0006842369    2.328    0.571
        52  -9.5015     24.5081    139.0061   1.1096038498e+02   4.3743963740e+01    0.1995696   0.07748722 -50.17 0.0008087954    2.422    0.587
        53 -10.1512    212.5257    133.9471   6.0266784419e+01   1.2568808923e+01    0.2385477    0.2025919  75.46 0.0006299254    1.478    0.323
        54  -9.3385     95.9878    134.0230   8.8308078170e+01   3.5831049389e+01    0.1849683    0.1784285 -53.25  0.000485915    1.005    0.005
        55 -10.5366      4.3248    134.3264   1.1633220525e+02   4.6372197847e+01    0.1774926    0.1419888  82.01 0.0008239283    1.200    0.167
        56 -10.0814      2.3117    132.3353   1.1671061144e+02   4.6981966670e+01    0.1660087    0.1229962 -29.29   0.00100533    1.599    0.374
        57  -9.0896     61.6861    130.6691   9.8161973390e+01   4.1899013392e+01    0.1530928    0.1047919 -32.47 0.0007044982    1.678    0.404
        58 -11.0480     12.0819    129.4245   1.1348482434e+02   4.7090281882e+01    0.2461986    0.1974016 -79.03  0.001524361    1.083    0.077
        59 -10.6789     28.4476    128.1829   1.0826031864e+02   4.6141360395e+01    0.2017853    0.1910307  13.94 0.0003267585    1.228    0.186
        60 -11.5195     24.1129    122.0749   1.0872818264e+02   4.8040033646e+01    0.2486002    0.2209354 -52.86 0.0002839071    1.095    0.087
        61 -10.4164      1.6732    122.1004   1.1580250114e+02   4.9530461184e+01    0.3061786    0.0985086 -74.22  0.001235302    2.564    0.610
        62 -10.7267     18.0324    121.8765   1.1064982571e+02   4.8554688774e+01      0.21644    0.1618989 -57.33 0.0003044759    1.154    0.134
        63 -10.6440     69.0295    117.0370   9.2955910468e+01   4.4322619671e+01    0.2190491    0.2021925 -47.54  0.001215249    1.009    0.009
        64 -11.3101      9.9631    120.7859   1.1306530670e+02   4.9371471093e+01    0.3903807    0.1805211 -74.01  0.001835467    1.859    0.462
        65 -10.3880      1.9806    114.0745   1.1476551689e+02   5.1474932924e+01    0.1923941    0.1529818 -67.61 0.0003271555    1.013    0.013
        66 -10.1102     45.1015    110.8148   9.9711443312e+01   4.8879479332e+01    0.1985052     0.185269  76.43 0.0005457806    1.194    0.163
        67 -10.6154     64.9557    109.7713   9.2660330838e+01   4.6682554445e+01    0.2466469     0.200738 -57.06 0.0005207048    1.168    0.144
        68 -10.2317      2.0126    109.1810   1.1414111736e+02   5.2662094041e+01    0.2327586    0.1420164 -86.79 0.0008453861    1.609    0.379
        69 -11.6015     57.5120    107.8697   9.4778818023e+01   4.8137676357e+01    0.4629008    0.2930833   1.55  0.001832807    2.170    0.539
        70 -10.7347     55.2100    104.8395   9.4890158465e+01   4.9165844943e+01    0.2980447     0.182436 -20.17 0.0009846792    2.193    0.544
        71  -9.3369     35.6677    109.6696   1.0275426584e+02   5.0123496877e+01    0.1486419   0.08989333 -36.23 0.0007052025    1.722    0.419
        72 -11.0864     13.5156    108.9189   1.1025161398e+02   5.2067224164e+01    0.2275275    0.1997246 -45.05 0.0004022316    1.133    0.117
        73 -11.2300      1.9990    104.2706   1.1349706110e+02   5.3848679855e+01    0.2725767    0.2021062 -18.09  0.001693984    1.551    0.355
        74  -9.6891    246.6551    101.6987   4.7956993730e+01   1.1836893424e+01    0.1235418   0.09987939  -1.66 0.0003966454    1.682    0.405
        75  -9.5579     91.8526     99.8771   8.1161677761e+01   4.4735740948e+01    0.1889693    0.1750189  85.46            0    1.252    0.201
        76 -10.9101     19.7851     99.8170   1.0655849829e+02   5.3856115573e+01    0.2390254    0.1437792 -11.75 0.0009724001    2.066    0.516
        77 -11.1054      3.1749     95.2725   1.1179400052e+02   5.5942630880e+01    0.2802694    0.2092785 -59.78  0.001258671    1.068    0.064
        78 -11.6210      7.5761     91.2693   1.0954302179e+02   5.6664214017e+01    0.3434213     0.227952  24.78 0.0004267522    1.781    0.438
        79 -11.7300     11.3453     86.9607   1.0735425449e+02   5.7463092254e+01    0.4421994    0.2532483  85.13  0.002025765    2.546    0.607
        80 -12.4041      6.9806     85.3207   1.0873288030e+02   5.8088875652e+01    0.6884826      0.38988  61.15  0.002768838    2.700    0.630
        81 -12.2695     20.1687     92.9745   1.0514637844e+02   5.5468158633e+01    0.4347158    0.2875098 -30.21 0.0005304929    1.531    0.347
        82 -12.0454    125.2339     93.3217   6.9322877818e+01   3.9486378688e+01    0.2838392    0.2681249  54.78 0.0002138996    1.089    0.082
        83 -10.2182     66.7573     92.0407   8.7570729310e+01   5.0625469952e+01    0.2028598    0.1924061 -87.27 0.0009731846    1.233    0.189
        84 -11.3351     58.0679     91.5710   9.0601911576e+01   5.1943386653e+01     0.334693    0.2279349 -24.59 0.0007007819    1.622    0.384
        85 -10.5811     43.4977     89.1289   9.5439274610e+01   5.4268923370e+01    0.3263735    0.2390698  75.20 0.0006819167    2.028    0.507
        86 -10.2336     24.3598     88.1559   1.0257542237e+02   5.6289808019e+01    0.3576817    0.2100612 -63.01  0.001849244    1.523    0.343
        87  -9.1962     85.0559     88.0099   8.0042631731e+01   4.8580631557e+01    0.1726026    0.1612437  10.26 0.0003112943    1.061    0.058
        88  -8.9831    143.3008     87.7226   6.3071982251e+01   3.6567501520e+01    0.1492145    0.1204021 -84.67 0.0002748315    1.540    0.351
        89  -9.4945    124.4707     86.4758   6.7543973307e+01   4.1039087310e+01    0.1507596     0.147775  11.87  0.000160025    1.003    0.003
        90 -10.5278     55.1267     85.6891   9.0128315353e+01   5.3670780491e+01     0.229859    0.2111656 -59.43 0.0003441322    1.188    0.158
        91  -9.2988     76.7348     82.9798   8.1428431861e+01   5.1082219279e+01    0.1813652    0.1211905 -44.91 0.0004734263    1.437    0.304
        92  -9.3318     69.4966     83.4615   8.4164316744e+01   5.2131508194e+01    0.1436334    0.1323516 -21.44 -7.97982e-06    1.013    0.012
        93  -9.9675     89.3637     80.4768   7.6331109817e+01   4.9399606607e+01     0.323934    0.2265824  73.86  0.000969232    2.508    0.601
        94  -9.2384    250.3259     80.7142   4.3143967726e+01   1.4498449082e+01    0.1292075    0.0841768 -65.43 0.0004675318    1.606    0.377
        95  -9.5430     80.6137     79.7349   7.9084178291e+01   5.1114476692e+01    0.1900982    0.1362754 -53.91 0.0002311892    1.519    0.342
        96  -9.9405     29.1784     91.9817   1.0154675082e+02   5.4993310271e+01    0.2096729    0.1851013  10.30 0.0006456441    1.262    0.208
        97  -8.8566    124.4605     79.4105   6.5440718236e+01   4.2414375225e+01    0.1480411    0.1442399  49.10 0.0001533242    1.040    0.039
        98 -10.0021     47.9997     79.0702   9.1057114461e+01   5.6035660282e+01    0.2054034    0.1696506 -28.59 0.0003459227    1.096    0.087
        99  -9.5860     24.7709     78.8107   1.0032226002e+02   5.8411219862e+01     0.222674    0.1234116 -35.22  0.001054014    1.706    0.414
       100 -11.1483      7.3784     76.7182   1.0694931625e+02   6.0042734792e+01    0.4106556     0.194102  46.07   0.00186316    3.159    0.683
       101  -9.9002    176.6911     76.9672   5.3017200824e+01   3.0750457468e+01    0.2099593    0.1877632 -52.32  0.001058254    1.087    0.080
       102 -11.6630     54.9976     75.1388   8.7174510298e+01   5.6007091820e+01    0.3197126     0.235633 -24.75            0    1.333    0.250
       103 -11.5257     15.4750     75.5200   1.0337725592e+02   5.9832973606e+01    0.3336815    0.2339472   0.30  0.001490981    1.570    0.363
       104 -10.1893     42.0017     74.8168   9.2268315263e+01   5.7659503565e+01    0.2981212    0.1756647  27.30  0.001500348    1.807    0.447
       105 -10.2745     37.2225     74.9767   9.4261512826e+01   5.8133085983e+01    0.6521235    0.1714135 -52.19  0.002282787    2.998    0.666
       106 -10.3509     33.2537     72.9626   9.5355087957e+01   5.8968434919e+01    0.2576554    0.1871748  15.47 0.0005492182    1.471    0.320
       107  -9.2653    217.0000     72.0451   4.5405742154e+01   2.2506526633e+01     0.207461   0.07076039 -37.35 0.0003249082    2.716    0.632
       108 -12.6097    105.8669     70.8115   6.8038990652e+01   4.8039796220e+01    0.2974739    0.2895931 -74.85 0.0005231648    1.157    0.136
       109 -10.4312     81.4919     69.0872   7.5388573931e+01   5.3102831610e+01     0.417158    0.2912326 -63.90  0.001939094    2.055    0.513
       110  -9.9389     77.3927     67.7930   7.6411768300e+01   5.4073274807e+01    0.2345687    0.1871872  -0.92 0.0005481663    1.311    0.237
       111 -10.6684     45.5421     69.4035   8.9249479817e+01   5.8414076523e+01    0.2457499    0.2230561 -38.85 0.0008520629    1.140    0.123
       112 -10.4281     10.1304     69.6339   1.0430475903e+02   6.1475746915e+01    0.3143338     0.143796 -58.52  0.001215387    1.750    0.428
       113 -10.9856      3.3968     67.2587   1.0666804401e+02   6.2353899601e+01    0.3989982     0.185339  39.59  0.001921986    2.964    0.663
       114 -10.2731     51.3623     66.3984   8.5939426952e+01   5.8311694607e+01    0.2821063    0.1736496 -24.10 0.0006983544    1.766    0.434
       115 -11.1665     15.4169     63.6285   1.0056524290e+02   6.2451429397e+01    0.3637765    0.2750244 -20.09   0.00230319    1.246    0.197
       116 -12.8068     20.7871     57.7525   9.6549895436e+01   6.3294496531e+01     0.358618    0.2572142 -33.41 0.0008033371    1.160    0.138
       117 -11.5347     97.0941     63.8915   6.8463708085e+01   5.1099279561e+01    0.3607921    0.2434787  26.37            0    1.621    0.383
       118 -10.6444     62.7296     62.1969   8.0020942682e+01   5.7538550317e+01    0.3083399    0.1856351 -44.44  0.001513782    1.623    0.384
       119 -10.3130      7.1693     64.7093   1.0446709321e+02   6.2719363268e+01    0.1743894     0.154274  39.04  0.001192733    1.452    0.311
       120  -9.6086     38.7300     61.2547   8.9616077136e+01   6.0879205593e+01    0.1876727    0.1316264 -23.15  0.001044594    1.347    0.258
       121 -10.3194     10.2898     59.2913   1.0175996535e+02   6.3702566682e+01    0.2239985    0.1696046 -36.71 0.0009648505    1.068    0.064
       122 -10.7255      5.6892     56.9119   1.0326719847e+02   6.4464234121e+01    0.3342147     0.168944 -24.94  0.001121002    1.958    0.489
       123  -9.8001     85.3255     59.2882   7.0745894411e+01   5.4213953934e+01      0.19065    0.1350466  23.19 0.0005026104    1.477    0.323
       124 -12.0226     86.5560     54.4881   6.8641898352e+01   5.4807842537e+01    0.5349969    0.3609868  12.46  0.001479183    1.829    0.453
       125  -9.3630    109.5238     58.3808   6.2888371640e+01   4.9441182143e+01    0.1440976    0.1308156  30.43 -8.303708e-05    1.041    0.039
       126  -9.5068     48.3118     58.3079   8.4559030440e+01   6.0319121600e+01    0.1391298    0.0918929 -16.21 0.0002603493    1.621    0.383
       127  -9.2972     41.4420     58.5073   8.7561399409e+01   6.1123175326e+01    0.1344703      0.11053 -21.79 5.790657e-05    1.045    0.043
       128  -9.9877     71.5933     56.8428   7.4778390071e+01   5.7109458704e+01    0.1950517    0.1287056 -40.37  0.000554584    1.516    0.340
       129 -10.8649     32.9761     55.5849   9.0349707816e+01   6.2628897559e+01    0.4855933    0.1945616 -30.30 0.0003494971    3.176    0.685
       130 -10.3858     37.8722     48.8731   8.5865816230e+01   6.3389387863e+01    0.2887972    0.1725349  16.70  0.001534614    1.732    0.423
       131  -9.3951    104.0000     55.9717   6.3671725233e+01   5.1023432392e+01    0.2206669    0.0811667 -36.90 0.0007247181    2.828    0.646
       132 -10.4828     96.4580     55.9672   6.5957478445e+01   5.2595757277e+01    0.2678287    0.2315254  46.19  0.000423005    1.179    0.152
       133 -10.2663     93.5585     53.4637   6.5993396722e+01   5.3597345596e+01    0.2625587    0.1593125  21.36  0.001136317    2.136    0.532
       134 -10.8648    114.2825     53.7821   6.0032657412e+01   4.9134881104e+01    0.2705677    0.2358062  -0.43 0.0004698689    1.224    0.183
       135 -11.9902     66.9298     52.6192   7.5025187637e+01   5.8636992537e+01    0.4431031    0.2176308  31.79  0.001290345    2.080    0.519
       136 -11.1432    105.9924     50.5816   6.1240699025e+01   5.1452534907e+01    0.2871801    0.2023123 -28.26 0.0005945698    1.506    0.336
       137 -10.6642    120.5495     49.6255   5.7017549890e+01   4.8354935265e+01    0.4633073    0.2481191 -57.77  0.001749853    3.075    0.675
       138 -10.3952      3.8860     50.9302   1.0258301000e+02   6.5799680281e+01     0.200191    0.1220647 -37.95 0.0006268913    1.302    0.232
       139  -9.7448    149.1172     52.1418   5.1383548446e+01   4.1265596458e+01    0.2165462    0.1833164  40.21 0.0006902488    1.232    0.188
       140  -9.0349    101.7152     48.3071   6.1682085052e+01   5.2718690305e+01    0.1313935    0.1121202 -79.06 0.0002898547    1.566    0.361
       141  -9.5313     53.1762     48.2692   7.8951652663e+01   6.1518934458e+01    0.2155638    0.1522297   6.64  0.001183513    1.449    0.310
       142 -10.7064      9.6183     47.9092   9.8967498272e+01   6.6084152492e+01    0.2508435    0.1906639   1.80  0.001271073    1.348    0.258
       143  -9.3336    154.6203     47.2770   4.8889655532e+01   4.0643677226e+01    0.2319592     0.190566 -74.07 0.0006565144    1.304    0.233
       144  -9.6132    152.2384     44.6402   4.8562454234e+01   4.1581775519e+01    0.1961975    0.1285954  62.81 0.0001847387    1.433    0.302
       145 -10.0266    136.5620     46.8575   5.2388135785e+01   4.5022001505e+01    0.2619602    0.1899186  59.10 0.0008319387    1.297    0.229
       146  -9.1617     70.8783     47.0000   7.1446730223e+01   5.8923240145e+01     0.207939    0.0727348  41.21 0.0006347713    2.775    0.640
       147 -11.1463     18.3098     44.6056   9.3669375299e+01   6.6109827693e+01    0.3848928    0.2434631  23.00  0.002295515    1.699    0.411
       148  -9.0319     36.5361     45.4736   8.5257299266e+01   6.4169476226e+01    0.1299617    0.1051204 -16.27 9.410808e-05    1.031    0.030
       149 -10.5302     25.7094     43.8752   8.9805831977e+01   6.5599126677e+01    0.2902628     0.191846 -66.55  0.001270721    2.277    0.561
       150 -10.2444      3.0756     43.0416   1.0080202559e+02   6.7426676000e+01    0.3173124    0.1274788 -41.83  0.001630812    1.883    0.469
       151  -9.6430     69.2539     41.9654   7.0129497306e+01   6.0011091009e+01    0.1812599    0.1570408  -3.52 0.0001816391    1.056    0.053
       152 -10.1952     59.3781     41.8614   7.3945138193e+01   6.1667720507e+01    0.2593952    0.1739862  47.62 0.0008520292    1.819    0.450
       153 -10.1876     35.6105     41.7406   8.4306680294e+01   6.4946599817e+01    0.2811839    0.1913768   1.29   0.00162521    1.453    0.312
       154  -9.5835    182.7762     40.9841   4.2579668380e+01   3.4774726703e+01    0.1715337    0.1086024 -35.47 0.0008687722    1.641    0.391
       155 -10.2065    170.5395     40.1604   4.4174626288e+01   3.7786367361e+01     0.361092    0.2208204 -88.82   0.00148602    2.002    0.501
       156 -10.3454    139.3186     40.6832   4.9883461351e+01   4.5211980121e+01    0.2293758    0.1927588  78.81  0.000516572    1.213    0.176
       157 -10.9636    128.2613     38.9515   5.1681093030e+01   4.8058499281e+01    0.3394704    0.2099961 -48.59 0.0009212103    1.879    0.468
       158  -9.2879     89.7486     40.9909   6.2667918532e+01   5.6289015074e+01    0.1654184    0.1150948 -29.24 0.0005756586    1.500    0.333
       159  -9.3282     99.4273     40.5036   5.9555260315e+01   5.4345511968e+01    0.1369936    0.1243933  27.15 5.963517e-05    1.011    0.011
       160  -9.3747     42.8133     40.6817   8.0585390629e+01   6.4249128747e+01    0.1660573     0.107706  34.57  0.000458768    1.642    0.391
       161 -10.1270     10.9128     39.6998   9.5769788574e+01   6.7596435464e+01    0.2791969    0.1366114  27.49  0.001505897    2.276    0.561
       162  -9.5429    152.0053     39.2513   4.7019426285e+01   4.2357061240e+01    0.1967062    0.1694016  65.92 0.0006274839    1.067    0.063
       163 -11.7397    121.1934     37.3180   5.2751326683e+01   4.9918527112e+01    0.3887869    0.3567991  22.35  0.001284229    1.118    0.105
       164 -10.5320     22.0742     38.2163   8.9573668247e+01   6.6976790682e+01    0.2023159    0.1524253 -36.89 0.0006021375    1.188    0.158
       165  -8.9729    239.2944     37.3376   3.5339275812e+01   2.2827093364e+01    0.1059672   0.09625079  21.69 0.0006067596    1.649    0.394
       166 -12.2949     39.8614     32.3982   7.8616450224e+01   6.5997274298e+01    0.3588639    0.2262493 -23.73 0.0004331722    1.485    0.327
       167  -9.6484    184.4777     36.2074   4.1118255531e+01   3.4994482824e+01    0.2110509     0.147426  62.88 0.0007429639    1.363    0.266
       168  -9.3408     90.3219     35.6633   6.0480195475e+01   5.6916610928e+01    0.1467271    0.1227935  23.00 0.0005284083    1.103    0.093
       169 -10.8852     92.1826     32.8255   5.8835144172e+01   5.6907259604e+01    0.4473734    0.3179283 -80.22  0.002082861    2.671    0.626
       170 -10.9258     48.4508     33.0322   7.4989488450e+01   6.4717087291e+01    0.4271962    0.2723492  37.25  0.001957383    1.617    0.382
       171 -11.2248     27.3730     34.4612   8.5494270848e+01   6.7119753744e+01    0.2891391    0.1783971 -15.73 0.0008528568    1.580    0.367
       172 -10.3579      7.2592     34.1741   9.5827340716e+01   6.8873300687e+01    0.2015745    0.1727212 -47.13  0.001306673    1.322    0.244
       173  -9.7561    133.8607     34.5751   4.9074347935e+01   4.7295036096e+01    0.1910445   0.09595526  40.17 0.0007953845    2.234    0.552
       174  -9.3542    241.8408     33.1964   3.4274443518e+01   2.2846615641e+01    0.1411608    0.1312246 -68.27 0.0003767291    1.264    0.209
       175 -10.5926     70.7156     28.6120   6.4223372447e+01   6.1673174908e+01    0.2899337     0.246913 -71.15  0.001576686    1.866    0.464
       176  -9.9864     55.2262     33.1283   7.2130537526e+01   6.3680052608e+01    0.1871497    0.1447075  -2.49 0.0003495219    1.179    0.152
       177 -10.0053     17.5583     32.5445   8.9778619014e+01   6.8388331851e+01    0.3112778    0.1548115   0.12  0.001357431    2.416    0.586
       178  -9.6415    162.6578     31.6415   4.3047909331e+01   4.0747579783e+01    0.1976314    0.1408011  37.41 0.0007017882    1.671    0.402
       179 -10.0783    143.6312     30.3886   4.5879313120e+01   4.5469777544e+01    0.2787429    0.1540221 -47.07 0.0006784585    2.024    0.506
       180 -11.4388     10.4046     29.8483   9.2585093391e+01   6.9436188917e+01    0.3020863    0.1847732  29.70  0.001687269    1.930    0.482
       181 -10.2834    127.1847     30.0094   4.8983186308e+01   4.9425144207e+01    0.2786617    0.1795695  30.70 0.0004819241    1.823    0.451
       182  -9.6169    151.1137     29.5130   4.4305291358e+01   4.3775770387e+01    0.1925498    0.1212019  64.06 0.0002978571    1.429    0.300
       183  -9.2605    123.5068     28.0046   4.9101545896e+01   5.0520746194e+01    0.1758896    0.1355877 -23.47 0.0003912354    1.454    0.312
       184 -10.1000    113.9526     26.4137   5.0700024274e+01   5.2910536385e+01    0.2139673    0.1767718 -40.68 0.0007033403    1.371    0.270
       185 -10.3916     46.8079     26.0605   7.2736292856e+01   6.5990746821e+01     0.269798    0.1931293 -35.93  0.001639197    1.504    0.335
       186  -9.9399      2.7811     26.5864   9.5609922469e+01   7.0526914027e+01    0.2018056    0.1277085 -10.17  0.001079528    1.426    0.299
       187  -9.8816    229.8277    247.8798   7.8919103155e+01  -9.1984696756e+00    0.1721728    0.1255216  -1.52 0.0004650831    1.093    0.085
       188  -9.8188      7.6059     14.1861   8.7765657955e+01   7.2256565257e+01    0.1551383   0.09808746 -14.42 0.0001094487    1.318    0.241
       189 -10.3461    225.1347    247.3709   7.9693276391e+01  -8.5490941804e+00    0.2138364    0.1545774 -27.57  0.001423273    1.387    0.279
       190  -9.4608    170.6293    247.1490   9.0262571660e+01  -1.0853481609e+00    0.1651117    0.1099509 -28.07  0.000648857    1.680    0.405
       191  -9.4991    116.1418    246.7581   1.0159912352e+02   7.0327282229e+00    0.1611439    0.1416896   6.75  0.001036641    1.292    0.226
       192 -10.1708     33.5241    247.3148   1.1852658997e+02   1.7748597273e+01    0.1878125    0.0910726  35.91 0.0005065389    1.871    0.466
       193  -9.6398     59.6075     25.8003   6.7238292103e+01   6.4002599798e+01    0.2067828    0.1542554 -34.47 0.0006072968    1.489    0.328
       194  -9.4583     52.7133     26.0482   7.0170793469e+01   6.5093070483e+01    0.1682292    0.1382068  -2.50  0.000317662    1.067    0.063
       195 -11.0690      1.9428    247.3539   1.2436622954e+02   2.0959542988e+01    0.4789784    0.2372473  78.09  0.002939912    1.713    0.416
       196 -10.7224    228.2040     21.3075   3.2993821055e+01   2.7077037804e+01    0.4093468    0.2630288  89.93  0.002208175    1.433    0.302
       197  -9.8369     97.2266     21.9940   5.3271135662e+01   5.7129740098e+01    0.1721717    0.1521931  28.28  0.001077063    1.057    0.054
       198 -10.8460     54.6463     21.9838   6.7571035095e+01   6.5327499559e+01    0.2205441    0.1562994  29.14 0.0004684364    1.247    0.198
       199 -10.4860     30.3310     21.0874   7.8347614297e+01   6.8920388863e+01    0.2882195    0.1867262   8.17  0.001289545    1.440    0.306
       200  -9.9712    181.2227     21.0111   3.7659630604e+01   3.7566292110e+01    0.1948982    0.1427322  28.60 0.0008092677    1.934    0.483
       201  -9.4011    165.1376     20.8545   3.9696007160e+01   4.1388227142e+01    0.1745653    0.1454742  45.05 0.0006829574    1.327    0.246
       202  -9.3960    132.1367     20.7955   4.4996912292e+01   4.9281543916e+01    0.1806778    0.1396368  41.37  0.000443803    1.288    0.223
       203  -9.5781    100.8469     21.1697   5.2009267520e+01   5.6429546252e+01    0.1917721     0.138031  30.20  0.001071909    1.368    0.269
       204  -9.3278     84.4419     21.4209   5.6703660804e+01   5.9884351555e+01    0.1314156    0.1093398  29.69 0.0001416664    1.037    0.035
       205  -9.7030     45.8212     20.8888   7.0865084344e+01   6.6852282604e+01    0.1540205    0.1392382  16.35 0.0006780226    1.294    0.227
       206 -11.1547     38.4935     19.0851   7.3413627667e+01   6.8148539180e+01    0.3032213    0.2276624  37.57  0.001640869    1.542    0.351
       207 -11.0204    209.0727     18.2712   3.4037567640e+01   3.1530379864e+01    0.1768284    0.1383196 -83.34 0.0005940434    1.085    0.079
       208  -9.0222    141.2976     18.2766   4.2581087112e+01   4.7362095013e+01    0.1310429   0.08988515  41.11 0.0003258438    1.533    0.348
       209 -10.0757     70.5235     17.2940   5.9492395841e+01   6.3084890836e+01    0.2213734    0.1154855 -33.02  0.001124601    2.092    0.522
       210  -9.2225     61.5753     18.5261   6.3280522166e+01   6.4579256511e+01    0.1268775    0.1034151  15.91 0.0001407518    1.024    0.023
       211  -8.9610     86.3537    245.2779   1.0771454292e+02   1.1554794283e+01    0.1163369   0.09579963   1.44 0.0007009645    1.650    0.394
       212  -9.5288    145.7453     17.0419   4.1480209035e+01   4.6424845731e+01    0.1679343    0.1598492  74.58  0.000315559    1.097    0.088
       213  -9.6348     39.6420    243.3238   1.1707630480e+02   1.7850439605e+01    0.1322093    0.0667845  60.57 0.0007044503    1.773    0.436
       214 -10.9624    202.6496     16.1188   3.4161885723e+01   3.3194925340e+01    0.2214257    0.1466211 -86.94 0.0007314417    1.379    0.275
       215  -9.6795     26.9967     16.5812   7.7984145458e+01   6.9969278282e+01    0.1677482    0.1003568  24.64 0.0005901086    1.550    0.355
       216 -10.6916    217.2025     14.8587   3.2560714375e+01   3.0141802337e+01    0.1514704    0.1376708  69.29 0.0009755796    1.324    0.245
       217  -9.1683    202.3322    240.3054   8.2871867346e+01  -4.5346361814e+00    0.1299869   0.08309142   0.81 0.0003699198    1.661    0.398
       218  -9.9998     35.9625    240.2877   1.1759623037e+02   1.8875847476e+01    0.1695063    0.1283672  53.63 0.0005820071    1.120    0.107
       219  -9.9241     14.3219    164.3235   1.1652689182e+02   3.8263547748e+01    0.1296417   0.08469076 -48.01 0.0004416774    1.679    0.405
       220  -9.8776     91.0615    237.1797   1.0586663689e+02   1.2487274580e+01     0.178305    0.1682106   1.45 0.0006282105    1.292    0.226
       221 -11.5674     25.1933    235.8927   1.1943431749e+02   2.0938357574e+01    0.2802764    0.1626081  32.15  0.001183733    1.789    0.441
       222  -9.5965    249.2474    233.7775   7.3161843214e+01  -9.6437387173e+00    0.1595116    0.1059725  -4.84 0.0005427039    1.276    0.216
       223  -9.1857    243.0276    230.2503   7.3644753696e+01  -8.4122870486e+00    0.1440855   0.08860971  24.30 0.0006044512    1.525    0.344
       224  -9.0530     99.0247     14.4554   4.9934529825e+01   5.7516961636e+01    0.1849918   0.08172151  39.40 0.0005595006    2.237    0.553
       225 -10.8234    208.2550     13.0192   3.2940405660e+01   3.2288560391e+01    0.1680561    0.1385823 -65.09 0.0003909106    1.102    0.093
       226  -9.4007     72.4393     13.4811   5.7191022791e+01   6.3128079116e+01    0.1283976    0.1032528  25.61 5.904699e-05    1.051    0.048
       227  -9.4591     47.7816    229.8241   1.1441292892e+02   1.9672488696e+01    0.1718917     0.114746  62.66 0.0002194317    1.313    0.238
       228 -12.1814      5.2596    240.6963   1.2347519887e+02   2.1951585178e+01    0.5139962    0.2212189  44.54  0.002994441    1.848    0.459
       229  -9.8351    209.4836    229.5318   7.9710013599e+01  -3.8876153946e+00    0.1275405    0.1039993   3.12 4.337193e-05    1.005    0.005
       230 -10.9086    140.4907    228.1441   9.3858927851e+01   6.8103129788e+00    0.2998397    0.2271176 -74.90  0.001614562    1.797    0.444
       231  -9.8833    223.1650    226.8701   7.6658841035e+01  -5.3650224165e+00    0.1746793    0.1216439  -5.92 0.0004212536    1.315    0.240
       232  -9.0671    167.3256    221.6945   8.7010214551e+01   3.7612488707e+00    0.1290869    0.1042342  61.03 0.0007034699    1.647    0.393
       233 -10.7583      8.4606    218.1115   1.2171471688e+02   2.6320016135e+01    0.2236276    0.1908788  39.16   0.00118608    1.373    0.271
       234  -9.3576    233.3052    218.7083   7.3375931711e+01  -5.5004622099e+00     0.101935     0.100709  -8.94 0.0002935564    1.575    0.365
       235  -9.9262      3.7356     10.6042   8.8490659329e+01   7.3112175551e+01    0.1276106   0.09164952  14.91 0.0002594594    1.423    0.297
       236  -9.9749     15.7941    213.1711   1.1991507859e+02   2.6709257219e+01     0.188883    0.1308786  66.84 0.0007825536    1.201    0.167
       237  -9.7483    205.5044    212.4919   7.7526420814e+01  -5.6540103412e-01    0.1333806    0.1121294  -0.80  8.38384e-05    1.010    0.010
       238  -8.9906    249.3357    211.3203   6.9245986181e+01  -6.4930846945e+00    0.1287475    0.0784452  -6.16 0.0007049742    1.705    0.413
       239  -9.9051     20.3787    209.7186   1.1871490763e+02   2.7030916458e+01    0.1964957    0.1050937  64.40 0.0006080067    1.714    0.417
       240  -9.7314    124.0029    205.9618   9.4253970235e+01   1.3947002339e+01    0.1955296    0.1812642  31.54  0.001137948    1.032    0.031
       241  -9.4570    193.5176    202.4642   7.8119423088e+01   3.0469515314e+00    0.1362916    0.1216275   1.31 0.0002593517    1.039    0.037
       242 -10.7369      3.4271    201.7923   1.2181999536e+02   3.0341512914e+01    0.1667945   0.08997715 -68.97 0.0005612916    1.695    0.410
       243  -9.8068     24.3164    195.9919   1.1681788362e+02   2.9774313806e+01    0.1878078    0.1576881 -70.45 0.0008104354    1.235    0.190
       244  -9.7040     13.8113    192.5871   1.1894708929e+02   3.1546866869e+01     0.162195   0.09711604  48.01 0.0005650856    1.565    0.361
       245  -9.9556      5.8865    191.8427   1.2067183317e+02   3.2396609573e+01    0.1785344    0.1468274 -78.59 0.0008079269    1.180    0.152
       246  -9.7697      1.2578    191.3591   1.2166339323e+02   3.2880137249e+01    0.1975931   0.08655448 -82.18 0.0005504676    1.927    0.481
       247  -8.8972      7.3401    188.2814   1.2010782150e+02   3.3101007024e+01    0.1146931   0.08510309 -48.98 0.0003852512    1.627    0.385
       248  -9.3271     22.0234    180.0172   1.1601233251e+02   3.3778960320e+01     0.152223    0.1320295  75.84 0.0004503027    1.075    0.070
       249 -10.3389      4.2300    167.5810   1.1933610037e+02   3.8245569927e+01    0.1489549    0.1218436  -6.00 0.0009551002    1.671    0.402
