#   1 NUMBER                 Running object number                                     
#   2 MAG_AUTO               Kron-like elliptical aperture magnitude                    [mag]
#   3 X_IMAGE                Object position along x                                    [pixel]
#   4 Y_IMAGE                Object position along y                                    [pixel]
#   5 X_WORLD                Barycenter position along world x axis                     [deg]
#   6 Y_WORLD                Barycenter position along world y axis                     [deg]
#   7 A_WORLD                Profile RMS along major axis (world units)                 [deg]
#   8 B_WORLD                Profile RMS along minor axis (world units)                 [deg]
#   9 THETA_WORLD            Position angle (CCW/world-x)                               [deg]
#  10 FWHM_WORLD             FWHM assuming a gaussian core                              [deg]
#  11 ELONGATION             A_IMAGE/B_IMAGE                                           
#  12 ELLIPTICITY            1 - B_IMAGE/A_IMAGE                                       
         1 -13.4911     66.6158    143.3428   1.2946560505e+02   3.8560335643e+01      2.76819     1.229974 -87.29  0.003074075    5.484    0.818
         2 -13.9231    191.3753     23.8122   6.7155663954e+01   3.4427503814e+01     1.911675      1.23902  -2.21  0.007668194    2.231    0.552
         3 -14.2026    199.4268     17.6806   6.4470106400e+01   3.3050966398e+01     1.686311     1.558154  50.20  0.007010561    1.216    0.177
         4 -13.6502    204.3792     10.8406   6.2093401604e+01   3.2529304880e+01      1.34745    0.7225734  44.36  0.001463099    2.303    0.566
         5 -13.5476      3.2411      8.8753   1.1933902337e+02   7.3452512264e+01     1.419673    0.5797294 -46.87  0.008139176    1.869    0.465
         6 -11.1517     12.4963     23.9789   1.2047602533e+02   7.0229831824e+01    0.1836816    0.1522569  28.96 0.0007076073    1.568    0.362
         7 -10.9751    248.5415    250.0169   1.0870384441e+02  -1.0713423507e+01    0.3171334    0.1261115  35.50  0.001740029    2.011    0.503
         8 -14.4732    102.9271    246.1359   1.3407351272e+02   1.2148203136e+01     4.177178     2.887112  26.69   0.01265829    1.911    0.477
         9 -15.2450     53.8615    214.4055   1.4043479030e+02   2.4718802735e+01     2.943967     1.406192  56.82   0.01224731    1.767    0.434
        10 -15.4605      3.7508    236.4434   1.5054974633e+02   2.6126726881e+01     9.632565    0.2889795 -73.65   0.03058327    8.139    0.877
        11 -11.3315     57.1364    240.5948   1.4180268665e+02   1.9438871446e+01    0.1950176    0.1487535 -83.88  0.001051644    1.364    0.267
        12 -15.0914     10.6616    207.4646   1.4806085794e+02   3.0855433691e+01      2.90422     1.408949 -71.53   0.01263905    1.910    0.477
        13 -10.2932     33.1760    228.8555   1.4524537661e+02   2.4435309266e+01    0.1807118    0.1255088  69.15 0.0003562423    1.040    0.038
        14 -10.9413     35.4716    225.0233   1.4460512493e+02   2.4887830557e+01    0.3474321    0.1778734  46.11  0.001581538    1.626    0.385
        15 -13.7763     82.4492    236.7374   1.3695104645e+02   1.6720403015e+01     1.336061    0.5925704  73.77  0.003481448    3.607    0.723
        16 -14.4976     34.6670    247.4650   1.4604173229e+02   2.0951519414e+01     3.070146    0.8319756  44.35   0.01598515    2.537    0.606
        17 -10.2118    229.4873    206.9698   1.0482727396e+02  -2.8546587527e+00    0.2381091    0.2049538 -61.41  0.001109584    1.856    0.461
        18 -10.5727    194.1996    196.9924   1.0958876371e+02   4.7464976468e+00    0.4673301     0.215135 -57.31  0.001524764    5.206    0.808
        19 -11.7904     69.7330    193.6051   1.3526947076e+02   2.6845350935e+01    0.3812145    0.2506765 -45.37    0.0017668    2.156    0.536
        20 -11.8329     74.5908    186.6305   1.3343253796e+02   2.7643187955e+01    0.2777588    0.2312614 -58.53  0.000875514    1.404    0.288
        21  -8.7536    181.5332    192.4647   1.1127995098e+02   7.8406240734e+00    0.1376583    0.1210372  29.53 1.770704e-05    1.024    0.024
        22 -11.1641     83.1623    174.8323   1.2999968734e+02   2.8954283964e+01    0.2396809    0.2114531 -83.06 0.0003865227    1.118    0.105
        23 -13.4153     70.8367    172.0707   1.3249410115e+02   3.1363382621e+01     0.473219    0.2752087 -46.07  0.001931432    2.243    0.554
        24 -12.6593     87.6107    165.2251   1.2756866742e+02   3.0416323796e+01     2.008017    0.6719277  54.17  0.002722129    4.199    0.762
        25 -12.3136    139.9316    248.5478   1.2758147132e+02   6.0647417523e+00    0.4388376    0.3178999  65.93  0.002862496    1.491    0.330
        26 -11.4799     34.4310    157.4336   1.3935466433e+02   3.9118972674e+01    0.4850217    0.2156449  70.95  0.002098702    2.832    0.647
        27 -10.0449    101.8416    149.8783   1.2149192841e+02   3.1567451553e+01    0.3061357    0.2844535 -29.18 0.0008140895    1.296    0.228
        28  -9.7359    104.1951    146.1899   1.2020538896e+02   3.2001653012e+01    0.2904337    0.1909392 -40.07  0.001340982    1.827    0.453
        29 -10.6809     43.5714    149.0439   1.3617586778e+02   4.0066056574e+01    0.2781516    0.1195385  51.14  0.001261983    2.415    0.586
        30 -12.3143     67.9050    222.2003   1.3840167163e+02   2.1386698264e+01    0.3766283    0.2541621  73.99 0.0008633919    1.290    0.225
        31 -12.2176     90.4757    149.3108   1.2427753636e+02   3.3604306429e+01    0.2758676    0.2572128 -35.78 0.0005253431    1.288    0.224
        32  -9.8052    111.9666    135.5560   1.1606102522e+02   3.3026721018e+01    0.2822349    0.2022732 -35.92  0.001127441    1.660    0.398
        33 -10.6746     99.4231    132.8561   1.1881302576e+02   3.5928325530e+01    0.2751386    0.2304276 -27.00 0.0004364988    1.474    0.321
        34 -11.9093     43.6120    127.9736   1.3331227730e+02   4.5002946521e+01    0.4015219    0.2457433 -88.68  0.001753184    1.710    0.415
        35  -9.3805    108.3179    123.0333   1.1427254661e+02   3.6588277843e+01    0.1977498    0.1798615 -62.87 0.0003157969    1.068    0.064
        36 -11.2569    168.1671    113.1860   9.6864664555e+01   2.5779886423e+01     0.386458    0.3233928 -80.68 0.0008995816    1.416    0.294
        37  -9.5090    204.5452    110.9584   8.8878659793e+01   1.7645663115e+01    0.3452136    0.1762625  36.22  0.001279194    2.498    0.600
        38 -11.8947      1.8067     89.8979   1.4030533033e+02   5.7148168442e+01     0.721056    0.1197861 -73.29  0.002193298    5.410    0.815
        39 -11.2417      2.1611     80.7307   1.3887050378e+02   5.9173486704e+01    0.3369564    0.1168653 -68.77  0.001610581    2.155    0.536
        40  -9.4621    155.5047     76.4786   8.9406814979e+01   3.5912841764e+01    0.1542265    0.1519599  70.62 0.0001637336    1.003    0.003
        41 -10.0588    128.2555     54.4611   8.8827418678e+01   4.6376060295e+01    0.3271803    0.2524011  78.54  0.001569133    1.613    0.380
        42 -11.2070    122.9991     51.3464   8.9097071006e+01   4.8117507224e+01    0.4412597     0.304639  80.42  0.001401961    2.129    0.530
        43 -14.7634      8.2523    151.2283   1.4491986642e+02   4.2880477708e+01     2.158504     1.112043  88.64 0.0009223915    1.658    0.397
        44 -11.1275     70.4818    243.9666   1.3970149382e+02   1.7109889578e+01    0.2097288    0.1316068 -78.26 0.0006268907    1.678    0.404
        45 -13.7226     46.5003    228.1364   1.4283000859e+02   2.3011816699e+01    0.6778919    0.3875967  78.68  0.001775577    1.552    0.356
        46  -9.9217    224.3179    245.3500   1.1204467815e+02  -6.7763989081e+00    0.1208625   0.07306296  12.50 2.339703e-05    1.735    0.424
