#   1 NUMBER                 Running object number                                     
#   2 MAG_AUTO               Kron-like elliptical aperture magnitude                    [mag]
#   3 X_IMAGE                Object position along x                                    [pixel]
#   4 Y_IMAGE                Object position along y                                    [pixel]
#   5 X_WORLD                Barycenter position along world x axis                     [deg]
#   6 Y_WORLD                Barycenter position along world y axis                     [deg]
#   7 A_WORLD                Profile RMS along major axis (world units)                 [deg]
#   8 B_WORLD                Profile RMS along minor axis (world units)                 [deg]
#   9 THETA_WORLD            Position angle (CCW/world-x)                               [deg]
#  10 FWHM_WORLD             FWHM assuming a gaussian core                              [deg]
#  11 ELONGATION             A_IMAGE/B_IMAGE                                           
#  12 ELLIPTICITY            1 - B_IMAGE/A_IMAGE                                       
         1 -13.5297     68.8962    145.3184   1.1008533168e+02   3.6933997937e+01     2.108016     1.098902  85.24  0.006781857    3.172    0.685
         2 -11.1512    210.9935     23.7111   4.5519389735e+01   2.9307974503e+01    0.4758124     0.339297  39.80  0.001078159    1.710    0.415
         3 -12.4645    217.9467     15.8384   4.2731316187e+01   2.8509107363e+01    0.7744696    0.7010214 -72.33  0.002893855    1.041    0.040
         4 -12.6191    202.6310     31.5329   4.8649826868e+01   3.0443211785e+01     1.045099    0.9658521  51.71  0.006009432    1.173    0.147
         5  -9.3704     44.8845     30.3107   8.8361941898e+01   6.5256430226e+01    0.4102482    0.1591691 -34.78  0.001792329    2.425    0.588
         6 -12.1813    246.6767    246.0983   8.9659485732e+01  -1.0618780501e+01    0.6830155    0.3953674  -7.54  0.002947403    1.829    0.453
         7 -15.5048     22.3214    245.4755   1.2874360967e+02   2.1735192640e+01     3.194409      2.86413   1.81   0.01837883    2.221    0.550
         8 -17.2246      9.6819    215.8620   1.2935519529e+02   2.8383535852e+01     4.160698      1.44422 -75.96   0.02289712    2.436    0.590
         9 -10.7628    161.6047    224.7800   1.0166281517e+02   5.4546777879e+00    0.2110592    0.1849986  -6.30  0.001388369    1.349    0.259
        10  -9.7540    175.4899    219.4950   9.8206690953e+01   3.9142522733e+00    0.2094879    0.1191614 -30.35  0.001042089    2.317    0.568
        11  -9.8689     73.2832    203.4566   1.1653066525e+02   2.3439614876e+01    0.2877473    0.1588324 -82.53  0.001515572    1.932    0.482
        12  -8.2455     96.3593    201.2692   1.1156037164e+02   2.0499942199e+01    0.1161155    0.1018692   6.40  0.000260508    1.644    0.392
        13 -10.4667    193.0841    193.7225   9.0417917648e+01   4.8936817595e+00    0.6413362    0.4224426 -62.21  0.003033543    2.475    0.596
        14  -8.5920     82.5332    195.0098   1.1369190755e+02   2.3859152509e+01    0.1867119      0.11752 -70.13 0.0008497954    1.584    0.369
        15  -9.0204     73.1782    187.9722   1.1485348880e+02   2.6679914922e+01    0.1988513    0.1641192  78.29 0.0007211377    1.025    0.024
        16 -10.7882     66.2180    180.8327   1.1553106575e+02   2.9176856913e+01    0.3919156    0.2687445 -40.33   0.00211889    2.136    0.532
        17 -10.6716     70.9693    175.2449   1.1380131712e+02   2.9763397092e+01    0.2945864    0.2394687 -47.78 0.0008546147    1.519    0.342
        18  -8.3828     99.5128    180.5374   1.0810549198e+02   2.4318224189e+01    0.1345556    0.1206566  72.11 0.0008091924    1.028    0.027
        19  -9.4552     52.7150    250.6416   1.2414410490e+02   1.7372092877e+01    0.2156487   0.08719121  38.19 0.0005425984    2.371    0.578
        20  -8.8736    138.3065    170.6637   9.7709990290e+01   1.9580189136e+01    0.1471838    0.1101627  79.25 0.0007041013    1.673    0.402
        21  -9.1846    194.8612    168.3888   8.5118292159e+01   8.8723927051e+00    0.2681966    0.2258046   3.42   0.00101327    1.222    0.182
        22 -12.1425     67.5682    161.7130   1.1281573896e+02   3.3289113065e+01    0.4682222    0.3504109 -47.29  0.001188833    1.576    0.365
        23 -13.1935     58.9343    132.9629   1.1070966344e+02   4.1175289497e+01     2.432015    0.7175021 -71.21  0.006669039    5.412    0.815
        24 -12.8070    131.5349    230.6795   1.0820524245e+02   9.4811366428e+00    0.8599104    0.3760104  45.80  0.004218469    1.875    0.467
        25 -10.1856     54.1754    148.9548   1.1432383661e+02   3.7970297923e+01      0.21284    0.1582967  80.39  0.001235205    1.281    0.219
        26 -11.0861     32.9107    143.0809   1.1884654281e+02   4.1670027699e+01    0.7672519    0.1144033 -68.03  0.002317864    4.880    0.795
        27 -11.3582     47.5648    145.8757   1.1555430625e+02   3.9467425983e+01    0.3907287     0.246793 -37.29  0.001992624    2.240    0.554
        28 -10.7020     39.7077    146.0770   1.1752910296e+02   4.0280318355e+01    0.3510553    0.1459391 -60.66  0.001346038    2.050    0.512
        29  -9.5903    100.1040    143.8797   1.0185167771e+02   3.2481309019e+01    0.3047951    0.2366623 -34.20  0.001551571    1.568    0.362
        30 -15.4552     15.8579     83.3311   1.1506109499e+02   5.6996520950e+01     2.984885    0.9424837 -53.39  0.007270953    2.303    0.566
        31 -11.1187     87.9875    142.7566   1.0475017420e+02   3.4731571174e+01    0.4325298    0.3123889  21.44  0.002156661    1.827    0.453
        32  -8.5708    110.9333    131.8477   9.6597625707e+01   3.3359805064e+01    0.2374505    0.1775985   4.03  0.001065713    2.024    0.506
        33  -9.1606    105.8978    130.6392   9.7659184449e+01   3.4558393763e+01    0.2970354    0.2165208 -65.57  0.001442607    1.400    0.285
        34 -11.4077     46.3624    129.5812   1.1355718245e+02   4.3458532805e+01    0.4585322    0.2656938  35.71  0.002409374    1.926    0.481
        35 -10.5270     80.0843    165.4401   1.1037835032e+02   3.0669954980e+01    0.3093825    0.2701644  85.26  0.000376954    1.006    0.006
        36  -8.4051    107.3422    120.0502   9.4893379787e+01   3.6760569190e+01    0.2045258    0.1777614 -56.16 0.0004236771    1.100    0.091
        37 -16.4351      8.8465     29.1810   1.0446347214e+02   6.8817276032e+01     2.967064    0.9137313 -54.83   0.01385456    2.493    0.599
        38  -9.6741     97.9165    128.1930   9.9265416147e+01   3.6534309051e+01    0.2973896    0.2431731 -28.03  0.001177465    1.471    0.320
        39  -8.2710    168.1952    112.8053   7.7824252763e+01   2.5386178730e+01    0.2641559    0.1740469 -80.64 0.0009419451    2.798    0.643
        40  -8.6530    134.5849    112.2151   8.5732805145e+01   3.3074723756e+01    0.2325476    0.1459549 -34.93 0.0009608148    1.738    0.425
        41  -8.2479    205.5236    110.4224   6.9548567254e+01   1.7165324113e+01    0.1504469    0.1438136 -11.71 0.0002165217    1.031    0.030
        42 -15.7260      7.2323    232.5916   1.3054121327e+02   2.5533252626e+01    0.8121789    0.5890505  73.71  0.004226414    1.102    0.092
        43 -11.6940     85.9483    159.1480   1.0802824736e+02   3.1228533157e+01    0.7438806    0.5457011 -36.65   0.00217012    1.796    0.443
        44  -8.5516    134.5934    102.8074   8.3213229905e+01   3.5112510998e+01    0.2256789    0.1452879 -54.19 0.0009447481    1.663    0.399
        45  -8.3283     91.8268    102.8714   9.5108889664e+01   4.3501040146e+01    0.1947429    0.1685835 -89.75 0.0004416388    1.300    0.231
        46 -10.7459    153.8976    228.2030   1.0361920786e+02   6.2078720454e+00    0.2603977    0.1892347  88.32   0.00147078    2.071    0.517
        47  -9.5774    144.1743     49.0608   6.4177865986e+01   4.2962726434e+01    0.3022719    0.2396305  84.79 0.0006510157    1.527    0.345
        48  -8.4103     77.2623    234.6470   1.1872415326e+02   1.6955831439e+01    0.1192257   0.06979099  69.70 0.0004855526    1.617    0.381
        49  -9.9251     83.4212    232.1219   1.1737944589e+02   1.6549787764e+01    0.2216535    0.1508925  62.05  0.000700068    1.202    0.168
        50 -11.9778    194.8862     37.9983   5.1522108106e+01   3.1572433891e+01    0.6620762     0.526594  60.88  0.002360388    1.238    0.192
        51 -16.8679     14.8884     59.0601   1.1036549430e+02   6.2418351314e+01     6.913575     3.411399 -76.30   0.03284445    2.592    0.614
