#   1 NUMBER                 Running object number                                     
#   2 MAG_AUTO               Kron-like elliptical aperture magnitude                    [mag]
#   3 X_IMAGE                Object position along x                                    [pixel]
#   4 Y_IMAGE                Object position along y                                    [pixel]
#   5 X_WORLD                Barycenter position along world x axis                     [deg]
#   6 Y_WORLD                Barycenter position along world y axis                     [deg]
#   7 A_WORLD                Profile RMS along major axis (world units)                 [deg]
#   8 B_WORLD                Profile RMS along minor axis (world units)                 [deg]
#   9 THETA_WORLD            Position angle (CCW/world-x)                               [deg]
#  10 FWHM_WORLD             FWHM assuming a gaussian core                              [deg]
#  11 ELONGATION             A_IMAGE/B_IMAGE                                           
#  12 ELLIPTICITY            1 - B_IMAGE/A_IMAGE                                       
         1 -15.2443     12.3949     75.1317   5.9531470728e+01   6.2328207752e+01     3.510133     2.661232 -26.06   0.01880944    1.359    0.264
         2  99.0000     66.5600     20.8444   1.0940307558e+01   6.5084617835e+01     1.317371     1.117912 -61.88  0.007741837    1.346    0.257
         3 -13.7036    119.6400     10.1141   3.5428535431e+02   5.3377397046e+01     1.202325    0.5228614  69.40   0.00543113    2.009    0.502
         4 -14.7733     89.0617      6.8056   3.5812292865e+02   6.1254918001e+01     3.037883     1.152275  61.27   0.01295231    2.170    0.539
         5 -15.0591     11.0297     24.3839   4.4631115124e+01   7.4370727990e+01     3.109755     1.600375 -36.58   0.01511833    1.975    0.494
         6 -12.3757    134.1749     32.4544   3.5969623408e+02   4.7281965040e+01    0.6993443    0.5023656 -53.16  0.002534893    1.326    0.246
         7 -12.3182    179.9966     22.9994   3.5156515648e+02   3.7866350060e+01    0.5276921    0.2509381 -32.62  0.002657483    2.010    0.502
         8 -14.9941     44.4086     43.7436   3.1722314798e+01   6.5825111765e+01     2.051615     1.738339  -5.30  0.006747952    1.273    0.214
         9 -12.1682    131.0283     11.0726   3.5312887297e+02   5.0492163568e+01    0.6900861    0.3769576 -47.66  0.003515841    1.741    0.426
        10 -11.1930    143.3321     14.6788   3.5284230366e+02   4.7155829887e+01    0.5372179    0.2007108  84.91  0.002039351    3.119    0.679
        11 -12.0510    174.9476     13.2923   3.4947618315e+02   4.0037556893e+01     0.304067    0.2268754 -79.03 0.0009820298    1.153    0.133
        12 -12.2037    186.2879      3.5859   3.4624622510e+02   3.8577357229e+01    0.3476012    0.3165588  35.88  0.002363422    1.582    0.368
        13 -13.3868    185.1903     10.1219   3.4792444568e+02   3.8154663631e+01    0.7751321    0.3988203 -64.93  0.003485716    1.713    0.416
        14 -10.2647    202.0894     11.2193   3.4712024849e+02   3.4556790602e+01    0.1588607    0.1441208 -78.22  0.000585107    1.273    0.214
        15 -11.4534    155.3863     10.3504   3.5032630725e+02   4.4763844294e+01    0.2750811    0.1766473 -61.21  0.000787513    1.371    0.271
        16 -12.7535    148.6899      6.7389   3.4988075052e+02   4.6684089507e+01    0.5411149    0.3086138 -69.92  0.001354484    1.641    0.391
        17 -12.3736    137.7226      4.6735   3.5030069601e+02   4.9485773731e+01    0.4469025    0.2947258 -78.62 0.0007328417    1.367    0.268
        18 -10.6623    131.0845      1.4854   3.4994025942e+02   5.1371821316e+01     0.252993    0.1567885  89.05 0.0005887733    1.435    0.303
        19 -12.9623    165.2471      2.8075   3.4741216871e+02   4.3243745813e+01    0.7608767    0.2823288  73.69  0.003528524    2.441    0.590
        20 -10.4673    215.8491      2.4216   3.4446562809e+02   3.2774360560e+01    0.1809532    0.1106854 -51.95 0.0004074316    1.205    0.170
        21 -11.2727    178.7978      8.4012   3.4792972391e+02   3.9702048925e+01    0.2184771    0.1843542  61.80 0.0007757067    1.455    0.313
        22 -15.3170     60.6082     41.1310   2.2870470643e+01   6.3254021000e+01     2.636328     1.582837  32.41   0.01193949    1.886    0.470
        23  -9.8354    128.8119     82.4065   1.6140282597e+01   4.0418510248e+01     0.197309    0.1389078  42.74 0.0004858108    1.566    0.362
        24 -10.6509     75.1257     78.3152   3.0926542864e+01   5.2777369268e+01    0.2754716    0.2099257 -40.20  0.001326323    1.378    0.274
        25 -11.4985    234.8443     75.8000   3.5849711286e+02   2.0519794129e+01    0.2212419    0.1980699 -69.31 0.0006744723    1.231    0.188
        26 -10.2687    207.1277     75.9365   1.4258781591e+00   2.5277213558e+01    0.2052235    0.1412396 -57.59 0.0009874427    1.321    0.243
        27 -11.7545    105.0366     75.5130   2.0201159582e+01   4.7082146523e+01    0.3815141    0.2585236  69.33  0.001693497    1.761    0.432
        28 -10.5105    250.4232     74.1714   3.5679525072e+02   1.8309826227e+01    0.1902186    0.1004163 -42.76 0.0003435037    1.367    0.268
        29 -10.9066    118.5530     74.9252   1.6410728910e+01   4.4161589020e+01    0.2530325    0.1997552  45.61 0.0006152906    1.338    0.253
        30 -11.6602     96.4915     70.7404   2.1188424143e+01   4.9933944603e+01    0.3791995    0.2994116  40.99 0.0007939616    1.320    0.242
        31 -12.5930     58.8343    144.5085   5.2193781252e+01   3.8436285168e+01    0.8323905    0.6362815  62.62  0.003892473    1.375    0.273
        32 -11.5295    214.6837     60.8315   3.5728610518e+02   2.6058853876e+01    0.3312414    0.2566133 -83.14  0.001254915    1.348    0.258
        33  -9.8225    170.0697     61.5124   2.7162274968e+00   3.4872420782e+01    0.1915814    0.1296661  68.16 0.0008766335    1.553    0.356
        34 -10.0625    173.9500     56.7909   9.5518062717e-01   3.4745241116e+01    0.1842354    0.1819921  27.38  0.000879579    1.286    0.223
        35 -10.0954    232.5110     54.9675   3.5446262340e+02   2.3698768362e+01    0.1727418   0.09014024 -38.81  0.000356517    1.505    0.335
        36 -10.2380    214.1550     53.8477   3.5580397740e+02   2.7103939143e+01    0.1621291    0.1525535 -51.55 0.0003955598    1.267    0.211
        37 -10.4806    210.1065     54.3058   3.5628432357e+02   2.7797585391e+01    0.2013057    0.1568715  77.29 0.0006860082    1.424    0.298
        38 -10.6791    125.6311     57.1108   9.2113566842e+00   4.5703660253e+01    0.4021491    0.2010569  58.27  0.001305123    1.964    0.491
        39  -9.6957    133.8271     52.3418   6.0606395622e+00   4.4531445694e+01     0.189856    0.1227908  54.86 0.0003199895    1.576    0.365
        40  -9.8712    213.6867     50.0690   3.5501402110e+02   2.7691872929e+01    0.1706951    0.1243447 -48.31 0.0004145243    1.093    0.085
        41 -11.3017    120.6675     43.6066   5.8231967836e+00   4.9008503216e+01     0.354382    0.2284842  55.50  0.001741118    1.527    0.345
        42 -10.7563    156.8855     42.8580   3.5949222975e+02   4.0532854664e+01    0.2564373    0.1795792  79.04 0.0005559972    1.409    0.290
        43  -9.4228    247.3105     42.2977   3.5087336547e+02   2.2822183963e+01    0.0921494   0.08158959 -15.02 0.0002939834    1.598    0.374
        44 -11.6797     84.9305     41.6368   1.4158150302e+01   5.7841260457e+01    0.2697315     0.248062  24.39  0.001267801    1.202    0.168
        45 -11.1602    229.0334     40.5604   3.5175305414e+02   2.6116631930e+01    0.2044008    0.1871989 -63.73   0.00065192    1.279    0.218
        46 -12.8110    213.2721     39.1278   3.5263192872e+02   2.9169533795e+01    0.2927519    0.2361117 -88.49  0.000753774    1.283    0.221
        47 -11.5025    130.4834     36.8731   1.7375653661e+00   4.7589134900e+01    0.4282607    0.3189689  86.28 0.0009404906    1.306    0.234
        48 -12.8134     51.7105    142.9570   5.4375295243e+01   3.9779549057e+01    0.6570057    0.5198128  51.43  0.002864955    1.249    0.199
        49 -11.3431    172.7977     40.1199   3.5674041886e+02   3.7326748551e+01    0.4507916    0.2707108  46.02  0.002264229    2.255    0.556
        50 -10.8847    160.0947     35.5009   3.5699522014e+02   4.0779827420e+01    0.2775386     0.184866 -29.78  0.000791454    1.631    0.387
        51 -11.5422    240.9762     34.6086   3.4975972873e+02   2.4775749997e+01    0.1957761     0.155721 -54.75 0.0002382214    1.120    0.107
        52 -12.0500    175.2003     29.2848   3.5363580113e+02   3.8170135747e+01     0.599839    0.3899701 -82.12  0.003412058    1.481    0.325
        53 -11.9904    168.3904     27.4802   3.5384359339e+02   3.9898119691e+01    0.4824544    0.3043158  85.10  0.001712868    1.536    0.349
        54 -11.6893    181.5497     26.9997   3.5244654737e+02   3.7064659900e+01    0.3330313    0.2117348 -45.61  0.001098101    1.341    0.255
        55 -11.4272      2.9566    139.4744   7.1238264715e+01   4.5314032570e+01    0.5179707    0.2791579 -82.23  0.002372166    1.708    0.415
        56 -12.1315    151.8674     30.9671   3.5672610681e+02   4.3259648509e+01    0.5350844    0.3433776  81.45  0.001593761    1.510    0.338
        57 -11.3223    143.7465     24.5116   3.5582651260e+02   4.5961716533e+01    0.4531423      0.28068 -59.90  0.002249927    1.546    0.353
        58 -11.2328    190.4213     30.6428   3.5256496799e+02   3.4751243233e+01    0.3944247    0.1486059  67.56   0.00182551    2.676    0.626
        59 -11.6057    113.5779     86.9044   2.1269446541e+01   4.2870096949e+01    0.3201434     0.201244  65.69  0.001341483    1.955    0.488
        60 -10.5913    241.9062     23.0246   3.4742471660e+02   2.5937917890e+01    0.3516693    0.1167737 -50.66  0.001871934    2.125    0.529
        61  -9.4788    202.5701     25.5006   3.5037257167e+02   3.2886218941e+01    0.1195008   0.09471297 -58.64 8.808901e-05    1.039    0.037
        62 -10.8234    155.8223     25.1032   3.5454154076e+02   4.3049420864e+01    0.2821196    0.1724718  77.72 0.0006543754    1.556    0.357
        63  -9.9851    169.4370     18.0141   3.5118914894e+02   4.0751033085e+01    0.1789167    0.1128862 -35.28 0.0005179603    1.545    0.353
        64 -12.5034    149.1513    128.7102   2.3252585016e+01   2.6859615119e+01    0.4299271    0.3303727  21.53  0.002198872    1.557    0.358
        65 -10.6768    208.2015     16.9899   3.4805869746e+02   3.2732577345e+01    0.1895961    0.1452884 -78.47 0.0006874068    1.190    0.160
        66 -11.6654    129.5636     15.6202   3.5483463666e+02   5.0381824150e+01    0.4495143    0.1966961  66.88  0.002026216    2.036    0.509
        67 -10.9039     64.9846    128.9906   4.7370856253e+01   4.1730896443e+01    0.2466289    0.2366477  76.29  0.001238945    1.021    0.020
        68  -9.9149    139.4388     16.5074   3.5386730518e+02   4.7894075030e+01    0.1797301    0.1104408  64.14 0.0004795568    1.565    0.361
        69 -12.8673      2.2563    114.2387   6.9581125081e+01   5.2315233548e+01    0.4410121    0.4397382 -19.20  0.002581892    1.106    0.096
        70 -12.4210     95.1856    109.8112   3.2932496702e+01   4.1482455458e+01    0.6433968    0.3820158  62.68   0.00244842    2.355    0.575
        71 -12.8455     74.5817    108.7283   3.9577952069e+01   4.5503899495e+01    0.6236908    0.3963924  47.24  0.002216365    1.623    0.384
        72  -9.9980    204.5137     93.5023   5.6271449403e+00   2.3047764443e+01    0.1285018    0.1064324 -45.97 0.0008105038    1.012    0.012
        73 -11.5396    144.2210     91.5362   1.5236321495e+01   3.5298833321e+01    0.3631354     0.249751  53.06  0.001778437    1.529    0.346
        74 -11.3799    244.8033    249.6050   2.7094185436e+01  -4.6481833282e+00    0.1230941   0.07717068  22.96 0.0004644532    1.731    0.422
        75 -12.7460    192.3976    248.8499   3.5414439742e+01  -5.1462600239e-02    0.5131019    0.1639951  25.06  0.002515814    2.839    0.648
        76 -10.3191    101.0043    175.9992   4.4560679757e+01   2.4443407321e+01     0.197735    0.1893138  21.32  0.001140525    1.003    0.003
        77 -10.1806    138.4788    152.4985   3.0753619434e+01   2.3745714745e+01     0.140667     0.136445 -30.72 9.976362e-05    1.047    0.045
        78 -11.6938     96.3652     83.1168   2.5144978305e+01   4.7377879508e+01    0.5043786    0.4532701 -25.72  0.002642277    1.244    0.196
        79 -11.6442    116.7930     82.3839   1.9094638706e+01   4.3090108845e+01     0.357386    0.2445429  64.83  0.001633894    1.622    0.383
        80 -10.5545    175.0036     81.2924   7.0078771404e+00   3.0668177257e+01    0.3056147    0.1740803 -40.29 0.0008493069    1.575    0.365
