#   1 NUMBER                 Running object number                                     
#   2 MAG_AUTO               Kron-like elliptical aperture magnitude                    [mag]
#   3 X_IMAGE                Object position along x                                    [pixel]
#   4 Y_IMAGE                Object position along y                                    [pixel]
#   5 X_WORLD                Barycenter position along world x axis                     [deg]
#   6 Y_WORLD                Barycenter position along world y axis                     [deg]
#   7 A_WORLD                Profile RMS along major axis (world units)                 [deg]
#   8 B_WORLD                Profile RMS along minor axis (world units)                 [deg]
#   9 THETA_WORLD            Position angle (CCW/world-x)                               [deg]
#  10 FWHM_WORLD             FWHM assuming a gaussian core                              [deg]
#  11 ELONGATION             A_IMAGE/B_IMAGE                                           
#  12 ELLIPTICITY            1 - B_IMAGE/A_IMAGE                                       
         1 -12.2642    248.4157    116.6212   5.6299318674e+01   1.0276322644e+01     2.109698    0.5084931 -33.66  0.007770938    3.283    0.695
         2 -12.8544    225.9470     30.2312   3.8453649680e+01   2.5908546673e+01     3.488483    0.7710486 -31.17   0.01244751    3.281    0.695
         3 -11.8349    212.0510     19.6604   3.6849960340e+01   3.0139227578e+01     2.544946    0.5907253 -25.36  0.008265167    4.108    0.757
         4 -13.6314    244.0544     30.2990   3.7085515261e+01   2.2191450574e+01     3.183452    0.6376943 -31.19    0.0116028    3.390    0.705
         5 -11.7813    232.4904      4.9827   3.1793450184e+01   2.7212699074e+01    0.9892654     0.365309 -62.83  0.004266763    2.847    0.649
         6 -13.2876    245.7837      9.8778   3.2236723356e+01   2.4027434404e+01     1.649294     1.266004 -31.18   0.01109055    1.225    0.184
         7 -10.4966    193.4713     18.0752   3.7999789132e+01   3.4625877886e+01    0.8317986    0.1352262 -37.86  0.002666214    3.731    0.732
         8 -11.3419    161.9544     11.6332   3.9201539030e+01   4.3132271852e+01    0.7387286    0.3582584 -41.62    0.0032701    1.910    0.476
         9 -11.0623    199.8152      8.9557   3.4896669475e+01   3.4070015535e+01    0.6807587    0.2653879 -32.11  0.002482132    2.154    0.536
        10  -9.1021    202.8352      2.9905   3.3044635181e+01   3.3943039367e+01    0.2967949     0.160986 -33.22  0.001281536    1.619    0.382
        11 -10.5368    194.1786      9.9990   3.5628280678e+01   3.5298808309e+01    0.3384769    0.1365132 -58.40  0.001351741    2.638    0.621
        12  -9.4159     16.3591      6.1858   8.4514924074e+01   7.6384291390e+01    0.1709085    0.1085292 -53.94 0.0005766437    1.739    0.425
        13 -11.0626    186.7331      2.4413   3.4024883266e+01   3.7817711163e+01    0.5658097    0.2224886  89.55  0.002226063    2.880    0.653
        14  -9.2188    174.3653      2.1927   3.4937805689e+01   4.0888148935e+01    0.1872914     0.166516  81.07  0.001140502    1.129    0.114
        15  -9.4528      5.5625      1.7709   9.1034671624e+01   7.8271484518e+01    0.1935887    0.1556511   3.31 0.0005680494    1.246    0.197
        16 -12.1610    236.1987    106.3404   5.5656479078e+01   1.3760414612e+01    0.9365053    0.4948641 -30.26  0.004752389    1.602    0.376
        17  -8.0919    115.4645    250.4359   1.0262461422e+02   1.0110175213e+01    0.1115982    0.0841434  35.81 0.0001289286    1.015    0.015
        18 -11.0382    235.2791     94.7808   5.3149267474e+01   1.5563631937e+01      0.84984    0.2922453 -31.74   0.00343798    2.460    0.593
        19 -11.8062    246.7299    170.9740   6.7357723672e+01   3.3563309851e+00      1.89424    0.6593776 -38.00  0.008785454    2.788    0.641
        20 -12.6400    237.9100    136.0041   6.1823453557e+01   9.2829028654e+00     2.209117    0.8340349 -31.81  0.009852584    2.280    0.561
        21 -12.4777    247.7471     93.6296   5.1362772460e+01   1.3508889701e+01     1.835519    0.6768507 -31.72  0.008092061    2.194    0.544
        22 -12.2053    242.6712     81.5574   4.9212459217e+01   1.6042115831e+01      1.76441    0.2591406 -39.66  0.005265817    4.726    0.788
        23 -10.5749    232.5329    195.4265   7.3858249869e+01   2.1931412664e+00    0.6848606    0.2777019 -36.96   0.00354091    2.474    0.596
        24 -10.4274    236.2041    188.8981   7.2161943066e+01   2.5191248901e+00     0.438581    0.3516914  37.65  0.003051187    1.615    0.381
        25  -8.9195    213.8279    198.7031   7.7481949801e+01   4.2538066187e+00       0.1943    0.1560639 -55.47  0.001241304    2.125    0.529
        26  -9.1019    206.3457    191.1611   7.7501018536e+01   6.3042179071e+00    0.2655032    0.1792472   5.22  0.001603957    1.460    0.315
        27  -9.5369    129.7106    189.4790   9.2489544417e+01   1.8194610558e+01    0.2356703    0.1965555  47.92  0.000635658    1.182    0.154
        28  -8.0098    192.6976    188.6734   7.9527307209e+01   8.6450301902e+00    0.1277351   0.08511022   0.41 0.0007031924    1.642    0.391
        29  -8.7402     61.5207    185.0380   1.0795851800e+02   2.8716676348e+01    0.1794518    0.1203555 -79.89  0.000549222    1.543    0.352
        30 -10.4245    222.2507    181.6240   7.3121774937e+01   5.3471244609e+00    0.2110803    0.1361282 -38.73  0.001264116    1.693    0.409
        31  -8.5207    204.0008    181.4797   7.6220740718e+01   8.0122296858e+00    0.1828691    0.1114687  36.01 0.0007555123    1.597    0.374
        32 -11.9748    248.2074    151.0819   6.3374561257e+01   5.6976568475e+00      1.30507    0.4215009 -33.46  0.005776733    2.595    0.615
        33 -10.5302    101.0026    175.9955   9.7197916582e+01   2.5248366851e+01    0.1891366    0.1715672  48.62  0.001157347    1.001    0.001
        34 -11.4259    219.9112    166.0944   7.0640453631e+01   7.8260767118e+00    0.8265637    0.6106988 -57.81  0.004204503    2.258    0.557
        35  -9.6464    227.7704    167.9974   6.9720305000e+01   6.3969896782e+00    0.3576969    0.2834153 -29.54   0.00237795    1.287    0.223
        36  -9.3075     70.1689    169.1527   1.0406533165e+02   3.1132296311e+01    0.2468845    0.1795018  62.10 0.0004692341    1.320    0.243
        37  -8.1996    111.2011    167.3229   9.3388502134e+01   2.5492440478e+01    0.1937555    0.1133563  44.03 0.0004215221    1.604    0.376
        38  -8.4503    183.6019    163.2034   7.6604786029e+01   1.4070752631e+01    0.1873205    0.1168906 -27.13 0.0009496264    1.658    0.397
        39 -10.2591    226.5936    154.0004   6.7201604943e+01   8.5190286577e+00    0.4648024    0.3120947   4.71  0.002659131    1.610    0.379
        40 -11.9800    213.8016    238.2641   8.3503732422e+01  -4.9538196363e-01     0.741636     0.603908 -27.23  0.005910563    1.567    0.362
        41  -8.6311     49.4950    149.0202   1.0730737181e+02   3.8471297791e+01    0.2071854    0.1255594 -78.26  0.001026594    1.602    0.376
        42 -11.3557    205.8881    129.3719   6.5439678486e+01   1.5709834844e+01     1.272376    0.4946675 -37.37  0.005209425    2.331    0.571
        43 -10.0782    155.3795    125.7414   7.4504432609e+01   2.6100023728e+01    0.3298373    0.3057787 -30.52  0.001845094    1.052    0.049
        44  -8.6184     74.3503    125.8656   9.6382586678e+01   4.0922006908e+01    0.2947803    0.1372167 -71.43  0.001084346    2.583    0.613
        45  -9.1457    119.6949    121.9642   8.2368703828e+01   3.3976792125e+01    0.2181081     0.202322 -58.88  0.001173264    1.079    0.073
        46 -10.8405    226.8561    118.6845   5.9727349739e+01   1.3610010419e+01    0.5374745    0.2573987 -28.46  0.002401889    1.912    0.477
        47  -9.0564    191.5294    110.5404   6.3563554892e+01   2.1570230245e+01    0.2770455    0.2267048 -60.36   0.00101665    1.433    0.302
        48 -10.6282    218.5895    111.3208   5.9296872854e+01   1.6203022527e+01    0.7791401    0.2663332 -37.00  0.002397222    2.504    0.601
        49 -10.0089    182.5958    105.3127   6.3896373412e+01   2.4307454127e+01    0.6859824    0.4577527 -73.06  0.002890076    2.536    0.606
        50  -9.6978     46.8702    102.9949   1.0135265570e+02   5.0480537930e+01    0.3857504    0.2447103 -80.10  0.001378965    1.610    0.379
        51  -9.7240    119.4107     98.7349   7.6559786258e+01   3.9206036600e+01    0.3070172    0.1462222 -50.13  0.001139221    2.124    0.529
        52  -8.6332    131.3041     98.6197   7.3366792301e+01   3.6693687437e+01     0.161478    0.1213223 -79.06 0.0001148204    1.779    0.438
        53  -9.9817    216.8779     73.9652   5.0500689119e+01   2.2120321771e+01    0.6910723    0.2380715 -29.89  0.002574178    2.693    0.629
        54 -10.6915    214.1716     92.7441   5.5539428161e+01   1.9885388937e+01     0.614742    0.2711174 -29.92  0.002499022    2.114    0.527
        55 -10.4009    215.6232     84.9774   5.3421257439e+01   2.0763309503e+01    0.5845307    0.3038821 -29.54  0.002695735    1.753    0.430
        56  -9.1008    158.1675     91.8307   6.5180288035e+01   3.2079593825e+01    0.2802116    0.2296373 -25.04  0.001412081    1.261    0.207
        57 -11.1835    234.2413     79.0575   4.9602826391e+01   1.7955183445e+01    0.5079829    0.2092616 -29.98   0.00221568    2.103    0.524
        58  -8.4757     16.7007     78.5803   1.0908249418e+02   5.9688153781e+01    0.2453462    0.1075756 -73.16  0.001057038    1.986    0.496
        59  -8.1800    195.2451     78.4114   5.4715889353e+01   2.6067259169e+01    0.1821498    0.1399399  77.23  0.000796171    1.559    0.359
        60  -9.3501    191.5641     90.6437   5.8538119381e+01   2.4898614964e+01    0.3463809    0.2591915 -40.78  0.001807365    1.231    0.188
        61 -11.2721    226.5414     65.7757   4.7283783287e+01   2.1290516802e+01    0.8961801    0.2768129 -39.89  0.003467384    2.588    0.614
        62 -11.2519    227.8685     58.2699   4.5281640145e+01   2.2027134466e+01    0.6595987    0.4119998 -79.24   0.00321017    2.152    0.535
        63  -8.8991    182.4635     69.5745   5.4312902246e+01   3.0344712790e+01    0.4708044    0.1352159 -32.99  0.001436548    3.242    0.692
        64  -9.1969    139.6283     70.1637   6.2810825151e+01   4.0435142244e+01    0.3637094    0.2205245  -9.19   0.00126442    3.065    0.674
        65  -9.7218    205.7512     67.1520   5.0206497326e+01   2.5468955566e+01    0.3926151    0.2977805  50.90  0.002151381    1.483    0.326
        66  -9.4388     47.3418     62.2251   9.1188604806e+01   6.0701772004e+01    0.3148476    0.2327983 -61.19 0.0009368021    1.295    0.228
        67  -9.7440    176.4258    240.3950   9.0204909710e+01   3.7987780682e+00    0.3195401    0.1798569  38.63  0.001290266    1.623    0.384
        68  -8.1804     24.5606     60.4520   1.0164059465e+02   6.3670234111e+01    0.1346793    0.1193994 -64.88 0.0008051189    1.046    0.044
        69  -7.9264     84.4946     51.5114   7.1924152849e+01   5.6613566367e+01    0.1471964    0.1429391 -44.99 -4.740778e-05    1.040    0.039
        70 -11.4304    248.5035    236.0807   7.7758938202e+01  -4.1321272666e+00    0.4488308    0.3649883 -25.71  0.003726023    1.759    0.432
        71  -8.5978    122.6917     48.6840   5.9429249563e+01   4.8330817891e+01    0.1536019    0.1182831  18.63 0.0003685858    1.631    0.387
        72 -10.6798    247.1813    226.6351   7.6565759959e+01  -3.0469685546e+00    0.3711708    0.2558484 -29.24  0.002774713    1.658    0.397
        73 -10.7383    250.0228    220.9054   7.5272089749e+01  -2.7698975405e+00    0.6789413    0.2217892 -38.38  0.003320402    3.751    0.733
        74 -10.3161    148.5335     41.0358   5.1217345399e+01   4.3003168859e+01    0.3568631    0.2689738 -40.76  0.001425769    1.279    0.218
        75  -9.4081    173.3263     36.1046   4.5693531183e+01   3.7413716869e+01    0.3406839    0.2310973 -48.50  0.001404443    1.396    0.284
        76  -9.2004    162.1336     35.7728   4.7194704820e+01   4.0268764484e+01    0.3472883    0.1729178 -44.38  0.001319635    1.925    0.481
        77 -10.1345    208.9856    222.4893   8.2043198912e+01   1.9025168772e+00    0.4132279    0.2028676 -37.06  0.002430364    2.220    0.550
        78  -8.2757    178.2469     32.9646   4.4075416326e+01   3.6595156004e+01    0.1874373    0.1132619 -31.14 0.0008614361    1.564    0.361
        79  -9.9977    195.3109     25.9866   4.0087884830e+01   3.3301040634e+01    0.3745036    0.2711127 -35.84  0.001019785    1.258    0.205
        80  -8.4204    181.2675    223.3603   8.7046428556e+01   5.3744687672e+00    0.1621715   0.08988748  37.40 0.0007949322    1.627    0.385
        81  -8.1061    157.3260     20.6476   4.2815172000e+01   4.3357429909e+01    0.1583804   0.09552986 -59.11 0.0007047565    1.763    0.433
        82  -8.3288     28.6806     16.3127   8.1826550285e+01   7.3022451271e+01    0.1175407    0.1043433  86.41 0.0002463599    1.649    0.393
        83  -9.3811    150.7270    220.3614   9.2422639582e+01   9.9487845420e+00     0.181984    0.1531939 -64.88 0.0007650516    1.644    0.392
        84  -8.5742    120.5463    218.7273   9.8314634426e+01   1.4376395264e+01    0.1404899    0.1172685 -87.49  0.000622021    1.536    0.349
        85  -9.2344    222.1673    214.2812   7.8597330038e+01   1.2353462247e+00    0.2363614    0.1678219 -12.51   0.00155378    1.232    0.188
        86  -9.3963    234.6858    213.0468   7.6395554401e+01  -1.5190205959e-01    0.2334065     0.173475 -15.09  0.001021254    1.224    0.183
        87 -10.2930    228.7590    205.9203   7.6198662313e+01   1.4050599208e+00    0.2784582    0.1647831 -34.12  0.001555084    1.756    0.431
        88  -9.8712    221.0955    204.3316   7.7189493170e+01   2.5763388725e+00    0.2604414    0.1520656 -38.03  0.001487566    1.913    0.477
        89 -11.0122    248.4727    196.5443   7.1592079458e+01   6.6445980472e-02    0.7618159    0.3159684 -32.82  0.004073205    2.201    0.546
