#   1 NUMBER                 Running object number                                     
#   2 MAG_AUTO               Kron-like elliptical aperture magnitude                    [mag]
#   3 X_IMAGE                Object position along x                                    [pixel]
#   4 Y_IMAGE                Object position along y                                    [pixel]
#   5 X_WORLD                Barycenter position along world x axis                     [deg]
#   6 Y_WORLD                Barycenter position along world y axis                     [deg]
#   7 A_WORLD                Profile RMS along major axis (world units)                 [deg]
#   8 B_WORLD                Profile RMS along minor axis (world units)                 [deg]
#   9 THETA_WORLD            Position angle (CCW/world-x)                               [deg]
#  10 FWHM_WORLD             FWHM assuming a gaussian core                              [deg]
#  11 ELONGATION             A_IMAGE/B_IMAGE                                           
#  12 ELLIPTICITY            1 - B_IMAGE/A_IMAGE                                       
         1 -12.5808      2.0927     47.3203   1.3376712592e+02   6.4797767445e+01     1.259218    0.2054799 -69.04  0.004526251    4.150    0.759
         2 -12.4750      3.1408     19.9568   1.2692055633e+02   7.0451121487e+01    0.6304972    0.3473836 -40.52  0.003979992    1.647    0.393
         3 -12.6030      2.5157      8.4561   1.2340379661e+02   7.2764632785e+01     1.091403    0.4508492 -53.11  0.006197645    1.694    0.410
         4 -13.4111    205.0774      8.2473   6.5634911319e+01   3.2054913578e+01     1.590158     1.095957  33.39  0.007720168    1.620    0.383
         5 -10.4913     32.8845      7.4675   1.0752189763e+02   7.0275388323e+01    0.9074096     0.087231 -47.13  0.001990268   10.144    0.901
         6 -13.2470    190.9319     27.1048   7.3395082427e+01   3.3781436508e+01     1.428406     1.314767  -9.27  0.006346458    1.083    0.077
         7 -10.9511     17.9988      3.3531   1.1294317296e+02   7.2536887275e+01    0.2470252    0.1909931 -46.31  0.001756935    1.144    0.126
         8 -10.0195     12.5851    241.7232   1.4596862661e+02   2.7438349377e+01    0.1892117   0.06708664 -86.06  0.001305631    2.664    0.625
         9 -10.7858    139.5142    249.8040   1.2793278965e+02   1.1452116739e+01    0.2506031    0.1131555  43.48  0.001656447    1.589    0.371
        10 -10.3109    127.1151    250.1302   1.2979559070e+02   1.3097808993e+01    0.1483576    0.1077826  42.13  0.001239206    1.243    0.196
        11  -9.9301     98.6550    249.2383   1.3393181018e+02   1.6921934876e+01     0.135589    0.1202498 -89.11  0.001291068    1.459    0.315
        12 -11.3508     32.0270    247.0674   1.4343905746e+02   2.4817867094e+01    0.5224184    0.4594102 -11.93    0.0046579    2.756    0.637
        13 -13.4577      7.8339    207.9324   1.4551837023e+02   3.2902281012e+01     1.388008    0.5952659 -77.58  0.006490619    2.147    0.534
        14 -12.5482      3.1666    177.6359   1.4508418590e+02   3.8357546748e+01     1.616299    0.3520256 -78.39  0.001880048    3.738    0.732
        15 -14.7145     11.8356    156.1296   1.4238722847e+02   4.1534301925e+01      5.70184     1.605682  89.24   0.02354077    4.323    0.769
        16  -8.9415    120.3434    240.3063   1.2998223060e+02   1.5188650048e+01   0.09216982   0.06872389  29.41 0.0006572891    1.690    0.408
        17  -9.2986    177.4093    227.2489   1.1984165296e+02   8.4855339844e+00    0.1164733    0.1015316 -71.58 0.0007231765    1.638    0.389
        18  -8.6257     57.3391    240.2936   1.3947610867e+02   2.3049122737e+01   0.07733084   0.06749643  42.88 0.0003730602    1.651    0.394
        19 -10.0138    183.9830    235.9119   1.1985448623e+02   6.5946021288e+00    0.2334581    0.1274069 -56.41    0.0014201    3.356    0.702
        20 -11.1565      3.0963    248.8854   1.4747000999e+02   2.7314862122e+01    0.4958512    0.1769828  47.92  0.003830152    1.788    0.441
        21  -9.9288    173.4202    221.5371   1.1977844250e+02   9.7277482935e+00    0.2255356      0.12792  55.48 0.0008858282    1.762    0.433
        22  -8.8692    152.6483    213.0038   1.2209248069e+02   1.3954577270e+01    0.1410174    0.1189916  51.51 0.0004320466    1.101    0.092
        23  -9.5199     32.4311    206.5187   1.4153250351e+02   3.0773455359e+01    0.2369631    0.1506452  81.70  0.001910576    1.274    0.215
        24 -11.8754     23.3330    201.6413   1.4277115166e+02   3.2469126770e+01    0.3822421    0.1277723  54.63  0.001872343    2.159    0.537
        25 -10.5815     16.2184    198.5544   1.4379334109e+02   3.3651263535e+01    0.2628459    0.1288944  67.01 0.0009532372    1.524    0.344
        26 -11.2075     65.9624    200.2395   1.3551038477e+02   2.8039487739e+01    0.2376823    0.1940514 -56.14  0.000626266    1.760    0.432
        27  -9.6878    193.2586    195.7497   1.1311588685e+02   9.5547264229e+00    0.5999989    0.2988035 -60.42  0.001925366    8.737    0.886
        28 -11.5595     71.5944    192.0592   1.3385920223e+02   2.8688721740e+01    0.2114066    0.1908984 -87.67 0.0005576126    1.355    0.262
        29  -8.5288     44.5080    192.0957   1.3864143804e+02   3.1869791937e+01    0.1304607   0.08396742 -85.87 0.0002146309    1.405    0.288
        30 -13.0271     68.2114    177.0774   1.3313599605e+02   3.1692202890e+01    0.3842694      0.24708 -47.49  0.002072771    2.331    0.571
        31 -10.6198     80.9242    179.2023   1.3094973075e+02   2.9669483278e+01     0.193036    0.1611146  78.88 0.0003608588    1.105    0.095
        32 -11.4894     87.8676    169.3737   1.2855503216e+02   3.0453424314e+01    0.5191234     0.438618  73.49  0.003785354    1.057    0.054
        33  -8.5737    250.6725    171.7164   1.0012848623e+02   2.5388395266e+00    0.1224521   0.07282613  20.34 0.0002478462    1.605    0.377
        34 -10.9372     33.8444     93.7660   1.3118473315e+02   5.2339333676e+01    0.6422197    0.2286494 -66.18  0.003025674    2.246    0.555
        35 -10.7161     33.0904    131.7549   1.3600671771e+02   4.4376731478e+01    0.3726719    0.1363119 -78.24  0.001785454    2.569    0.611
        36 -11.1627     32.8689    118.1195   1.3461269151e+02   4.7221406307e+01    0.9325687    0.1013399 -70.23  0.002442915    8.075    0.876
        37 -11.5745     32.8380    155.2213   1.3814503035e+02   3.9758059324e+01     0.454649     0.163149 -71.64  0.002424982    2.415    0.586
        38  -8.8493    193.2401    157.0117   1.0666880412e+02   1.4518029010e+01    0.1916305    0.1477834 -74.05  0.001063278    2.034    0.508
        39  -9.7087     99.8496    153.1212   1.2406613546e+02   3.1669284344e+01    0.2372893    0.2047318  79.82  0.000795659    1.046    0.044
        40 -11.7275     88.6576    152.6582   1.2632964515e+02   3.3421557889e+01      0.22603    0.2173536 -73.73 0.0005651084    1.300    0.231
        41 -11.9804     33.0519    142.8319   1.3705699675e+02   4.2151866838e+01    0.9337029    0.0887401 -68.97  0.002988472    6.242    0.840
        42 -12.2353     67.0763    143.9117   1.2980922694e+02   3.8066570698e+01    0.6804565    0.3914301  70.30  0.003700361    1.829    0.453
        43 -11.3563     57.9149    133.0188   1.3049701821e+02   4.1399465093e+01    0.8990838    0.3212255 -78.51   0.00332034    4.189    0.761
        44  -9.0265    102.7797    148.8981   1.2284427682e+02   3.2006016339e+01    0.1683148    0.1644029 -70.34 0.0004653245    1.261    0.207
        45  -8.1489    192.2279    144.0124   1.0434749018e+02   1.6543063338e+01    0.1568264    0.1086399 -32.84 0.0004529067    1.563    0.360
        46  -9.4085    110.6978    137.8450   1.1940514515e+02   3.2824311862e+01    0.2933173    0.2052221 -29.37  0.001169055    2.231    0.552
        47 -11.1662      2.2818    152.6100   1.4405956377e+02   4.2978414191e+01    0.3966371    0.1745777 -88.99  0.002498715    1.813    0.449
        48 -12.6643     55.4591    215.1257   1.3829889055e+02   2.6926333251e+01     1.727644    0.6389047  48.85   0.01069015    1.956    0.489
        49 -10.3590     98.2613    135.2453   1.2170333351e+02   3.5338393272e+01    0.2197522    0.2034555 -61.48 0.0004962256    1.224    0.183
        50  -9.0126    107.8200    124.3504   1.1765668473e+02   3.5932398148e+01    0.1685254    0.1500176  53.60  0.000352653    1.136    0.120
        51 -12.4034     40.9811    235.2801   1.4163890824e+02   2.5534122750e+01     0.230974    0.1830674  85.95 0.0007536004    1.386    0.278
        52 -14.3410     47.2652    228.1425   1.4033756039e+02   2.5889621703e+01     4.646025    0.3065599  39.77  0.004589303    7.240    0.862
        53 -10.1017    168.1163    113.2919   1.0227979071e+02   2.6308166242e+01    0.3103127    0.2522909  87.86 0.0008386034    1.556    0.357
        54  -9.0561    203.4693    111.4994   9.5253266675e+01   1.8952288074e+01    0.1405913    0.1282317  16.43 0.0001294664    1.030    0.030
        55  -9.0621    156.4463     75.5129   9.4834197470e+01   3.5402939996e+01    0.1461473    0.1435274 -19.51 0.0003107594    1.006    0.006
        56  -9.7469     33.0000     71.3806   1.2761745818e+02   5.7303657571e+01    0.3971792   0.05666881 -64.50   0.00113123    5.687    0.824
        57 -11.7790      4.9407     62.6431   1.3530105207e+02   6.1346313311e+01    0.4479153    0.3382465  52.38  0.001687829    1.541    0.351
        58 -10.2284     15.2185     65.8283   1.3238951034e+02   5.9982808551e+01    0.3151086    0.1592281  42.94  0.001214112    2.299    0.565
        59  -9.4037     31.9733     61.8548   1.2599402095e+02   5.9471587882e+01    0.2500688    0.2023116  84.66  0.001685947    1.305    0.234
        60  -9.5335    152.9781    249.2351   1.2588884505e+02   9.6521324023e+00    0.1357762   0.06012967  44.69 0.0003552274    1.587    0.370
        61  -9.4443     81.9790    248.9621   1.3636160301e+02   1.9018600150e+01    0.1597017   0.07744864  62.43 0.0008241783    1.748    0.428
        62  -8.7705     47.4520    249.4933   1.4136676927e+02   2.2885947988e+01   0.09129779   0.05992473  61.09 7.781269e-05    1.018    0.017
        63  -9.8529    170.9877    247.0155   1.2300770118e+02   7.3465680856e+00    0.1289012    0.0855152  43.23 0.0006286133    1.064    0.060
        64 -10.5283      1.7671    240.2259   1.4742338085e+02   2.8626190510e+01     0.308934    0.1173408 -83.78  0.002301945    2.405    0.584
        65  -9.3878     83.1152    243.9661   1.3587322304e+02   1.9529654627e+01    0.2260641    0.1112505  74.22  0.001486708    2.354    0.575
