#   1 NUMBER                 Running object number                                     
#   2 MAG_AUTO               Kron-like elliptical aperture magnitude                    [mag]
#   3 X_IMAGE                Object position along x                                    [pixel]
#   4 Y_IMAGE                Object position along y                                    [pixel]
#   5 X_WORLD                Barycenter position along world x axis                     [deg]
#   6 Y_WORLD                Barycenter position along world y axis                     [deg]
#   7 A_WORLD                Profile RMS along major axis (world units)                 [deg]
#   8 B_WORLD                Profile RMS along minor axis (world units)                 [deg]
#   9 THETA_WORLD            Position angle (CCW/world-x)                               [deg]
#  10 FWHM_WORLD             FWHM assuming a gaussian core                              [deg]
#  11 ELONGATION             A_IMAGE/B_IMAGE                                           
#  12 ELLIPTICITY            1 - B_IMAGE/A_IMAGE                                       
         1 -14.6245    105.8819    104.4612   5.6979535960e+01   4.0517328141e+01     1.474216     1.382132 -78.15  0.007458636    1.079    0.073
         2 -13.0385     80.4947     57.6006   5.0441839375e+01   5.5903313596e+01     1.666373    0.9038203 -28.01   0.00649991    2.343    0.573
         3 -13.3946    119.6552     26.5979   2.5890256031e+01   5.2334548098e+01     1.782935    0.9742294  12.38  0.006277545    3.172    0.685
         4 -13.9885     57.5303     63.6033   6.1433585920e+01   5.8420000345e+01     2.208495     1.430002  -1.20   0.00969825    2.401    0.584
         5 -14.3686    122.2013     36.7983   2.9477905802e+01   5.0285637873e+01     1.684576    0.8014132  50.49  0.006639604    2.050    0.512
         6 -14.8361      6.4328     70.9149   8.4866370771e+01   6.1618548174e+01     1.150635    0.6766316 -64.31  0.006450111    1.320    0.242
         7 -15.1784    218.8204     15.5656   8.3988630787e+00   2.8229502605e+01     2.294255      1.35717 -19.52   0.01143548    1.785    0.440
         8 -14.3362    189.6418     23.2138   1.3366162777e+01   3.4526484379e+01     1.553513     0.963914 -50.12  0.007467411    1.552    0.355
         9 -12.9009      7.7175      2.5758   6.1328029122e+01   7.6642667439e+01    0.5429267    0.4507138  30.24  0.003820929    1.569    0.363
        10 -15.8208     11.5779     22.9812   6.9258681861e+01   7.2395628985e+01     2.038093    0.9447158 -38.89  0.009367147    1.847    0.459
        11 -14.4048     27.4758     11.5603   5.3294109396e+01   7.2972496868e+01     0.957738    0.5581385 -22.61  0.005090752    1.732    0.423
        12 -13.6622    242.4531     34.4777   1.1324838712e+01   2.0777653806e+01    0.8059101    0.6585776 -81.13   0.00313447    1.296    0.228
        13 -14.4082    166.5814     28.7425   1.8106964291e+01   3.9836781222e+01     1.151672    0.9848861  69.20  0.004380912    1.170    0.145
        14 -13.2157    187.7771     11.1316   9.8765957090e+00   3.6295883604e+01    0.7299249    0.5891273 -16.98  0.003547415    1.334    0.251
        15 -13.6372     58.1538     26.5640   4.5734539172e+01   6.5825896418e+01     1.106183    0.4559744  39.20  0.003872911    2.589    0.614
        16 -14.4440    147.7571     29.7397   2.1486625428e+01   4.4661106478e+01     1.402048    0.8763402  67.70  0.004517755    1.626    0.385
        17 -15.4143     99.1884     11.2541   2.3867197153e+01   5.9206255300e+01     1.698298     1.070064  50.71  0.004234659    1.483    0.326
        18 -11.8027     70.9192     16.3876   3.5157934831e+01   6.4951174738e+01    0.3200903    0.2517187 -22.90 0.0008029126    1.208    0.172
        19 -12.2782     75.0157      9.5227   2.9948518186e+01   6.4944845052e+01    0.5058879    0.3172095  -1.22   0.00246292    1.786    0.440
        20 -12.5652     60.0802     15.1298   3.8731713779e+01   6.7253619949e+01    0.5783617    0.3478522  25.68  0.002310832    1.862    0.463
        21 -12.6433     85.5750     13.8984   2.8928661484e+01   6.2102079004e+01    0.5009172    0.3849894 -21.76  0.002419026    1.276    0.216
        22 -11.9771     46.8435     12.8318   4.3402850512e+01   6.9933134551e+01    0.2886971     0.259112  29.26  0.001194719    1.263    0.208
        23 -10.7087     54.9925     11.6205   3.8882546490e+01   6.8684711920e+01    0.2136939     0.145329  23.38  0.001147915    1.505    0.336
        24 -13.9190     41.8245      4.4087   4.0607093871e+01   7.1955682633e+01     0.720401    0.5369153   1.32  0.003520842    1.243    0.195
        25 -11.3722    123.0545     10.5306   1.8401330367e+01   5.3289443326e+01    0.3157166    0.2136173 -59.78   0.00128765    1.763    0.433
        26 -11.9467    152.9678      8.7624   1.3030204978e+01   4.5600888976e+01    0.3344408    0.2843103  26.69  0.001483589    1.291    0.226
        27 -13.1537    140.3090     21.4330   1.9682341531e+01   4.7624123073e+01      1.10031    0.3555339  64.39  0.003053864    2.922    0.658
        28 -11.3126     80.2540      7.2122   2.7006855302e+01   6.4047703312e+01     0.288836    0.1916507 -19.03  0.001044069    1.483    0.326
        29 -10.3776     59.7426      6.4126   3.3738958254e+01   6.8453196973e+01    0.1856255    0.1104902  37.30 0.0009409726    1.625    0.385
        30 -12.4983    118.9416      2.5355   1.5709525779e+01   5.5075470497e+01    0.5674626    0.2907368  88.91  0.002245216    2.636    0.621
        31 -12.2289     78.0929      2.1047   2.4833341843e+01   6.5042464396e+01    0.9188673    0.1370483  54.96  0.002782029    4.372    0.771
        32 -11.4424     67.6358      2.7175   2.8550934669e+01   6.7257617389e+01    0.3026335    0.1846659  23.73   0.00151402    1.715    0.417
        33 -11.5171     61.2337      1.4796   3.0115182746e+01   6.8708548636e+01     0.431964    0.1227207  55.35  0.001481832    3.530    0.717
        34 -12.0267    111.7204    156.1070   6.6615991062e+01   2.7580320786e+01    0.5421875    0.3188045  80.14  0.001979831    3.361    0.702
        35 -12.9612    109.2024    248.9675   7.9018365313e+01   1.0857186673e+01    0.5613415    0.3011073  58.70  0.003310978    2.041    0.510
        36 -12.9852     57.9225    246.6073   8.8089208652e+01   1.7621496272e+01    0.5199167    0.1762949  32.61  0.002559407    2.839    0.648
        37 -13.4692     28.4712    246.0527   9.3215375040e+01   2.0923743288e+01    0.4343585    0.2731992  73.01  0.002852125    1.322    0.244
        38 -12.1307      2.8416    249.6406   9.7615648464e+01   2.2803508745e+01    0.3361876    0.1835289  52.96  0.001749576    1.233    0.189
        39 -13.7769      9.8208    245.6265   9.6355837811e+01   2.2820503274e+01    0.7656059    0.2945609  53.64  0.003650391    1.732    0.423
        40 -12.4472    209.0873    154.7993   4.5342402974e+01   9.8408219062e+00    0.6084445    0.2729035  37.79   0.00263648    2.271    0.560
        41 -11.6765     86.1445    152.0925   7.2411395922e+01   3.2656510472e+01    0.4052434    0.2231537 -45.57  0.001802583    2.120    0.528
        42 -11.1608     60.9826    152.2447   7.9011766496e+01   3.6175247565e+01    0.2040621    0.1600801  73.89 0.0001983059    1.184    0.155
        43 -12.6102     60.5762    147.3916   7.8470937863e+01   3.7385378609e+01    0.3858859    0.3049659 -32.40  0.002144744    1.689    0.408
        44 -11.5524    103.3436    149.8406   6.7598266864e+01   3.0403620482e+01    0.3427859      0.24855 -36.71  0.001364727    1.662    0.398
        45 -12.4280      9.1049    149.2717   9.2172153136e+01   4.2220614538e+01    0.5007755    0.3183529  38.85  0.003080985    1.616    0.381
        46 -12.6364    246.3033    134.2888   3.4777069694e+01   6.3610372835e+00    0.3520265    0.2887447 -78.72  0.002022065    2.095    0.523
        47 -14.0870    234.7457    128.0346   3.5131826707e+01   9.2860442557e+00    0.7885479    0.4304427 -41.03  0.003805955    1.814    0.449
        48 -12.4153     43.8943    132.8609   8.1148506460e+01   4.2940941814e+01    0.2036797    0.1745146 -57.88 0.0007516217    1.246    0.197
        49 -12.6288    223.0095    127.8273   3.6953748913e+01   1.1488028413e+01    0.3578652    0.2691231  71.92  0.001844087    2.052    0.513
        50 -13.6199    171.5403    242.6493   6.7067496313e+01   3.1720926232e+00    0.6882783    0.4104207  24.07  0.004327778    1.509    0.337
        51 -12.3019    136.1112    132.1326   5.5711718645e+01   2.8278452341e+01    0.5181561    0.2775947  43.60  0.002144773    1.865    0.464
        52 -11.6846    181.0636    120.5148   4.2831738679e+01   2.1204970966e+01    0.2218731    0.1476754  47.21 0.0008001981    1.568    0.362
        53 -11.5588      8.4965    114.4996   8.9581658907e+01   5.0655148827e+01    0.2284416    0.1813352 -29.01  0.001113933    1.636    0.389
        54 -11.7213      5.8740    119.3609   9.0810266955e+01   4.9629550704e+01    0.3493582    0.2652595 -47.73  0.002218714    1.512    0.339
        55 -11.0185      1.5437    119.5038   9.2097203284e+01   4.9866424654e+01    0.2298491    0.1321933 -74.81 0.0007573557    1.391    0.281
        56 -11.6982     88.2249    109.3551   6.3467958012e+01   4.2580610962e+01    0.4913577    0.2646021 -62.70  0.001994503    1.958    0.489
        57 -12.4549     78.7044    110.2059   6.6596032363e+01   4.3941972370e+01    0.5436125    0.3655295 -88.73  0.002412434    1.936    0.484
        58 -12.3396     86.6453    114.7994   6.5200482401e+01   4.1521658761e+01    0.9949493    0.5779405   9.12  0.003257621    4.108    0.757
        59 -12.6019     82.1981    115.3936   6.6670647418e+01   4.2105579859e+01    0.4480922    0.3102628  34.46  0.002165957    1.573    0.364
        60 -12.3702     50.1100     98.6432   7.3490341435e+01   5.0846356062e+01    0.8306949    0.5245464  11.42  0.003881005    2.247    0.555
        61 -12.2429     49.0160     93.3537   7.2754354724e+01   5.2312012575e+01    0.4686909    0.3313953  62.47  0.002201656    1.655    0.396
        62 -12.5143     42.2982     90.3570   7.4537661873e+01   5.3837141170e+01    0.3211845    0.2554762 -61.25 0.0002896017    1.088    0.081
        63 -12.3630     36.9288     92.8983   7.7003422564e+01   5.3760810014e+01     0.429224    0.3235347  -5.66  0.001416422    1.758    0.431
        64 -13.3906      2.2972     96.9349   8.9835979865e+01   5.5384839160e+01    0.8886811    0.3207417 -81.29  0.003531283    2.333    0.571
        65 -14.0110     18.4319    110.5373   8.6041817680e+01   5.0931552343e+01     0.986515    0.6158192 -67.40  0.004108709    1.336    0.252
        66 -13.9571     11.3967    102.2163   8.7354945676e+01   5.3522664719e+01    0.8674485    0.5746076 -74.93  0.004131426    1.211    0.174
        67 -14.2507     23.2402     94.9781   8.2281088876e+01   5.4477050000e+01     1.198904    0.9916327  65.42   0.00741609    1.281    0.219
        68 -11.6006     63.3843    110.8869   7.1576312152e+01   4.6041954998e+01    0.3959513    0.2596855  56.22  0.001903788    1.702    0.413
        69 -12.9608     29.6183     89.4796   7.9030270422e+01   5.5322775417e+01    0.9222014    0.4262742  66.77  0.003308528    3.812    0.738
        70 -10.8283     46.1990    109.9844   7.6957550494e+01   4.8430884913e+01      0.23788    0.1301092 -46.03  0.001078118    1.953    0.488
        71 -11.1104     42.7188    106.7192   7.7533094411e+01   4.9647142925e+01    0.2509133    0.1990272 -30.07  0.001396777    1.536    0.349
        72 -11.9155    121.7145    111.9685   5.4516853294e+01   3.5638096095e+01    0.2912051     0.231993  50.68  0.000766867    1.300    0.231
        73 -12.3816    136.3336    102.9099   4.8285472293e+01   3.4518521184e+01    0.5619971     0.319342  49.88  0.001810255    1.845    0.458
        74 -12.9900    120.4889    102.3512   5.2293387953e+01   3.8047290715e+01    0.4296322    0.3670822  -6.67  0.001925105    1.389    0.280
        75 -12.2438     61.6161     97.9756   6.9390415953e+01   4.9526121922e+01    0.5378177    0.3549279  86.06  0.001783485    2.001    0.500
        76 -12.6659    249.0186     98.3502   2.6218407579e+01   1.0956096347e+01    0.4073552    0.1441261 -39.66  0.001628982    2.451    0.592
        77 -11.8914    163.5635     97.5189   4.0400044271e+01   2.9434146671e+01    0.3683587    0.2779853 -52.63 0.0008310647    1.402    0.287
        78 -12.8699    137.0322     94.7513   4.5791843624e+01   3.6081206164e+01    0.5410339     0.470161  80.48   0.00191843    1.328    0.247
        79 -13.5687    107.3233    124.0615   6.1348409338e+01   3.5659315771e+01     1.388216    0.7964774  25.96  0.005494484    2.378    0.580
        80 -13.4854    101.6466    119.5307   6.1901752095e+01   3.7765621348e+01     1.733822    0.9089047  24.20  0.006148837    3.047    0.672
        81 -11.2980    129.6156     96.2706   4.8135645144e+01   3.7415482005e+01    0.2913506    0.1983292  58.89  0.001257492    1.680    0.405
        82 -11.2536     35.1422     86.5435   7.6397800429e+01   5.5542381235e+01    0.2733615    0.1682443 -57.63 0.0007350747    1.373    0.271
        83 -12.8194    188.5309     83.8715   3.1628582054e+01   2.6048895568e+01    0.7269432    0.4708702  35.73  0.003084743    1.825    0.452
        84 -13.2400    187.3440     79.1926   3.0506399992e+01   2.7114845430e+01    0.6780615     0.427618   7.46  0.002577448    2.681    0.627
        85 -13.5098    239.4414     81.6341   2.3409106729e+01   1.5187240291e+01    0.7307813    0.4513355 -76.97  0.003211979    2.812    0.644
        86 -13.6800    164.2052     71.5152   3.2543761336e+01   3.4053440290e+01       1.3786     1.069125  68.77   0.00658798    1.434    0.303
        87 -13.1947    160.8682     80.6963   3.6057626375e+01   3.3232088870e+01    0.9367572    0.5865366  15.36  0.003124781    2.802    0.643
        88 -14.0828    169.1883     77.0533   3.3253535486e+01   3.1862429021e+01     1.433838    0.6859236  49.09  0.003589552    2.170    0.539
        89 -10.8828     97.8187     84.2110   5.3662898966e+01   4.6759351081e+01    0.2163796    0.1846547  -5.15  0.001073675    1.383    0.277
        90 -14.3621     97.2330    238.9265   8.0321893239e+01   1.3977515049e+01    0.8193533    0.6012203  88.65  0.005757343    1.605    0.377
        91 -11.9125    147.4966    238.9928   7.0964586715e+01   7.0302580428e+00    0.1422624    0.1155078 -48.22 0.0006574555    1.574    0.365
        92 -14.2068    100.5083     49.3600   4.0491909562e+01   5.3382022220e+01     1.042687    0.9135149 -42.53  0.005527965    1.143    0.125
        93 -12.6278     23.5942    216.3328   9.2768697226e+01   2.6668958358e+01    0.6423638    0.2341299  50.33  0.003536319    2.007    0.502
        94 -13.4895     66.0340     49.2871   5.2718603936e+01   6.0205551918e+01    0.8473937    0.6756231 -44.16  0.004595607    1.174    0.148
        95 -13.1550     92.1806     57.4473   4.6329720179e+01   5.3629156245e+01    0.5981421    0.4930911 -37.10  0.001649865    1.146    0.127
        96 -12.8782     54.7796     81.0695   6.7689926508e+01   5.4643640109e+01    0.6427302     0.436382 -46.39  0.002120722    1.365    0.268
        97 -13.9489     61.3333     75.5829   6.3682040217e+01   5.5062098836e+01    0.8068452    0.5133892 -42.71  0.002958403    1.499    0.333
        98 -13.8633     73.4959     74.0928   5.8714468943e+01   5.3513550434e+01     1.385802     0.740849  15.44  0.004162739    3.980    0.749
        99 -13.1851     87.4492     65.1826   5.0779453388e+01   5.2979712228e+01    0.5998512    0.4820116 -16.32  0.001601725    1.397    0.284
       100 -12.2803    109.8689     41.9502   3.4746144356e+01   5.2499717200e+01    0.4832057    0.2514676  48.09 0.0006702755    1.923    0.480
       101 -13.9048     26.2741    226.6305   9.2752072516e+01   2.4502105901e+01    0.6365935    0.3462948 -58.67  0.003992126    2.445    0.591
       102 -13.0625    131.6952     33.2461   2.5929264178e+01   4.8380279991e+01    0.6841722    0.4783233 -20.37  0.002100527    1.494    0.331
       103 -13.4449    199.3003     69.6215   2.5807040611e+01   2.5812293118e+01    0.8803787     0.591818  41.37  0.003561411    1.700    0.412
       104 -12.0624    199.9881     61.7396   2.3457773294e+01   2.6844436324e+01    0.4312377    0.3757832  42.09  0.001926382    1.269    0.212
       105 -13.1954    213.2572     78.3820   2.6124829756e+01   2.1247559790e+01     1.025965    0.6453877 -84.14  0.004260803    2.656    0.624
       106 -12.9023    216.4275     72.9147   2.4209161473e+01   2.1363645521e+01    0.7006801    0.4492574 -69.08  0.003134261    2.162    0.537
       107 -11.9211    114.0191     80.0294   4.7472269231e+01   4.4314882931e+01    0.4773518    0.3718865 -50.53  0.001786783    1.269    0.212
       108 -12.5105    135.2701     79.1967   4.1490932460e+01   3.9655314355e+01    0.7504261     0.383053  54.93  0.002836988    2.137    0.532
       109 -11.2680     42.5216     79.4794   7.1987669616e+01   5.6531435084e+01      0.28292    0.1694057 -44.45  0.001105442    1.605    0.377
       110 -11.1278     41.7661     75.9812   7.1418920204e+01   5.7478928457e+01    0.2990518    0.1807712 -58.78 0.0007156282    1.407    0.289
       111 -13.9136     20.5851    224.1465   9.3687440988e+01   2.5520395268e+01    0.6087121    0.4094135  49.46   0.00419075    1.207    0.171
       112 -14.0909      4.7608     63.2322   8.4263603960e+01   6.3583846474e+01    0.7050045    0.6055825 -43.06  0.004167612    1.215    0.177
       113 -12.6533     28.6064    121.7936   8.4243571824e+01   4.7249936157e+01    0.3593979    0.2734575 -61.99  0.002139393    1.252    0.201
       114 -11.1900     27.1205     75.1673   7.7139607614e+01   5.9127639704e+01    0.5312789    0.2561495 -87.85  0.002028192    3.135    0.681
       115 -12.9317    133.8209     65.8330   3.7431201624e+01   4.2562676622e+01    0.9020084    0.7072023  -1.57  0.003479279    1.564    0.361
       116 -10.8492    117.9539     72.0248   4.3715031086e+01   4.5098977794e+01     0.241775    0.2302846 -31.93 0.0006808938    1.014    0.014
       117 -12.1686    241.5216     70.7134   2.0452329588e+01   1.6293723512e+01    0.3563737    0.2387661 -79.54  0.001786084    2.098    0.523
       118 -11.8101     99.7917     63.9815   4.6289491358e+01   5.0722622407e+01    0.4779266    0.3971584 -43.48  0.002426305    1.155    0.134
       119 -13.6264    177.8264     56.6966   2.5411854607e+01   3.3063179849e+01      1.03306    0.5917449 -42.72  0.003380847    1.665    0.400
       120 -12.0331     38.8182     59.9841   6.8211515362e+01   6.1657852895e+01    0.3449819    0.2177491  69.20  0.001525821    2.670    0.625
       121 -12.1998     36.9782     53.9887   6.7144124419e+01   6.3254430891e+01    0.5340983    0.2700531 -41.31  0.002459724    1.848    0.459
       122 -11.1711     34.4771     61.0225   7.0445101174e+01   6.1877038261e+01    0.2837861    0.1688036 -43.13  0.001152531    1.533    0.348
       123 -11.6197     24.8733     58.8307   7.4172937945e+01   6.3301358642e+01    0.5037495    0.2079126 -54.74  0.002262229    1.882    0.469
       124 -11.2795    111.2139     58.7596   4.0926509393e+01   4.9228809405e+01    0.2856148    0.2516764   6.71 0.0003468804    1.229    0.186
       125 -14.5881    120.1716     54.6737   3.6927615179e+01   4.7879250178e+01     1.096528    0.7805432  48.77  0.004086874    1.433    0.302
       126 -12.6639    248.2018     54.3344   1.5697089718e+01   1.7109357824e+01    0.6088806    0.3251056 -39.90  0.002660942    1.531    0.347
       127 -12.0043    249.2094     48.5721   1.4194074941e+01   1.7635902169e+01     0.294772    0.2841045  60.37  0.001765236    1.250    0.200
       128 -12.3445    135.6815     51.4325   3.1902082730e+01   4.4618979234e+01    0.7006618    0.4797274 -29.60  0.002738972    1.453    0.312
       129 -11.4191     17.5257     55.5266   7.6735358645e+01   6.4668108916e+01    0.3264184    0.1881796 -62.96  0.001732073    1.415    0.293
       130 -11.7361    230.5965     55.0324   1.7713340708e+01   2.0747533591e+01    0.3743595    0.2180387  76.26  0.001778422    2.124    0.529
       131 -10.5023     23.5510     49.9588   7.2268209589e+01   6.5501385298e+01    0.1955184    0.1078831 -57.89 0.0004528801    1.484    0.326
       132 -11.5336    152.0099     47.0000   2.6870316502e+01   4.1148158485e+01    0.3384286    0.1896387  64.82 0.0009069679    1.901    0.474
       133 -12.8502    158.1000     43.2764   2.4444701545e+01   4.0119323585e+01    0.7617082    0.6018898  24.69  0.002943783    1.475    0.322
       134 -10.8415     29.6395     46.8974   6.8275960112e+01   6.5638999478e+01    0.2369039    0.1733822 -47.94 0.0007084662    1.133    0.117
       135 -10.9920     25.7907     44.6003   6.9423103957e+01   6.6526208795e+01    0.2576392    0.1729991  29.26  0.001447782    1.735    0.424
       136 -10.9884     38.9279     45.9962   6.3423737422e+01   6.4826061573e+01    0.2083414    0.1771919 -41.88 0.0005761997    1.020    0.020
       137 -14.1487     66.2320    223.2877   8.4951935053e+01   2.0612310504e+01     0.816633    0.5587839  45.93  0.005517791    1.192    0.161
       138 -14.4595    212.5845     40.9240   1.5939229902e+01   2.6720718796e+01     2.343612     0.784734  75.43  0.007382035    4.372    0.771
       139 -13.9142     64.5503    214.2973   8.4577022492e+01   2.2471550367e+01    0.4614721    0.3435631  59.53  0.002756685    1.083    0.076
       140 -13.2752     59.6674    212.4633   8.5418547477e+01   2.3416609586e+01    0.4158955    0.3270472 -26.25  0.001995436    2.126    0.530
       141 -12.6794     94.3175    218.2042   7.8925924494e+01   1.7851853717e+01    0.2718909    0.1854679  44.90  0.001305642    1.199    0.166
       142 -11.6317      4.5090    213.4959   9.6249016747e+01   2.8996633936e+01    0.1882641    0.1106119  73.97  0.001308294    1.308    0.236
       143 -10.5881    178.9732     42.7141   2.0836445318e+01   3.4803089448e+01    0.2007194    0.1879081  85.41 0.0003295351    1.090    0.082
       144 -12.0457     40.8883     40.4822   6.0311888281e+01   6.5768932384e+01    0.4428106    0.3205001  15.90  0.002462058    1.565    0.361
       145 -12.7271     32.9167     40.1192   6.4148218491e+01   6.6791454890e+01    0.4084789    0.2889444   6.62 0.0005829103    1.650    0.394
       146 -12.6155     76.0361     37.0089   4.3518899596e+01   6.0717306846e+01    0.5486186    0.4262786  46.21   0.00138849    1.389    0.280
       147 -11.8579     70.9565     36.2216   4.5103511386e+01   6.1832438675e+01    0.3062115    0.2801692 -67.46 0.0009902715    1.359    0.264
       148 -10.9759    136.6020    210.7947   6.9511466020e+01   1.2933653528e+01    0.1535364    0.1199778 -72.20 0.0008832832    1.663    0.399
       149 -13.0454     44.7374     32.9207   5.5117054891e+01   6.6783880782e+01     0.702829    0.5998068  33.74   0.00427684    1.345    0.257
       150 -12.6955     72.3733    206.9657   8.2339047903e+01   2.2873954595e+01     0.273672    0.2265666  65.87   0.00188749    1.050    0.047
       151 -12.5475     57.5821    203.0482   8.5094632087e+01   2.5496722977e+01    0.4968019    0.2402156  88.64  0.002466636    2.455    0.593
       152 -11.5657     35.4797     34.5417   6.0527982173e+01   6.7669218292e+01     0.211336    0.1952189   0.80 0.0008647538    1.183    0.154
       153 -13.2181     17.1653    195.7024   9.3023765526e+01   3.1336370938e+01    0.8577946    0.1933441 -62.96  0.003420659    4.476    0.777
       154 -10.6980     87.9700     27.9754   3.5137027805e+01   5.9689846196e+01    0.2124166    0.1717667 -62.56 0.0005264889    1.589    0.371
       155 -12.8823     40.3988    195.2038   8.8126712280e+01   2.9071617399e+01    0.3845633    0.2005079  87.21  0.002110613    1.894    0.472
       156 -10.9920     97.7434     26.2171   3.1335826124e+01   5.7723598353e+01    0.4496156    0.2563303 -49.30  0.001899286    2.172    0.540
       157 -11.7842     40.4459     23.9731   5.2901263910e+01   6.9069143249e+01    0.2463243    0.1762527 -40.09   0.00113093    1.271    0.213
       158 -12.0523     31.0291     25.4631   5.8751286460e+01   7.0009870109e+01    0.3664739    0.2282166  12.57  0.001634486    1.906    0.475
       159 -11.8191     35.9397     23.2299   5.4917774510e+01   6.9818441872e+01    0.3366179    0.2440117 -26.55  0.001433986    1.221    0.181
       160 -12.4049     36.5177    194.4906   8.8903214412e+01   2.9640118546e+01    0.3141319    0.2070549 -88.69  0.001756705    1.376    0.273
       161 -12.0813    104.5646     36.5358   3.3967368543e+01   5.4611055771e+01    0.4029419    0.1417992 -31.99  0.001364832    2.781    0.640
       162 -12.1183     48.6353     20.0924   4.6697492882e+01   6.8501218193e+01    0.6454626    0.2349582  44.16  0.002570254    3.077    0.675
       163 -12.4523     21.7876    166.0621   9.0225713586e+01   3.7276575852e+01    0.4263301    0.2753756  -5.85  0.001931271    2.913    0.657
       164 -13.8982     30.0650    169.2894   8.8506603843e+01   3.5749478987e+01     1.751145    0.8064717 -43.20  0.007259712    3.969    0.748
       165 -13.7373     22.2169    180.7478   9.1104015084e+01   3.3993220021e+01    0.8277012    0.3338549 -63.26  0.004139991    2.489    0.598
       166 -15.1944      8.9186    183.0773   9.4125825945e+01   3.4700775225e+01      1.18459    0.9474926  72.01  0.008743675    1.089    0.082
       167 -10.9233    175.9611     13.7546   1.1938983260e+01   3.9068880141e+01    0.1909106    0.1710871 -77.97 0.0001879558    1.064    0.060
       168 -14.8961     15.6290    174.9634   9.2222195620e+01   3.5858357721e+01     1.809584    0.5171652  51.68  0.007964761    2.871    0.652
       169 -12.2307    163.9874    194.9797   6.1647323930e+01   1.1176805025e+01    0.3030255    0.1830427 -59.03  0.001492224    2.448    0.592
       170 -11.2999    200.9742    191.4184   5.3942660780e+01   5.7039041257e+00    0.2791782    0.1966877  21.47  0.001440142    1.282    0.220
       171 -11.8194    155.9857    184.9991   6.1621145748e+01   1.4198597078e+01    0.2171369    0.1579275   2.60  0.001146342    1.734    0.423
       172 -11.7651     48.9762    181.3525   8.5121411536e+01   3.1026129588e+01    0.3460903    0.2126154 -53.08  0.001922697    1.964    0.491
       173 -12.4239    198.5755    181.3065   5.2547017179e+01   7.5785196538e+00    0.2658917    0.2609706 -16.99  0.001758953    1.331    0.248
       174 -12.8251    124.2029    166.1069   6.5379054523e+01   2.3295907361e+01    0.5383999    0.4003687 -75.81  0.002793978    1.642    0.391
       175 -11.1774      1.9561    159.1866   9.4495327599e+01   4.0488627977e+01    0.2640029    0.1356466 -79.19  0.001271134    1.618    0.382
       176 -11.2882     74.0210    145.3181   7.4548317877e+01   3.6051942071e+01    0.8094243    0.3875409 -88.45  0.002651594    4.025    0.752
       177 -12.3128     77.0660    156.7486   7.5458998059e+01   3.2924297469e+01    0.4279381    0.3399781  23.47  0.001327027    1.508    0.337
       178 -13.2237     73.5672    153.3322   7.5870306512e+01   3.4218648618e+01    0.6445075    0.4060558  33.84  0.002292769    1.669    0.401
       179 -12.9931      6.6122     42.8798   7.8909306793e+01   6.8327041917e+01    0.8677509    0.4248846  16.24   0.00451467    2.455    0.593
