#   1 NUMBER                 Running object number                                     
#   2 MAG_AUTO               Kron-like elliptical aperture magnitude                    [mag]
#   3 X_IMAGE                Object position along x                                    [pixel]
#   4 Y_IMAGE                Object position along y                                    [pixel]
#   5 X_WORLD                Barycenter position along world x axis                     [deg]
#   6 Y_WORLD                Barycenter position along world y axis                     [deg]
#   7 A_WORLD                Profile RMS along major axis (world units)                 [deg]
#   8 B_WORLD                Profile RMS along minor axis (world units)                 [deg]
#   9 THETA_WORLD            Position angle (CCW/world-x)                               [deg]
#  10 FWHM_WORLD             FWHM assuming a gaussian core                              [deg]
#  11 ELONGATION             A_IMAGE/B_IMAGE                                           
#  12 ELLIPTICITY            1 - B_IMAGE/A_IMAGE                                       
         1 -13.9010     58.8075    132.0969   1.2915988076e+02   4.1859665086e+01      3.48984     1.324904 -74.08   0.01009187    5.149    0.806
         2 -14.7812    189.3286     24.4998   6.8621237829e+01   3.4994467537e+01     2.292144     1.649966  20.35   0.01176116    2.013    0.503
         3 -12.3508    197.9430     13.8847   6.4815112847e+01   3.4081277726e+01    0.4253218    0.3241813  23.97  0.001078767    1.842    0.457
         4 -13.8447    203.5629      5.4555   6.2137623528e+01   3.3611187369e+01     1.124306    0.7410515  78.21  0.002708832    1.303    0.233
         5 -11.1381     42.9797     15.0374   1.0106024814e+02   6.6291643874e+01    0.3735728    0.1681853  -9.41   0.00141275    4.589    0.782
         6 -11.0764     45.8469      3.8142   9.5050972059e+01   6.7196265582e+01    0.2439348    0.1027028  24.19  0.001165972    2.783    0.641
         7 -12.3939     55.3355    146.3408   1.3245014550e+02   3.8939715629e+01    0.8476731    0.4104098 -54.11  0.003995896    1.867    0.464
         8 -12.8790    200.4591    249.7141   1.1757650895e+02  -6.6254720223e+00     1.250883    0.1797537  41.09  0.003479603    5.873    0.830
         9 -13.0516    179.5569    249.7441   1.2146063432e+02  -3.1125559406e+00    0.9087255    0.3638805  39.69  0.004154311    2.098    0.523
        10 -12.1070    171.0598    247.7226   1.2275940557e+02  -1.3505602230e+00    0.5092956    0.2881432  32.18  0.002648844    1.754    0.430
        11 -11.3593    162.4475    249.3223   1.2460098070e+02  -1.1640034315e-01     0.426451    0.1759355  38.26  0.001920525    2.175    0.540
        12 -11.9536    139.6167    247.6646   1.2865905514e+02   4.0682849845e+00    0.6221088    0.2735374 -58.04  0.002920225    2.856    0.650
        13 -16.6798     58.5710    210.8649   1.3990560477e+02   2.3927593139e+01     7.138514     4.362431  56.63   0.04190192    1.447    0.309
        14 -12.0372     88.1894    172.1425   1.2862432617e+02   2.8223063546e+01     0.776566    0.3897783 -81.09  0.001390771    3.057    0.673
        15 -11.6574    184.8313    214.1718   1.1475045566e+02   1.6753014477e+00     0.394871    0.3422786 -25.38  0.002353383    1.275    0.216
        16  -9.4672     23.4634    156.4909   1.4139823806e+02   4.0011595387e+01    0.1232988   0.09539729 -83.26 2.625556e-05    1.021    0.021
        17 -10.6445    133.7765    144.4776   1.1232206927e+02   2.6336520495e+01     1.063566    0.2294461 -54.12  0.002181859    7.320    0.863
        18 -10.1380    168.9026    214.5237   1.1801986822e+02   4.6033312891e+00    0.2394838    0.2029446 -69.01  0.000763482    1.394    0.282
        19 -10.8951    104.9974    147.0402   1.2002864277e+02   3.1280688206e+01    0.3210472    0.2951696 -53.94  0.000902879    1.119    0.106
        20 -10.0840    107.4836    143.0438   1.1857896258e+02   3.1772713423e+01     0.356107    0.2366792 -31.65  0.001247502    2.012    0.503
        21 -12.4686     93.9572    146.7886   1.2277035826e+02   3.3244134335e+01     0.285346    0.2700338 -29.41 0.0004909594    1.235    0.190
        22 -11.8514     44.5163    145.2946   1.3497626597e+02   4.0450008908e+01    0.3714665    0.2636235 -75.69  0.002181113    1.211    0.174
        23  -9.8739    112.6406    210.1014   1.2893295637e+02   1.5763786815e+01    0.2504816    0.1871383  39.46 0.0005777109    1.396    0.284
        24 -12.3318     41.8788    125.7732   1.3258044438e+02   4.5274514164e+01    0.3834938    0.3487673 -59.41  0.001843368    1.130    0.115
        25 -13.5894     76.3070    167.9311   1.3073674268e+02   3.1023881528e+01    0.7377611    0.4291081 -39.58  0.002036222    2.464    0.594
        26 -12.8455     93.3699    164.0944   1.2607318161e+02   2.9261257714e+01     1.667866    0.9628487  65.63  0.001098981    2.191    0.544
        27 -10.4697    113.9544    134.0783   1.1497684323e+02   3.2665211700e+01    0.3675359    0.2874044 -18.10  0.001421342    1.715    0.417
        28 -11.2743    102.2573    130.9518   1.1733438353e+02   3.5545757779e+01    0.4894813    0.2991254  36.66  0.001639503    1.792    0.442
        29 -10.1679    160.9043    128.3014   1.0203396261e+02   2.4046845875e+01     0.380693     0.223859 -58.52  0.001476387    2.028    0.507
        30 -10.5480    135.8188    128.4078   1.0809289358e+02   2.9557269880e+01    0.3924644    0.1677567 -55.08  0.001305297    2.705    0.630
        31 -11.2285    120.1285    125.4128   1.1136541794e+02   3.3461135725e+01    0.7450023    0.3427148 -31.44  0.002133948    4.319    0.768
        32  -9.9978    109.7527    121.9805   1.1327680672e+02   3.6250970555e+01    0.2248989    0.2117127  41.55 0.0004661367    1.121    0.108
        33 -10.9209    168.4083    113.0692   9.6479702445e+01   2.5526597446e+01    0.4017831    0.3215821  89.35 0.0009206684    1.515    0.340
        34 -14.4213     67.8069    144.3651   1.2898048773e+02   3.7787147425e+01     7.358762     2.303204  52.47   0.01356458    5.844    0.829
        35  -9.5338    205.1417    110.3294   8.8220559747e+01   1.7352163939e+01    0.3430744    0.1794852  42.30   0.00132891    2.164    0.538
        36 -11.1871    193.1481    194.8899   1.0953273485e+02   3.5198370149e+00    0.9628032    0.4735523 -63.59  0.002669929    6.142    0.837
        37 -15.8954     15.3576    245.2438   1.5005475549e+02   2.2339804766e+01     2.244086    0.7618924 -66.96    0.0109589    2.773    0.639
        38 -10.8036    230.0219    166.4515   9.6494743022e+01   1.4133772120e+00    0.2772152    0.1956478 -51.41  0.001128594    1.605    0.377
        39 -10.8961     23.5840     93.4581   1.3196093914e+02   5.4186895806e+01    0.4888956    0.1500108  35.93  0.002102925    3.789    0.736
        40 -10.0632    164.8869    157.6696   1.0793796264e+02   1.6808812139e+01    0.2562726    0.2158798 -32.42 0.0005804059    1.287    0.223
        41  -9.1452    154.2901     76.6754   8.9690272635e+01   3.5984222906e+01    0.1538885    0.1188819 -74.74 0.0004088595    1.612    0.380
        42 -11.3914    107.6830    244.3493   1.3420423291e+02   9.9619949130e+00    0.2904536    0.2553191  59.50 0.0006036211    1.179    0.152
        43 -18.4659      2.2187    127.0476   1.4299368661e+02   4.8294203084e+01     17.19017    0.4848096 -70.53   0.02641837   21.465    0.953
        44  -9.3201     90.6305    184.2769   1.2993009481e+02   2.5051575080e+01    0.2045383    0.1357524  77.14 0.0005080011    1.655    0.396
        45 -11.1641     50.6320    155.2610   1.3493277977e+02   3.7417866125e+01    0.7362022    0.3028089 -77.39  0.002831086    2.996    0.666
        46 -11.0938     32.5135     15.9906   1.0568730563e+02   6.7405248177e+01    0.1686612   0.09182521 -32.94  0.001035645    1.599    0.375
