#   1 NUMBER                 Running object number                                     
#   2 MAG_AUTO               Kron-like elliptical aperture magnitude                    [mag]
#   3 X_IMAGE                Object position along x                                    [pixel]
#   4 Y_IMAGE                Object position along y                                    [pixel]
#   5 X_WORLD                Barycenter position along world x axis                     [deg]
#   6 Y_WORLD                Barycenter position along world y axis                     [deg]
#   7 A_WORLD                Profile RMS along major axis (world units)                 [deg]
#   8 B_WORLD                Profile RMS along minor axis (world units)                 [deg]
#   9 THETA_WORLD            Position angle (CCW/world-x)                               [deg]
#  10 FWHM_WORLD             FWHM assuming a gaussian core                              [deg]
#  11 ELONGATION             A_IMAGE/B_IMAGE                                           
#  12 ELLIPTICITY            1 - B_IMAGE/A_IMAGE                                       
         1 -14.3651    248.2676    179.5391   8.0467105845e+01   3.4069443368e+00     1.672654    0.4193609 -32.32  0.007014637    3.879    0.742
         2 -14.4278     26.8324     41.0670   1.0454973286e+02   6.6553319982e+01     1.506407    0.8235592 -34.27  0.007410379    1.977    0.494
         3 -13.5766    205.9621     29.0608   5.0585754852e+01   2.9658858417e+01    0.7176816    0.5561505 -43.45  0.003946028    1.230    0.187
         4 -12.9039    212.8453     21.4639   4.7693231741e+01   2.8787040736e+01    0.5531752    0.3044722  29.09  0.001263533    2.473    0.596
         5 -14.7430      9.2344     15.6852   1.0523784230e+02   7.3587568548e+01      1.79644    0.7675222 -42.69  0.008874392    1.957    0.489
         6 -13.6331    223.7473      9.3526   4.3406497346e+01   2.7366784533e+01    0.6880054    0.5511741 -46.28  0.002946343    1.138    0.121
         7 -13.2426    135.7227    224.5589   1.0653295963e+02   1.4348620788e+01    0.9998637    0.6431435  52.86  0.006607155    1.612    0.380
         8 -12.6303    213.0455    248.5926   9.6418016878e+01   1.4583925676e+00    0.6723893    0.2951567  18.26  0.003704693    2.689    0.628
         9 -12.2140    198.5150    249.6055   9.8807331635e+01   3.1726354907e+00    0.3236693    0.1347362  26.09  0.001860288    2.175    0.540
        10 -12.1391    160.7505    249.0159   1.0486351183e+02   8.0438618132e+00    0.5198096    0.2164366  33.22  0.003082874    1.834    0.455
        11 -10.2917    140.8176    250.6397   1.0836793594e+02   1.0405110086e+01    0.1565561    0.0684705  42.35 0.0009508503    1.740    0.425
        12 -10.8142    133.0585    250.5318   1.0966858934e+02   1.1397563679e+01    0.2358986   0.06797349  40.94    0.0011892    2.486    0.598
        13 -12.6693    126.4187    245.6738   1.1034813330e+02   1.2829518070e+01    0.3862013     0.367172 -13.23  0.003013061    1.386    0.279
        14 -12.4041    125.8350    238.5050   1.0976553282e+02   1.3816832770e+01    0.3721986    0.3018947  15.84  0.001819288    1.366    0.268
        15 -14.9320    118.5609    234.2312   1.1064495303e+02   1.5322351405e+01     1.003361    0.9215905  13.82  0.007364326    1.301    0.232
        16 -13.4153    113.6412    249.5870   1.1289372272e+02   1.3929672599e+01    0.6130847    0.2279976  40.57  0.003261899    1.903    0.474
        17 -13.4257    117.6311    244.6253   1.1177350611e+02   1.4069265444e+01    0.4520692    0.2568619  41.97  0.002190138    1.303    0.232
        18 -14.7664     28.3356    183.3302   1.2429327765e+02   3.4328965768e+01     2.699987    0.3229254  43.80   0.01070446    3.937    0.746
        19 -13.8377     65.1861    164.5072   1.1441164274e+02   3.4045890622e+01    0.8846906    0.3934271 -47.73   0.00120975    3.001    0.667
        20 -15.2031     60.5579    218.7806   1.2009683614e+02   2.4700780036e+01      1.43088    0.6986406  68.19  0.008367826    2.288    0.563
        21 -15.0498     47.7934    203.3508   1.2154238933e+02   2.8697441514e+01     1.258565    0.7104145 -89.92  0.006615726    1.870    0.465
        22 -16.2061     64.0830    201.9632   1.1816794852e+02   2.7126173078e+01     2.581634     1.240621 -64.41   0.01514426    2.304    0.566
        23 -14.6707     77.3225    193.9544   1.1474000100e+02   2.6936214551e+01    0.8754088     0.765538 -86.27  0.005329227    1.237    0.191
        24 -15.4476     52.6448    233.9968   1.2248701956e+02   2.3167863781e+01     1.079662    0.5400489  41.00  0.004898116    1.478    0.323
        25 -16.4105     75.1854    245.8776   1.1924832262e+02   1.8967495651e+01     2.479456    0.5926069  38.19   0.01237174    2.751    0.637
        26 -15.3379     59.1747    245.2806   1.2197294843e+02   2.0806801297e+01    0.8380476    0.4390324  43.71  0.004947206    1.350    0.259
        27 -13.2576      4.8486    249.3517   1.3115043494e+02   2.5386640418e+01    0.5064408    0.1992412  46.61  0.001953875    1.597    0.374
        28 -13.1313      1.9321    233.8920   1.3126708538e+02   2.7940409148e+01    0.5454544    0.1394366 -81.82  0.002737218    3.883    0.742
        29 -12.3581     27.2385    234.9721   1.2699380985e+02   2.5550477230e+01    0.1790249    0.1209656  61.37 0.0005889342    1.125    0.111
        30 -15.7752     27.0910    245.6239   1.2741986330e+02   2.3964294986e+01     1.265025    0.3595366  45.24   0.00770462    2.124    0.529
        31 -13.0449     12.1988    244.6526   1.2984579092e+02   2.5447571834e+01    0.4150404    0.1545037  61.70  0.002015181    2.064    0.515
        32 -14.7438    136.6492    209.1078   1.0453599882e+02   1.6375799501e+01     1.935619    0.9396727  56.72  0.008967221    3.145    0.682
        33 -13.8539    124.7521    210.3797   1.0696580213e+02   1.7877201059e+01    0.7830118    0.5617613  60.11  0.004618668    1.549    0.354
        34 -12.3885    240.4422    225.4753   8.9097361128e+01   9.3062511528e-02    0.4360312    0.2463779  -7.69  0.003006028    1.719    0.418
        35 -12.0457     82.9868    222.5764   1.1614655372e+02   2.1487607091e+01    0.3434726    0.2705688  69.08  0.002448015    1.260    0.206
        36 -10.9706     75.0470    223.3999   1.1770056139e+02   2.2306542316e+01    0.2741416    0.1165561  41.01  0.001607108    1.753    0.430
        37 -12.2391    233.5800    218.6136   8.9119934418e+01   1.5881280067e+00     0.506718    0.2343796 -12.21  0.002812151    2.659    0.624
        38 -11.1713     47.7472    218.9999   1.2252464126e+02   2.6051612369e+01    0.2445688    0.1454263  70.47   0.00170326    1.576    0.365
        39 -12.3156    138.7634    243.6976   1.0802877110e+02   1.1494265790e+01    0.6258019    0.1852901  38.21  0.003132132    2.450    0.592
        40 -12.6737      5.9017    208.8362   1.2988543825e+02   3.1690574979e+01    0.5082665    0.1976465  60.92  0.002987364    1.980    0.495
        41 -12.8281     11.1357    206.2421   1.2881955293e+02   3.1699500312e+01    0.4056439    0.2811758  42.45  0.002235546    1.282    0.220
        42 -11.9724     25.5023    207.2904   1.2612793510e+02   3.0236381609e+01     0.338823    0.1811126  55.38  0.001485275    1.432    0.302
        43 -14.0055    195.5976    197.0455   9.1992027684e+01   9.2174238786e+00     1.140808    0.6217546 -46.16  0.006225801    2.680    0.627
        44 -12.9128     91.3941    200.5022   1.1248670309e+02   2.3995721217e+01    0.6542099    0.5523695 -69.86  0.004355383    1.374    0.272
        45 -11.9909     27.3235    198.1308   1.2532173270e+02   3.1682422153e+01    0.4744641    0.1944052  63.68  0.002637017    2.247    0.555
        46 -14.6508    109.4091    205.6974   1.0942563395e+02   2.0726160719e+01     1.335118     0.884944  53.13  0.006500768    1.407    0.289
        47 -13.0742    119.2622    183.5260   1.0467761497e+02   2.2957222265e+01    0.3954246    0.3165087  60.62  0.002559365    1.303    0.233
        48 -11.9810    207.9042    185.1942   8.7912235139e+01   8.7743097495e+00    0.3933545     0.212722 -15.28  0.002090654    2.192    0.544
        49 -11.9146     93.0956    185.6244   1.1051464597e+02   2.6355287681e+01    0.4681481    0.2484673  55.51  0.002472639    1.944    0.486
        50 -11.1080      3.3968    182.7705   1.2949488005e+02   3.6581808754e+01    0.2306462   0.06813612 -71.42  0.001152927    3.150    0.683
        51 -12.1207     36.4503    213.9653   1.2437290221e+02   2.8041488300e+01    0.1862073    0.1693794 -82.16 0.0006710807    1.389    0.280
        52 -10.9816    101.7269    180.5579   1.0803578709e+02   2.6055773792e+01     0.380754    0.1101825  35.18  0.001454705    3.232    0.691
        53 -13.7170    117.9693    170.6980   1.0311917294e+02   2.5397624701e+01    0.4723692    0.4395199 -14.26    0.0031718    1.233    0.189
        54 -10.5938     78.0581    167.7319   1.1176558464e+02   3.1753151454e+01    0.1621063    0.1402836  48.71 0.0003584758    1.079    0.073
        55 -10.7055     84.0949    161.3962   1.0955097295e+02   3.2190732231e+01    0.1931053    0.1675895 -57.26 0.0004705932    1.278    0.217
        56 -14.3691    244.1264    205.4953   8.5483118906e+01   1.4335671411e+00     1.200501    0.7186239 -21.79  0.008265514    1.645    0.392
        57 -15.5011     38.1700    172.5325   1.2141084587e+02   3.5468205670e+01     3.642497    0.8532927  42.17   0.01579178    3.039    0.671
        58 -13.3518     67.9351    143.9775   1.1121757257e+02   3.7988091748e+01    0.6100108     0.440555  63.48  0.002578607    1.364    0.267
        59 -13.7087     87.0439    145.3116   1.0652378466e+02   3.5059176747e+01    0.9615271    0.6693106  62.83  0.001095018    1.530    0.346
        60 -12.9603      8.9541    143.1018   1.2636516275e+02   4.4182146218e+01    0.5760083     0.326213  76.66    0.0023953    1.532    0.347
        61 -11.4012      9.5779    152.7715   1.2676918324e+02   4.2079806499e+01    0.2272105    0.1436883  56.61 0.0009216146    1.338    0.253
        62 -10.4385     97.0032    129.6360   1.0126335427e+02   3.6834179333e+01    0.1861991    0.1644792  35.38    0.0004475    1.155    0.134
        63 -13.8355    233.8883    198.0070   8.5833297635e+01   3.5511335350e+00    0.7637919    0.4372149 -15.92  0.004850291    1.700    0.412
        64 -12.2740      2.1861    111.9867   1.2617072375e+02   5.1576929308e+01    0.4261375    0.1633603 -71.09  0.002106481    2.112    0.527
        65 -12.6509      2.7910    106.7243   1.2559260788e+02   5.2754284277e+01    0.5386986    0.2973712  81.79  0.002102081    1.613    0.380
        66 -12.3493     61.9705    110.0116   1.0755188165e+02   4.6398637299e+01    0.3786461    0.2411027   9.74  0.001763192    2.427    0.588
        67 -11.2091     27.0148    101.7060   1.1734147033e+02   5.2177178213e+01    0.2207416    0.2094925 -67.71  0.001515767    1.165    0.141
        68 -13.1668     51.5344     97.4996   1.0854146987e+02   5.0646024892e+01    0.4056881    0.3416826 -58.26  0.002440154    1.130    0.115
        69 -13.8342     59.5092     80.3188   1.0200870219e+02   5.3667802229e+01    0.6575205    0.3605839 -53.38  0.003085989    1.646    0.393
        70 -12.2015    164.0173    237.9138   1.0307326071e+02   8.8612967370e+00    0.3384738    0.3173522  62.67  0.002883922    1.512    0.339
        71 -12.7083    197.9174     34.5278   5.3131109653e+01   3.1017715098e+01    0.3454317     0.266066  46.64  0.001106598    1.371    0.271
        72 -13.3703    150.9353    219.3830   1.0315397348e+02   1.2927172326e+01     1.644052    0.5082644 -45.45  0.007646351    4.042    0.753
        73 -10.8504    172.8829    236.9590   1.0145865268e+02   7.7882969201e+00    0.1803704    0.1494428 -66.71  0.001373396    2.088    0.521
        74 -14.5940    137.3940    185.8796   1.0125979303e+02   1.9795413047e+01     2.197781     1.316111 -50.19   0.01245619    1.977    0.494
