#   1 NUMBER                 Running object number                                     
#   2 MAG_AUTO               Kron-like elliptical aperture magnitude                    [mag]
#   3 X_IMAGE                Object position along x                                    [pixel]
#   4 Y_IMAGE                Object position along y                                    [pixel]
#   5 X_WORLD                Barycenter position along world x axis                     [deg]
#   6 Y_WORLD                Barycenter position along world y axis                     [deg]
#   7 A_WORLD                Profile RMS along major axis (world units)                 [deg]
#   8 B_WORLD                Profile RMS along minor axis (world units)                 [deg]
#   9 THETA_WORLD            Position angle (CCW/world-x)                               [deg]
#  10 FWHM_WORLD             FWHM assuming a gaussian core                              [deg]
#  11 ELONGATION             A_IMAGE/B_IMAGE                                           
#  12 ELLIPTICITY            1 - B_IMAGE/A_IMAGE                                       
         1 -12.4292    245.3947     81.7445   7.1695274243e+01   1.3552852172e+01     1.754953    0.6754443 -48.99   0.00699953    2.520    0.603
         2 -12.0991    199.2487     49.6093   7.0739392599e+01   2.8929867592e+01      1.17379    0.5153093 -43.37   0.00497477    2.270    0.560
         3  -8.6040    206.4389     24.1281   6.3758539306e+01   3.0478459359e+01    0.8061412    0.2933992  66.76  0.003388866    2.402    0.584
         4 -10.6106    200.7440     29.2358   6.5638612852e+01   3.1218714279e+01    0.6024101    0.4196639  11.67  0.003003407    2.474    0.596
         5  -9.6355    231.7305      2.8687   5.6733978767e+01   2.7082050080e+01    0.2991651    0.1478949  89.08 0.0008968904    1.925    0.481
         6  -9.3269    239.6712      2.2877   5.5986151613e+01   2.5428606393e+01     0.256983    0.1166661  84.48   0.00102683    2.059    0.514
         7  -9.7108    233.7221      9.7558   5.7932182661e+01   2.5908688656e+01    0.5252576    0.3653074  25.23  0.002861179    2.765    0.638
         8 -11.5932    248.6141     32.1761   6.1044310194e+01   2.0022643437e+01    0.8532173    0.3721631 -48.15  0.004222711    2.024    0.506
         9 -10.8378    228.8005     34.0122   6.3426777739e+01   2.4118166248e+01    0.7253124    0.4971377 -63.47  0.004185867    1.360    0.265
        10 -10.8269    220.5022     15.2599   6.0287857150e+01   2.8243082632e+01    0.5040252     0.410496  60.79  0.003282068    1.341    0.254
        11 -11.1984    225.4520     23.2434   6.1485171385e+01   2.6202656292e+01    0.7695755    0.4023117  71.00  0.004001599    1.718    0.418
        12 -10.2615    227.8529     16.9284   5.9923714161e+01   2.6400684599e+01    0.5902002    0.2662392  67.25  0.002946379    1.959    0.490
        13 -10.6645    248.8926      6.1076   5.5999843363e+01   2.3068447207e+01    0.5768064    0.2979801 -36.64  0.003287603    2.032    0.508
        14 -10.5333    249.9909     18.3709   5.8230985795e+01   2.1435321904e+01    0.5254645    0.1730234 -36.18  0.002162235    2.965    0.663
        15 -10.2895    245.6016     13.6586   5.7691962343e+01   2.2911366764e+01     0.517679    0.1578428  63.40  0.002276161    2.926    0.658
        16 -11.0744    239.4220     18.0139   5.9075696411e+01   2.3730597701e+01    0.6273199    0.4603635 -57.32  0.004052899    1.234    0.190
        17 -10.5182    201.5595     36.8878   6.7347999296e+01   3.0076009527e+01    0.8177445    0.3576654 -22.16  0.003070276    3.706    0.730
        18  -9.0317    201.7505     11.9846   6.1519784068e+01   3.2920378140e+01    0.2565622    0.2075043 -27.68 0.0009409657    1.532    0.347
        19 -10.0383     67.7023     11.7668   8.7493987592e+01   6.2414088430e+01     0.324141       0.1963  -5.95   0.00153994    1.731    0.422
        20 -10.2914    212.6800      8.8921   5.9697169983e+01   3.0714543836e+01    0.4600256    0.2859232 -44.23  0.002680663    1.637    0.389
        21  -9.5145    186.5312      9.4835   6.2677650870e+01   3.6759911515e+01    0.3085204    0.1580401 -67.43  0.001400679    2.494    0.599
        22  -9.7383    155.3652      8.8090   6.6702542046e+01   4.4229353899e+01    0.2497692    0.1920186   8.09  0.001019865    1.671    0.402
        23  -9.7750    223.1897      6.3662   5.8173840295e+01   2.8601802980e+01    0.2986839    0.2113253  62.18  0.001251488    1.434    0.303
        24  -8.5361    220.4997      2.5562   5.7629048668e+01   2.9597012729e+01    0.1649555   0.09931355 -50.57 6.259412e-05    1.601    0.375
        25  -9.3312    206.3522      6.6253   5.9835516810e+01   3.2402569996e+01    0.2170462    0.1485514 -33.94  0.001299813    1.682    0.405
        26  -9.0720    102.6832      6.5028   7.5890699689e+01   5.6264807634e+01    0.2016898    0.1118375 -19.64  0.001091081    2.041    0.510
        27  -9.3025    171.4756      5.5026   6.3567296973e+01   4.0708905444e+01    0.1857484    0.1267468  -0.91 0.0008820911    2.130    0.530
        28  -8.6632    116.3040      6.3623   7.2867574322e+01   5.3375182994e+01    0.1349575   0.07843176  32.81 0.0007037712    1.731    0.422
        29  -8.4197     60.3265      5.3071   8.7284581802e+01   6.4252345100e+01     0.123121   0.07094543  19.30 0.0007036933    1.652    0.395
        30  -9.0217    190.2044      2.2078   6.0532595908e+01   3.6589641732e+01    0.1834479    0.1481072  61.49 0.0008625909    1.218    0.179
        31  -9.6162     63.7937      1.9389   8.4760440133e+01   6.3981547979e+01    0.1967729    0.1377423  32.14 0.0008771519    1.152    0.132
        32  -9.5088    198.4153      9.6277   6.1347801349e+01   3.3944069281e+01    0.4029533    0.2471864   7.02  0.001868878    3.320    0.699
        33  -9.5052     63.4987    216.9960   1.3694227654e+02   2.2032529103e+01    0.2555794    0.1455388  56.49  0.001377561    1.606    0.378
        34  -9.0834    192.9997    250.4743   1.1539994645e+02  -5.3942105759e+00    0.2002583     0.105419  38.01 0.0009295656    1.590    0.371
        35  -8.4240    109.4698    216.5234   1.2731870464e+02   1.5071503710e+01    0.1350519    0.1197754  61.78 0.0003172503    1.025    0.025
        36 -10.1171    232.0888    212.8820   1.0143395507e+02  -6.1667409147e+00     0.391118    0.2891829 -60.72  0.001794859    2.212    0.548
        37 -10.0277    186.9314    213.9497   1.1049062341e+02   1.5471421400e+00    0.3250075    0.2504598 -65.69  0.001695045    1.791    0.442
        38  -9.2622    132.4962    214.0307   1.2201450530e+02   1.1560492042e+01    0.1956069    0.1382966 -57.11 0.0006554173    1.554    0.357
        39  -9.7223    207.0755    209.3259   1.0557756354e+02  -1.3049217046e+00    0.2848075     0.228257  78.54  0.001338299    1.996    0.499
        40  -9.2438    247.6648    208.6118   9.7789909497e+01  -8.0104079438e+00    0.2904471    0.1463322  32.19  0.001245783    1.980    0.495
        41  -8.7033     86.4713    208.9623   1.3121046079e+02   2.0387872182e+01    0.1873498    0.1057424  86.93 0.0008089006    2.461    0.594
        42  -9.7300    235.9430    204.4387   9.9121245239e+01  -5.4872290161e+00      0.24768    0.2113458  54.71  0.001362915    1.553    0.356
        43  -9.2583    193.9427    203.4416   1.0711698900e+02   2.1158236032e+00    0.2752715    0.1855178 -83.47  0.001048961    3.623    0.724
        44  -9.1362    187.9361    204.0053   1.0846003669e+02   3.1387122269e+00    0.2162962    0.1759872  79.44  0.001125769    1.736    0.424
        45 -10.2140    218.4617    202.1464   1.0198303094e+02  -2.1232513487e+00    0.2808709    0.2144762  48.84  0.000820564    1.481    0.325
        46  -9.3575    222.8058    201.8651   1.0109327722e+02  -2.8393176001e+00    0.2120869    0.1736417   1.71  0.001234808    1.168    0.144
        47  -9.2086    198.3965    202.7450   1.0607695287e+02   1.4117104639e+00    0.2607195    0.1332224 -46.72  0.001132818    2.189    0.543
        48  -9.3846    249.8346    201.6178   9.6072725037e+01  -7.2958238447e+00    0.2324345    0.1558397 -47.04  0.000996571    1.818    0.450
        49  -8.9154    245.0099    202.5043   9.7101463544e+01  -6.6640496375e+00    0.2442902     0.121587  42.88  0.001166717    2.124    0.529
        50  -9.6062    240.5419    200.2651   9.7476389853e+01  -5.5896739073e+00    0.3023561    0.2206879  16.81  0.001730406    1.352    0.260
        51 -10.7717    231.0941    195.3569   9.8259384033e+01  -3.2065835411e+00    0.4964523    0.2606544 -34.20  0.001449531    1.873    0.466
        52  -8.8059    160.1913    202.2749   1.1403128489e+02   8.7459286012e+00    0.1896917    0.1611627  69.00 0.0004929576    1.321    0.243
        53  -9.2628    164.7209    201.0035   1.1282013832e+02   8.1272449841e+00    0.1989435    0.1932443  27.27 0.0009495124    1.055    0.052
        54  -8.8164     16.2320    201.5887   1.4483960002e+02   3.0890428390e+01    0.1288354    0.1121683  30.44 0.0007804409    1.573    0.364
        55  -9.1036    203.4900    198.0470   1.0414471151e+02   1.2983492843e+00    0.2258553    0.1776255  33.46 0.0009853251    1.197    0.164
        56  -9.0680    176.6012    197.7770   1.0966948418e+02   6.4616044243e+00    0.1958952    0.1383395 -56.91 0.0009499426    1.694    0.410
        57  -9.6932    184.7383    196.7160   1.0774543375e+02   5.0936131303e+00    0.2838789    0.2018124 -52.63  0.001414626    1.621    0.383
        58 -10.6240    248.2977    194.2854   9.4924458162e+01  -5.9173410639e+00    0.3942285    0.3136116  48.87  0.001635426    1.564    0.361
        59  -8.9681    192.1894    198.3802   1.0651318910e+02   3.3613900284e+00    0.2034814    0.1262712  49.91 0.0009431503    1.705    0.414
        60 -11.2098    237.9058    190.8845   9.6120326497e+01  -3.6437406424e+00    0.6258414    0.3088831 -44.23  0.002398937    2.161    0.537
        61  -9.2952    224.2078    192.2231   9.8938972907e+01  -1.4731850861e+00    0.2644993    0.1844454 -45.34 0.0009198866    1.573    0.364
        62  -8.8800    215.4117    192.2806   1.0064706635e+02   1.0900760479e-01     0.229997    0.1714212  60.09 0.0008347509    1.776    0.437
        63  -9.4192    198.8864    192.1116   1.0391569804e+02   3.2338744702e+00    0.2120249     0.200734  65.70 0.0009765233    1.241    0.194
        64  -9.2930     21.7844    190.9694   1.4282497618e+02   3.2621154406e+01    0.1653635   0.07979999 -73.34 0.0008812276    1.734    0.423
        65  -8.8298    210.4219    189.2784   1.0103057505e+02   1.5629078320e+00    0.1861882    0.1325464 -49.03 0.0009362343    1.590    0.371
        66  -8.8662    194.0258    188.4878   1.0419562364e+02   4.8405755317e+00    0.2215827    0.1360509  42.36  0.001024096    1.569    0.362
        67 -10.9869    227.3500    179.7607   9.5833111144e+01   9.8997297615e-02    0.5114838    0.4813789  84.76  0.002181057    1.370    0.270
        68 -10.3491    224.9196    184.9632   9.7349666936e+01  -3.5880914167e-01    0.3642283    0.2668374 -40.26   0.00118869    1.384    0.277
        69 -10.0022    249.5186    184.9903   9.2878014479e+01  -4.6425860732e+00    0.3718393    0.2418782 -49.67  0.001931563    1.861    0.463
        70  -9.1248    210.1695    183.5733   9.9928768685e+01   2.6355576282e+00    0.2715768     0.101907 -43.38 0.0009927491    2.733    0.634
        71  -9.2828    203.8357    184.3211   1.0134898664e+02   3.7138076711e+00    0.2021029    0.1836407 -38.66  0.001146407    1.164    0.141
        72  -8.2396     15.5388    183.5054   1.4342762480e+02   3.4854683405e+01    0.1191327   0.09241958 -89.71 3.869577e-05    1.013    0.013
        73 -10.2809    242.0001    180.4703   9.3297701732e+01  -2.6314203230e+00    0.4584074    0.2676974 -47.29  0.001855689    1.910    0.476
        74 -10.0760    245.2642    178.2654   9.2274074625e+01  -2.8289237279e+00    0.3072085    0.2108406  56.12  0.001592176    1.946    0.486
        75  -8.9662    198.1035    182.2049   1.0208576678e+02   5.2235539772e+00     0.190698    0.1761392  83.30  0.001059419    1.320    0.242
        76 -10.0534    157.8176    179.6025   1.1026857931e+02   1.3828281803e+01     0.279503    0.1132416 -44.70 0.0009972957    2.602    0.616
        77  -9.5599    236.0315    181.5780   9.4597878088e+01  -1.7733022426e+00    0.3001674    0.2244886 -44.05   0.00165293    1.417    0.294
        78 -10.1471    218.0910    178.2696   9.7289586906e+01   2.0861731252e+00    0.5173827    0.2866063  61.53  0.001969035    3.167    0.684
        79  -8.8266    197.6182    176.8288   1.0107794335e+02   6.3376068964e+00    0.2056722    0.1358797 -51.67 0.0009454925    1.712    0.416
        80 -10.3601    233.6984    174.8184   9.3643049487e+01  -2.0290780848e-01    0.3677314    0.2778085 -40.34  0.001247036    1.314    0.239
        81  -8.8831    151.7823    178.5939   1.1144117285e+02   1.5254397445e+01    0.2122309    0.1359069  51.83 0.0005537386    1.590    0.371
        82  -8.4744     85.1501    175.4114   1.2666780390e+02   2.8107218864e+01    0.1889054    0.1219069  52.04 0.0009243565    1.556    0.357
        83 -10.3215    224.8826    171.8949   9.4670876298e+01   1.9411927333e+00    0.5718926    0.3277625 -53.36  0.002489351    2.232    0.552
        84  -9.0268    193.5029    173.9860   1.0133731864e+02   7.7103852723e+00    0.2241096    0.1441732 -42.38  0.001029202    1.582    0.368
        85  -9.8660    237.6294    170.3456   9.2008262705e+01  -1.4524713316e-01    0.2496129    0.1941165 -38.44  0.001146778    1.244    0.196
        86 -10.5064    212.7157    169.8782   9.6583163905e+01   4.6515855604e+00    0.3514623    0.2685849 -33.58  0.001257809    1.283    0.221
        87 -10.1678    212.8746    164.2949   9.5363394503e+01   5.6575869323e+00    0.4038487    0.3326539 -10.94  0.001624572    1.291    0.225
        88  -9.3710    169.9836    169.4697   1.0545961543e+02   1.3452881850e+01    0.2859582    0.2131162 -60.82  0.001047486    1.559    0.359
        89  -9.3330    243.0128    169.2615   9.0830459519e+01  -9.2622653760e-01    0.2721676    0.1506846  23.40  0.001153395    2.556    0.609
        90 -10.0658    147.3417    168.1773   1.1036951001e+02   1.8397719019e+01     0.272664    0.2512837  57.79 0.0004642149    1.072    0.067
        91  -9.4203    249.4659    167.7769   8.9409907084e+01  -1.8111490408e+00     0.230749     0.178128 -84.39  0.001175788    2.240    0.554
        92 -10.1193    193.2132    166.2542   9.9756731684e+01   9.2785534593e+00    0.3471355    0.2676943 -37.44  0.001742027    1.305    0.234
        93  -8.9676    184.5852    165.7847   1.0148129583e+02   1.1162676194e+01    0.2147618    0.1424988 -53.99 0.0009533855    1.700    0.412
        94  -9.7946    233.9945    164.3674   9.1414516910e+01   1.5624938656e+00    0.3362376    0.2251476 -59.34  0.001561749    2.042    0.510
        95 -11.0694    242.4406    123.6385   8.1221373888e+01   7.1158720609e+00    0.7112348    0.6183912 -14.13  0.004120803    1.259    0.206
        96 -11.3979    245.2805    159.6776   8.8449464757e+01   3.0185933121e-01    0.8395619    0.5129822  22.47  0.003887778    2.207    0.547
        97 -10.8604    241.7394    133.6421   8.3504784076e+01   5.5019208691e+00    0.5725975    0.4670378 -27.51  0.002405715    1.198    0.165
        98  -9.7931    250.1139    140.5372   8.3621962878e+01   2.7042397408e+00    0.2759979    0.2307515  34.46  0.001155892    1.321    0.243
        99 -11.2701    248.9940    133.2170   8.2246164541e+01   4.1758377541e+00     0.759277    0.2871869 -44.18  0.002968293    2.453    0.592
       100 -11.6211    244.0591    150.1061   8.6644555232e+01   2.1781355521e+00    0.9251709    0.3992591 -34.88  0.003193962    2.242    0.554
       101 -10.3604    250.0807    151.9105   8.6019931252e+01   7.6154606046e-01    0.5659807    0.2410275 -44.90  0.002255104    2.289    0.563
       102  -9.0052    221.5211    162.4974   9.3318935188e+01   4.2815168138e+00    0.2476544    0.1377687  56.79  0.001029845    2.331    0.571
       103  -8.6284     46.6926    162.3463   1.3401733750e+02   3.6405299953e+01    0.1363852     0.089309  76.08 0.0003463439    1.699    0.412
       104  -9.0230    237.1312    159.1372   8.9752396225e+01   1.8947516246e+00    0.1851202     0.162633 -57.29  0.001060566    1.303    0.233
       105  -8.9736    184.2041    158.3460   9.9943289545e+01   1.2744702538e+01    0.2913176    0.1198956 -40.56  0.001024416    2.501    0.600
       106 -10.4250    225.0719    138.2033   8.7361410562e+01   8.0278420770e+00    0.5065762    0.3241072 -26.07  0.002328713    1.748    0.428
       107 -10.5929    230.4643    141.5222   8.7136994769e+01   6.3296762536e+00    0.4293263     0.289365 -43.67  0.001095519    1.412    0.292
       108 -10.4464    234.5233    147.8745   8.7806001527e+01   4.3868220076e+00    0.3278068    0.2643682 -66.73  0.001207466    1.531    0.347
       109  -9.8284    226.5518    157.2514   9.1257213732e+01   4.2527514414e+00    0.3914302    0.2690872   2.13  0.001365042    2.050    0.512
       110  -9.7437    233.1696    152.9695   8.9141105466e+01   3.7390340750e+00     0.408234    0.2014444 -35.00  0.001329522    1.973    0.493
       111  -9.5955    229.1116    152.8234   8.9836894761e+01   4.5534850250e+00    0.2771325    0.2632019  14.85 0.0007664397    1.078    0.073
       112  -9.8174    221.7233    153.2619   9.1288079312e+01   5.9356833196e+00    0.3564482    0.2365611 -56.27  0.001126879    1.813    0.449
       113  -9.8564    229.7878    148.0981   8.8691939672e+01   5.2745637387e+00    0.3072647    0.2603097 -54.58 0.0008531878    1.266    0.210
       114  -8.5466    206.4323    153.4665   9.4272103749e+01   9.0211451639e+00    0.1476735    0.1385364  -7.85 0.0001671708    1.056    0.053
       115 -10.3035    196.6268    148.4577   9.5127270522e+01   1.2068864038e+01    0.7143613    0.2412942 -49.73  0.002135128    3.688    0.729
       116  -8.9790     35.9257    150.9448   1.3508731641e+02   4.0229449646e+01    0.2018309    0.1355109  76.46 0.0006886721    1.651    0.394
       117  -8.4423    182.4644    150.5066   9.8568074343e+01   1.4713401826e+01    0.1512991    0.1479755   5.82 7.887388e-05    1.017    0.016
       118  -9.3396    191.5663    148.2923   9.6135522654e+01   1.3190980119e+01    0.2888003    0.1444262 -46.18  0.001123997    2.037    0.509
       119 -10.2300    224.1029    146.8743   8.9451954653e+01   6.6327559588e+00    0.3399646    0.3326608 -63.16  0.001235319    1.107    0.096
       120  -9.2765    217.4140    147.7134   9.0877367416e+01   7.8393338823e+00    0.4093829    0.2140288  35.77  0.001661583    2.250    0.556
       121 -10.3126    206.5472    146.7862   9.2760815305e+01   1.0281063278e+01    0.4772954     0.283067 -25.74  0.001975574    2.074    0.518
       122  -8.7306    111.5466    147.4608   1.1485594176e+02   3.0114291697e+01    0.1487002    0.1427871 -87.21 0.0003539317    1.022    0.021
       123  -8.7298     16.9794    147.0023   1.3925554308e+02   4.2891536623e+01    0.1515388    0.1173106 -74.00 0.0006029985    1.041    0.040
       124  -9.2419    201.6192    146.3029   9.3629759750e+01   1.1422308940e+01    0.1535322    0.1198889 -88.29 0.0001730764    1.777    0.437
       125  -8.4562    166.6829    141.3394   9.9958417269e+01   2.0074978602e+01    0.1599298    0.1246329 -87.05 0.0007022484    1.706    0.414
       126  -8.7612    187.3147    140.6663   9.5279271024e+01   1.5649956252e+01    0.1560468    0.1224553 -82.35 0.0003868712    1.687    0.407
       127  -9.8825    219.1037    138.8445   8.8587558180e+01   9.1450296881e+00    0.3653806    0.2788801  59.50  0.001374738    1.470    0.320
       128  -9.6754    215.8362    135.6007   8.8460649531e+01   1.0438897656e+01    0.2737619    0.2141459 -45.89 0.0008022282    1.247    0.198
       129  -9.6878    233.7427    135.1263   8.5165804517e+01   6.8243534013e+00    0.4265656    0.1794399 -37.89  0.001674707    2.246    0.555
       130  -9.0424    233.9700    130.2534   8.4055267441e+01   7.6513195306e+00     0.210949    0.1848844 -70.23 0.0006494311    1.262    0.207
       131  -8.9151    164.4172    136.2354   9.9274017127e+01   2.1654030752e+01    0.2178871    0.1481669 -54.40 0.0007765524    1.590    0.371
       132  -9.4945    139.0005    135.7529   1.0523580472e+02   2.7297402698e+01    0.2839194    0.1746447 -12.42 0.0009028946    3.632    0.725
       133  -9.7093    169.7786    134.6132   9.7671750284e+01   2.0797241243e+01    0.2677765    0.2170734 -39.02 0.0005103776    1.252    0.201
       134  -8.6029     52.6836    135.7078   1.2831490856e+02   4.1916421921e+01    0.1324515   0.09517246 -34.20 0.0004508675    1.599    0.375
       135  -9.3733    221.3658    129.5377   8.6081500680e+01   1.0394757273e+01    0.3304469    0.2643515  89.38  0.001151101    1.591    0.372
       136 -10.4766     86.4254    129.7385   1.1779336068e+02   3.8590170642e+01    0.3861976    0.2533518 -79.03  0.001695464    2.103    0.525
       137  -8.7970     61.9352    129.6924   1.2464211518e+02   4.2162408494e+01    0.1749897     0.173005 -76.02 0.0003161087    1.100    0.091
       138 -10.2901    228.8212    126.3470   8.4061420956e+01   9.4118744001e+00    0.4667222    0.3633349 -37.04  0.002477334    1.217    0.178
       139  -8.8044    118.5462    129.4683   1.0899260209e+02   3.2887233862e+01    0.1498635     0.147393 -69.45 0.0001738165    1.012    0.012
       140 -10.4715    206.4915    126.9926   8.8239456764e+01   1.4089533061e+01    0.3967086    0.3144588  42.61  0.001636435    1.313    0.239
       141 -10.0437    212.7223    124.0095   8.6381495604e+01   1.3282503806e+01    0.4324805    0.3410856   4.13   0.00211733    1.659    0.397
       142  -9.6046    193.4258    127.9959   9.1040779584e+01   1.6809511547e+01    0.2959692    0.2182898  70.28 0.0009916615    1.644    0.392
       143 -10.1234    199.2838    125.7175   8.9333446861e+01   1.5937396412e+01    0.3738483    0.2817985 -56.74   0.00179795    1.425    0.298
       144  -9.8191    195.8220    121.8654   8.9100089659e+01   1.7462322723e+01    0.4370314    0.2262397  37.68  0.001659794    2.333    0.571
       145  -8.6221    113.6871    126.6950   1.0962709477e+02   3.4456735764e+01    0.1514458    0.1199843  -8.79 0.0004797773    1.618    0.382
       146  -9.4608    161.3750    124.4815   9.7126669502e+01   2.4802136777e+01    0.2656971    0.2379881 -58.01 0.0004616627    1.154    0.133
       147  -9.2973    189.0380    123.2848   9.0807383487e+01   1.8728842222e+01    0.4089169    0.2211671 -35.76  0.001632858    1.946    0.486
       148  -9.6810    222.0595    121.1900   8.4063640119e+01   1.1777989062e+01    0.3364395    0.2943947  50.43  0.001033569    1.203    0.169
       149  -8.4590    114.7682    121.0196   1.0796363557e+02   3.5512823586e+01    0.1991303    0.1241026 -48.34 0.0004405083    1.584    0.369
       150 -11.2861    235.1291    107.9465   7.8917516210e+01   1.1351692810e+01    0.8619087    0.5878024  46.50  0.003367724    1.619    0.382
       151 -11.3842    221.5370     63.2027   7.0790944102e+01   2.1703479248e+01     1.627862    0.8835353 -76.42  0.006461454    2.848    0.649
       152 -11.8269    230.6048     94.1825   7.6526897530e+01   1.4684182952e+01    0.9907575    0.7216603 -77.83  0.004487608    1.611    0.379
       153 -10.7016    249.9797     65.3855   6.7663318595e+01   1.5115733743e+01    0.7636399    0.2633279 -38.96  0.003104016    2.629    0.620
       154 -11.5118    225.7167     86.7185   7.5570230707e+01   1.7016730800e+01     1.505119     0.593353  46.13  0.005526609    3.080    0.675
       155 -10.4425    227.1308     74.1353   7.2500473363e+01   1.8741720614e+01    0.7237842    0.5571643  45.63  0.003483338    1.508    0.337
       156 -10.3101    241.7884     68.9645   6.9412121575e+01   1.6316334008e+01    0.4726647    0.3889769  78.02  0.002848724    1.207    0.171
       157 -10.2547    236.6354     89.9214   7.4684126585e+01   1.4089825098e+01    0.4826087    0.3260663 -64.22  0.002352715    1.604    0.376
       158 -10.3028    231.7706     83.0811   7.3857262894e+01   1.6272371314e+01    0.5331041    0.3823905 -61.93  0.002025818    1.401    0.286
       159 -10.4777    243.1156     92.9414   7.4426704398e+01   1.2214408427e+01    0.5088753     0.403672  61.17  0.001764296    1.346    0.257
       160  -9.2047    234.4638    248.1696   1.0725043243e+02  -1.1556182257e+01    0.2294569      0.13952  45.54  0.001108907    1.919    0.479
       161 -11.2946    235.9365     74.0427   7.1273267005e+01   1.6801842628e+01     1.345862    0.3103088 -41.52  0.004388433    3.682    0.728
       162 -12.4725    247.6207    108.9118   7.7239946098e+01   8.6131330578e+00     1.343294      0.71668 -40.96  0.006319042    1.683    0.406
       163 -11.0652    247.1730     98.6544   7.5093195236e+01   1.0426913496e+01     1.088454       0.3375  54.79  0.003964222    3.432    0.709
       164 -10.0697    235.4394    115.1701   8.0474930674e+01   1.0025525552e+01    0.5144732    0.2395907 -46.81  0.002134039    2.069    0.517
       165 -10.9770    230.4056    116.0423   8.1485668923e+01   1.0926738978e+01    0.4848042    0.4161597  70.63  0.001659904    1.268    0.211
       166  -9.9456    218.7340    115.5723   8.3354764261e+01   1.3522965793e+01     0.404144    0.2716811  55.36  0.001942836    1.565    0.361
       167  -8.6512    203.7343    115.7531   8.6113318552e+01   1.6833136115e+01    0.2609227    0.1758949 -38.31 0.0007194107    1.467    0.318
       168  -8.8539    181.8391    116.1990   9.0568294861e+01   2.1776757205e+01    0.2139774    0.1858324  11.56  0.001037521    1.346    0.257
       169  -9.1208     52.1418    113.3242   1.2418518331e+02   4.7113343579e+01    0.2348055    0.1529315 -49.19 0.0005813172    1.350    0.259
       170  -8.6690    193.6752    113.3533   8.7468975720e+01   1.9587929472e+01    0.1602312     0.118229 -76.39 0.0007047221    1.762    0.433
       171 -10.1216    104.3395    111.8823   1.0855384191e+02   3.9507145341e+01    0.2463737    0.2004931  50.18 0.0005226561    1.305    0.234
       172 -10.3761    183.4920    108.9235   8.8418126387e+01   2.2803522527e+01     0.371951    0.2537961 -34.70  0.001588249    1.534    0.348
       173 -10.4566    214.8408    107.7291   8.2208567076e+01   1.5807416204e+01    0.4933215    0.3289095  71.12  0.002263506    1.815    0.449
       174  -9.0924    190.1164    109.1308   8.7136055581e+01   2.1215977375e+01    0.2372183    0.2141804  10.19  0.001235148    1.269    0.212
       175  -8.4993    197.6625    108.3038   8.5468771581e+01   1.9618576146e+01    0.1552075    0.1170751 -79.75 0.0005323151    1.670    0.401
       176  -8.8889     15.0089    111.9923   1.3487742959e+02   5.0897516979e+01    0.1428147    0.1182306 -59.24 0.0004066228    1.032    0.031
       177 -10.9432    221.3086    100.6591   7.9471632133e+01   1.5619554949e+01    0.5241438    0.2498026 -51.18  0.002081716    2.249    0.555
       178  -8.8353    216.7808    100.2239   8.0119827879e+01   1.6709954305e+01    0.2317584    0.1055809  45.25 0.0008833117    2.478    0.596
       179 -10.8512    212.7557    115.8940   8.4487737933e+01   1.4782693677e+01    0.6130096    0.4431357  10.19  0.002743456    2.102    0.524
       180  -8.7975    196.2061    103.3931   8.4544893418e+01   2.0867623552e+01     0.208413    0.1427967  66.46 0.0005666075    1.618    0.382
       181  -9.1580    167.9553    100.5268   8.9551066079e+01   2.8070287469e+01    0.2426072    0.1493568  51.90  0.001034577    1.600    0.375
       182  -9.5174    160.5357     99.0689   9.0808390048e+01   3.0096039195e+01    0.4019824    0.1510871 -40.66  0.001350955    2.700    0.630
       183  -9.7599    129.2812     98.2369   9.8159319065e+01   3.7340258668e+01    0.2091317    0.1821053  82.75 0.0009104114    1.360    0.265
       184  -9.2046    195.8959     97.1913   8.3075441870e+01   2.2071273324e+01    0.2388694    0.2011758 -73.18 0.0008419469    1.269    0.212
       185  -9.4653    177.1425     95.4691   8.6298946715e+01   2.6836963951e+01    0.4752909    0.3017281 -23.39  0.001985779    2.039    0.510
       186  -9.0016    216.4043     95.2332   7.9012470450e+01   1.7667985932e+01    0.2120308    0.1257164 -49.32 0.0007352348    1.666    0.400
       187 -10.1844    236.5441     60.1700   6.8166036871e+01   1.8779640694e+01    0.6758696    0.3360056  79.65  0.002871971    2.588    0.614
       188  -9.0976    150.7581     93.4312   9.1537607167e+01   3.3452776965e+01    0.2239031    0.1400414  39.93 0.0009535595    1.662    0.398
       189  -9.7296    102.5943     93.2265   1.0409109693e+02   4.3750794799e+01    0.2115847    0.1327523 -33.52 0.0005645576    1.677    0.404
       190  -8.9601    108.5626     91.0060   1.0176390476e+02   4.3048419518e+01    0.2236181    0.1410785 -43.36 0.0004996581    1.581    0.367
       191  -9.7765    168.3028     89.6891   8.6623786675e+01   3.0005145705e+01    0.2621273    0.1450489  61.65 0.0008301627    1.999    0.500
       192 -10.1214    176.3308     87.5139   8.4395234116e+01   2.8470648509e+01    0.3223858    0.2473606 -71.71 0.0008469287    1.541    0.351
       193  -9.1523    139.5022     87.9669   9.2723986862e+01   3.7061732673e+01    0.2328985    0.1496584 -39.18  0.001036058    1.599    0.375
       194  -8.8069    197.6623     86.6810   8.0152875224e+01   2.3508328871e+01    0.1488088    0.1164409  20.90 0.0007049446    1.707    0.414
       195  -9.4828    179.4159     85.2285   8.3186790214e+01   2.8131183499e+01    0.2115149    0.1366783 -50.26 0.0008485117    1.630    0.387
       196  -8.8365    206.0005     83.9394   7.8045744358e+01   2.2006727058e+01    0.2379977    0.1665339 -72.23 0.0007262978    1.706    0.414
       197  -9.1573    220.1912     82.6724   7.5476799736e+01   1.8933771744e+01    0.2725799    0.1736192  80.53  0.001021537    1.928    0.481
       198  -8.9708    184.6423     82.7119   8.1531084361e+01   2.7308033136e+01    0.1515483    0.1149141  26.39 0.0007024654    1.681    0.405
       199  -9.1624    142.7681     82.0423   9.0263523432e+01   3.7399078942e+01     0.199422    0.1254089 -39.22 0.0008798384    1.643    0.391
       200 -10.0182    214.4704     75.4687   7.4665769009e+01   2.1423864573e+01    0.4593691     0.230639  54.87  0.001997847    1.980    0.495
       201  -9.0421    210.8301     81.2054   7.6597456495e+01   2.1333885486e+01    0.1881885    0.1740385  22.64 0.0008825265    1.295    0.228
       202  -9.3786    159.0412     80.9937   8.6261384485e+01   3.3766397403e+01    0.2460548    0.1863077  16.03  0.001139559    1.732    0.423
       203 -10.5722    119.7992     78.5211   9.5053147954e+01   4.3118531573e+01     0.384113    0.2493911  26.32  0.001715521    1.833    0.454
       204  -9.4073    189.5272     77.5830   7.9320293110e+01   2.6997069008e+01    0.2897995    0.2105251  11.78  0.001296063    2.134    0.531
       205 -10.0494    175.4920     77.4407   8.1910628131e+01   3.0415744681e+01    0.3044012    0.2549343 -74.45 0.0008857923    1.302    0.232
       206  -9.7550    214.8472     80.5221   7.5799305986e+01   2.0514267630e+01    0.3683875    0.1630487 -50.44  0.001425973    2.411    0.585
       207  -8.9502    194.5007     76.4973   7.8168867368e+01   2.5980093538e+01    0.1453746    0.1370734  88.30 0.0008106832    1.007    0.007
       208  -9.6554    126.0595     76.4928   9.2808503192e+01   4.2135348528e+01    0.2222299    0.1404576  47.75 0.0006592041    1.532    0.347
       209  -9.7268    201.1585     72.3428   7.6016966417e+01   2.5061050014e+01    0.4949313    0.2142053  67.27  0.001799555    2.764    0.638
       210  -8.6613    163.4922     70.5074   8.2437863441e+01   3.4467267462e+01    0.1473161    0.1393772  57.86 3.234959e-05    1.018    0.017
       211  -9.8190    210.4499     65.7617   7.2974551497e+01   2.3891669022e+01    0.4338388    0.1722671 -52.88  0.001538158    3.083    0.676
       212 -10.3981    206.8430     60.1524   7.2171466907e+01   2.5593476716e+01    0.3846909    0.2250514 -50.49   0.00181662    1.724    0.420
       213  -8.7758    139.3627     67.1840   8.6781840207e+01   4.0721125035e+01     0.208917    0.1326337 -46.11  0.000950899    1.731    0.422
       214  -9.6648    198.1238     64.6173   7.4602977361e+01   2.6999907230e+01    0.3590807    0.1774911 -44.41  0.001530776    2.022    0.506
       215 -10.9242    198.5437     58.2692   7.2969197506e+01   2.7855432458e+01    0.7916635    0.2704511  61.64  0.002842762    2.817    0.645
       216 -10.8664    190.3075     42.4731   7.0294970033e+01   3.2055717212e+01    0.5045673     0.404503  11.52  0.002753154    1.737    0.424
       217 -11.7281    185.7759     36.6580   6.9503469019e+01   3.3902414813e+01     0.867602    0.5755555 -67.83  0.003808448    1.717    0.418
       218  -9.5015    176.1794    248.1399   1.1830068877e+02  -2.2396093345e+00    0.1751934    0.1420554  54.99  0.001079748    1.346    0.257
       219  -9.5659    187.0116    247.3519   1.1606973788e+02  -3.9383624428e+00    0.1869584    0.1387189  34.90 0.0004580861    1.128    0.113
       220  -8.7752    136.4557     63.0133   8.6231439530e+01   4.2055256960e+01    0.2125497    0.1435284 -33.97 0.0007871098    1.571    0.363
       221  -9.0817    177.7517     61.3478   7.7224899383e+01   3.2440153227e+01    0.2353821    0.1834722   1.00 0.0006442182    1.754    0.430
       222  -8.9859    158.2377     61.7350   8.1073457940e+01   3.7119799251e+01    0.1992372    0.1674406  25.40 0.0009493968    1.334    0.250
       223  -9.3404    226.5029     60.0215   6.9405797013e+01   2.1045846336e+01    0.2555405     0.119892 -41.65 0.0009025441    2.008    0.502
       224  -9.6411    237.9252     45.5736   6.4882305401e+01   2.0554203534e+01    0.4414476     0.189825  51.44  0.001914444    2.739    0.635
       225  -9.7892    232.8828     44.0084   6.5114955842e+01   2.1884070406e+01    0.4412805    0.3071394  33.19  0.002283646    2.284    0.562
       226 -11.1293    244.1821     42.2138   6.3509645804e+01   1.9650200356e+01    0.4157741    0.3127446 -40.66  0.001778399    1.384    0.277
       227 -10.7566    236.3833     53.8666   6.6825630268e+01   1.9731312516e+01    0.7383946    0.2968536  64.73  0.003171164    2.458    0.593
       228 -10.7953    229.0562     51.7304   6.7242433537e+01   2.1670105039e+01    0.5411553    0.5177126  76.61  0.003511462    1.212    0.175
       229 -10.8415    244.4663     51.4680   6.5392464876e+01   1.8311675390e+01     0.462614    0.2936926 -81.66  0.001826093    1.679    0.404
       230 -10.2198    249.7068     46.0697   6.3722042009e+01   1.7946497710e+01    0.6103811    0.2138155 -40.48  0.002642582    2.527    0.604
       231 -10.2650    172.1968     58.4701   7.7466812910e+01   3.4226328678e+01    0.5367933    0.3166955  30.67  0.002200353    2.487    0.598
       232  -8.8009     48.1960     60.6086   1.1205605251e+02   5.8354076022e+01     0.168354    0.1100593  11.86 0.0009443178    1.647    0.393
       233 -10.8055    131.7493     55.2652   8.5007146660e+01   4.4309874240e+01      0.44174    0.1881357 -38.75  0.001758241    2.486    0.598
       234 -10.0161    126.4427     58.6871   8.7341306978e+01   4.4986334125e+01    0.2514426    0.1357954 -39.31 0.0009629399    1.967    0.492
       235 -10.1259    250.2813     54.9646   6.5474707158e+01   1.6577309625e+01    0.2870931     0.192436 -39.98   0.00118801    1.464    0.317
       236  -8.5301    246.2373     56.7971   6.6304336038e+01   1.7170824261e+01    0.1923863    0.1557496  36.70 0.0007599264    1.723    0.420
       237  -8.7263     99.5243     56.5057   9.3874244393e+01   5.0942053148e+01    0.1372884    0.1243144  13.80 -2.559411e-05    1.009    0.009
       238  -9.2409    207.7137     53.7315   7.0512333485e+01   2.6326633133e+01    0.2224144    0.1628055 -37.32 0.0005593887    1.445    0.308
       239 -10.1651    163.2604     52.9684   7.7633154880e+01   3.7201231741e+01    0.3185372    0.1928085 -37.93  0.001096286    1.755    0.430
       240  -9.2627    221.5945     53.1982   6.8507944843e+01   2.3160461590e+01    0.2131198    0.1447302  62.88 0.0006138023    1.431    0.301
       241  -9.0875    152.5122     53.5026   7.9905104233e+01   3.9715441269e+01    0.1433868    0.1316279  52.37 -9.663145e-05    1.018    0.018
       242  -9.0384    148.1554     51.8375   8.0325307343e+01   4.0990995705e+01    0.2032515    0.1604214  32.34  0.001072496    1.339    0.253
       243  -9.4693    191.4626    245.5112   1.1491661707e+02  -4.4025169443e+00    0.2375668    0.1041389  31.28  0.001033582    2.283    0.562
       244 -10.4900    215.7506     42.2810   6.6774517412e+01   2.6024772014e+01    0.5070362    0.3372749 -11.56  0.002169734    2.451    0.592
       245  -9.3521    221.7010     42.6468   6.6125410296e+01   2.4599732155e+01    0.4834796    0.2217369 -71.42  0.001696818    3.829    0.739
       246  -8.8510    162.4063     46.1924   7.5910393555e+01   3.8346919820e+01    0.1958845    0.1254189 -47.16 0.0009439515    1.719    0.418
       247  -9.0881     76.5220     44.0003   9.6711534367e+01   5.6986237251e+01    0.1865144    0.1194424 -31.91 0.0007200031    1.547    0.353
       248  -9.0049    183.5061     43.0963   7.1491077697e+01   3.3624053136e+01    0.1965938    0.1388472 -32.45  0.001025024    1.576    0.365
       249 -10.2379    175.4280     41.1844   7.2285730066e+01   3.5840605080e+01    0.6385219    0.3425572 -88.38    0.0023817    3.171    0.685
       250  -9.2101    154.8536     42.8338   7.6382592141e+01   4.0614426588e+01    0.1910433    0.1617068 -78.69  0.000780455    1.319    0.242
       251  -9.9036    205.8116     40.6955   6.7686602589e+01   2.8571338539e+01    0.4087407    0.1225985 -44.78  0.001475254    3.286    0.696
       252 -10.2048    238.6506     38.4960   6.3320701021e+01   2.1347798012e+01    0.2929771    0.2394914 -86.63  0.001004337    1.069    0.064
       253  -9.4822    209.2114     39.5317   6.6971194602e+01   2.7920338041e+01    0.2292669    0.1761461 -47.64 0.0006489593    1.314    0.239
       254  -9.6433    165.3823     39.6244   7.3561651091e+01   3.8483517140e+01    0.2462612    0.1909819 -34.55  0.001018211    1.424    0.298
       255  -9.2278    161.8266     38.1688   7.3784207066e+01   3.9528222286e+01    0.4105532     0.247224   9.80   0.00166756    3.097    0.677
       256  -9.8286    221.6799     31.0814   6.3575068056e+01   2.6103989261e+01    0.4371763    0.2115358 -41.60  0.002139789    2.000    0.500
       257  -9.3251    226.2650    244.5466   1.0814720913e+02  -9.8444492996e+00    0.2567366    0.1556406  45.91 0.0008960159    1.855    0.461
       258  -9.0640    202.9433    242.5123   1.1221405392e+02  -5.8542295442e+00    0.2027215    0.1085096  37.29  0.001037234    1.604    0.377
       259  -9.8245    149.9118    241.1535   1.2246829083e+02   3.4135530210e+00    0.3267501    0.1987488  77.03  0.001361022    3.307    0.698
       260  -9.2436    182.7826    239.9863   1.1573744470e+02  -2.0797445150e+00     0.188161    0.1510073 -89.18  0.001060572    1.953    0.488
       261  -8.8759     48.2797    240.6185   1.4206792870e+02   1.9269673981e+01    0.1257669   0.06894721  71.89 0.0007006495    1.719    0.418
       262 -10.5236    241.9319     33.6691   6.1991418815e+01   2.1262431320e+01     0.548951    0.2236632 -49.16  0.002545207    2.236    0.553
       263 -10.1182    236.4219     30.7148   6.1936733603e+01   2.2841576270e+01    0.3609857    0.2441706 -46.63  0.001956217    1.414    0.293
       264  -9.6664    230.9190    237.4521   1.0607587393e+02  -9.5818123279e+00    0.2067935    0.1703289 -41.70 0.0008335435    1.569    0.363
       265 -10.6851    206.3756    236.2661   1.1051177615e+02  -5.4883030722e+00    0.4007721    0.3521987  38.29  0.001700663    1.233    0.189
       266  -9.0882    243.9601    236.9494   1.0361184872e+02  -1.1467396029e+01     0.159042    0.1538141  75.15  0.001109174    1.692    0.409
       267  -8.5605    235.6812    237.6741   1.0523911003e+02  -1.0336358462e+01    0.1290582   0.08237438   5.14 0.0007045974    1.678    0.404
       268  -9.8702    219.2900    235.4047   1.0789594283e+02  -7.4666992034e+00      0.39204    0.1927827  30.22   0.00174685    1.924    0.480
       269  -9.8822    239.0256    231.8595   1.0360949559e+02  -1.0039553965e+01    0.4051262    0.2118217  43.85  0.002081825    2.079    0.519
       270 -10.1456    243.8651     21.9077   5.9449596754e+01   2.2311061882e+01    0.2766418    0.2297304  63.16 0.0008830451    1.397    0.284
       271  -8.8541    113.6763    231.3403   1.2844879862e+02   1.1411055016e+01    0.1391334   0.09078485  69.50 0.0007050967    1.725    0.420
       272  -9.0817    140.2646     37.9841   7.7862735076e+01   4.4691511746e+01    0.1685629    0.1214755 -28.96 0.0008920402    1.541    0.351
       273  -8.7512     67.6030     34.7990   9.6374870673e+01   5.9729183816e+01    0.1631521    0.1104677 -39.46 0.0009383109    1.680    0.405
       274  -8.9904    153.7845     66.5728   8.3371339819e+01   3.7431644495e+01    0.2096009    0.1376149  67.28 0.0009447823    1.675    0.403
       275 -10.3098    214.7956     30.9486   6.4328641917e+01   2.7706832723e+01    0.5906865     0.337414  61.44  0.003074402    1.631    0.387
       276  -9.5534    209.0479     31.4926   6.5135113701e+01   2.8981544048e+01     0.230204    0.1781326  60.01 0.0005635888    1.294    0.227
       277 -10.4883    169.9660     30.9621   7.0449219493e+01   3.8429871248e+01    0.4193091    0.2348066  -4.67  0.001692859    3.356    0.702
       278  -8.8843    110.3212     31.3333   8.2566320259e+01   5.2183885499e+01    0.1409862   0.09047926  24.54 0.0007049729    1.701    0.412
       279  -9.8627    193.6644     30.1717   6.6783681282e+01   3.2796563869e+01    0.1937496    0.1523307  84.86  0.001124814    1.155    0.134
       280 -10.4360    145.4176     25.1868   7.3042400079e+01   4.4963658710e+01    0.2160114    0.1802514 -80.42 0.0007130794    1.368    0.269
       281 -10.0512    141.9809     24.9804   7.3623974638e+01   4.5793319956e+01    0.3255893    0.1970276 -55.27  0.001569616    2.199    0.545
       282  -9.8505    118.6868     25.0469   7.8484109597e+01   5.1084949278e+01    0.1785522    0.1629644  15.24 0.0006323876    1.127    0.113
       283  -9.5228    128.5062     24.5383   7.6175489887e+01   4.8947968950e+01    0.1326647    0.1158129  50.35 5.995426e-05    1.030    0.029
       284  -9.1297    217.4843     22.4657   6.2150849165e+01   2.8107817240e+01    0.1987931    0.1492701 -60.39 0.0009326469    1.256    0.204
       285  -9.7309    229.7431    229.0453   1.0481957957e+02  -8.2063955070e+00    0.2656438    0.2173009 -45.94  0.001178147    1.605    0.377
       286  -9.6190    172.0148     20.4895   6.7365128328e+01   3.9106140006e+01    0.2008445    0.1037191  55.90 0.0009639518    1.684    0.406
       287  -9.2122    147.0152     18.7512   7.0875838687e+01   4.5256429348e+01    0.2313871    0.1623253 -47.60   0.00128453    1.662    0.398
       288  -9.0593    187.0961     16.7928   6.4380027434e+01   3.5879586739e+01    0.1932063    0.1513613 -86.19 0.0005066517    1.194    0.163
       289  -8.6848     67.6981     17.6854   8.9834800913e+01   6.1799174963e+01    0.1254788   0.07793034  14.79  0.000263896    1.615    0.381
       290  -9.3965    199.4875     15.4562   6.2569214969e+01   3.3083428217e+01    0.2672739    0.1678206  75.88 0.0009894593    1.385    0.278
       291  -9.0673    199.4900    228.9791   1.1061075204e+02  -3.1982100580e+00     0.163436    0.1191275 -71.10 0.0005696104    2.461    0.594
       292  -9.0446    162.1165     14.9051   6.7347201394e+01   4.2051037015e+01    0.1973795    0.1624401 -85.04 0.0009865881    1.245    0.197
       293  -8.9136    164.0275    228.7416   1.1771549825e+02   3.0949589997e+00    0.2022468    0.1556981  41.01 0.0007412959    1.136    0.119
       294  -9.2844    248.1696    227.4926   1.0118148252e+02  -1.0800767857e+01    0.2030756    0.1568283 -20.99  0.000676034    1.232    0.189
       295  -9.0569    190.8470    227.1357   1.1200956529e+02  -1.3989596523e+00    0.1984366    0.1785505  50.58  0.001085044    1.251    0.200
       296 -10.6470    208.7032    224.6492   1.0804829212e+02  -4.0884044339e+00    0.3655619    0.2524164  13.93  0.001457838    1.538    0.350
       297  -9.2249    218.0631    224.5797   1.0622802986e+02  -5.6509062057e+00    0.2749894    0.2214293 -82.87  0.001487824    2.324    0.570
       298 -10.6908    239.3317    221.1861   1.0163341613e+02  -8.5672970314e+00    0.3517913    0.3359744  88.51  0.001831031    1.622    0.384
       299 -10.0052    228.7346    221.9082   1.0372514014e+02  -6.9933527770e+00    0.3439016    0.2801057  64.35  0.001692852    1.921    0.479
       300  -8.5899    186.3329    222.6548   1.1214708311e+02   1.5035202854e-01    0.1328428    0.1060916  72.70 0.0006245359    1.762    0.433
       301 -10.0303    194.0849    219.8115   1.1008443874e+02  -7.5280709663e-01    0.3430899    0.2983649  64.89   0.00201509    1.451    0.311
       302 -10.0923    247.7431    217.8385   9.9499047610e+01  -9.3759304301e+00    0.3760604    0.3075355 -61.06  0.002255392    2.029    0.507
       303  -8.9062     99.2072    226.2272   1.3074908060e+02   1.4788146130e+01    0.1882335    0.1323574  65.62 0.0009162877    1.361    0.265
       304 -11.2944    214.6249    215.3799   1.0522079583e+02  -3.6253326501e+00    0.5087019    0.3638529 -39.83  0.001898776    1.518    0.341
       305 -10.3581    219.3101    215.6665   1.0436922027e+02  -4.4712006802e+00    0.3561653    0.2791593  72.56  0.001895084    2.175    0.540
