#   1 NUMBER                 Running object number                                     
#   2 MAG_AUTO               Kron-like elliptical aperture magnitude                    [mag]
#   3 X_IMAGE                Object position along x                                    [pixel]
#   4 Y_IMAGE                Object position along y                                    [pixel]
#   5 X_WORLD                Barycenter position along world x axis                     [deg]
#   6 Y_WORLD                Barycenter position along world y axis                     [deg]
#   7 A_WORLD                Profile RMS along major axis (world units)                 [deg]
#   8 B_WORLD                Profile RMS along minor axis (world units)                 [deg]
#   9 THETA_WORLD            Position angle (CCW/world-x)                               [deg]
#  10 FWHM_WORLD             FWHM assuming a gaussian core                              [deg]
#  11 ELONGATION             A_IMAGE/B_IMAGE                                           
#  12 ELLIPTICITY            1 - B_IMAGE/A_IMAGE                                       
         1 -14.6572      2.9461     89.6246   1.2846783133e+02   5.5453722082e+01     5.427437    0.1810645 -74.05   0.01147807   12.881    0.922
         2 -14.7558      3.3314    137.5818   1.3223946694e+02   4.5590860776e+01      3.51218    0.9699042  88.25   0.01399122    4.419    0.774
         3 -13.3413    201.4009     29.5803   6.0470255705e+01   3.0892332330e+01     1.461134     0.915118 -14.81  0.005231719    1.691    0.409
         4 -13.5394    219.7729     11.3639   5.2726781183e+01   2.8029407148e+01     1.026005    0.8612821  31.87  0.002539522    1.274    0.215
         5 -11.3365     63.1045    246.5441   1.2829503284e+02   2.1226201241e+01    0.2516926    0.1402993  71.80 0.0007339929    1.557    0.358
         6 -13.7208    217.0556    248.7658   1.0517449231e+02  -1.3552215660e-01      1.60158    0.2414847  42.58  0.006096016    4.464    0.776
         7 -14.7567     12.2092    240.8230   1.3535206436e+02   2.7281950605e+01     2.296524     1.076792  55.42   0.01884495    1.396    0.284
         8 -14.7659     28.6535    225.2710   1.3236573557e+02   2.7989717570e+01    0.7373998    0.6798472  81.55  0.007237155    1.608    0.378
         9 -12.8421     40.9762    212.0791   1.2976994041e+02   2.8772023169e+01    0.5413486    0.3336512  67.34  0.002575605    1.207    0.171
        10 -13.1836    243.9931    247.6697   1.0110841904e+02  -3.8657559381e+00    0.9200991    0.5191724  17.10  0.006535148    1.679    0.404
        11 -12.8242    139.9211    248.9869   1.1687710361e+02   1.1007381181e+01    0.5273932    0.2230323  48.06  0.003282441    1.703    0.413
        12 -12.2252     82.9493    249.1226   1.2551412531e+02   1.8530153069e+01    0.3849293    0.1826519  41.48  0.002659309    1.754    0.430
        13 -11.9931    162.0297    249.1427   1.1351149290e+02   7.8329241423e+00    0.3230264     0.151273  41.41  0.002078277    1.547    0.354
        14 -12.3372    106.0931    230.6984   1.2055398382e+02   1.8031278129e+01    0.4496723    0.1145808  46.03  0.002158581    2.793    0.642
        15 -10.8183     88.3000    226.5626   1.2308179722e+02   2.0974053040e+01    0.2094223   0.06934652  46.28  0.001146982    2.194    0.544
        16 -11.1869     58.1458    213.2603   1.2703745706e+02   2.6685158011e+01    0.3158599    0.1378687  64.90  0.001901441    2.138    0.532
        17  -8.8675    152.4890    213.0167   1.1102173988e+02   1.3612621213e+01    0.1287662    0.1138855 -54.40 0.0003318157    1.449    0.310
        18 -11.9528     53.8366    196.9735   1.2663968686e+02   2.9834712582e+01    0.2103187    0.1760779 -88.19 0.0005262482    1.297    0.229
        19 -11.5702      3.0681    189.9875   1.3491382628e+02   3.6003381933e+01    0.2874908    0.1655086  69.92   0.00110185    1.239    0.193
        20 -11.7578      5.2724    184.7995   1.3432809591e+02   3.6707765778e+01    0.4382885    0.1375391  58.81  0.001934273    2.469    0.595
        21 -12.1302     60.9405    188.5033   1.2472189461e+02   3.0457753382e+01    0.2083813    0.1709718  76.36 0.0004147492    1.122    0.109
        22 -13.0380      9.4745    207.0651   1.3455651233e+02   3.2635173714e+01    0.5842685    0.4083287  40.45  0.003060026    1.636    0.389
        23 -13.7350      5.7986    153.9487   1.3271148636e+02   4.2250089447e+01     1.715407    0.5564506  66.20  0.008538767    3.114    0.679
        24 -11.8816    111.4044    249.2150   1.2124379181e+02   1.4885416714e+01     0.384616    0.0909185  48.19  0.001860502    2.977    0.664
        25 -13.2525     58.4044    173.7218   1.2392734783e+02   3.3395730307e+01    0.3970197    0.2363191 -50.76  0.002170863    2.298    0.565
        26 -11.9564     80.0506    167.3045   1.1900802591e+02   3.1856469575e+01     0.436239    0.3750574 -62.90  0.003151636    1.371    0.270
        27 -10.3096     90.0060    167.7178   1.1705334616e+02   3.0406245146e+01    0.2794736    0.1674198  65.40   0.00100707    1.682    0.406
        28 -10.8147     72.4570    175.7259   1.2140155371e+02   3.1306626519e+01    0.1939828    0.1571336  68.95 0.0004005654    1.034    0.033
        29 -10.5927     94.0572    151.6229   1.1411024556e+02   3.2848833113e+01    0.2520669    0.2174137  70.95 0.0007378862    1.014    0.014
        30 -12.2287     82.4812    150.3114   1.1642310818e+02   3.4764470720e+01    0.2483266    0.2107386 -65.71  0.001113942    1.261    0.207
        31  -9.3737     97.6722    147.4270   1.1272064616e+02   3.3117277341e+01    0.1508372    0.1152441  38.49 0.0003353967    1.402    0.287
        32 -11.9184     67.8418    142.8435   1.1866472959e+02   3.8189903372e+01    0.5000169    0.3204607  76.76  0.002087057    1.601    0.375
        33 -10.8640     64.6755    141.6767   1.1922370527e+02   3.8821317212e+01    0.2561028    0.1801778 -52.52 0.0008350822    1.628    0.386
        34  -9.9947    107.3105    136.8766   1.0889869664e+02   3.3659882697e+01    0.3554294    0.2522741  -9.91   0.00141059    2.848    0.649
        35 -10.5656     94.0244    133.9223   1.1143228474e+02   3.6346885123e+01    0.1941402    0.1693556 -73.63 0.0003528137    1.115    0.103
        36  -9.8757     70.8257    125.3076   1.1554307129e+02   4.1406431798e+01    0.3132898    0.1635217  61.04  0.001526186    2.249    0.555
        37  -9.1946    105.1197    123.3703   1.0697954197e+02   3.6719730676e+01    0.1722852    0.1490674  58.35 0.0003416017    1.119    0.106
        38  -9.1784     71.3232    116.9258   1.1409630788e+02   4.3106021385e+01    0.1674657     0.139814 -77.27  0.000348565    1.067    0.063
        39  -9.3030     62.8492    110.7448   1.1523650561e+02   4.5505528967e+01    0.1695233    0.1269038  74.13 0.0004770086    1.360    0.265
        40  -9.8517     52.0472    103.0242   1.1682254512e+02   4.8435973890e+01    0.1857643    0.1530707 -89.91 0.0004687463    1.108    0.097
        41 -10.0506    160.2796     78.0043   8.2923251957e+01   3.4319541769e+01    0.2141036    0.1966991 -29.93 0.0005217548    1.087    0.080
        42 -12.1371     98.8810    248.6168   1.2309253774e+02   1.6597419130e+01     0.308103     0.193083  35.98  0.002297776    1.723    0.420
        43 -13.9127      5.8077    116.5048   1.3019020369e+02   4.9655039357e+01     1.291607    0.5206957 -87.69  0.006094966    2.176    0.540
