#   1 NUMBER                 Running object number                                     
#   2 MAG_AUTO               Kron-like elliptical aperture magnitude                    [mag]
#   3 X_IMAGE                Object position along x                                    [pixel]
#   4 Y_IMAGE                Object position along y                                    [pixel]
#   5 X_WORLD                Barycenter position along world x axis                     [deg]
#   6 Y_WORLD                Barycenter position along world y axis                     [deg]
#   7 A_WORLD                Profile RMS along major axis (world units)                 [deg]
#   8 B_WORLD                Profile RMS along minor axis (world units)                 [deg]
#   9 THETA_WORLD            Position angle (CCW/world-x)                               [deg]
#  10 FWHM_WORLD             FWHM assuming a gaussian core                              [deg]
#  11 ELONGATION             A_IMAGE/B_IMAGE                                           
#  12 ELLIPTICITY            1 - B_IMAGE/A_IMAGE                                       
         1 -11.0831    220.7892     28.1912   3.1342792776e+01   2.7546460940e+01    0.7506962    0.3736975 -84.73  0.003728076    2.299    0.565
         2 -11.4417    149.6787     25.4776   3.8572723521e+01   4.4046299175e+01    0.9185473    0.5619309 -89.35  0.004483525    1.838    0.456
         3 -11.4424    154.8262     21.5154   3.6669287234e+01   4.3234817233e+01    0.7510469    0.4862467 -75.24  0.003903682    1.682    0.406
         4 -11.6268    148.8486     15.3341   3.5652890371e+01   4.5313720187e+01    0.8067895    0.3635093  82.44  0.003368919    2.528    0.604
         5 -11.5845     52.3239     20.0408   6.1408825399e+01   6.6570240148e+01     0.629245    0.4037169 -59.60  0.002828455    3.359    0.702
         6 -10.8074    248.9056     12.7017   2.6231830930e+01   2.3804733516e+01    0.4760267    0.2698672 -26.49  0.002851817    2.129    0.530
         7 -11.1880    166.9940     16.5562   3.3750644731e+01   4.0846656528e+01    0.3035463    0.2259552 -62.81   0.00180219    1.286    0.222
         8 -10.8502    179.8116     12.9590   3.1443547699e+01   3.8218267707e+01    0.5888458    0.4431478 -41.09  0.003665874    1.347    0.257
         9  -9.0410    173.4350      7.0239   3.0530792990e+01   4.0273094042e+01    0.6090626    0.2713281 -59.29  0.002788958    2.415    0.586
        10 -11.0051     73.4131     16.2166   5.1809110949e+01   6.2879501096e+01    0.4736873    0.3205689  80.52  0.002351492    2.326    0.570
        11  -9.8631    210.6719     14.3103   2.9090927583e+01   3.1230509204e+01    0.2856733    0.1523467 -62.82  0.001562432    1.720    0.419
        12  -9.2885     83.3968     14.1381   4.7922565206e+01   6.0936520980e+01     0.248139    0.1536695 -40.81  0.001296146    1.920    0.479
        13 -11.5751     18.4460     11.4464   7.4289150082e+01   7.2900823339e+01    0.5001051    0.3938537  22.68  0.003420684    1.302    0.232
        14 -10.0243    158.8811      2.6766   3.0812028706e+01   4.4079411201e+01    0.4242521    0.2247616  80.50  0.002185349    1.705    0.414
        15 -10.2842    154.0963      4.8616   3.1943889278e+01   4.5026864846e+01    0.3064044    0.2045772  82.72  0.001252474    1.333    0.250
        16 -10.5648    149.0496      2.3490   3.1785972819e+01   4.6446340574e+01    0.3623655     0.257715 -87.67  0.001502378    1.296    0.229
        17 -10.5671    216.1907      3.4700   2.6339542067e+01   3.1188066708e+01    0.4680128    0.2837029  66.74  0.002898166    1.707    0.414
        18  -9.8751    185.7824      3.2655   2.8489486321e+01   3.7797056476e+01    0.3311057    0.2660642 -29.26  0.002194664    1.446    0.309
        19 -10.5865    110.5341      2.5625   3.7282147494e+01   5.5670321362e+01    0.4237038    0.3133551  72.51  0.002531711    1.217    0.178
        20 -10.4645    139.3763      2.5128   3.2992627072e+01   4.8752930486e+01    0.4443503    0.2538059  88.79  0.002273391    1.768    0.434
        21  -9.4988     33.7115      2.0471   6.0272990840e+01   7.1862521819e+01    0.3119275    0.1398261  22.47  0.001354467    2.953    0.661
        22  -9.1877    229.9506      1.8902   2.5187574454e+01   2.8560486986e+01    0.2104861    0.1308744 -85.13  0.001371679    1.413    0.292
        23 -10.9634    127.0992      8.4407   3.6615521233e+01   5.1216831079e+01    0.4499564    0.3190695 -10.91  0.002558369    1.732    0.423
        24 -10.7577     23.9479    116.5995   1.0402702840e+02   4.9690904051e+01     0.641399    0.2674404  56.46  0.002185696    3.919    0.745
        25 -10.1892    223.4802    113.9258   5.0117211944e+01   1.4403714323e+01    0.3412617    0.2438609  30.37  0.001848969    1.802    0.445
        26 -10.6674    198.4711    109.4077   5.3063061729e+01   1.9998150013e+01    0.6856475    0.1279685 -42.87  0.001833796    4.742    0.789
        27 -10.2050     61.2203    109.8098   8.9305355446e+01   4.7234531889e+01    0.2542177    0.1555323  70.22 0.0009529138    2.812    0.644
        28 -10.9750    237.4055     92.9212   4.3685078775e+01   1.5272479280e+01     1.103822    0.2758559 -45.80  0.003788379    3.621    0.724
        29  -9.9072     57.8345    100.8174   8.8361166494e+01   4.9945546559e+01    0.2024041    0.1775661  81.91   0.00107553    1.341    0.254
        30  -8.4915    226.3144    100.0193   4.6659344823e+01   1.6181902019e+01    0.2133978    0.1038748 -20.11 0.0007046279    4.259    0.765
        31 -10.7266    217.2228     97.3982   4.7346140550e+01   1.8343298554e+01    0.5432564    0.2689489 -56.23  0.002280065    2.461    0.594
        32 -10.2163    248.2870     85.3533   4.0838586242e+01   1.4488147700e+01    0.3699509    0.3071994 -31.85   0.00246943    1.221    0.181
        33 -10.7095    156.3254     81.5326   5.3789840417e+01   3.4249907776e+01     0.407073    0.2814359 -34.75  0.001931588    1.468    0.319
        34 -10.3024    218.8530     75.8520   4.2230129515e+01   2.1452303833e+01    0.4878942    0.2998346 -82.80  0.002352942    2.254    0.556
        35  -9.2911    243.8955     77.7313   3.9734059559e+01   1.6392358180e+01    0.2613548    0.1239499 -55.13  0.001244456    2.159    0.537
        36 -10.8534     55.2085     67.4749   7.9721624233e+01   5.7980179643e+01     0.466977    0.2411133  34.61  0.002065605    1.976    0.494
        37 -10.4069    203.7426     63.5700   4.1284819885e+01   2.6449610384e+01    0.6116186    0.3138926 -52.38  0.002839277    1.902    0.474
        38 -10.6039    247.7522     56.3436   3.4944838561e+01   1.8700812784e+01    0.3328674    0.2515863 -22.88  0.002123071    1.619    0.382
        39 -11.0930    165.1310     50.1266   4.3337948245e+01   3.7198960829e+01    0.5100393    0.4884406   1.21   0.00309449    1.224    0.183
        40  -9.9912     90.5053     48.4442   5.9714767503e+01   5.4968981467e+01     0.422576    0.2939481 -53.36  0.002062613    1.790    0.441
        41 -11.0914     13.8850     47.4258   9.2630718993e+01   6.6960546612e+01    0.4107102    0.2437268   9.99  0.002245007    1.766    0.434
        42  -9.5918    175.2841     46.9973   4.0943189140e+01   3.5235833293e+01    0.3189045    0.1716783  56.86  0.001497284    1.843    0.457
        43  -9.5716    231.9706     46.0000   3.4213170821e+01   2.3069039278e+01    0.1860959   0.06684931  68.53 0.0008126883    3.014    0.668
        44  -9.6846    201.4876     43.9799   3.6845341662e+01   2.9684662945e+01    0.2542439    0.1664384 -83.17  0.001364792    1.617    0.382
        45 -11.0337    131.9543     38.2892   4.5648847837e+01   4.6813932852e+01    0.7155961    0.4109616  82.50  0.003026502    2.342    0.573
        46 -10.8011     98.8482     32.0242   5.1015329607e+01   5.5450697341e+01    0.4723952    0.3571718 -73.43  0.002452221    1.814    0.449
        47  -8.4729    147.6580    246.3267   9.0035676423e+01   3.0451298052e+00    0.1228223   0.09006297  53.85 0.0007051188    1.737    0.424
        48  -9.8128    242.4871     29.9876   3.0033840640e+01   2.3037964832e+01    0.2050545    0.1550668  60.77  0.001391717    1.636    0.389
        49  -9.7323    134.2110    246.4209   9.2866022485e+01   4.8859585529e+00    0.1889928   0.09761062  40.07 0.0008321274    1.720    0.419
        50  -8.9432    155.5272    241.4801   8.7730225446e+01   2.7527446933e+00    0.1272706    0.1049178  15.23 0.0001427631    1.023    0.022
        51 -10.7081    225.1288    239.0443   7.3912421092e+01  -5.8891311183e+00    0.2745736    0.1768875 -32.83  0.001775473    1.542    0.351
        52  -9.6340      5.1726     27.5820   9.0475703077e+01   7.1529278933e+01    0.4114614   0.09353163 -44.39   0.00162442    3.184    0.686
        53 -10.4007    194.0451     23.8697   3.2765589912e+01   3.3807944166e+01    0.4304563    0.3007998 -79.91  0.002544796    1.333    0.250
        54  -9.7025     32.7285     24.4423   7.2900173659e+01   6.9098859677e+01    0.3068199    0.1123603  32.76  0.001311059    2.677    0.626
        55  -9.6819    130.5036    234.9999   9.2162190523e+01   7.4123064533e+00     0.181131     0.129068 -50.18  0.001040001    1.611    0.379
        56  -8.6739    156.5382    225.5140   8.5156981782e+01   5.3240675362e+00     0.131975    0.1127965  12.17 0.0003639956    1.016    0.016
        57 -10.1036    249.3597    219.6962   6.6617176335e+01  -6.0678005272e+00    0.2555428    0.1869606 -36.98  0.001743384    1.593    0.372
        58 -11.1727    227.2763    221.4971   7.0647859901e+01  -3.7167360247e+00    0.5455046    0.3808666  39.42  0.003405796    1.863    0.463
        59  -9.3988     55.8983    216.4285   1.0699976628e+02   2.1390696039e+01    0.2498586    0.1598786 -73.61 0.0006114699    1.612    0.380
        60  -8.7948    123.6984    206.2723   8.9561794900e+01   1.4019244877e+01    0.1353518     0.103279  59.22            0    1.533    0.348
        61  -8.8907    132.9732    199.1983   8.6233913904e+01   1.4017112741e+01    0.1894253    0.1681039  21.54  0.001079828    1.052    0.049
        62 -10.1901    176.5826    197.7721   7.6218603441e+01   7.2734365372e+00    0.1818772    0.1291733 -50.51 0.0007224089    1.637    0.389
        63  -9.9850    158.8002    193.3920   7.9275438231e+01   1.0972747739e+01    0.2051017    0.1265189  23.88 0.0009557671    1.688    0.408
        64 -10.6010    221.2203    176.9195   6.3606789117e+01   4.0316050981e+00    0.2418153     0.232106  66.47  0.001587079    1.499    0.333
        65 -10.7970    100.9876    175.9982   9.0323269999e+01   2.4417604499e+01    0.2057576    0.2003114  48.20  0.001162233    1.002    0.002
        66 -11.3482    212.0163    170.6831   6.4020279905e+01   6.5067526184e+00    0.5074603    0.3100404 -55.37  0.002385677    2.292    0.564
        67 -10.2902    158.3191    162.8039   7.3401018962e+01   1.7307154151e+01    0.5228741     0.233088  56.50  0.001471814    4.947    0.798
        68 -11.1701    196.4572    161.4314   6.5048874542e+01   1.0740270907e+01    0.2847974    0.2631208  -0.25  0.001709565    1.087    0.080
        69 -11.7716    227.5023    141.0264   5.5300086137e+01   9.1085521245e+00    0.4436517    0.2894085  52.00  0.002385522    1.929    0.482
        70  -9.6517    141.8081    143.6131   7.3142677141e+01   2.4620992621e+01    0.2161759    0.1441201  50.30  0.000551237    1.642    0.391
        71 -11.0363    191.5212    138.5903   6.1059733343e+01   1.5941337844e+01    0.7264053    0.4258593  73.14  0.002348906    4.717    0.788
        72 -10.8141    247.7752    127.5063   4.9542993385e+01   8.0510301385e+00     0.600938    0.2428117 -44.97   0.00271209    2.189    0.543
