#   1 NUMBER                 Running object number                                     
#   2 MAG_AUTO               Kron-like elliptical aperture magnitude                    [mag]
#   3 X_IMAGE                Object position along x                                    [pixel]
#   4 Y_IMAGE                Object position along y                                    [pixel]
#   5 X_WORLD                Barycenter position along world x axis                     [deg]
#   6 Y_WORLD                Barycenter position along world y axis                     [deg]
#   7 A_WORLD                Profile RMS along major axis (world units)                 [deg]
#   8 B_WORLD                Profile RMS along minor axis (world units)                 [deg]
#   9 THETA_WORLD            Position angle (CCW/world-x)                               [deg]
#  10 FWHM_WORLD             FWHM assuming a gaussian core                              [deg]
#  11 ELONGATION             A_IMAGE/B_IMAGE                                           
#  12 ELLIPTICITY            1 - B_IMAGE/A_IMAGE                                       
         1  -9.9754      2.0059     45.7661   9.9388884016e+01   6.7300563702e+01    0.3306746    0.1440923 -57.60  0.001503062    1.996    0.499
         2 -11.7265    216.7027     38.3963   3.6346489859e+01   2.7414357317e+01    0.9026359    0.5619528 -52.58  0.005165582    1.404    0.288
         3 -11.6456    236.6443     20.6222   3.0905520671e+01   2.5518897408e+01    0.6557424    0.4605609 -60.68  0.002779407    1.134    0.118
         4  -9.7217      2.7256      2.8650   8.1675163643e+01   7.4473667488e+01    0.3074614    0.2030043  -5.70  0.002175661    1.193    0.162
         5  -9.8073      1.6766     14.9700   8.8276361224e+01   7.2799724598e+01    0.3782215    0.1319346 -53.58   0.00164801    3.785    0.736
         6  -9.4836      2.1433      9.2184   8.5288430792e+01   7.3632186574e+01    0.3342969    0.1214636 -46.79  0.001638357    2.778    0.640
         7 -12.8271      8.9185    207.7233   1.1972117172e+02   2.8245511791e+01     1.465723    0.8376656 -63.35  0.004331622    1.742    0.426
         8  -7.8582     81.5138    250.5047   1.0776603752e+02   1.0499572016e+01    0.1244882    0.1063895  50.50 0.0003992286    1.040    0.038
         9 -12.7358    103.5786    229.8763   1.0065598857e+02   1.1510655705e+01     4.240472     1.288675  29.42    0.0135338    4.036    0.752
        10 -11.8590     10.9474    231.7097   1.2074287880e+02   2.2758572625e+01    0.8018225    0.5770989  70.03 0.0008539129    1.089    0.081
        11 -11.3462     24.2727    202.5932   1.1594717570e+02   2.7961298426e+01    0.4568743    0.3429965 -37.81 0.0008893277    1.823    0.452
        12 -13.6048     34.3680    191.4657   1.1257364304e+02   2.9577947071e+01     4.090856     1.754009  73.16   0.01501325    3.385    0.705
        13 -10.7766     20.5379    194.7881   1.1617251295e+02   3.0187498539e+01    0.3518592     0.274374 -60.62  0.001456098    1.367    0.268
        14 -10.9143      8.8544    189.5848   1.1848596879e+02   3.2501640083e+01    0.3381753    0.2328572 -73.16  0.002040024    1.288    0.223
        15 -11.4403      1.9999    183.8311   1.1966665605e+02   3.4444316910e+01     1.129128     0.244311 -75.37    0.0039852    3.655    0.726
        16 -10.1663     54.6086    176.3402   1.0566777163e+02   3.1005072675e+01    0.4467081     0.298677 -30.06    0.0020969    2.090    0.521
        17 -10.2942     60.5502    170.9913   1.0332263926e+02   3.1610703689e+01    0.3652396    0.2931336 -39.49 0.0009048547    1.418    0.295
        18 -13.1764     19.7123    247.9153   1.1995643349e+02   1.8519280326e+01     4.011014    0.9638222  29.11   0.01485215    4.780    0.791
        19  -7.6166     99.3259    180.6938   9.4449261246e+01   2.3403406579e+01    0.1554373    0.1121184  69.03 0.0007035565    1.649    0.393
        20  -7.7329    110.6597    167.3407   8.9028504528e+01   2.4773617381e+01    0.1629506    0.1190782  74.19 0.0007049584    1.770    0.435
        21  -9.6049      2.6995    164.3342   1.1800986978e+02   3.9154703226e+01     0.249079    0.1307082  89.76 0.0008911107    1.718    0.418
        22 -11.6589     68.4033    144.7596   9.6738973612e+01   3.7348277023e+01    0.9447801    0.6340458 -87.87  0.003076522    1.847    0.459
        23  -9.7881     71.3592    161.6332   9.8853303998e+01   3.2543303732e+01     0.300447    0.2813709 -60.17 0.0006555474    1.073    0.068
        24  -9.2601     35.6489    159.8264   1.0869255189e+02   3.7424179895e+01    0.5591557    0.2538289  67.80   0.00197232    3.467    0.712
        25 -11.6670     57.9834    157.4832   1.0200297753e+02   3.5439108013e+01     0.569409     0.320854 -40.62  0.001423816    2.096    0.523
        26 -11.2562     78.8948    155.8735   9.5693398682e+01   3.2922360834e+01    0.9279068    0.7694201 -76.40  0.003367274    1.204    0.170
        27 -10.3386     74.7580    220.3138   1.0606837006e+02   1.7742603682e+01    0.4119461    0.2692622  81.18  0.001527139    1.740    0.425
        28  -7.7867     23.5227    147.5186   1.1059289005e+02   4.1763056054e+01    0.1372033     0.116567 -82.23 0.0001598973    1.042    0.040
        29  -9.2204     94.5856    141.8071   8.8324618109e+01   3.3993145064e+01    0.4313328    0.3209403   0.93  0.001136094    1.815    0.449
        30  -8.2587     98.3442    138.3260   8.6460624573e+01   3.4216824240e+01    0.2511147     0.182576 -19.23  0.001084808    1.809    0.447
        31 -10.6120     82.5551    139.9481   9.1511945934e+01   3.6461915485e+01    0.3549391    0.2937736 -47.13 0.0005236521    1.173    0.148
        32 -10.7355     59.0637    134.3750   9.7661250260e+01   4.1321656571e+01    0.9915427    0.3943862 -76.25  0.002516673    5.615    0.822
        33  -9.0810    106.6095    130.9222   8.2342670775e+01   3.4550607162e+01    0.3626976     0.309448 -29.76  0.001144185    1.235    0.191
        34  -8.9863     93.7567    126.9362   8.5217371875e+01   3.7875412665e+01     0.326144    0.2348733 -51.61 0.0004793426    1.328    0.247
        35  -8.3931     14.1029    128.0641   1.1092150214e+02   4.7500917463e+01    0.2043325    0.1418545  66.86 0.0005360585    1.624    0.384
        36  -9.9022     63.9244    125.5211   9.4320885220e+01   4.2947055254e+01    0.5442873     0.304252  63.93  0.001981705    3.020    0.669
        37  -8.2862    105.0563    119.1967   7.9916815947e+01   3.7688421191e+01     0.228432     0.205382  -8.99 0.0003265654    1.205    0.170
        38 -10.9073      2.6144    110.8024   1.1232131037e+02   5.2550365722e+01     0.796252    0.3201402 -77.13   0.00341418    2.331    0.571
        39  -8.9167    243.5060    111.5340   4.8854349933e+01   1.0778477346e+01    0.1328541    0.1099362 -45.38  7.44771e-05    1.010    0.010
        40  -8.0962    205.6460    110.5085   5.4367913121e+01   1.8199280091e+01    0.2509606    0.1239729 -41.23 0.0008704234    1.820    0.451
        41  -8.9810     52.6100    109.5667   9.4648240283e+01   4.8459388564e+01    0.3110134   0.08330446 -47.53 0.0009594616    3.360    0.702
        42  -8.6080     41.7537     91.2007   9.4261065199e+01   5.4175657424e+01    0.2895942    0.1589453 -41.48  0.001111096    1.679    0.404
        43  -9.5780      1.6886     88.0478   1.0914690347e+02   5.8091145533e+01    0.4069972   0.06174235 -63.99  0.001347965    3.770    0.735
        44  -8.9196     57.2263     76.1762   8.4079163679e+01   5.5587584326e+01     0.321468    0.1548787  41.82  0.001349124    2.376    0.579
        45 -11.7326     55.9946    240.7008   1.1220053948e+02   1.5818791202e+01    0.7853739     0.634607  -4.80  0.001531329    1.882    0.469
        46  -9.2160     12.8924     59.9413   9.8171586473e+01   6.3732827014e+01    0.2081653    0.1506619  48.81 0.0006435744    1.979    0.495
        47 -10.4237    199.1217     52.0564   4.1499058009e+01   2.9385293908e+01    0.4542569    0.1895327 -36.37  0.001945459    2.336    0.572
        48 -11.9485    208.7022     43.2728   3.8292833533e+01   2.8490349634e+01    0.7663745    0.5846748  66.81  0.003833391    1.349    0.259
        49  -7.9098    171.6695    241.3074   8.7466507775e+01  -9.4978644198e-01    0.1217183   0.09801583  55.96 0.0007039494    1.662    0.398
        50 -11.2174    223.9096     31.8380   3.4241973644e+01   2.6739769304e+01    0.5213081    0.4183426  37.38  0.001432326    1.886    0.470
        51 -10.0208      1.6786     59.9684   1.0336379207e+02   6.4401658273e+01    0.4850426   0.08796702 -62.13  0.001646854    4.152    0.759
        52  -7.4712    129.4932     29.4451   4.6318690355e+01   4.8683937814e+01    0.1338033    0.1200417  69.11 9.931943e-05    1.043    0.041
        53 -12.8178      2.9471    133.3988   1.1498779311e+02   4.6891162346e+01     2.785677    0.8993933 -84.75  0.009419986    3.803    0.737
        54 -10.8394     83.3934    218.6517   1.0387840289e+02   1.6896614805e+01    0.6938521    0.3537019 -64.05  0.003210732    2.049    0.512
        55  -8.7975     22.6925    223.8089   1.1786951476e+02   2.3284339931e+01    0.3168658    0.1349219  55.31   0.00154307    2.104    0.525
