#   1 NUMBER                 Running object number                                     
#   2 MAG_AUTO               Kron-like elliptical aperture magnitude                    [mag]
#   3 X_IMAGE                Object position along x                                    [pixel]
#   4 Y_IMAGE                Object position along y                                    [pixel]
#   5 X_WORLD                Barycenter position along world x axis                     [deg]
#   6 Y_WORLD                Barycenter position along world y axis                     [deg]
#   7 A_WORLD                Profile RMS along major axis (world units)                 [deg]
#   8 B_WORLD                Profile RMS along minor axis (world units)                 [deg]
#   9 THETA_WORLD            Position angle (CCW/world-x)                               [deg]
#  10 FWHM_WORLD             FWHM assuming a gaussian core                              [deg]
#  11 ELONGATION             A_IMAGE/B_IMAGE                                           
#  12 ELLIPTICITY            1 - B_IMAGE/A_IMAGE                                       
         1 -15.0704     11.1715    143.5566   1.4173881902e+02   4.4316567353e+01       9.8662     3.336308 -85.66   0.03359441    4.562    0.781
         2 -12.8792      3.6587     39.6781   1.2500824000e+02   6.6559288821e+01     0.751027    0.3469913 -64.27  0.003905513    2.782    0.641
         3 -13.2945    199.1039     27.6090   6.6742543186e+01   3.2474223206e+01     1.325766     1.269234  17.63  0.007020414    1.338    0.253
         4 -13.3186    214.2752      9.5751   6.0758801197e+01   3.0930427167e+01    0.9457487    0.7994293  71.23  0.004210928    1.217    0.178
         5 -11.8160      4.0515      3.3374   1.1162060111e+02   7.2102905365e+01    0.4283381    0.2757174  10.09  0.003291063    1.446    0.308
         6 -11.6487      2.3641     13.6121   1.1672389264e+02   7.0811666403e+01    0.4569617     0.149787 -48.77  0.002359881    2.842    0.648
         7 -11.9665     12.1540    239.6527   1.4929036225e+02   2.3613343819e+01    0.3059704    0.2172039  85.51  0.001741637    1.128    0.114
         8 -12.0201    238.8752    247.7255   1.0850837793e+02  -1.2624027459e+01    0.4609659    0.3826302  51.68  0.003109454    1.690    0.408
         9 -11.1863    138.9874    249.4227   1.2745730606e+02   3.5800029561e+00      0.31236    0.2305451 -66.15  0.001906836    1.610    0.379
        10 -10.2812    111.3189    250.0631   1.3275265933e+02   8.0784613914e+00    0.2435637    0.1292529  54.21 0.0009735035    1.602    0.376
        11 -11.5428     99.9441    248.2731   1.3467118515e+02   1.0226373345e+01    0.3633825    0.3081869 -70.74  0.002473423    1.374    0.272
        12  -9.6257     66.4973    250.0271   1.4087353721e+02   1.4902957708e+01    0.2242896    0.1226348  58.22 0.0006111178    1.467    0.318
        13 -10.8229     46.4535    249.0031   1.4424056098e+02   1.7793517678e+01    0.3006552    0.1634538  79.56  0.001807149    1.642    0.391
        14 -11.0041     28.9054    248.2498   1.4709882759e+02   2.0098781104e+01    0.4159444    0.1886728 -62.84  0.001637046    2.448    0.591
        15 -12.0969     35.1348    245.3954   1.4588430881e+02   1.9893996362e+01    0.6800967    0.4038442 -63.42  0.004371875    1.940    0.485
        16 -11.8049      5.0051    249.4998   1.5093710601e+02   2.2514204263e+01    0.6552038    0.2714923  41.16  0.002578377    2.356    0.576
        17 -11.4610      5.0102    241.4120   1.5052170368e+02   2.4024557849e+01    0.3213269    0.2554836  36.86  0.001161384    1.858    0.462
        18 -10.4547     23.3288    245.7302   1.4784670625e+02   2.1221832995e+01    0.2061922   0.09451523  53.03  0.001251126    1.727    0.421
        19  -9.5697    190.3244    245.3248   1.1706534850e+02  -4.5601163872e+00    0.1282119   0.09045999  11.95  0.000445576    1.688    0.408
        20 -11.0164    126.0388    250.1395   1.3000023000e+02   5.6396711285e+00    0.4284586    0.1246246  43.74  0.001683635    2.784    0.641
        21 -11.2753     17.9560    241.2363   1.4844537270e+02   2.2681054222e+01    0.2434578    0.1954409 -52.88    0.0016185    2.039    0.509
        22 -11.5824    119.7976    238.2157   1.2973241100e+02   8.8426195345e+00    0.4680737    0.2369316 -79.54  0.001900927    3.463    0.711
        23 -10.0276    173.1013    247.7606   1.2071235445e+02  -1.9996560378e+00    0.3337317    0.2022942  87.42  0.001111006    6.108    0.836
        24 -10.2736    233.2154    236.5290   1.0763361757e+02  -1.0288997501e+01    0.2039755    0.1687379 -83.73  0.001193316    2.355    0.575
        25 -10.7249     50.3503    235.1685   1.4248481406e+02   1.9968304320e+01    0.3099212    0.1686699  88.02  0.001165132    1.729    0.422
        26 -10.7375    156.6575    249.5733   1.2410893889e+02   5.3299623656e-01    0.2354763    0.1712839  28.80  0.001385982    1.438    0.304
        27 -11.7320    248.6661    247.9504   1.0682378305e+02  -1.4066560125e+01    0.5322497    0.3662828 -22.96  0.003519008    1.441    0.306
        28 -12.7379    107.7529    230.6229   1.3115327703e+02   1.2316799377e+01     1.363185    0.1709458  44.68  0.003674377    5.733    0.826
        29 -11.7054     94.8754    228.0709   1.3338886740e+02   1.4922325489e+01    0.5882149    0.2109758  42.69  0.002487994    2.460    0.593
        30 -11.3894     87.2548    226.0634   1.3465770421e+02   1.6529430805e+01    0.6063509    0.1510028  50.57  0.002054784    3.860    0.741
        31 -10.6963    135.4848    231.7182   1.2577668278e+02   7.3471969181e+00    0.2783422    0.1523258  32.69  0.001285103    2.083    0.520
        32  -8.5999     55.6409    230.2912   1.4110732635e+02   2.0246213662e+01    0.1313431   0.07048335  67.33 0.0007028144    1.692    0.409
        33 -10.7702      6.3794    227.6804   1.4954223563e+02   2.6540781503e+01    0.3354135    0.2316803 -27.29  0.001825657    4.286    0.767
        34 -11.2720     10.9133    232.3485   1.4906762962e+02   2.5158632076e+01     0.211699    0.1872406  66.57  0.001720418    1.478    0.324
        35  -9.9384     79.0240    218.9888   1.3549024452e+02   1.9254302610e+01    0.2179804    0.1292362  71.79  0.001009165    1.703    0.413
        36  -8.6700    152.4935    213.0448   1.1946955138e+02   7.8152080741e+00    0.1842046     0.139402 -55.37 0.0003613977    1.459    0.315
        37 -12.2803      9.9773    206.9285   1.4760308162e+02   3.0407734094e+01    0.5867792    0.3947628  36.78  0.002737451    1.836    0.455
        38 -11.5473     58.3709    198.4884   1.3740330554e+02   2.6661053545e+01     0.297646    0.2254213 -72.58 0.0005519462    1.245    0.197
        39 -10.5479     10.0846    194.3135   1.4667034417e+02   3.3076991962e+01    0.2327608    0.1579423  67.26 0.0003650179    1.274    0.215
        40  -9.3927    191.7220    192.7500   1.0763453881e+02   4.1437667205e+00    0.3938397     0.216712 -66.74   0.00131524    4.053    0.753
        41 -11.8461     64.9799    190.0392   1.3500067806e+02   2.7666242759e+01    0.2755778      0.22896 -65.64 0.0004293449    1.275    0.216
        42 -10.8978      1.9934    182.7590   1.4735611745e+02   3.6297858745e+01    0.3699356    0.1216192 -72.53  0.001809365    2.278    0.561
        43 -12.7779     30.8619    232.1615   1.4568495690e+02   2.2985012193e+01     0.301915    0.2385602 -76.74 0.0007902954    1.395    0.283
        44 -13.0580     62.0893    175.3003   1.3374096641e+02   3.1478503562e+01    0.5204052    0.2754631 -47.02  0.001768186    2.328    0.570
        45 -10.6434     75.6205    177.2386   1.3089235859e+02   2.9102845270e+01    0.2451216    0.2105005  87.04 0.0003596718    1.008    0.008
        46  -9.5260     95.8157    172.5871   1.2542198716e+02   2.7001760351e+01     0.264223    0.2069477  52.36 0.0008107238    1.255    0.203
        47 -11.5691     83.0347    168.2630   1.2777082471e+02   3.0097368359e+01    0.6174431    0.4916933 -53.83  0.002583024    1.317    0.241
        48  -8.4980     94.6420    168.2623   1.2497385294e+02   2.8221571400e+01    0.1495893    0.1022444  70.82 0.0002084061    1.628    0.386
        49 -12.5143     45.8398    214.9121   1.4156376154e+02   2.4712220672e+01    0.7683868    0.5689105 -74.98  0.003739713    1.297    0.229
        50 -10.0291     96.3548    152.3272   1.2167241684e+02   3.1739818909e+01    0.3108061    0.2623861 -52.63 0.0008497252    1.202    0.168
        51 -11.9072     84.8572    151.3575   1.2442077191e+02   3.3863491860e+01    0.3084576    0.2479525 -49.31 0.0005580107    1.292    0.226
        52  -8.9295     99.4911    148.1083   1.2004946905e+02   3.2210453661e+01     0.213964    0.1384221 -56.18 0.0003585117    1.465    0.318
        53 -12.0668     67.4567    143.5856   1.2752661816e+02   3.8312414099e+01    0.6703911    0.4368707  68.87  0.002525033    1.852    0.460
        54  -9.6992    108.7599    137.3046   1.1538389783e+02   3.3116078323e+01    0.4135713    0.2794075 -22.11  0.001657882    2.354    0.575
        55 -10.3658     95.6764    134.6123   1.1826846051e+02   3.6098356615e+01    0.2632688     0.237007 -40.51 0.0006235459    1.185    0.156
        56 -11.6242     25.5085    128.4247   1.3616401019e+02   4.6613670130e+01     0.413657     0.235251  55.13 0.0005483271    2.124    0.529
        57 -11.2198     20.1834    125.8380   1.3720421400e+02   4.7657044909e+01    0.2543016    0.2121819  82.47 0.0008397106    1.232    0.188
        58  -9.1632     76.1207    129.2438   1.2246907210e+02   4.0507241026e+01    0.2547812    0.1789544  59.92 0.0007314161    1.648    0.393
        59 -10.0939     81.6928    124.6515   1.1995255371e+02   4.0749695968e+01    0.3453694    0.2239793  62.71 0.0009769816    1.981    0.495
        60  -8.6126    106.1079    123.9224   1.1304539743e+02   3.6753035351e+01    0.2061401    0.1871453 -88.86 0.0003029118    1.139    0.122
        61  -8.0094     68.3057    123.2740   1.2342787923e+02   4.3037975374e+01    0.1342747     0.102383 -30.21 0.0003092341    1.544    0.352
        62 -10.1384    167.9316    112.9886   9.4816439364e+01   2.5846451469e+01    0.3216281    0.2696272 -80.58 0.0005372277    1.331    0.249
        63 -10.0654     41.3875     96.4115   1.2574897000e+02   5.2398453969e+01     0.382399    0.1899518  48.70   0.00174871    2.825    0.646
        64  -9.5899    244.3326     93.6646   7.6204082048e+01   1.1754262121e+01    0.1507995   0.09936818 -68.31 0.0007052182    1.736    0.424
        65  -8.4729     65.1865     81.4153   1.1432622154e+02   5.2770359222e+01    0.1655727    0.1254853  45.53 0.0004657341    1.558    0.358
        66  -9.8512    158.8145     76.9177   8.7058183420e+01   3.5072757990e+01    0.2327573    0.2118541  16.82 0.0007348356    1.244    0.196
        67  -9.1906     56.9202     75.6071   1.1544212218e+02   5.5030054690e+01     0.169127    0.1574396  15.75 0.0007679341    1.193    0.162
        68 -13.7036     35.9501    225.5439   1.4429274959e+02   2.3715258470e+01    0.6697975    0.4945804  78.55  0.002340623    1.006    0.006
        69 -11.2033      1.8468     60.8912   1.3121034265e+02   6.2745731764e+01    0.3896773    0.1038054 -51.37  0.001869912    2.362    0.577
        70 -12.5557      4.9061     50.6107   1.2753943444e+02   6.4526249106e+01    0.5162107    0.4214042 -86.95  0.002402617    1.762    0.432
        71 -10.9756    184.7819    248.3424   1.1857660840e+02  -4.0784650792e+00    0.3036319    0.2213997 -65.02  0.001445488    2.004    0.501
        72  -9.9769     81.4944    249.0021   1.3811691851e+02   1.2924804669e+01     0.171486    0.1091457 -74.50  0.001040182    1.612    0.379
        73 -10.5330    215.9983    248.2711   1.1273175119e+02  -9.1958457091e+00    0.1839479    0.1405347  29.50  0.001186489    1.094    0.086
        74 -11.4083    198.8261    246.9762   1.1571699212e+02  -6.2280896778e+00    0.3007638    0.2633795  62.72  0.001986357    1.438    0.305
