#   1 NUMBER                 Running object number                                     
#   2 MAG_AUTO               Kron-like elliptical aperture magnitude                    [mag]
#   3 X_IMAGE                Object position along x                                    [pixel]
#   4 Y_IMAGE                Object position along y                                    [pixel]
#   5 X_WORLD                Barycenter position along world x axis                     [deg]
#   6 Y_WORLD                Barycenter position along world y axis                     [deg]
#   7 A_WORLD                Profile RMS along major axis (world units)                 [deg]
#   8 B_WORLD                Profile RMS along minor axis (world units)                 [deg]
#   9 THETA_WORLD            Position angle (CCW/world-x)                               [deg]
#  10 FWHM_WORLD             FWHM assuming a gaussian core                              [deg]
#  11 ELONGATION             A_IMAGE/B_IMAGE                                           
#  12 ELLIPTICITY            1 - B_IMAGE/A_IMAGE                                       
         1 -13.8696      6.7928     13.4500   1.2141652277e+02   7.0608172604e+01     2.311534    0.6496125 -44.19   0.01115953    2.431    0.589
         2 -14.4012    197.5413     15.5168   6.7869221006e+01   3.3379000592e+01     2.811656     1.570513  28.23   0.01193511    2.531    0.605
         3 -10.1337    163.3193    249.0386   1.2702627895e+02   3.6772716018e+00    0.1562629     0.131574  43.02  0.001167396    1.109    0.098
         4 -12.1816    140.4734    248.7622   1.3090975560e+02   7.2023352381e+00    0.4094873    0.3062525  66.07    0.0028876    1.437    0.304
         5 -11.3110    125.0184    250.1540   1.3368928413e+02   9.3057634183e+00    0.4568504    0.1248212  38.86  0.001903303    3.311    0.698
         6 -11.1985    108.6532    249.2907   1.3636263752e+02   1.1788884898e+01    0.3401976    0.1774973  58.03  0.002047107    1.771    0.435
         7 -11.7980     98.9184    249.9823   1.3804889154e+02   1.3043260403e+01    0.5945484    0.2062731  49.89  0.003058236    2.299    0.565
         8 -11.5936    101.6958    246.5273   1.3727506549e+02   1.3180750993e+01    0.2913941    0.1934891  85.52  0.001976906    1.732    0.423
         9 -10.9745     74.2656    249.5405   1.4204533684e+02   1.6372126826e+01    0.2144891    0.1843141  72.26  0.001799001    1.232    0.189
        10 -11.3600     66.5958    250.1197   1.4331492408e+02   1.7240685197e+01     0.322113    0.1492731  40.67  0.001606701    1.905    0.475
        11 -14.7768     34.0311    246.2931   1.4815077916e+02   2.1599613690e+01     8.656714     2.701225  31.31   0.03274592    7.066    0.858
        12 -15.7540      4.9276    239.1826   1.5216833880e+02   2.5648668188e+01     11.07825     0.737667 -74.31   0.03986871    7.894    0.873
        13 -14.0492     11.1529    206.9054   1.4966576127e+02   3.0646225962e+01      1.69301     1.385172   4.10   0.01196388    2.259    0.557
        14 -14.8893     52.8969    220.9791   1.4346236559e+02   2.3741012153e+01     2.014673     1.499455  58.58  0.009831854    1.130    0.115
        15  -9.6849    186.4510    239.4864   1.2177791912e+02   1.2815605499e+00    0.1174962   0.09248552  35.07 3.055673e-05    1.037    0.036
        16 -11.4896     88.8944    249.1537   1.3963324139e+02   1.4527244491e+01    0.3223065    0.2627166  65.37  0.001949435    1.110    0.099
        17 -11.3268     35.3219    229.3249   1.4697543935e+02   2.4267740409e+01    0.3171342     0.207973 -85.40  0.001621271    1.372    0.271
        18  -9.4311    229.5253    229.5101   1.1286108229e+02  -4.2821781866e+00    0.1175797   0.09195028  22.36 0.0001404139    1.058    0.055
        19 -11.6430     81.5776    248.4213   1.4077300955e+02   1.5605253196e+01    0.3807638    0.1901879  50.78  0.001667664    1.532    0.347
        20 -10.3797    174.0299    222.0212   1.2150006374e+02   5.6407863603e+00    0.1888299    0.1422732  65.86  0.001047184    1.725    0.420
        21 -12.3818     81.4633    242.7652   1.4033612860e+02   1.6506827104e+01    0.4624581    0.2781009  67.25  0.003105959    1.523    0.343
        22  -8.4405     96.2601    218.3216   1.3545671951e+02   1.8542479792e+01   0.09799016   0.09148851 -13.94 0.0001787902    1.550    0.355
        23  -8.8532    152.6982    212.9472   1.2415629990e+02   1.0582731510e+01    0.1564519    0.1462483  49.17 0.0002918692    1.112    0.101
        24 -10.6648    124.6880    244.5266   1.3316186169e+02   1.0169631677e+01    0.1708893    0.1035436 -58.71  0.001088534    2.049    0.512
        25 -12.9692     46.2834    230.8948   1.4528395059e+02   2.2787264977e+01    0.3679098    0.2755665  65.10 0.0008487055    1.057    0.054
        26 -10.3626    193.2384    195.2771   1.1357935126e+02   6.2472911208e+00    0.6089848    0.2921624 -58.18   0.00193148    6.069    0.835
        27 -11.4871     70.1861    196.7688   1.3814148736e+02   2.6077457489e+01    0.3279231    0.2259737 -46.52  0.001630537    1.960    0.490
        28 -11.6738     75.0728    189.4666   1.3638833745e+02   2.6856534218e+01     0.247177    0.2084921 -55.94 0.0005828725    1.408    0.290
        29 -11.1229     83.8195    176.8772   1.3304758836e+02   2.8179860570e+01    0.2937128    0.2193505 -51.37 0.0004592064    1.511    0.338
        30 -13.2397     71.3257    174.7956   1.3544413365e+02   3.0317899184e+01    0.4414842    0.2625192 -44.22  0.001715587    2.247    0.555
        31 -10.2519     33.4824    174.9578   1.4331080147e+02   3.4687260338e+01    0.1693632   0.09389416 -75.56 0.0005463866    1.550    0.355
        32  -9.9472    119.2111    174.5960   1.2510048305e+02   2.3132548993e+01    0.1908084    0.1223027  32.45 0.0009584042    1.709    0.415
        33 -12.4066     88.5456    166.7734   1.3062647912e+02   2.9588772636e+01     1.617358    0.6382273  55.79  0.006069957    3.409    0.707
        34 -13.3700     65.9375    142.4745   1.3226237229e+02   3.7962217546e+01     2.173323     1.032234 -89.33  0.003397919    4.702    0.787
        35 -10.0740    101.9718    151.4992   1.2511569670e+02   3.0758533805e+01    0.3510674    0.2516235 -42.96  0.000913168    1.548    0.354
        36  -9.5355    104.4598    147.5102   1.2381595098e+02   3.1208338805e+01    0.2510009    0.1602043 -31.02  0.001138951    2.258    0.557
        37 -12.1016     90.8916    150.9907   1.2763965932e+02   3.2604263361e+01    0.2602955    0.2432134 -31.42 0.0005018245    1.270    0.213
        38 -11.1907     46.2038    148.2422   1.3774569496e+02   3.9015182267e+01    0.2990415    0.1554202 -50.96  0.001558506    2.038    0.509
        39 -13.4752     31.3128    140.2183   1.4025794840e+02   4.2273374205e+01    0.6396265    0.4503106 -53.23  0.004118909    1.474    0.322
        40 -11.7019     50.0966    130.0602   1.3431358402e+02   4.2619729437e+01    0.2959295    0.2472091 -64.38 0.0007107425    1.103    0.093
        41  -9.9435    111.9594    136.6835   1.1992120273e+02   3.2268363395e+01    0.3333961    0.2491833 -12.17  0.001102509    1.968    0.492
        42 -10.5629     99.7041    134.0409   1.2242649931e+02   3.4920281353e+01    0.2697207    0.2185594 -34.41  0.000576093    1.398    0.285
        43  -9.3020    108.6570    123.8706   1.1804054587e+02   3.5629332840e+01    0.1927081    0.1686453 -56.10 0.0004316632    1.106    0.095
        44 -11.0579    168.3455    113.4185   1.0114501274e+02   2.5644450503e+01    0.3912413    0.3272583 -76.06 0.0009056222    1.518    0.341
        45  -8.7371    192.2321    144.0097   1.0348223769e+02   1.4852001885e+01    0.1816215    0.1195881 -35.31 0.0003655113    1.540    0.351
        46 -11.5145    249.0029    247.2368   1.1243492173e+02  -8.9637127622e+00     0.451972    0.2353986 -17.44  0.002792336    2.106    0.525
