#   1 NUMBER                 Running object number                                     
#   2 MAG_AUTO               Kron-like elliptical aperture magnitude                    [mag]
#   3 X_IMAGE                Object position along x                                    [pixel]
#   4 Y_IMAGE                Object position along y                                    [pixel]
#   5 X_WORLD                Barycenter position along world x axis                     [deg]
#   6 Y_WORLD                Barycenter position along world y axis                     [deg]
#   7 A_WORLD                Profile RMS along major axis (world units)                 [deg]
#   8 B_WORLD                Profile RMS along minor axis (world units)                 [deg]
#   9 THETA_WORLD            Position angle (CCW/world-x)                               [deg]
#  10 FWHM_WORLD             FWHM assuming a gaussian core                              [deg]
#  11 ELONGATION             A_IMAGE/B_IMAGE                                           
#  12 ELLIPTICITY            1 - B_IMAGE/A_IMAGE                                       
         1 -14.2564    223.9653      8.2445   3.5770265430e+01   2.8743029767e+01      1.04537    0.9233792  54.90   0.00434176    1.464    0.317
         2 -15.1076    196.7458     38.9403   4.5088120714e+01   3.1143657265e+01     2.545424     1.596732  24.78    0.0118423    2.846    0.649
         3 -11.5115     74.1626     13.1311   5.9684500807e+01   6.3182704059e+01    0.3661654     0.189803  66.25  0.001591263    2.444    0.591
         4 -12.0755     49.0236    216.3915   1.1862022397e+02   2.2452697425e+01    0.3241769    0.2692044  73.22  0.002072999    1.166    0.142
         5 -11.7867    247.5914    247.3735   8.0298099115e+01  -8.2014725106e+00     0.316153    0.1514856  23.39  0.001945984    1.838    0.456
         6 -19.3878     14.3542    154.9089   1.2237592587e+02   4.0315815488e+01      20.1021     6.654189 -82.33   0.07263221    3.213    0.689
         7 -11.2459    184.5153    212.4865   8.6312521599e+01   4.3333921591e+00    0.2510015    0.2338277  19.50  0.001452452    1.371    0.271
         8 -10.8079     89.8276    212.2287   1.0824693504e+02   1.8271663918e+01    0.2395569    0.2139955  68.64 0.0004920774    1.210    0.173
         9 -10.7392     65.2358    207.7187   1.1383849794e+02   2.2450232876e+01    0.5428773    0.3329418 -17.85  0.002408565    2.738    0.635
        10  -9.7054     57.4166    211.2552   1.1612972890e+02   2.2610497869e+01    0.2742899     0.234315 -64.15   0.00171456    1.278    0.217
        11 -10.0535     55.4435    206.4861   1.1615353448e+02   2.3895624709e+01    0.3332145    0.2234091  88.67  0.001454893    1.658    0.397
        12  -9.7068     70.8023    210.7267   1.1277885079e+02   2.1096972733e+01    0.1853586     0.131843  53.70 0.0005435275    1.370    0.270
        13 -11.2257     41.5926    207.7623   1.1967960029e+02   2.5150289632e+01    0.3009574    0.1746123  61.04  0.001101856    1.737    0.424
        14  -9.6225     93.7460    205.4037   1.0638889001e+02   1.9187174757e+01    0.2769906    0.2000786   2.35 0.0008348149    1.673    0.402
        15 -10.4534     96.4799    202.0536   1.0523988082e+02   1.9524767221e+01    0.2397848    0.1753264 -51.70 0.0009808505    1.484    0.326
        16 -12.5457    203.8841    200.3838   8.0250301877e+01   3.5398676758e+00    0.5730236    0.2425095  20.37  0.002213916    3.219    0.689
        17 -12.0972    192.9890    195.0719   8.1442019663e+01   6.0037558993e+00     1.251339       0.6429 -56.31  0.004599206    4.190    0.761
        18  99.0000     26.7731    203.9301   1.2297356846e+02   2.7495127092e+01    0.6499965    0.1368558  34.75  0.002458123    3.279    0.695
        19 -11.7429     63.4666    201.0432   1.1356379884e+02   2.4162746573e+01    0.3664494    0.2117123 -56.58  0.001084818    1.826    0.452
        20 -11.0354     67.1600    195.9554   1.1202960020e+02   2.4866226912e+01    0.3624917    0.2645949 -79.80 0.0009839645    1.497    0.332
        21 -10.8753     39.3363    199.8181   1.1956222994e+02   2.7181004154e+01    0.2055912    0.1497193  42.94 0.0003853086    1.246    0.198
        22 -13.3289     52.4570    196.1523   1.1587496388e+02   2.6591700155e+01    0.5301089    0.3092472 -39.78  0.001592236    2.210    0.547
        23 -10.6643     71.3882    185.9355   1.0965397439e+02   2.6663181602e+01    0.2447533    0.1902038  35.08 0.0004402584    1.212    0.175
        24 -12.6653    140.1675    196.6654   9.3508285434e+01   1.3978934546e+01    0.4589423    0.2919045 -47.68  0.002244768    1.707    0.414
        25 -12.9144    126.0079    190.0203   9.5852170988e+01   1.7616752194e+01    0.6145061    0.4144894 -84.15  0.002575829    2.744    0.636
        26 -13.5606     63.4504    183.3854   1.1149166452e+02   2.8289385302e+01    0.9735864    0.7225875 -27.56   0.00504174    1.660    0.398
        27 -10.2392    160.5033    205.5343   9.0306009270e+01   9.1008825112e+00    0.1398552    0.1183004   8.17 6.622208e-05    1.002    0.002
        28  -9.9685     81.9854    195.2412   1.0805726436e+02   2.3077453631e+01     0.296568    0.2326243 -10.96  0.001573237    1.547    0.354
        29 -11.4195     31.7454    195.4781   1.2110567288e+02   2.8946026109e+01    0.2456995    0.1459537  54.76  0.001292047    1.593    0.372
        30 -12.6952    148.0665    187.3011   8.9939597460e+01   1.4576890372e+01    0.6029022    0.3882474 -59.26  0.002763977    2.085    0.520
        31 -16.2194     69.5677    144.9814   1.0387722127e+02   3.7069697477e+01     11.13132     5.601981  74.37   0.02597516    7.422    0.865
        32  -9.2101     61.8595    194.1895   1.1321261788e+02   2.5933485799e+01    0.1637991    0.1492903  -0.71            0    1.233    0.189
        33 -10.8205    250.4883    237.0306   7.8175289106e+01  -7.2622880638e+00    0.1626683   0.08719463 -27.52 0.0004646793    1.571    0.364
        34 -12.5089    131.8426    193.9735   9.5074547119e+01   1.5853981160e+01    0.3565962    0.2765476  30.18  0.001467845    1.182    0.154
        35 -10.3531     91.8932    184.0816   1.0382022563e+02   2.4236828355e+01    0.2414432    0.2077544  15.22  0.000614272    1.171    0.146
        36 -11.4617     62.2208    250.4227   1.1840580603e+02   1.4149623496e+01    0.3131372    0.1480182  31.42  0.001653838    1.742    0.426
        37 -11.8234     98.9990    180.9356   1.0139765193e+02   2.3898157836e+01    0.4337096    0.2721215  23.02  0.001606109    1.637    0.389
        38  -8.9000     71.3179    215.2541   1.1313951026e+02   2.0055769780e+01    0.1231058   0.09894634  -7.59 0.0002122398    1.533    0.348
        39 -12.1789    241.2256    177.7900   6.9317613024e+01   1.8812502414e+00    0.2662362    0.1840626  12.81  0.001633255    1.459    0.315
        40 -11.3564    187.2072    175.6928   7.8889922160e+01   1.0306118851e+01    0.3617557    0.3121065 -28.39  0.001117451    1.181    0.153
        41 -10.5670    148.5085    175.4984   8.7585025416e+01   1.6906472438e+01    0.2500238    0.2403229 -17.89 0.0006336157    1.147    0.128
        42 -11.3793    146.5031    171.9986   8.7381765971e+01   1.7981373664e+01    0.3164435    0.2673572 -54.34 0.0008692697    1.376    0.273
        43 -10.5559     84.2977    173.8245   1.0432373571e+02   2.7776648997e+01    0.2541249    0.2225895   2.74 0.0002553072    1.219    0.180
        44 -11.7676     52.2796    171.9231   1.1318380838e+02   3.2435588124e+01    0.9203593     0.266872 -56.09  0.000606426    3.113    0.679
        45 -11.2338     47.8178    172.3812   1.1451164264e+02   3.2827487408e+01    0.4261276    0.3367832  13.01  0.001665553    1.410    0.291
        46 -11.7317    240.0461    169.3300   6.7890230636e+01   3.3157878432e+00    0.2355929    0.1457826 -23.28 0.0005161949    1.385    0.278
        47 -11.0729    132.4043    171.7354   9.0872813802e+01   2.0492335471e+01    0.2760963    0.1824979  11.92  0.001206317    1.804    0.446
        48  -9.8607    193.1870    170.6113   7.6635223297e+01   1.0237199660e+01    0.2323992    0.1780019 -40.24 0.0007206755    1.359    0.264
        49 -10.8447    185.1075    168.4268   7.7853012914e+01   1.1983753999e+01    0.2674602    0.1980823 -42.96  0.000745204    1.423    0.297
        50 -10.7816    137.4084    167.7729   8.8808438114e+01   2.0478743197e+01    0.3456941    0.2067055  42.85  0.001064904    1.716    0.417
        51 -10.6550    229.7523    165.9875   6.8931204155e+01   5.3022685949e+00      0.17478   0.09384787 -34.37  0.000525884    1.593    0.372
        52 -11.1687     57.7772    159.0189   1.0982586272e+02   3.5024667474e+01    0.2388986    0.2066738  28.80 0.0003799052    1.174    0.148
        53 -12.3570     93.5207    151.0283   9.7611650278e+01   3.1928624787e+01    0.7566454    0.5813548 -18.79  0.003595858    1.514    0.340
        54 -11.8242    133.7294    144.8838   8.4879381720e+01   2.6196253254e+01     1.234238     0.331322 -52.98  0.002975467    5.500    0.818
        55 -10.4868    112.6377    151.0278   9.2027492906e+01   2.8677126148e+01    0.2745009    0.2118444  50.66 0.0004460836    1.423    0.297
        56 -10.3823    174.8814    149.1698   7.5920301525e+01   1.7457596326e+01    0.2132888    0.2068198 -60.37 0.0006402241    1.255    0.203
        57 -10.4305    143.5040    145.4916   8.2482888217e+01   2.4188737352e+01    0.2798129    0.1484628 -56.20  0.001037898    2.419    0.587
        58 -11.1786    105.5212    137.7314   9.1213208218e+01   3.3113910361e+01    0.6138838    0.3389127 -30.09  0.002243935    2.435    0.589
        59 -11.3614    106.0515    130.8388   8.9467909652e+01   3.4666916621e+01    0.4136936    0.3559041 -57.89  0.001259877    1.244    0.196
        60 -12.4159     93.4571    137.1646   9.4769318571e+01   3.5355710724e+01    0.3006692    0.2690068 -18.78 0.0004427956    1.143    0.125
        61 -11.5003    135.8201    128.8253   8.0531787831e+01   2.9336282088e+01    0.6364698    0.1867308 -49.33  0.001773352    3.870    0.742
        62  -9.8170    160.8460    127.7421   7.4079910884e+01   2.4454389575e+01    0.2924103    0.2033986 -66.14  0.001242159    2.109    0.526
        63  -9.2001     96.4922    128.4967   9.1867489604e+01   3.6955349193e+01    0.1542587    0.1521968  18.12 0.0008099797    1.057    0.054
        64 -11.1782    101.0116    124.7218   8.9553237536e+01   3.7054087245e+01    0.3126989    0.2470184  -5.70 0.0005647155    1.465    0.317
        65 -11.3544    119.6615    122.9699   8.3526321714e+01   3.3890855813e+01    0.4952916    0.3289184  -2.79  0.001905972    2.321    0.569
        66 -11.3296    114.0366    128.6949   8.6576483843e+01   3.3671938800e+01    0.5111189    0.3226608  22.21  0.001076472    1.857    0.461
        67 -10.0852    109.2456    118.0752   8.5356643769e+01   3.7064516852e+01    0.2470239    0.2170133  29.85 0.0002929902    1.124    0.110
        68 -10.8387    231.3390    113.8174   5.7869237620e+01   1.3367289595e+01    0.2704067    0.2070053 -37.34 0.0007742961    1.114    0.103
        69  -9.7647    167.6535    112.6419   6.8808410868e+01   2.6000480652e+01    0.2997124    0.2199466 -77.46  0.001317706    2.098    0.523
        70 -10.6523    134.5098    105.0896   7.4698252323e+01   3.4679188356e+01    0.6106689    0.1472152 -45.33  0.001588572    4.363    0.771
        71 -12.4577    118.1898    108.9942   8.0288598745e+01   3.7318356897e+01    0.7081745    0.5771015 -58.04  0.003044432    1.379    0.275
        72 -10.3773    205.5057    110.1911   6.1038256734e+01   1.8702425327e+01       0.2722    0.1995442  39.09  0.000832918    1.518    0.341
        73  -8.8490    143.5314    110.4629   7.3837911709e+01   3.1617647243e+01    0.1547432    0.1483129  -2.48 9.615735e-05    1.006    0.006
        74 -10.3027     63.5942     99.2141   9.6058939145e+01   4.9497959769e+01     0.269961    0.2082739  26.40 0.0006340619    1.319    0.242
        75  -9.8911    167.9003    231.5591   9.2927056918e+01   3.5554234008e+00    0.2015073     0.152427 -11.56  0.001225105    1.259    0.205
        76 -10.1658     58.0078    227.4463   1.1746604305e+02   1.9107501215e+01    0.2005357    0.1509069  72.80 0.0005838035    1.373    0.271
        77 -10.4421     63.2348    214.1164   1.1499039878e+02   2.1295754660e+01    0.2280822    0.1618295  38.81 0.0003104172    1.239    0.193
        78  -9.3817    156.5025     82.5076   6.3146329991e+01   3.4017717626e+01    0.1456549    0.1445424  -4.15 -2.968912e-05    1.008    0.008
        79 -10.4009     59.6009    220.2311   1.1644978171e+02   2.0422856968e+01    0.3307503    0.1972755 -44.90  0.001708002    2.097    0.523
        80  -9.7931     53.3466    219.7569   1.1788629969e+02   2.1247059712e+01    0.2072547    0.1336106  45.65 0.0006971461    1.351    0.260
        81 -11.8270     72.1489    245.9133   1.1589184578e+02   1.3819081802e+01    0.3812909    0.2766612 -75.17  0.002418826    1.632    0.387
        82 -13.5059    180.9875     52.8117   5.0642836758e+01   3.2922413012e+01    0.7250305    0.6840147  24.68 0.0007817172    1.225    0.184
        83 -12.4093     49.0767    248.3305   1.2104386682e+02   1.6012289436e+01    0.2013839    0.1674297  81.73 0.0009136465    1.265    0.210
        84 -10.4514    189.8732     15.0118   3.9920587848e+01   3.5348124059e+01    0.1908688    0.1658794 -78.95 0.0008289837    1.024    0.024
        85  -9.2393     83.8397    245.0737   1.1324411334e+02   1.2543882373e+01    0.1902257    0.1214005  67.32  0.000763795    1.966    0.491
