#   1 NUMBER                 Running object number                                     
#   2 MAG_AUTO               Kron-like elliptical aperture magnitude                    [mag]
#   3 X_IMAGE                Object position along x                                    [pixel]
#   4 Y_IMAGE                Object position along y                                    [pixel]
#   5 X_WORLD                Barycenter position along world x axis                     [deg]
#   6 Y_WORLD                Barycenter position along world y axis                     [deg]
#   7 A_WORLD                Profile RMS along major axis (world units)                 [deg]
#   8 B_WORLD                Profile RMS along minor axis (world units)                 [deg]
#   9 THETA_WORLD            Position angle (CCW/world-x)                               [deg]
#  10 FWHM_WORLD             FWHM assuming a gaussian core                              [deg]
#  11 ELONGATION             A_IMAGE/B_IMAGE                                           
#  12 ELLIPTICITY            1 - B_IMAGE/A_IMAGE                                       
         1 -15.2481    103.9369    114.7035   4.2641434011e+01   3.8447433737e+01     4.751409      3.44862  -7.21   0.01974014    2.073    0.518
         2 -12.7691    100.9915     46.1813   2.1595838229e+01   5.3632012171e+01     1.326438    0.7920962 -33.05  0.004756086    1.817    0.450
         3 -14.4473      7.4961    117.3275   7.8415699813e+01   5.0926605092e+01     4.505329     1.254603 -74.98   0.01588162    3.042    0.671
         4 -14.6793     12.1032     27.9487   5.9359842580e+01   7.3510859595e+01     5.847785     1.376254 -55.91   0.02124179    3.223    0.690
         5 -14.3881     26.8742     58.0427   5.9603518328e+01   6.5125548250e+01     2.600194     1.966236 -37.24   0.01359722    1.283    0.220
         6 -12.6535    138.1085      4.1904   3.5795071085e+02   4.9012033155e+01    0.6910328    0.3634796  72.18   0.00166996    1.667    0.400
         7 -13.2172     79.9866     59.8045   3.4171574940e+01   5.6020770345e+01     1.890128     1.141408  27.85  0.007546912    2.112    0.527
         8 -13.4893    122.2532     78.1743   2.6889799786e+01   4.2439435554e+01     2.025784     1.332353 -50.96   0.00878743    1.599    0.374
         9 -14.7312     93.3364      9.5665   7.5556880362e+00   6.0532100249e+01     4.851931     1.348205  63.43   0.01639546    2.918    0.657
        10 -13.9799     62.7021     38.8589   3.2648933859e+01   6.3780426103e+01     4.838192      1.59333  46.04   0.01630516    2.934    0.659
        11 -12.0023    241.8884     22.6932   3.5468845624e+02   2.2877820359e+01    0.4436648    0.2624761 -53.87  0.001863993    1.344    0.256
        12 -11.3589    236.0878     20.6909   3.5459032320e+02   2.4210492566e+01    0.3395934    0.2840415  75.20  0.001379358    1.408    0.290
        13 -10.4043    174.9035      1.9179   3.5388228704e+02   3.9722425232e+01    0.3454436    0.2168054 -34.52  0.001095818    1.549    0.354
        14 -11.1551    168.7046      8.2038   3.5619890259e+02   4.0675603609e+01    0.4567417    0.2955582  67.49   0.00169428    1.501    0.334
        15 -11.0110    168.3624      2.4318   3.5452239598e+02   4.1304845911e+01     0.522949    0.2717742 -78.98  0.002198622    1.861    0.463
        16 -10.6492    179.3253     22.9561   3.5947394917e+02   3.6475873631e+01    0.5204637    0.2543653 -40.36  0.002129639    1.813    0.448
        17 -13.0278    184.8710     11.3479   3.5575920472e+02   3.6380422402e+01     1.208575    0.7500132 -48.12  0.005385411    1.405    0.288
        18 -11.6173    175.2329     13.3837   3.5713347814e+02   3.8523732112e+01    0.4551979    0.4114362  31.08  0.001665806    1.421    0.296
        19 -11.2270    187.8890      4.8518   3.5378531663e+02   3.6302664899e+01    0.4465996    0.2740236  70.76  0.002451133    1.612    0.380
        20 -12.0198    193.3139      7.8881   3.5422035862e+02   3.4729430228e+01    0.6191093    0.4290604  46.50   0.00161602    1.886    0.470
        21 -10.6512    191.4919      1.4532   3.5265655791e+02   3.5775179132e+01    0.2890882    0.1757574 -81.92 0.0005345185    1.481    0.325
        22 -11.6311    151.0006     20.8174   2.0236276606e+00   4.3923431312e+01    0.7103507    0.4288409  71.42  0.003427746    1.529    0.346
        23 -11.4291    208.5335     18.4532   3.5583945894e+02   3.0175471057e+01    0.6499583    0.2903768 -69.84  0.002334398    2.431    0.589
        24 -11.0078    213.6346     16.7331   3.5507403327e+02   2.9248874043e+01    0.2310979    0.2190283 -64.48 0.0003541052    1.234    0.189
        25 -10.3058    139.3433     19.1507   3.0490362068e+00   4.7198466611e+01    0.4071407    0.2909743 -42.96  0.002105517    1.403    0.287
        26 -10.2983    202.6276     11.1832   3.5443974721e+02   3.2259962191e+01    0.2497928     0.191261  85.71 0.0007576708    1.274    0.215
        27 -11.5536    242.3515      9.0604   3.5176483219e+02   2.4219819460e+01    0.2776584    0.1841316 -35.90 0.0008385527    1.320    0.242
        28 -10.0050    244.5232      4.5696   3.5072945561e+02   2.4256541300e+01    0.1837741    0.1646511 -57.99 0.0005630806    1.252    0.201
        29 -11.1149    155.8184      9.9839   3.5796681786e+02   4.3801092646e+01    0.3472056    0.2319255 -52.31  0.001072404    1.405    0.288
        30 -11.9209    149.6041      8.2273   3.5805249753e+02   4.5595379127e+01    0.6775392    0.3233049  86.12   0.00289543    2.069    0.517
        31  -9.8998     46.0469      8.7382   2.4056365656e+01   7.1977360136e+01    0.4582543    0.3330117  58.24  0.001804156    1.504    0.335
        32 -11.3887     50.9789      5.3890   1.9308971584e+01   7.1337598211e+01    0.5285728    0.3002443  46.61  0.001942636    1.544    0.352
        33  -9.4627    234.0788      9.5516   3.5226286129e+02   2.5773630703e+01    0.2016218    0.1028864  89.99  0.001128256    2.005    0.501
        34 -10.5174    205.1307      2.7632   3.5219938037e+02   3.2534648546e+01    0.2458641    0.2389014  27.37 0.0009270979    1.393    0.282
        35 -10.6247    212.9254      1.8277   3.5156296637e+02   3.0913912484e+01    0.4286177    0.1497935 -83.75  0.001767191    3.215    0.689
        36  -8.9472    231.2875      1.3303   3.5059577173e+02   2.7142562985e+01    0.1509737   0.08934121 -78.50 0.0005767117    1.546    0.353
        37  -9.7310     12.5438      1.4198   4.3682299817e+01   7.8705467235e+01    0.1207568    0.1068906   3.83 0.0008003489    1.130    0.115
        38 -12.5740    248.3974     84.2429   7.2920923246e+00   1.4187507634e+01    0.7796084    0.3913734 -43.55  0.003076009    1.652    0.394
        39 -11.9620    191.9820    248.6720   4.5944779106e+01  -3.7548521432e-01    0.6083613     0.195165  27.76  0.002937985    2.574    0.611
        40 -10.2037    189.7874     94.7545   1.7318212165e+01   2.3737059180e+01    0.4538062    0.2131577  54.55  0.001892254    2.304    0.566
        41 -11.2511    187.9853     89.8002   1.6377629509e+01   2.4936030664e+01    0.3645464    0.2947406  23.86 0.0007061856    1.506    0.336
        42 -11.0401    200.5022    235.7826   4.2644468533e+01   2.0433689097e-01    0.2793849    0.1150235  27.16  0.001501747    2.032    0.508
        43  -9.7500    143.9743     92.0726   2.5591650845e+01   3.4510863811e+01    0.3782762    0.2287588  60.58  0.001567379    1.836    0.455
        44 -10.3347    214.9781    232.5659   3.9656181157e+01  -1.0614924219e+00    0.1600737     0.142896 -16.83  0.001259198    1.614    0.381
        45 -10.2036    152.5260     87.7088   2.2455280187e+01   3.3332818477e+01    0.3505263    0.2479225  60.47 0.0008480483    1.478    0.324
        46  -9.0398    175.5590    144.4991   3.1509040696e+01   1.7851292251e+01    0.1398413    0.1275136  -6.39 0.0003762982    1.012    0.012
        47 -10.8486    175.5198     81.4959   1.6315100522e+01   2.9076310662e+01    0.4498961    0.3242258  78.50  0.002199273    1.649    0.394
        48  -9.8382    163.1851     82.8643   1.8937464982e+01   3.1700058717e+01    0.2772146    0.2389301  12.12  0.001002177    1.404    0.288
        49  -8.4576    215.6728     82.2951   1.0569435114e+01   2.0393772326e+01    0.1335976   0.09119157 -61.32 0.0004423619    1.628    0.386
        50 -10.3861    160.9002     69.7083   1.5638981266e+01   3.4494601034e+01    0.6504273    0.3327919  63.50  0.002637896    2.086    0.521
        51 -11.6995    144.7598     75.6031   2.0622343911e+01   3.7424017936e+01    0.7482119    0.5184888 -67.45  0.002368526    1.771    0.435
        52 -12.3915    155.6171     75.9048   1.8446911061e+01   3.4722347828e+01    0.8687508    0.7474876   1.12  0.003794572    1.425    0.298
        53 -10.4380    150.5078     74.4996   1.9071089198e+01   3.6212590734e+01    0.3310065     0.268417 -39.49 0.0009228789    1.231    0.187
        54 -10.3928    198.1798     77.7303   1.1803113817e+01   2.4660565603e+01    0.4673355    0.2483458  42.61  0.002071111    2.382    0.580
        55 -10.2487    205.4331     74.9904   1.0142962105e+01   2.3540342699e+01    0.3622651    0.2447793  84.65  0.001292673    1.867    0.464
        56 -11.7171    234.5651     75.0069   6.7360285190e+00   1.7836814054e+01    0.4031432     0.309713 -60.51  0.001206675    1.314    0.239
        57  -9.4625    213.0374     76.1634   9.4570954083e+00   2.1809542826e+01    0.1828598     0.167761  -6.89 0.0003558971    1.245    0.197
        58  -9.1044    104.0272     75.0129   3.1176356661e+01   4.7422416285e+01     0.238632    0.1957552   7.17  0.000611197    1.554    0.356
        59  -9.5706     91.8138     74.9855   3.5222206542e+01   5.0199955319e+01     0.312705    0.1919117 -56.56  0.001269872    1.847    0.458
        60 -10.6590     96.3731     71.3843   3.2440348099e+01   4.9949690054e+01    0.4617802    0.2760579  42.13 0.0005898239    1.666    0.400
        61 -10.5411    193.4597     73.0303   1.1283602476e+01   2.6399234436e+01    0.4846693    0.2908623  85.49  0.002151253    2.359    0.576
        62 -11.2986    171.1715     72.2645   1.4546923847e+01   3.1609806913e+01    0.6788759     0.434377  82.78  0.002993818    2.023    0.506
        63  -9.9381    218.4392     72.1179   7.8562144456e+00   2.1306551521e+01    0.3143006     0.191192 -57.75 0.0008752008    1.735    0.424
        64 -10.6290    227.3094    178.8048   2.8858067645e+01   4.2861075784e+00    0.2717283    0.2146173 -14.52  0.001114616    1.076    0.071
        65 -10.5907    200.3947     65.2094   8.3663236369e+00   2.6042485834e+01    0.3949145    0.2252501 -33.76  0.001053741    1.612    0.380
        66 -12.0402    213.6922     62.4362   6.1015375424e+00   2.3614893600e+01    0.6780012    0.5588193  33.10  0.003007879    1.564    0.361
        67  -9.7094    171.6900     68.7105   1.3470197058e+01   3.2059801981e+01    0.2387865     0.222136 -51.35 0.0002360111    1.042    0.040
        68 -10.4788    250.2811     64.6528   3.0095689663e+00   1.6395700284e+01    0.2789745    0.1362107 -42.83 0.0008667578    1.595    0.373
        69 -11.6072    250.3207     57.9751   1.6039703677e+00   1.7220747974e+01    0.3050421    0.1909065 -32.00 0.0006383337    1.359    0.264
        70 -10.3847    246.2208     54.3981   1.1795363405e+00   1.8386855363e+01    0.2777643    0.1868649  86.11  0.001379717    1.767    0.434
        71  -8.7464    229.5187     65.4780   5.1293738240e+00   2.0058617508e+01    0.1251973    0.1059154 -41.44 7.023818e-05    1.053    0.050
        72 -11.3203    184.8329     62.0728   9.6343959054e+00   2.9995009907e+01    0.5409906    0.4060508 -13.52   0.00184819    1.654    0.395
        73  -8.9707    144.3949     65.3487   1.7560225382e+01   3.9318566103e+01    0.1472102    0.1393447  79.12  9.26825e-05    1.031    0.030
        74  -9.7341    104.6264     64.8759   2.7518424913e+01   4.9331712367e+01    0.3197885    0.2281006  60.55   0.00107642    1.440    0.306
        75 -10.6903     91.7036     64.2692   3.1525806718e+01   5.2492652943e+01    0.2688334    0.2480723 -28.30 0.0004777213    1.151    0.131
        76  -8.4315    159.3047     64.3291   1.4354508646e+01   3.5767630859e+01    0.1471218    0.1171622  20.38 0.0003090417    1.653    0.395
        77 -10.0415    167.7493     58.0384   1.1075958466e+01   3.4675464509e+01    0.2785172    0.2036198 -37.24 0.0007062209    1.335    0.251
        78 -10.7754    170.1276     62.3593   1.1935031840e+01   3.3433603346e+01    0.3039164    0.2495658 -54.90 0.0004998128    1.155    0.134
        79 -10.7039    165.8130     62.1256   1.2577338678e+01   3.4519058978e+01    0.3163982    0.2403624  61.68 0.0004400031    1.332    0.249
        80  -9.8921     61.0079     62.4961   4.3228494776e+01   5.9212223094e+01    0.2829163    0.2722806 -25.05  0.001168477    1.037    0.036
        81 -11.4867     54.7737     61.2899   4.5736746522e+01   6.0571584437e+01    0.8389525    0.3944023  35.74  0.002382858    2.105    0.525
        82 -10.5027    240.4789     60.5344   2.9904235039e+00   1.8656559158e+01     0.321735    0.1392958  53.27  0.001578377    2.848    0.649
        83  -8.8169    155.0873     61.4960   1.4276084830e+01   3.7272974462e+01    0.2086039    0.1438963  61.53 0.0005844663    1.440    0.305
        84 -10.2881    222.0210     58.6322   4.3166329202e+00   2.2435169875e+01    0.3827765    0.2484435 -23.50  0.001654614    1.638    0.390
        85  -9.5051    191.3790     60.3236   8.2763244279e+00   2.8750871252e+01     0.279301    0.1707503  76.90  0.001340508    1.864    0.464
        86 -10.0605    203.0454     57.4881   6.1008432893e+00   2.6556881267e+01    0.2502959    0.1955325  76.15 0.0005366133    1.366    0.268
        87 -11.5779    209.0840     54.6858   4.7256705842e+00   2.5637258597e+01    0.5748807    0.2562787  59.02  0.002466301    2.412    0.585
        88 -11.0651    124.1829     56.8972   1.9338582949e+01   4.5909159942e+01    0.5103886    0.2498692  46.60   0.00191005    2.108    0.526
        89 -10.5285    174.3123     56.1098   9.5132890699e+00   3.3366937729e+01    0.2501083    0.2366244  63.88 0.0006686533    1.150    0.131
        90  -9.2751    148.0717     56.2284   1.3962120400e+01   3.9886983573e+01    0.3697473    0.1800281  68.35 0.0008152167    2.264    0.558
        91  -9.7510    137.5241     54.9161   1.5646686650e+01   4.2804322344e+01    0.3668351    0.1989391  55.49  0.001519215    1.772    0.436
        92  -9.8400    132.4819     53.0326   1.6094222352e+01   4.4412178853e+01    0.3498837      0.23587  40.40   0.00156049    1.688    0.408
        93 -11.8840    134.6448     47.9089   1.3886814262e+01   4.4655797575e+01    0.6319548    0.2844267  52.97 0.0007855176    2.135    0.532
        94 -10.2090    138.0640     41.3139   1.0955536904e+01   4.4734835331e+01    0.4807383    0.3036266 -49.11  0.001453097    1.612    0.380
        95 -10.5957    195.7025     52.3731   5.6582894150e+00   2.8891192002e+01    0.3067224    0.2069933 -49.64 0.0003733879    1.329    0.247
        96  -8.8463    154.3047     54.2909   1.2213392603e+01   3.8602995916e+01    0.1441488    0.1148441  29.57 0.0003758347    1.573    0.364
        97  -8.9873    149.2893     51.7175   1.2306882294e+01   4.0276249684e+01    0.2001362    0.1734178  39.86 0.0004150681    1.305    0.234
        98 -11.0945    145.3858     50.3358   1.2584785309e+01   4.1491946873e+01     0.381225    0.2853849 -66.79 0.0005771214    1.414    0.293
        99 -10.4377    147.3983     47.0055   1.1137873122e+01   4.1469967021e+01    0.5206252    0.2970304  77.12  0.002176058    1.963    0.491
       100  -8.8800    157.9339     52.0000   1.0885153164e+01   3.8030663633e+01    0.2358417   0.08151781  63.15 0.0005128474    2.869    0.651
       101 -10.4818    212.3839     49.3742   3.0834024961e+00   2.5638566024e+01    0.4041933    0.2372129 -70.25  0.001494033    1.934    0.483
       102 -10.1807    209.3008     46.2951   2.6382129838e+00   2.6696343610e+01    0.2200422    0.1854316  37.02 0.0004712955    1.540    0.351
       103 -10.3316    247.5178     48.4912   3.5982118829e+02   1.8873531470e+01    0.2131514    0.1673566 -45.87 0.0009000062    1.018    0.018
       104  -8.9229    204.4642     49.5387   3.9453387304e+00   2.7323379404e+01    0.1331012    0.1146022 -55.22 7.089674e-05    1.006    0.006
       105  -9.0277    229.5182     48.4826   1.2765769887e+00   2.2256281894e+01    0.1275978   0.09968092 -51.42 0.0001519111    1.055    0.052
       106  -8.9615    195.7478     48.3427   4.6044064258e+00   2.9427302971e+01    0.1680583    0.1194916  60.75 0.0002155211    1.518    0.341
       107  -9.0517    121.1821     45.0803   1.5839132816e+01   4.8616018024e+01    0.5326031    0.3044116 -13.71  0.001974482    2.808    0.644
       108 -10.8883    173.2567     39.0834   4.7799618839e+00   3.5999527994e+01    0.4926422    0.2656335  55.59  0.001739182    1.936    0.484
       109 -11.3391    176.0724     43.7013   5.7425570459e+00   3.4693054299e+01    0.5583206    0.3647944 -74.83  0.002272136    1.665    0.399
       110 -10.7891    179.7960     41.5797   4.6700421198e+00   3.4071458927e+01    0.4720596    0.2901254  82.34  0.001850754    1.721    0.419
       111 -10.0662    222.8692     45.0853   1.0757043110e+00   2.4008727038e+01    0.2611844    0.1763432  80.64 0.0005659642    1.620    0.383
       112 -10.2394    198.2038     35.5166   1.0119796341e+00   3.0517911318e+01    0.3998911    0.2108343  87.92  0.001504272    2.159    0.537
       113 -11.0502    203.1989     43.3947   2.5293652335e+00   2.8403632515e+01    0.4580662    0.2402763  54.88   0.00221304    2.162    0.538
       114 -11.4670    197.1568     40.7189   2.4666885667e+00   3.0104090608e+01    0.4201844    0.2777735 -19.50  0.001685175    1.792    0.442
       115  -9.7606    242.0021     42.7614   3.5900632399e+02   2.0568430782e+01    0.3048674    0.1158682 -41.57   0.00101681    1.948    0.487
       116 -11.6623    157.3248     43.1819   8.2650403581e+00   3.9459718153e+01    0.4716439    0.2767782  65.97 0.0006276647    1.652    0.395
       117  -9.8232    164.6410     40.1336   6.2466379474e+00   3.8014767066e+01    0.3366844    0.2571208  21.31  0.001146631    1.825    0.452
       118 -11.3088    226.3164     39.6784   3.5953232999e+02   2.3975633519e+01    0.5266412    0.3004531 -68.50   0.00204252    1.844    0.458
       119 -12.3584    215.1072     38.4405   1.8244637312e-01   2.6441678535e+01    0.4797781    0.3480882  58.42  0.001332789    1.610    0.379
       120  -9.7392    247.1044     42.2587   3.5852863855e+02   1.9690202551e+01    0.1587981    0.1406377 -44.11 0.0004615512    1.178    0.151
       121  -9.3027    190.9888     39.9334   2.9188396585e+00   3.1626081468e+01    0.2173022    0.1358798 -62.38  0.000472269    1.577    0.366
       122  -9.6945    148.6129     39.9337   8.6321884953e+00   4.2162076979e+01    0.2444303    0.1660489 -41.92 0.0005464008    1.446    0.308
       123  -9.3214    130.3613     37.5395   1.1119679571e+01   4.7304694745e+01    0.2645395    0.1701586 -38.76 0.0007843644    1.582    0.368
       124 -11.0767    159.7629     36.0175   5.6776788030e+00   3.9800979100e+01    0.2784708    0.2487947  82.44 0.0004943027    1.078    0.072
       125 -10.4759    249.4360     31.3401   3.5607237985e+02   2.0521528643e+01    0.3096418    0.1927972 -82.23  0.001211866    1.720    0.419
       126 -11.2300    240.1958     34.2713   3.5729342138e+02   2.1902451275e+01    0.3260487    0.2498252  39.65  0.001110308    1.888    0.470
       127  -9.6340    233.0812     35.9005   3.5815481276e+02   2.3082968438e+01    0.3363482    0.1486412  74.77  0.001145222    2.547    0.607
       128 -10.8099    141.1799     34.1879   7.9623586064e+00   4.4889913668e+01    0.5003502    0.3392517  56.28  0.001823586    1.446    0.309
       129 -11.6002    150.4953     31.7022   5.6520700310e+00   4.2757712377e+01    0.5838517    0.2868319  63.74  0.001644388    1.892    0.471
       130 -12.3839    175.5701     32.3951   2.5674823175e+00   3.6279716890e+01    0.4182109    0.2677025 -60.97 0.0005596643    1.514    0.339
       131 -11.5157    167.3007     27.1838   2.0057576735e+00   3.8979373377e+01    0.5418794    0.2959415  76.13  0.001917685    1.782    0.439
       132 -10.0362    160.5764     24.2300   1.9110395608e+00   4.1043113815e+01    0.4666003     0.239295  43.50  0.001927322    2.568    0.611
       133  -9.8605    235.8615     41.2309   3.5913306210e+02   2.1912018898e+01     0.238928    0.1544804  54.67  0.001017759    1.943    0.485
       134  -9.0963    186.3678     30.9417   9.8077493966e-01   3.3836836661e+01    0.1793116    0.1549457 -51.27 0.0004240899    1.092    0.084
       135  -9.6187    223.7580     29.8772   3.5746713710e+02   2.5653336573e+01    0.1878512    0.1613903  75.97 0.0007988465    1.327    0.247
       136 -10.0252    215.2251     28.2590   3.5772561608e+02   2.7626207169e+01    0.3194953     0.168344  63.22  0.001532616    2.072    0.517
       137 -10.9017    108.8053     27.6224   1.1943753818e+01   5.4373384627e+01    0.4969981    0.2402845  52.31  0.001666708    1.910    0.476
       138 -10.5118    248.5154     18.6167   3.5346786338e+02   2.2076883363e+01    0.5747666    0.1889836  84.61   0.00255386    3.803    0.737
       139 -10.5891    245.3233     15.0016   3.5287348158e+02   2.3049199058e+01    0.2430433    0.1605518  71.87  0.001496309    1.748    0.428
       140 -11.7238     79.9122    162.9356   5.9456497800e+01   3.0907894924e+01     0.385526    0.2679203  48.34   0.00188731    1.351    0.260
       141 -11.0660    242.4906     85.9414   8.2645469597e+00   1.4958240126e+01    0.3665308    0.1681119 -40.31  0.001343901    1.744    0.427
       142  -9.5240    243.3457    143.6691   1.9917576004e+01   6.8846308602e+00    0.1119785   0.08690394 -53.90 0.0004935999    1.758    0.431
       143  -9.4444    243.9881    130.4973   1.7259998918e+01   8.5964484068e+00    0.1415439    0.1072811 -88.62   0.00081026    2.524    0.604
       144 -13.0972    114.9987     94.8235   3.3963210814e+01   4.0645152411e+01     1.297811    0.9244499 -33.96   0.00432673    1.566    0.361
       145 -10.4572    184.7003     25.4711   3.5964767252e+02   3.4883500204e+01    0.3570635    0.1909289 -48.81   0.00109331    1.667    0.400
       146 -11.2699    184.5744    122.7512   2.4925883962e+01   2.0015537797e+01     0.817537    0.4068461  57.10  0.003317206    2.653    0.623
       147 -11.5969    178.9287    113.4497   2.3806169449e+01   2.2787125082e+01    0.6843041    0.5851491 -41.28   0.00269497    1.126    0.112
       148 -10.6106    186.1308    111.8523   2.2095174363e+01   2.1601371323e+01     0.315335    0.2678973 -40.87  0.001109883    1.120    0.107
       149  -8.9956    208.5973    123.2739   2.0887899900e+01   1.5436432839e+01    0.1792418    0.1143208 -25.91 0.0005050463    1.512    0.339
       150 -10.0604    189.0219    117.9880   2.3014315215e+01   1.9971623880e+01    0.2201252    0.1651961   3.83 0.0006833877    1.654    0.395
       151  -9.2336    161.3056    117.9808   2.8472467407e+01   2.5611992149e+01    0.3189504    0.1809374  24.02  0.001170534    2.831    0.647
       152  -9.3520    197.8182     24.4153   3.5817383899e+02   3.1922410112e+01    0.2238873    0.1671361  18.67  0.001214916    2.041    0.510
       153 -10.3462    201.5516     21.4954   3.5712019660e+02   3.1400320427e+01    0.2499973    0.1889805 -69.70 0.0007149915    1.159    0.138
       154  -9.5279    143.1348     24.1620   4.2279931636e+00   4.5618761440e+01    0.2111293    0.1825255  51.90 0.0004618216    1.248    0.199
       155 -10.8066     66.9664    113.4004   5.4944726222e+01   4.5510132600e+01    0.5139772    0.3556336  -7.65  0.001451572    2.135    0.532
       156  -9.4788    146.6580     17.3036   1.4190335316e+00   4.5453892538e+01    0.2163949     0.158878 -57.88 0.0004963453    1.312    0.238
       157  -9.7413    230.7681    110.5820   1.4916560773e+01   1.3503890694e+01    0.1527277    0.1236297  74.26 0.0009485968    1.673    0.402
       158 -10.8834    249.9494    108.1761   1.2051102138e+01   1.0738269936e+01    0.2753619    0.2278344   4.55  0.001241317    1.371    0.271
       159 -11.1583    245.9480    106.4601   1.2166165400e+01   1.1597728377e+01    0.2563699    0.1722381 -55.80 0.0009850842    1.751    0.429
       160  -9.9488    129.5494     19.4097   4.6428257067e+00   4.9797332046e+01    0.2314213    0.1988503  79.95 0.0004738199    1.048    0.046
       161  -9.4199    142.9810     13.7504   6.8464823712e-01   4.6802030895e+01      0.19566    0.1569335  86.62            0    1.115    0.103
       162  -8.9890    212.7921    107.6433   1.6779007489e+01   1.7122801455e+01    0.1656395    0.1270096  67.46 0.0009382757    1.649    0.394
       163 -10.4031     60.6126    145.4239   6.2845531159e+01   3.8076036705e+01    0.3273282    0.2701908  55.39  0.001722748    1.144    0.126
       164 -10.8052     67.4264    102.0428   5.2197698116e+01   4.8390336688e+01    0.6184725    0.3357717  31.29   0.00247518    1.880    0.468
       165  -9.3759    170.8491    102.1186   2.2561218737e+01   2.6528673783e+01     0.226292    0.1986006 -74.69  0.001215993    1.276    0.216
       166  -9.8839     72.7646     97.6598   4.9048882900e+01   4.8600995065e+01    0.2708476    0.2370367 -64.70  0.001270211    1.161    0.138
       167 -10.8938    236.0958     95.9458   1.1121379295e+01   1.4680157795e+01    0.2886582    0.1495543 -43.25  0.001508736    1.675    0.403
       168 -10.3558    204.8964     94.4509   1.4898585778e+01   2.0689652934e+01     0.527472    0.3364083 -73.70  0.002397474    2.498    0.600
       169  -9.1009    151.8281     96.8259   2.5120893660e+01   3.1771830274e+01    0.2041393    0.1764994  85.56 0.0005153173    1.299    0.230
       170 -11.6837    245.9355     93.3371   9.4505986407e+00   1.3381900760e+01    0.5264156    0.2595364 -44.51  0.002701875    1.774    0.436
       171 -11.4617    236.6681     87.3373   9.2010628403e+00   1.5776620751e+01    0.6039077    0.3078832  67.46  0.003022284    2.709    0.631
       172 -10.4030    250.2451     74.1238   4.9970123297e+00   1.5196563584e+01     0.318122    0.2110078 -24.67  0.001207202    1.451    0.311
