#   1 NUMBER                 Running object number                                     
#   2 MAG_AUTO               Kron-like elliptical aperture magnitude                    [mag]
#   3 X_IMAGE                Object position along x                                    [pixel]
#   4 Y_IMAGE                Object position along y                                    [pixel]
#   5 X_WORLD                Barycenter position along world x axis                     [deg]
#   6 Y_WORLD                Barycenter position along world y axis                     [deg]
#   7 A_WORLD                Profile RMS along major axis (world units)                 [deg]
#   8 B_WORLD                Profile RMS along minor axis (world units)                 [deg]
#   9 THETA_WORLD            Position angle (CCW/world-x)                               [deg]
#  10 FWHM_WORLD             FWHM assuming a gaussian core                              [deg]
#  11 ELONGATION             A_IMAGE/B_IMAGE                                           
#  12 ELLIPTICITY            1 - B_IMAGE/A_IMAGE                                       
         1 -14.4162     68.5420    144.2675   1.0018988920e+02   3.7421488214e+01     4.398853     2.314561  73.82   0.01399427    4.135    0.758
         2 -13.6012    200.6565     41.5092   4.1875148260e+01   3.0209893512e+01     1.285781     1.166046  31.33  0.006726584    1.391    0.281
         3 -13.5348    211.2784     31.3747   3.8230900409e+01   2.9093384848e+01     0.913327     0.810213  23.32  0.001979693    1.544    0.352
         4 -12.7777    236.5971      5.7273   3.0523006672e+01   2.6593383917e+01    0.7897347    0.5671124 -89.80  0.005317863    1.226    0.184
         5 -10.1831     13.6015      9.2131   8.2134617830e+01   7.2323021396e+01    0.1664587   0.08394275 -28.54 0.0009600635    1.709    0.415
         6 -10.2421     17.2153      5.4194   7.8129875435e+01   7.2450042795e+01    0.1480215   0.09592388  32.85 0.0009569156    1.736    0.424
         7 -10.6891    193.2770    195.4944   7.9151518087e+01   4.2163939897e+00    0.9193081    0.4854955 -62.76  0.002814982    5.556    0.820
         8 -10.5268    140.0109    249.7014   9.9038552667e+01   3.1975777288e+00    0.2982136    0.2063565  44.04  0.001776154    1.301    0.231
         9 -13.1372     53.7902    186.9479   1.1038639613e+02   2.8760613055e+01     1.617786     1.049701  70.35  0.008411624    1.600    0.375
        10 -14.1558     40.9693    196.1058   1.1438765015e+02   2.8122192834e+01     4.286517     1.653249  67.76   0.01086272    4.473    0.776
        11 -16.9353     16.4000    243.1261   1.2283979120e+02   2.0717253049e+01     6.315806     2.154367  26.14   0.02675535    4.344    0.770
        12  -8.2640    223.9981    206.7080   7.5285490920e+01  -2.5521794813e+00    0.1499494    0.1061965  26.60 0.0004019341    1.366    0.268
        13 -10.7518    111.5579    204.2086   9.8881592829e+01   1.6415551146e+01    0.3403152    0.2645225 -89.61 0.0008750149    1.515    0.340
        14 -10.8024    107.2700    203.6238   9.9796314304e+01   1.7230997699e+01    0.3999143     0.244383  65.90   0.00178005    2.156    0.536
        15 -15.9432      7.6841    202.5677   1.2217510566e+02   3.0004245831e+01     13.79325     1.177649 -76.27  0.006339611   10.183    0.902
        16 -10.6529    121.2179    197.1531   9.5508890346e+01   1.6358747340e+01    0.4714392    0.2192382 -60.95  0.001381085    2.556    0.609
        17 -10.1161    111.8764    196.7043   9.7654701416e+01   1.8011144134e+01    0.3817441    0.2251543  -4.29  0.001150159    5.204    0.808
        18  -9.8917    184.4274    213.2252   8.4231375635e+01   2.5208581438e+00    0.1762573    0.1293167 -51.02 0.0005894862    1.655    0.396
        19 -12.8855     21.0451    221.4904   1.2068095700e+02   2.4632583908e+01    0.5501862    0.3990982 -61.06  0.003452338    1.590    0.371
        20  -9.3907    147.4893    186.7617   8.7504892594e+01   1.4009298818e+01    0.2907842     0.216654 -54.74   0.00128397    1.453    0.312
        21  -9.1051     79.8156    182.7291   1.0339102934e+02   2.6262124749e+01    0.2816836    0.1877621 -80.30  0.001003315    1.631    0.387
        22  -9.6754     99.4551    180.9322   9.8162732088e+01   2.3660976600e+01    0.2707352    0.2109996  41.65 0.0006911947    1.256    0.204
        23  -8.0948     89.2896    179.7001   1.0053711986e+02   2.5563468991e+01    0.1456553    0.1056052  71.29   0.00025909    1.561    0.359
        24  -9.6443    187.5576    175.9388   7.6454830446e+01   8.8924034211e+00    0.3711947    0.2929824 -51.62  0.001942572    1.420    0.296
        25 -12.3412     81.0711    159.4261   9.9350767351e+01   3.1787137037e+01     1.195319    0.6581692  62.98 0.0004377791    2.594    0.614
        26 -12.9142     69.2194    154.4110   1.0176814074e+02   3.4764646844e+01    0.6374628    0.4414895 -54.53  0.000987277    1.371    0.271
        27 -11.2798    115.4726    246.5356   1.0366094235e+02   7.4051677502e+00    0.4944021    0.2982434 -41.79  0.002667469    2.131    0.531
        28 -11.1361    114.1074    173.2197   9.3107145156e+01   2.3015895616e+01    0.6920515    0.2619058  39.44  0.002458126    2.556    0.609
        29 -10.8592    240.1872    169.9852   6.5251629912e+01   9.5713807114e-01    0.3268317    0.1859604 -15.30  0.001434866    2.223    0.550
        30  -8.7969    193.6044    170.8100   7.4134221905e+01   8.7801178833e+00     0.201583    0.1321374 -48.80 0.0009458681    1.633    0.388
        31  -8.7669     34.3570    171.4590   1.1343063983e+02   3.4718078886e+01    0.1723471    0.1134672  48.01  0.000839228    1.523    0.344
        32  -8.9355    185.1564    168.1604   7.5336753964e+01   1.0863954117e+01     0.194183    0.1798776 -73.32 0.0004727078    1.322    0.244
        33  -8.7950    110.8392    168.0921   9.2992204768e+01   2.4799817351e+01    0.2333156    0.2006089  81.43 0.0005322063    1.278    0.217
        34  -9.9537     33.2816    155.7085   1.1187177709e+02   3.8719842873e+01    0.3274486    0.2565156 -23.25  0.001870783    1.666    0.400
        35 -11.5770     88.2585    152.8204   9.6168938142e+01   3.2318800697e+01    0.6562179    0.4654656 -16.84  0.001920574    2.042    0.510
        36 -10.6300    133.6621    144.9503   8.2250247322e+01   2.6012277770e+01     1.182797    0.2924222 -53.29  0.002776023    5.421    0.816
        37 -11.2498     53.9765    147.8350   1.0499941873e+02   3.8417482977e+01    0.7580249    0.5872794 -84.30  0.004103645    1.272    0.214
        38  -8.5538    111.7734    149.9746   8.9135941171e+01   2.8993943540e+01    0.2323499    0.1666663  60.91  0.001037216    1.649    0.394
        39  -8.8616    174.9998    149.0543   7.3332459886e+01   1.6738410208e+01    0.2341341    0.1912786 -86.38 0.0005743122    1.676    0.403
        40 -10.7347     28.3103    144.0414   1.1176112098e+02   4.2114685367e+01    0.3215064    0.2081637  20.91  0.001715784    1.874    0.466
        41 -10.4070    102.0790    138.6929   8.9384353564e+01   3.3487997562e+01    0.5966762    0.3593659 -24.48  0.002208981    2.645    0.622
        42 -10.0836    105.8674    130.9807   8.6553508657e+01   3.4680379237e+01    0.4317797    0.3191983 -60.93  0.001889858    1.402    0.287
        43 -11.6027     89.5185    138.1708   9.2878363945e+01   3.5767605796e+01    0.2975259    0.2616518 -39.52 0.0004067894    1.153    0.133
        44 -10.5226     25.6733    137.3933   1.1163631784e+02   4.4016624970e+01    0.3263154    0.2242675  36.69  0.001257543    1.625    0.385
        45 -11.4117     68.0366    172.5968   1.0492940449e+02   3.0392200855e+01    0.4303083    0.3030635 -31.74  0.002108978    1.891    0.471
        46 -10.4495    135.6185    127.8369   7.7670817412e+01   2.9549355867e+01    0.5470512    0.1812914 -48.04  0.001670962    3.010    0.668
        47 -11.4147     72.3694    167.9972   1.0310210283e+02   3.0926145809e+01    0.4508749    0.3142008 -53.25 0.0008842354    1.422    0.297
        48 -10.1715     98.6778    125.2963   8.7296429123e+01   3.7361232699e+01    0.3375524     0.265447 -10.20  0.001442668    1.587    0.370
        49 -10.0737     29.0189    128.6938   1.0939821526e+02   4.5900959041e+01    0.1878438    0.1660029 -68.16  0.001159354    1.040    0.039
        50 -10.1118    116.9751    124.0139   8.1729143193e+01   3.4219867917e+01    0.2548062     0.193951  -9.98 0.0008265943    1.714    0.417
        51  -9.2404     87.2171    120.7060   8.9651219496e+01   4.0458932938e+01    0.3853995     0.251011  83.85  0.001458603    2.752    0.637
        52  -9.5093    111.3350    129.5517   8.4663908305e+01   3.4001078870e+01    0.3125119    0.2617611 -11.06 0.0006480696    1.395    0.283
        53  -9.3067    107.8354    118.5987   8.2966291905e+01   3.7266762471e+01     0.245035    0.2020256 -34.11 0.0003950093    1.230    0.187
        54 -10.7407     33.4292    118.6439   1.0638556112e+02   4.8008962780e+01    0.3531234     0.201403 -36.96  0.001677724    1.934    0.483
        55  -9.0922    147.7482    174.1923   8.5010711555e+01   1.6670478549e+01    0.2283166    0.1880422 -74.41 0.0006188215    1.487    0.327
        56 -10.1367    231.2957    113.7609   5.4670800431e+01   1.2209505286e+01    0.2939902    0.2494502 -37.73 0.0007348455    1.038    0.037
        57  -9.2304    205.3821    110.1322   5.8066923628e+01   1.8093119920e+01    0.2325539    0.2022889  34.73 0.0006608706    1.286    0.223
        58 -10.2822    115.3144    109.0925   7.8322248053e+01   3.7985671821e+01    0.4027568    0.2387633 -34.83  0.001628966    1.843    0.458
        59 -10.7262     33.7592    108.9494   1.0451185139e+02   5.0376773222e+01    0.3234735    0.2519863  76.45  0.001806313    1.532    0.347
        60  -8.3555    137.6900    105.2583   7.1230192035e+01   3.4079969434e+01    0.1509923    0.1245345  87.69 0.0002086833    1.525    0.344
        61 -10.5061     41.2998    103.6061   1.0083864164e+02   5.0931183114e+01    0.4271476    0.2169264  43.69  0.001818187    2.391    0.582
        62 -11.5174    242.9294    102.0220   5.0402494159e+01   1.1978676867e+01    0.3242481    0.2340452 -51.28  0.001831012    1.264    0.209
        63 -10.1357     32.7844     99.6219   1.0299212105e+02   5.2735713241e+01    0.2620629     0.238438  50.01  0.001398967    1.295    0.228
        64  -8.7012    125.4717     92.9515   7.0956515356e+01   3.9332783886e+01    0.2335092    0.1501725 -43.83 0.0008297222    1.541    0.351
        65  -9.1687     53.3513     90.8310   9.3508653397e+01   5.2573511525e+01    0.2095003     0.110525 -45.74 0.0004827318    1.684    0.406
        66  -9.3180     89.4518    211.4953   1.0499484565e+02   1.8250819192e+01    0.2272895    0.2031631  74.51 0.0005085682    1.062    0.058
        67  -8.8436    156.1173     87.9769   6.2007073124e+01   3.3347141683e+01    0.2677907    0.1720506 -65.58  0.001074701    2.165    0.538
        68  -8.8184     74.8742     85.1126   8.4230291930e+01   5.0762435084e+01    0.2050526    0.1940013 -71.03 0.0004063499    1.227    0.185
        69  -9.1554    159.1054     83.0500   5.9970638463e+01   3.3558271380e+01    0.2320956    0.2086841  11.73 0.0006588528    1.257    0.204
        70  -9.3633    112.8120     82.3982   7.1317042927e+01   4.4186425173e+01    0.3813736    0.2608527  76.21  0.001539656    2.441    0.590
        71  -8.8342     69.9565     81.9013   8.5000282159e+01   5.2237489780e+01    0.2043299    0.1749367  80.08 0.0005231798    1.598    0.374
        72  -9.1952     54.3374     65.6077   8.5736677472e+01   5.7918954102e+01    0.2061401    0.2038026  76.18 0.0005319792    1.300    0.230
        73  -8.8431     57.3359    221.0191   1.1315035086e+02   2.0592563386e+01    0.1840537    0.1472324  54.63 0.0001949155    1.109    0.098
        74 -12.9908    190.5758     48.7961   4.5049728038e+01   3.1565281102e+01     1.088101     0.797505  35.88  0.001271438    1.751    0.429
        75 -10.4226    125.2949    244.5746   1.0139854992e+02   6.2916733422e+00    0.3133665    0.1194207 -57.58  0.001331906    3.245    0.692
        76  -9.0663     38.9781    211.9532   1.1626572454e+02   2.4764460233e+01    0.2053477    0.1147863  62.93 0.0005403155    1.689    0.408
        77  -9.0917    198.1204     23.3619   3.7722012022e+01   3.3035784172e+01     0.202593    0.1738411 -27.89 0.0006310041    1.370    0.270
        78 -11.1804     12.5471     59.3109   1.0150777548e+02   6.3464815825e+01    0.3968724    0.2772925  47.63  0.002331493    2.050    0.512
        79  -8.5308    189.5012     15.0202   3.6591912312e+01   3.5948443329e+01    0.1754149    0.1238193 -31.91 0.0006294776    1.552    0.356
        80 -10.6587     13.8902     31.8869   9.2010400745e+01   6.8696621603e+01    0.2359395    0.1539618  19.37 0.0009470987    1.611    0.379
        81 -10.4649    119.8344    244.4625   1.0251313785e+02   7.1299598099e+00    0.2669244    0.1829843 -57.17 0.0007693296    1.704    0.413
        82 -11.6161    196.1574    205.4738   8.0441108655e+01   1.9721502109e+00    0.5176361    0.2821885  26.78  0.002430297    1.891    0.471
