#   1 NUMBER                 Running object number                                     
#   2 MAG_AUTO               Kron-like elliptical aperture magnitude                    [mag]
#   3 X_IMAGE                Object position along x                                    [pixel]
#   4 Y_IMAGE                Object position along y                                    [pixel]
#   5 X_WORLD                Barycenter position along world x axis                     [deg]
#   6 Y_WORLD                Barycenter position along world y axis                     [deg]
#   7 A_WORLD                Profile RMS along major axis (world units)                 [deg]
#   8 B_WORLD                Profile RMS along minor axis (world units)                 [deg]
#   9 THETA_WORLD            Position angle (CCW/world-x)                               [deg]
#  10 FWHM_WORLD             FWHM assuming a gaussian core                              [deg]
#  11 ELONGATION             A_IMAGE/B_IMAGE                                           
#  12 ELLIPTICITY            1 - B_IMAGE/A_IMAGE                                       
         1 -14.7569     68.5100    144.2678   1.0817915884e+02   3.7127857658e+01     5.113515     2.379008  64.50  0.003903069    3.950    0.747
         2 -12.8363     55.2721    146.4511   1.1202099400e+02   3.8295667090e+01     2.110362    0.6866301 -49.33  0.007513401    3.408    0.707
         3 -14.5769    198.9372     36.6527   4.7794657137e+01   3.0707653974e+01     2.211214     1.530384  29.97  0.007908849    1.928    0.481
         4 -14.5457    210.5282     24.5166   4.3124465279e+01   2.9351069885e+01     1.531843     1.118841  11.36  0.006298409    2.005    0.501
         5 -13.4143      2.7061     24.1990   1.0403586679e+02   7.0277779742e+01     1.487649    0.3302234 -56.33  0.005997223    3.510    0.715
         6 -13.6946      2.6585      6.5709   9.6919319917e+01   7.3340237050e+01     1.220981    0.8626395  -9.60  0.009002171    1.242    0.195
         7 -10.1518     60.7334      7.6153   6.8651364112e+01   6.6215097740e+01    0.1590453     0.112965  47.11 0.0004015518    1.594    0.373
         8 -12.1979    234.7326      2.2205   3.5513546357e+01   2.6125365992e+01    0.7145744    0.2429014  75.77  0.002882106    2.807    0.644
         9 -10.5406     62.2577      1.9697   6.5224777249e+01   6.6544368061e+01    0.2364846    0.1288213  32.74 0.0009799561    1.632    0.387
        10 -11.7822    146.7644     50.9740   6.1326121187e+01   4.1966157491e+01    0.5500782    0.3650703 -80.11   0.00159414    2.425    0.588
        11 -11.1563    139.3987    248.1108   1.0684486383e+02   4.7185133701e+00    0.4395068    0.2266513 -62.51  0.002277334    2.804    0.643
        12 -12.8775     71.3877    174.6564   1.1191885127e+02   2.9528215274e+01    0.8831378    0.4573961 -34.13  0.003101469    4.545    0.780
        13 -13.3120     47.9319    222.8221   1.2171545010e+02   2.2288420284e+01     1.004628    0.5040358 -89.08   0.00112264    2.024    0.506
        14 -13.2036     15.0198    192.3558   1.2587755393e+02   3.2042602445e+01    0.6236135    0.2231482 -61.35  0.002196514    2.740    0.635
        15 -13.9175     85.7368    229.0678   1.1504277924e+02   1.6107482591e+01     1.781128     1.171597  46.08   0.01097111    1.291    0.225
        16 -14.4981     45.8413    203.8787   1.2060694989e+02   2.6362169767e+01     2.668406     1.097886  61.17  0.008428586    2.521    0.603
        17 -14.0004     54.2089    193.6278   1.1793855206e+02   2.7534218282e+01      0.95523    0.7895777 -63.57   0.00495265    1.362    0.266
        18 -10.9076    209.0559    197.9206   8.5374971050e+01   9.5500568407e-01    0.2708345    0.1981345 -47.35  0.001057032    1.716    0.417
        19 -10.3565    112.4418    197.8946   1.0576490732e+02   1.8132834212e+01     0.306458    0.2044209  50.28  0.001592437    1.367    0.268
        20  -9.0177    111.5559    217.5481   1.0858667291e+02   1.4386887131e+01    0.1280163     0.110217  53.88 0.0001277642    1.030    0.029
        21  -9.9802     23.6900    193.4128   1.2422961842e+02   3.0983563143e+01    0.3506705    0.1349901  56.11  0.001354228    2.388    0.581
        22 -14.1235     29.5908    248.7200   1.2657119061e+02   1.9611256225e+01    0.7031037    0.4998582  24.98  0.004706852    2.178    0.541
        23 -11.0424     74.7033    189.3442   1.1300584083e+02   2.5765500900e+01    0.3436631    0.1966628  67.49 0.0008120716    1.927    0.481
        24 -10.5031     72.3439    186.7072   1.1321526083e+02   2.6676435324e+01    0.2291967    0.1828149  80.70 0.0005955955    1.130    0.115
        25  -9.2100     94.6110    187.2822   1.0825367666e+02   2.3262150318e+01    0.1690438    0.1233501 -56.14 0.0002985873    1.456    0.313
        26 -15.9789     63.8781    247.2357   1.2064684446e+02   1.5781813181e+01      9.71919     3.170954  29.37  0.009341294    9.852    0.898
        27  -9.4377    154.0177    185.2059   9.4454100541e+01   1.3309230099e+01    0.2424974    0.1622352  66.68  0.001081881    2.091    0.522
        28 -10.3250    147.0899    183.8834   9.5758036184e+01   1.4870987518e+01    0.2242121    0.1918356  64.40  0.001228026    1.255    0.204
        29  -8.9651     97.5965    184.2963   1.0714558450e+02   2.3445326978e+01    0.1503196    0.0940057  66.32  0.000162008    1.822    0.451
        30 -10.2793     99.4009    180.6782   1.0619300412e+02   2.3955269995e+01     0.236252    0.2301833  62.85 0.0006052808    1.142    0.124
        31  -9.7788     40.6885    178.1401   1.1935199225e+02   3.2548168681e+01    0.2013334    0.1431685  58.11 0.0005102283    1.298    0.230
        32 -11.1008    140.3106    173.6904   9.5430500800e+01   1.8251565332e+01    0.5287562    0.3415433  82.51  0.002060979    2.849    0.649
        33  -9.1510    130.5545    213.1108   1.0404616626e+02   1.2115090280e+01    0.1704459    0.1312993 -58.84 0.0003437919    1.476    0.323
        34 -10.6971    171.8970    240.5463   9.9676980334e+01   6.9812016548e-01    0.4205763    0.2519321 -67.66  0.001956665    3.596    0.722
        35  -9.5210     37.4505    167.8460   1.1905075553e+02   3.5245061993e+01    0.2449693    0.1258974  52.69 0.0009581538    1.909    0.476
        36  -9.7069    230.6384    166.9599   7.5050351463e+01   2.0823369749e+00     0.222712    0.1029367 -52.81 0.0007042203    4.532    0.779
        37  -9.4474    160.5146    164.4897   8.8955863010e+01   1.6220720851e+01    0.2621967    0.1434915 -57.46 0.0008820156    2.352    0.575
        38 -10.3478     32.5759    165.0375   1.1989242443e+02   3.6396399658e+01    0.2043899    0.1852493  32.04 0.0009743787    1.404    0.288
        39 -12.9184     89.0149    155.6771   1.0472784110e+02   3.1373453387e+01     1.858895    0.8333287 -68.45  0.002341203    2.649    0.622
        40 -11.4797     32.8313    156.1849   1.1890957264e+02   3.8431368172e+01    0.3618802     0.284513 -62.88  0.001487931    1.265    0.210
        41 -12.4866     82.2533    162.6363   1.0756785993e+02   3.0763254063e+01    0.6485086    0.3600127  54.92 0.0003884937    1.930    0.482
        42 -11.1738    133.6524    144.2002   9.1036123277e+01   2.6031861428e+01     1.082845    0.2882187 -54.26  0.002668979    5.202    0.808
        43 -10.7853    174.1811    148.7267   8.2432355705e+01   1.6622637742e+01    0.3592035      0.32377 -81.31  0.001864104    1.335    0.251
        44 -11.0341     39.4697    146.6099   1.1613799380e+02   4.0029885898e+01    0.3298124    0.1969916  42.87  0.001562786    1.760    0.432
        45 -10.8254     84.4772    143.8889   1.0383803996e+02   3.4906900740e+01     0.363475    0.2430362  63.08 0.0009651222    1.724    0.420
        46 -12.4253     90.0960    140.6239   1.0171282564e+02   3.4811943818e+01    0.2879017    0.2569562 -46.39 0.0004345602    1.169    0.145
        47 -10.9183    102.8535    140.3681   9.8226074365e+01   3.2731761710e+01    0.5932696    0.3770456 -23.14  0.002335667    2.637    0.621
        48 -10.8121     45.9882    135.2060   1.1285095958e+02   4.2091301996e+01    0.2725734    0.1695299 -63.04 0.0008426178    1.380    0.275
        49 -12.7499     44.5870    129.9012   1.1243676649e+02   4.3533414580e+01    0.5000241    0.4173678 -58.50  0.002381691    1.144    0.126
        50 -11.3483     32.0258    130.9020   1.1605883098e+02   4.4538660522e+01    0.3115179    0.1847204 -67.20 0.0009823546    1.386    0.279
        51 -10.3343    111.8366    130.6512   9.3702392808e+01   3.3414863469e+01    0.3383937    0.2576693  -0.33 0.0009249277    1.849    0.459
        52 -11.4824    135.7358    127.7863   8.6691850699e+01   2.9320606150e+01    0.5937049    0.2041965 -50.11  0.001827446    3.060    0.673
        53 -11.1311     99.0683    126.8555   9.6375772187e+01   3.6628970933e+01    0.3138477    0.2556401 -18.83 0.0006903103    1.507    0.336
        54 -10.9188    117.6504    124.6721   9.0724362028e+01   3.3705994717e+01    0.3527849    0.2523275  14.18  0.000997377    1.926    0.481
        55 -10.4011    106.0383    130.8347   9.5326764741e+01   3.4439144290e+01    0.3484374    0.2998309 -72.32  0.001428659    1.190    0.160
        56 -10.4280    160.3862    127.8138   8.0610011282e+01   2.3973007253e+01    0.3955487     0.279314 -55.41  0.001741301    1.570    0.363
        57 -10.0314    108.0130    119.4764   9.2138803634e+01   3.6767963917e+01    0.2139547    0.1986401 -52.12 0.0001833947    1.036    0.035
        58 -13.2069     50.7950    107.8172   1.0671136711e+02   4.8230621837e+01    0.7983314    0.6735284 -41.05   0.00476109    1.192    0.161
        59 -10.7818    134.6443    105.2701   8.1118078736e+01   3.4565171942e+01    0.6374017    0.1966768 -40.39  0.001833003    3.390    0.705
        60 -11.7758    118.3518    108.1576   8.6340200072e+01   3.7371328356e+01    0.8512173    0.5560173 -44.38  0.003745596    1.486    0.327
        61 -16.4985      8.9170    242.7385   1.2962716382e+02   2.2819823924e+01     1.697188     1.556011  73.74    0.0150602    1.530    0.346
        62 -10.1515    205.3058    110.2415   6.6546000683e+01   1.7238200758e+01    0.3554226     0.228214  35.72  0.001179287    1.774    0.436
        63 -13.7616     70.3978    158.0911   1.0984725724e+02   3.3542167902e+01    0.6225784    0.5592213 -36.45  0.003741984    1.354    0.262
        64  -8.9719     84.6394    173.7447   1.0865187892e+02   2.7824948362e+01    0.1265948    0.1087233 -12.44 0.0006965062    1.620    0.383
        65 -12.0484     43.1317    108.8842   1.0931194989e+02   4.8796890456e+01    0.3525252    0.2547032 -49.93  0.001222978    1.256    0.204
        66 -11.3001    243.3692    102.9892   5.8359541903e+01   1.0230143711e+01    0.5213984    0.1733953 -49.58  0.001513898    4.504    0.778
        67  -9.8649    168.2493    113.1536   7.5005049240e+01   2.5247172122e+01    0.3641082    0.2443573 -71.65  0.001264412    2.355    0.575
        68  -8.8004     66.3427    100.2312   1.0009010434e+02   4.8123969763e+01    0.1358579    0.1039612 -19.60 0.0002905982    1.547    0.354
        69 -10.2599     33.4442     99.7009   1.1067562659e+02   5.1928344490e+01    0.2578504    0.1145304 -68.91  0.001134531    2.072    0.517
        70 -16.5936      7.4098    201.4128   1.2787956903e+02   3.0855646101e+01     8.354797     1.077288 -74.06   0.01063109    5.262    0.810
        71 -10.8422     52.6218     91.5450   1.0256780075e+02   5.1902473973e+01    0.3937056    0.1919869 -42.08   0.00169171    1.990    0.497
        72 -10.0520     41.7842     91.9456   1.0634030329e+02   5.2980085605e+01    0.1968223    0.1884343 -22.44 0.0004674033    1.171    0.146
        73  -9.9005     75.2828     84.9794   9.3160221147e+01   5.0369220129e+01    0.2171724    0.2017441  21.28 0.0004093464    1.163    0.140
        74  -9.1977    158.0033     80.9927   6.8266397641e+01   3.4041959640e+01     0.190738     0.183473 -29.88 0.0003671504    1.033    0.032
        75  -9.2981     57.1141     66.6395   9.4165065574e+01   5.6935825263e+01    0.2617478    0.1164643  39.83  0.001107068    2.628    0.619
        76 -11.7602      1.6116     61.8049   1.1462077446e+02   6.2696206135e+01    0.5355948   0.09285848 -67.22  0.001741185    4.659    0.785
        77 -10.6756     13.4972     59.7974   1.0944043493e+02   6.2513881884e+01     0.214666    0.1751228 -46.84 0.0003993307    1.060    0.057
        78 -13.0839    189.7695     43.6668   5.1084208259e+01   3.2078312933e+01    0.8871876    0.5965325  37.28  0.001110829    1.778    0.438
        79  -9.3327     43.5243    236.4652   1.2347910416e+02   2.0226947709e+01    0.1109849   0.08488348  68.20 1.348546e-05    1.051    0.048
        80  -9.7527     73.1562    230.2880   1.1757127727e+02   1.7628950521e+01    0.2325222    0.1297158  36.77 0.0009498837    1.769    0.435
        81 -10.9705    148.2509     44.4266   5.8828295012e+01   4.2566826470e+01    0.2852409    0.2550501  88.74 0.0004347049    1.226    0.185
        82 -10.2398     34.5501    228.0293   1.2452475590e+02   2.2837572900e+01    0.1858113    0.1312753  53.88 0.0004685244    1.222    0.182
        83  -9.9901     56.6287    224.4489   1.2020649925e+02   2.0902899442e+01    0.1905802    0.1367646  74.66  0.001274054    1.164    0.141
        84  -9.5249    189.8296     14.9000   4.2948298351e+01   3.5584479941e+01    0.2049441    0.1779904  51.53 0.0005700114    1.221    0.181
        85 -10.0884    197.6702    223.0932   9.2041091270e+01  -9.4209267258e-01    0.2058988    0.1533685  38.40  0.000450145    1.254    0.203
        86  -8.6222    115.5142     31.4155   6.1843130222e+01   5.2279150200e+01    0.1411631    0.1302208  31.76 0.0002646908    1.041    0.039
        87  -9.5963    113.7830    208.1128   1.0689448823e+02   1.5854503671e+01    0.2052329    0.1607436  67.50 0.0007362682    1.263    0.208
        88  -9.7103    106.6813    210.0012   1.0864660931e+02   1.6623333345e+01    0.1787095    0.1577456  70.52 0.0005129527    1.066    0.062
