#   1 NUMBER                 Running object number                                     
#   2 MAG_AUTO               Kron-like elliptical aperture magnitude                    [mag]
#   3 X_IMAGE                Object position along x                                    [pixel]
#   4 Y_IMAGE                Object position along y                                    [pixel]
#   5 X_WORLD                Barycenter position along world x axis                     [deg]
#   6 Y_WORLD                Barycenter position along world y axis                     [deg]
#   7 A_WORLD                Profile RMS along major axis (world units)                 [deg]
#   8 B_WORLD                Profile RMS along minor axis (world units)                 [deg]
#   9 THETA_WORLD            Position angle (CCW/world-x)                               [deg]
#  10 FWHM_WORLD             FWHM assuming a gaussian core                              [deg]
#  11 ELONGATION             A_IMAGE/B_IMAGE                                           
#  12 ELLIPTICITY            1 - B_IMAGE/A_IMAGE                                       
         1 -14.3794    248.9636     52.1325   3.6320243027e+01   1.8905094781e+01     1.392362    0.3979891 -41.38  0.005930152    2.727    0.633
         2 -13.4212    248.0370     35.4537   3.3129779881e+01   2.1270174467e+01    0.8183988    0.3454329 -54.28  0.004170961    2.072    0.517
         3 -15.6186    241.2585     10.5393   2.8853864242e+01   2.5512956019e+01      2.51093     1.406624 -81.05   0.01538164    1.624    0.384
         4 -12.0131      1.5168     26.0813   9.4812031065e+01   7.0699564515e+01    0.4773155    0.1072093 -56.01  0.001742232    4.587    0.782
         5 -13.5918     11.3969     24.4202   8.8521296777e+01   7.0277361057e+01    0.7277352    0.3037304 -25.82   0.00345227    2.526    0.604
         6 -12.6414      8.5362      2.3209   7.9859401082e+01   7.3826875650e+01     0.774176    0.2212831  26.73  0.003515156    3.321    0.699
         7 -12.6934     15.0407      7.4586   7.8604908236e+01   7.2483448811e+01    0.4943212    0.2575483  -1.42  0.002674843    2.156    0.536
         8 -13.4088      6.0217     11.8226   8.6167708230e+01   7.2711284494e+01    0.7410017    0.4026293 -21.31  0.004090459    1.585    0.369
         9 -12.0190     12.8380     13.5046   8.2870844997e+01   7.1856592063e+01    0.3069184    0.1527674 -23.68  0.001707166    1.875    0.467
        10 -12.1269     25.9767     16.4833   7.6961287615e+01   7.0018761427e+01    0.3183496     0.155505 -17.81  0.001565376    2.385    0.581
        11 -11.9482    161.3069      9.8843   3.6076684122e+01   4.3101148309e+01    0.2349172    0.1558564  85.31  0.001325426    1.406    0.289
        12 -11.4448    155.8298     10.2835   3.6894532017e+01   4.4358982408e+01    0.2092878    0.1433855 -88.42  0.001054367    1.445    0.308
        13 -12.4802     19.3176     14.7947   7.9777708821e+01   7.1012870049e+01    0.3829481    0.1889922 -17.91   0.00197205    2.223    0.550
        14 -11.5501    149.4519      9.1534   3.7445521918e+01   4.5974218639e+01    0.2687559    0.1534371  89.37   0.00132976    1.933    0.483
        15 -12.1736    169.2982      2.7295   3.3267472085e+01   4.1877513266e+01    0.2877754    0.1611326 -74.93  0.001487512    1.940    0.485
        16 -12.0311    159.7587      3.1003   3.4445048465e+01   4.4073242653e+01    0.3016209     0.157279 -89.69  0.001466908    2.058    0.514
        17 -11.3486    152.3219      1.8258   3.5003778458e+01   4.5928151650e+01    0.1996637    0.1533587 -86.30  0.001247186    1.227    0.185
        18 -13.0209     24.8300      4.4417   7.1533867336e+01   7.1711901388e+01    0.5125643     0.284605  -6.32  0.002919707    1.900    0.474
        19 -11.2651    134.7746      5.1897   3.8426441787e+01   4.9790452231e+01    0.2143004    0.1128802 -66.60 0.0009471039    2.770    0.639
        20 -10.3237    147.6839      2.3179   3.5737369246e+01   4.6980144815e+01    0.1279909   0.08498578 -71.31 0.0007038991    1.653    0.395
        21 -10.6185    137.8585      1.8360   3.6950140437e+01   4.9334787333e+01    0.1770693    0.1342922 -84.19  0.001020198    1.348    0.258
        22 -11.9821     40.5492      2.9795   6.3037637191e+01   6.9608751735e+01    0.3970859    0.1857352  20.27  0.001892731    2.537    0.606
        23 -10.5838    119.0094      4.0000   4.0669007176e+01   5.3577565680e+01    0.2189341   0.06162932  65.24 0.0008067284    2.972    0.664
        24 -11.3461     81.5807    236.8547   1.0705713827e+02   1.3779700240e+01    0.2849798    0.1329964  48.04  0.001337579    1.940    0.485
        25 -13.0469    246.9132    226.2148   7.0941263033e+01  -8.2772353147e+00    0.8238502    0.3886923 -18.15  0.003968005    2.432    0.589
        26 -12.4135    247.8940    215.4817   6.8884621625e+01  -6.8532989631e+00     0.581234    0.2362955 -30.46  0.002768714    2.241    0.554
        27 -12.8377    234.2220    244.5529   7.6298778252e+01  -9.2886420749e+00    0.7041792    0.3070734 -24.86  0.003485059    2.389    0.581
        28 -12.5541    241.8911    237.5153   7.3754032353e+01  -9.2466643858e+00     0.687167    0.3243334  -9.43  0.003020891    3.147    0.682
        29 -11.7651    249.5471    233.1628   7.1677452335e+01  -9.5533060414e+00    0.3741111    0.1876659 -24.39  0.001761274    1.784    0.439
        30 -11.2447    249.3630    250.1151   7.4525163220e+01  -1.1761411352e+01    0.3635994    0.1459453  26.30  0.001916689    2.323    0.569
        31 -11.2073    248.8328    245.8470   7.3920834562e+01  -1.1156243378e+01     0.273643    0.1858016 -19.99  0.001053797    1.235    0.190
        32 -12.5599    242.8989    246.0106   7.4986404755e+01  -1.0503621679e+01    0.6274388    0.2955374 -21.62  0.003339534    2.112    0.527
        33 -12.2380    247.1857    239.4480   7.3147301486e+01  -1.0127849888e+01    0.4782221    0.2543317 -18.06  0.002302825    1.762    0.432
        34 -12.3488    225.3705    248.6006   7.8579179374e+01  -8.7635644352e+00    0.4289949    0.2317263  20.29  0.002447381    1.657    0.396
        35 -13.0148    212.0317    247.3447   8.0888647963e+01  -6.9025976654e+00     0.600564    0.3162108  10.34  0.003009261    2.167    0.539
        36 -11.1520     50.1812    250.1115   1.1482529339e+02   1.5156144862e+01    0.3961652     0.130459  37.41  0.001819488    2.411    0.585
        37 -11.5932     36.2504    248.6192   1.1747525591e+02   1.7060348209e+01    0.4530424    0.2009452  54.52  0.002397474    1.925    0.481
        38 -11.4258     20.1624    249.1495   1.2059361337e+02   1.8683292993e+01     0.335538    0.1763435  50.08  0.002049894    1.507    0.336
        39 -11.3673     11.8778    249.3450   1.2214558636e+02   1.9477984429e+01    0.3283324    0.1497723  47.34  0.001935356    1.708    0.414
        40 -10.9889      3.7489    250.3111   1.2366841798e+02   2.0071635736e+01    0.2622619    0.1388979  31.94  0.001628462    1.941    0.485
        41 -11.5731     94.5561    235.9003   1.0409713910e+02   1.2155747821e+01    0.2948808    0.1373078  47.32   0.00134642    1.989    0.497
        42 -11.0750     13.8774    232.2807   1.2086939888e+02   2.2711319832e+01    0.3673703    0.1734033  54.32   0.00205258    1.765    0.433
        43 -11.4125     60.1276    231.2588   1.1118403441e+02   1.7767549935e+01    0.2580851    0.1409517  71.44  0.001256194    2.126    0.530
        44 -11.3269    128.0238    240.4889   9.7287662358e+01   6.3305131333e+00    0.2137762    0.1134046  34.93  0.001041479    1.617    0.382
        45 -12.2055    236.4325    227.3064   7.2987009146e+01  -7.1402886321e+00    0.3714276    0.2114713 -19.24   0.00207382    1.656    0.396
        46 -11.0717     39.1758    230.7258   1.1561782587e+02   2.0384966827e+01    0.2113806    0.1246238  53.99  0.001204601    1.462    0.316
        47 -11.6959     26.2304    229.1944   1.1819621826e+02   2.2115521988e+01    0.3807295    0.1534394 -79.22  0.001829816    2.427    0.588
        48 -11.6358      4.6061    228.4314   1.2247888936e+02   2.4379753189e+01    0.3805748    0.1865463  66.50  0.002019288    1.768    0.434
        49 -10.8678     32.1940    229.4088   1.1697918775e+02   2.1436087860e+01    0.1771643    0.0874422  45.87 0.0008060595    1.713    0.416
        50 -11.5600    178.8515    243.2591   8.6842608966e+01  -1.7244766961e+00    0.2959231    0.1390731  23.74  0.001344082    2.159    0.537
        51 -10.9753     11.0040    226.2897   1.2110208362e+02   2.4239848445e+01    0.2995809    0.1501016  57.47   0.00160723    1.696    0.410
        52 -11.3621     18.6782    222.3180   1.1930312724e+02   2.4350099244e+01    0.2770301    0.1458014  63.64  0.001527206    1.711    0.416
        53 -11.4677      2.0300    221.2387   1.2261796499e+02   2.6122932786e+01    0.3323211    0.1386878  89.33  0.001683355    2.209    0.547
        54 -10.3537     44.6556    221.3249   1.1368168431e+02   2.1782807926e+01     0.139184   0.07768583  61.95 0.0006143973    1.739    0.425
        55 -11.7454    238.4938    218.4188   7.1057524534e+01  -6.0958312987e+00    0.3530556     0.200146 -26.09  0.001972926    1.561    0.360
        56 -11.6601     12.1539    217.1291   1.2033113794e+02   2.6098538731e+01    0.3954773      0.20339  62.74  0.002184206    1.738    0.425
        57  -9.3993     56.2572    216.6974   1.1065882505e+02   2.1413698351e+01    0.1308444   0.08561873  66.68 0.0006906046    1.510    0.338
        58 -11.4340      2.2941    212.8939   1.2212203860e+02   2.7898916570e+01    0.2940055     0.154425  76.31  0.001659414    1.681    0.405
        59 -10.8472    227.4147    218.7967   7.3141880783e+01  -4.6923718357e+00    0.1853004    0.1005785 -25.96 0.0009561547    1.743    0.426
        60 -10.5580     28.4943    211.9884   1.1647925844e+02   2.5634449746e+01    0.1856986   0.08443629  75.34 0.0008104414    2.548    0.607
        61 -10.7828    239.6792    207.5300   6.8884854566e+01  -4.5987071914e+00     0.223858    0.1000128 -37.47  0.001084016    2.004    0.501
        62 -10.5207    246.7301    206.1295   6.7399386354e+01  -5.3105892768e+00     0.244348    0.1285136 -31.71  0.001313136    1.624    0.384
        63 -12.2324     12.6316    204.7297   1.1943704233e+02   2.8809535945e+01    0.3803026    0.1924101  56.76  0.002033386    1.803    0.445
        64 -10.9014    250.1544    201.3907   6.5948312972e+01  -5.0338575792e+00    0.3490961    0.1403295 -34.10   0.00164074    2.141    0.533
        65 -11.5113    243.1566    199.6785   6.6829410299e+01  -3.8443678094e+00    0.2891915    0.1192562 -23.13  0.001093688    3.408    0.707
        66 -12.0513      3.5510    197.3060   1.2094422048e+02   3.1275523442e+01    0.3720604    0.1825452  81.58   0.00192655    1.896    0.473
        67 -10.4770     17.3147    190.6435   1.1735164663e+02   3.1643917744e+01    0.1380979   0.07719242  66.00   0.00070446    1.744    0.427
        68 -11.9794      4.0205    188.9937   1.2030212614e+02   3.3154067894e+01    0.3311886    0.1787939  64.02  0.001582065    1.740    0.425
        69 -10.6481    249.5567    184.6990   6.2926907375e+01  -2.3491448204e+00     0.250233     0.102863 -34.65  0.001141237    2.085    0.520
        70 -11.7194      2.0057    178.6630   1.2006045837e+02   3.5735633049e+01    0.3540766     0.147087  87.99  0.001591232    2.370    0.578
        71 -11.5867      6.3527    172.0357   1.1851480709e+02   3.6997633956e+01    0.3033136    0.0998679 -75.86  0.001255957    2.546    0.607
        72 -11.3452      3.4355    154.2793   1.1777975947e+02   4.1530387900e+01    0.2621322   0.09449404 -69.96  0.001150007    2.169    0.539
        73 -10.9750    249.7518    151.0004   5.6309580017e+01   3.1530158131e+00     0.182695   0.09342934 -38.26 0.0008965693    1.622    0.384
        74 -12.2834    248.2712    129.7399   5.2228437139e+01   6.9611825471e+00    0.3123487    0.1573655 -43.20  0.001524881    1.678    0.404
        75 -12.5686    248.3774    119.2328   5.0059632310e+01   8.6998840527e+00    0.3362053    0.1696523 -40.69  0.001654148    1.641    0.391
        76 -13.6985    248.1206    105.0553   4.7175793296e+01   1.1078541617e+01     1.026728    0.3278727 -52.13  0.003280126    4.473    0.776
        77 -14.3287    248.6494     77.7119   4.1499682111e+01   1.5282706739e+01    0.8793119     0.459367 -48.50  0.004620499    1.615    0.381
        78 -14.0602    248.5385     89.6994   4.3964084439e+01   1.3457976481e+01    0.7728353    0.3776236 -44.07  0.003873514    1.690    0.408
        79 -12.2111    168.5586    249.3097   8.9881093960e+01  -1.2130581952e+00    0.4708664    0.1599678  32.73  0.001939328    2.551    0.608
        80 -12.1221    127.3726    248.3273   9.8450785983e+01   4.9964158897e+00    0.3213426    0.1896523  45.50    0.0016984    1.581    0.368
        81 -11.3935     74.5384    250.3282   1.0987942098e+02   1.2056273743e+01    0.4463611   0.09237896  38.13  0.001630883    3.396    0.706
        82 -12.9478    143.6294    246.6889   9.4754283745e+01   2.8810744020e+00    0.4871314    0.2204829  35.24  0.002282205    1.862    0.463
        83 -11.9406     18.4822     31.2052   8.7377383868e+01   6.8521004327e+01    0.3751593    0.1623294 -23.60  0.001671839    2.736    0.634
        84 -11.8114      3.5223     51.3416   1.0171925645e+02   6.5777464462e+01    0.4044563     0.101635 -41.54  0.001650317    2.906    0.656
        85 -11.8615      3.2404    243.5748   1.2346228874e+02   2.1432114340e+01    0.4054104    0.1984123  66.10  0.002282127    1.695    0.410
        86 -12.4884    193.7679    244.5234   8.4013320802e+01  -4.0333777303e+00    0.5084977    0.2388776  18.73  0.002273531    2.464    0.594
        87 -11.3710     45.1905    245.3036   1.1547058238e+02   1.6695529792e+01    0.3664656    0.1618319  46.44  0.001908838    1.836    0.455
        88 -12.4727    116.0956    244.7610   1.0043405498e+02   7.3070738471e+00    0.3354758    0.1745842  44.23  0.001658859    1.715    0.417
        89 -12.5836     84.5134    244.4846   1.0721354922e+02   1.1854929511e+01    0.3909477    0.1786597  44.46  0.001892414    1.851    0.460
        90 -10.2952    156.5002     17.5135   3.8812366609e+01   4.3499284641e+01    0.1307807    0.1121617  83.58 0.0002948027    1.050    0.048
        91 -11.9484     56.6867    242.0911   1.1286556359e+02   1.5960112201e+01     0.489121    0.1886802  51.04  0.002225034    2.350    0.575
        92 -12.7470    226.2831    241.0950   7.7182709615e+01  -7.8355750586e+00    0.4341265    0.2445276  -6.85  0.002325881    1.949    0.487
        93 -12.5819    231.3732    234.1308   7.5076850210e+01  -7.4862073411e+00    0.4495964    0.2557589   2.54   0.00241274    1.916    0.478
        94 -11.7807     29.7433    241.1619   1.1827133343e+02   1.9264370468e+01     0.387416    0.2113883  64.53  0.002234169    1.638    0.389
        95 -11.9200     15.7662    240.6640   1.2096626201e+02   2.0811917394e+01    0.5539463    0.1929253  47.25  0.002798988    2.215    0.549
        96 -12.2778    107.4349    241.1157   1.0187625747e+02   9.2662853738e+00    0.4064059    0.1636829  45.91  0.001729189    2.324    0.570
        97 -12.2930     72.1082    240.3288   1.0945420784e+02   1.4348490623e+01    0.3582571    0.1806642  45.87  0.001830675    1.687    0.407
        98 -11.8016     65.4631    249.1255   1.1164654551e+02   1.3463173245e+01    0.3939241    0.1926292  46.66  0.002075398    1.693    0.409
        99 -12.6192     97.6068    244.7238   1.0442828465e+02   9.9843834296e+00    0.4144103    0.2021838  46.95   0.00201081    1.848    0.459
       100 -10.7280    120.6501    239.3132   9.8750471808e+01   7.6573889980e+00    0.1369614   0.09187191  58.32 0.0006461868    1.723    0.420
       101 -10.4063     38.1335    240.8393   1.1657239711e+02   1.8405104333e+01      0.19971    0.1297326  61.80  0.001231786    1.311    0.237
       102 -11.3361     44.6572    237.3142   1.1497912724e+02   1.8379357092e+01    0.2891451    0.1256606  53.46  0.001410329    2.073    0.518
       103 -11.8495      2.1318     40.8053   9.9414215680e+01   6.7945734626e+01    0.3424329    0.1106596 -51.69  0.001619331    2.256    0.557
       104 -11.2865      6.1980    236.2628   1.2256475743e+02   2.2622216613e+01    0.3141965     0.165782  67.34  0.001444399    1.592    0.372
