#   1 NUMBER                 Running object number                                     
#   2 MAG_AUTO               Kron-like elliptical aperture magnitude                    [mag]
#   3 X_IMAGE                Object position along x                                    [pixel]
#   4 Y_IMAGE                Object position along y                                    [pixel]
#   5 X_WORLD                Barycenter position along world x axis                     [deg]
#   6 Y_WORLD                Barycenter position along world y axis                     [deg]
#   7 A_WORLD                Profile RMS along major axis (world units)                 [deg]
#   8 B_WORLD                Profile RMS along minor axis (world units)                 [deg]
#   9 THETA_WORLD            Position angle (CCW/world-x)                               [deg]
#  10 FWHM_WORLD             FWHM assuming a gaussian core                              [deg]
#  11 ELONGATION             A_IMAGE/B_IMAGE                                           
#  12 ELLIPTICITY            1 - B_IMAGE/A_IMAGE                                       
         1 -13.7042     30.6251     59.6548   1.0361276264e+02   6.1351805384e+01     1.889045     1.003391  29.92   0.00622466    2.199    0.545
         2 -12.7841    216.3698     14.9859   4.1866581977e+01   2.9066007158e+01     1.030524    0.6860805  51.66   0.00329287    1.670    0.401
         3 -12.0060     42.8303     20.7337   8.4069544748e+01   6.7260783483e+01    0.5686952    0.3431089  35.04  0.001973731    1.808    0.447
         4 -13.3882    188.6399      8.8372   4.3162522991e+01   3.6640089420e+01    0.9042237    0.5861059 -76.02  0.004563109    1.628    0.386
         5 -10.4736     49.8788     11.0889   7.6358418223e+01   6.7638454504e+01    0.1948475    0.1527452  18.32 0.0005040256    1.177    0.151
         6 -11.8147     58.1112      8.1475   7.1540336360e+01   6.6707849206e+01    0.4573352    0.3631325  21.40  0.002022185    1.135    0.119
         7 -11.3433     52.6650      4.0815   7.1620114411e+01   6.8054852707e+01    0.4404044    0.2692299   3.76  0.001781933    1.678    0.404
         8 -11.9636     43.5927      8.3342   7.7685676113e+01   6.8902424947e+01    0.2988373    0.2307617  28.03 0.0006889343    1.347    0.258
         9 -10.7558     25.4604      8.0623   8.6230063209e+01   7.1195969241e+01    0.2729295    0.1590683 -28.01  0.001147322    1.407    0.289
        10 -11.1542     65.4543     10.0183   6.9698941093e+01   6.5245030580e+01    0.4001124    0.2245546 -25.03  0.001246355    1.700    0.412
        11 -10.2529    109.7198      8.5940   5.6039688079e+01   5.6352864049e+01    0.1811254    0.1247399  69.26 0.0009432132    1.593    0.372
        12  -9.2278     13.7109      8.2580   9.2564050637e+01   7.2304794398e+01   0.09022821   0.08363423 -23.43 0.0006879679    1.488    0.328
        13 -11.7711    165.8174      1.9878   4.3902742146e+01   4.3109454500e+01    0.5181147    0.1985181  65.27  0.001837394    2.190    0.543
        14 -11.9290    222.7303    213.2310   8.7418219517e+01  -3.3063764268e+00    0.6053773    0.2533346  39.07  0.002833265    2.128    0.530
        15 -10.2158    236.7511    210.5975   8.4451094789e+01  -5.1883137072e+00    0.1683498    0.1075664  42.87 0.0009552482    1.663    0.399
        16 -10.4605    115.8923    209.3294   1.0785845405e+02   1.5709033368e+01    0.2886443    0.1705499 -71.21  0.001457073    2.059    0.514
        17  -9.8431     98.4966    204.9918   1.1090391119e+02   1.9351833409e+01    0.1836911    0.1027473  86.53 0.0008106526    2.597    0.615
        18  -9.8572     56.4949    205.5179   1.1952127333e+02   2.5208499383e+01    0.1245548   0.09415732  71.89 0.0008096242    1.062    0.059
        19 -10.2344     48.9387    202.1479   1.2072339041e+02   2.6841056135e+01    0.2872888    0.1453181 -88.87  0.001248298    1.990    0.498
        20 -10.6719     41.8431    200.6839   1.2200512223e+02   2.7986647297e+01    0.2910224        0.153 -68.60  0.001020407    1.790    0.441
        21 -12.3183    160.3152    191.8080   9.5849044725e+01   1.1189575461e+01    0.7358017    0.5119706  74.89  0.003267555    2.164    0.538
        22 -10.1908    149.4861    198.9701   9.9330344249e+01   1.1849805745e+01    0.1815774    0.1198341 -82.07 0.0008099087    2.519    0.603
        23 -10.3643    183.2698    183.1319   8.9479975964e+01   8.4210095577e+00    0.3482404    0.1893677 -39.80  0.001579413    1.967    0.492
        24  -9.6624    224.0000    183.0136   8.1526215734e+01   8.7529577030e-01     0.214213   0.07282367 -36.73 0.0008039323    2.953    0.661
        25  -9.6620    215.0000    193.0264   8.5146772440e+01   9.2790743595e-01    0.2077667   0.07339815 -37.75 0.0008033597    2.949    0.661
        26  -9.6206    191.5099    178.0157   8.6802524935e+01   7.7433751026e+00     0.192733    0.1247566 -64.77 0.0008105863    2.619    0.618
        27  -9.6642    128.5063    177.5243   1.0031506143e+02   1.9937777979e+01    0.1414959      0.13104  59.65 8.031173e-05    1.012    0.012
        28  -9.3799     28.6052    176.7221   1.2271175343e+02   3.4564360570e+01    0.1094489   0.08634152 -45.20  0.000695472    1.748    0.428
        29 -10.1715     38.5349    174.5339   1.2036674106e+02   3.3999245756e+01    0.1248027   0.09841177  83.33  6.60702e-05    1.016    0.016
        30 -11.1098     45.8429    172.5575   1.1854735084e+02   3.3617393279e+01    0.4302206    0.1627871  59.17  0.001715121    3.209    0.688
        31 -11.6946     55.5886    167.9783   1.1581121199e+02   3.3485804710e+01    0.5107498    0.2684474  86.13  0.002352566    2.241    0.554
        32 -10.3540    121.2413    169.2396   1.0054226075e+02   2.3041031795e+01    0.2255036    0.1181647 -66.97  0.000889174    2.451    0.592
        33  -9.7106    138.5923    164.7796   9.5678606327e+01   2.0742190933e+01    0.2073758    0.1398279 -64.48 0.0009508175    1.720    0.419
        34 -11.0155     51.9654    159.7543   1.1566339241e+02   3.5828018226e+01    0.3072588    0.1799596  83.17  0.001540032    1.833    0.454
        35 -10.8042     22.5424    159.5214   1.2251632990e+02   3.9002850290e+01    0.3104646    0.1761167  64.93  0.001422831    1.696    0.410
        36 -11.4177    106.2925    157.6643   1.0205913332e+02   2.8298632595e+01    0.6336005    0.4197456  86.73  0.002843621    2.010    0.502
        37 -10.5555    167.9151    157.6850   8.7590701991e+01   1.6311523226e+01     0.392135     0.251413  70.37  0.001554462    2.503    0.601
        38 -11.0538    121.5065    157.5150   9.8324276551e+01   2.5588607723e+01     0.261567    0.2354049  52.52  0.001002408    1.083    0.077
        39 -11.0895    118.2689    157.0024   9.9011398456e+01   2.6303741741e+01    0.3316281    0.2592643 -42.17 0.0009286457    1.411    0.292
        40 -10.1549    218.4453    156.2283   7.6967794059e+01   6.2652324856e+00     0.352977     0.130297 -39.87  0.001300817    2.654    0.623
        41 -10.2383     23.2155    153.8043   1.2181833718e+02   4.0245742575e+01    0.1874922    0.1351383  80.87 0.0005870941    1.189    0.159
        42 -10.3534    189.6710    150.5623   8.1373816667e+01   1.3152942012e+01    0.3576417    0.2079405 -52.40  0.001489616    2.056    0.514
        43 -10.9114    242.2002    150.4089   7.1466223049e+01   2.6878866419e+00    0.1816155    0.1335056  55.37 0.0009591118    1.703    0.413
        44 -10.3902    106.4828    144.6979   9.9570143806e+01   3.1266794656e+01     0.399216    0.2348929 -89.91  0.001422008    3.157    0.683
        45 -10.3881     55.5227    145.5290   1.1287980195e+02   3.8747872510e+01    0.3223615    0.1637386  81.85  0.001272821    2.957    0.662
        46 -10.0542    148.0027    144.5037   8.9260886216e+01   2.3211981264e+01    0.3100066    0.1927101 -83.42   0.00103105    3.465    0.711
        47  -9.9876    124.9947    143.5108   9.4642706790e+01   2.8087898284e+01    0.3165527    0.1902224 -88.76  0.001041326    3.569    0.720
        48 -10.4225     87.7041    143.7306   1.0423977894e+02   3.4655774459e+01    0.2975884    0.1693957 -83.27  0.001180068    2.520    0.603
        49  -9.2055    193.5761    143.4977   7.8962645062e+01   1.3663893433e+01     0.149025    0.1413948  -6.05 7.851661e-05    1.014    0.014
        50  -9.9230    182.0678    142.0773   8.1034177889e+01   1.6416371250e+01    0.2428881    0.1926003 -84.25  0.001129729    1.751    0.429
        51  -9.8758     23.3279    138.6578   1.2020576494e+02   4.3747971895e+01    0.1318015   0.07807057  72.21 0.0007051226    1.741    0.426
        52 -10.3736     83.0205    132.2250   1.0332652530e+02   3.8140820250e+01    0.2185344    0.1526042 -84.84 0.0009262969    1.642    0.391
        53 -11.9845    100.2066    129.3580   9.8059896726e+01   3.5987699981e+01    0.7580595    0.4213724  68.10  0.002678681    3.167    0.684
        54 -11.1874     14.4269    122.2180   1.2063731753e+02   4.8313964824e+01    0.6892834    0.3041872 -56.56  0.003528044    1.928    0.481
        55 -10.3518     58.9556    124.5826   1.0859463912e+02   4.3358452302e+01    0.3700705    0.2033501  86.77  0.001478458    2.822    0.646
        56  -9.6878    117.3546    125.6849   9.2633852156e+01   3.3669768753e+01    0.1597931    0.1192145  81.73 0.0006206173    1.740    0.425
        57 -11.0490     43.4278    123.1724   1.1274537823e+02   4.5494339323e+01    0.6222647    0.2811693 -86.11  0.002272881    3.459    0.711
        58 -11.0280     27.0024    120.8013   1.1700287867e+02   4.7641791015e+01    0.5902013    0.2461683  84.77  0.001940691    4.781    0.791
        59 -11.9606    193.3034    118.2474   7.2909591890e+01   1.8536580514e+01    0.6377174    0.4969808 -70.30  0.002058035    1.631    0.387
        60  -9.8866    130.3235    118.6381   8.7520186369e+01   3.2648363986e+01    0.1637902    0.1235658 -88.05  0.000704169    1.783    0.439
        61 -10.5668    108.0000    110.9866   9.1609612980e+01   3.8867875121e+01    0.4544738    0.1639185 -49.86   0.00152423    2.656    0.624
        62 -10.7712     78.5107    112.2341   1.0043635141e+02   4.3626153741e+01    0.4308727    0.2507645 -81.23  0.001677688    2.699    0.629
        63 -12.3863    160.0419    110.3482   7.8038996440e+01   2.7831817953e+01    0.8871694     0.546456 -63.41  0.003370215    2.287    0.563
        64 -10.5446     91.8252    111.4450   9.6346103388e+01   4.1672880855e+01    0.4908757    0.1907044 -60.75  0.001593689    3.167    0.684
        65 -11.1146    174.3639    110.6115   7.4891141205e+01   2.4428369301e+01    0.4243846    0.3135496 -45.51  0.001034426    1.348    0.258
        66 -11.2164     14.1445    110.1498   1.1920441375e+02   5.1156663692e+01    0.5779126    0.2534195 -81.53  0.002702803    2.220    0.550
        67 -12.0651    126.9260    100.1978   8.3526540754e+01   3.7447696488e+01    0.6270833    0.4986004  89.68   0.00290882    1.630    0.387
        68 -11.0463     82.4396    100.7438   9.6523584606e+01   4.5724037093e+01    0.2662089    0.2579226 -28.48 0.0007055185    1.088    0.081
        69 -12.8350    142.0649    103.6521   8.0560764608e+01   3.3363163055e+01    0.7680781    0.6695113 -66.14  0.003818754    1.236    0.191
        70 -11.0060     63.2154     96.2399   1.0145463892e+02   4.9581343116e+01    0.3580603    0.2139278 -88.03  0.001410947    3.005    0.667
        71 -12.6966    170.3827     91.2590   7.0453595587e+01   2.9163762696e+01    0.5515383     0.425058 -45.10  0.001129164    1.288    0.224
        72 -13.0179    111.1956    100.2126   8.7870838658e+01   4.0694769982e+01     1.418806     0.616004  54.70  0.004636496    3.250    0.692
        73 -10.6475     34.1733     89.1343   1.0942047837e+02   5.4476510560e+01    0.3781017    0.1724968 -73.32  0.001610099    2.489    0.598
        74 -11.3236     87.7376     87.7851   9.1408946831e+01   4.7800526998e+01    0.4609154     0.307623  61.43  0.002072094    2.061    0.515
        75 -11.6944     42.2609     88.1306   1.0648298379e+02   5.3926791790e+01    0.6139255    0.3355491 -15.34  0.001502955    3.300    0.697
        76 -10.7624     45.1552     81.6768   1.0397919466e+02   5.5101295272e+01    0.3149481     0.219385 -66.89 0.0008446494    1.407    0.289
        77 -10.6811    105.3034     84.0877   8.4943975469e+01   4.5375211175e+01    0.3246141    0.2714931  89.42  0.001482557    1.530    0.346
        78 -11.9122     44.5638    101.0815   1.0846667996e+02   5.0656314405e+01    0.6877309    0.3994748  87.55  0.003038416    2.568    0.611
        79 -10.4903     23.8872     80.0206   1.1106004254e+02   5.7426760827e+01    0.3006546    0.1528795 -87.26  0.001245284    3.232    0.691
        80  -9.9624      1.8326     77.8434   1.1832457419e+02   5.9288723159e+01    0.1860089    0.1205064 -52.91 0.0006674326    1.249    0.199
        81  -9.1609    153.6251     77.7359   7.0211433254e+01   3.5817983233e+01    0.1620875    0.1201224  23.21 0.0003890782    1.668    0.400
        82 -10.8726     82.8064     73.9186   8.8862619475e+01   5.1633744931e+01    0.3899978    0.2622716 -86.34  0.001530596    3.128    0.680
        83 -12.1198    223.5086     70.6484   5.5322994077e+01   1.9773168669e+01    0.3086489    0.2803764 -81.57 0.0005303629    1.120    0.107
        84  -9.7006    115.3347     72.6623   7.8434587230e+01   4.5646336332e+01    0.1544094    0.1219267 -79.96 0.0006224832    1.747    0.428
        85 -10.8249     62.4973     70.4608   9.4771523012e+01   5.5465615521e+01    0.2961151    0.1215914 -50.52  0.001211031    2.165    0.538
        86 -10.5845     51.9473     70.8480   9.8686337094e+01   5.6736451475e+01    0.2370152    0.1889662 -58.97 0.0008870165    1.238    0.192
        87 -11.3147     28.0251     52.5418   1.0260596589e+02   6.3060261982e+01    0.3920925    0.2604997  -3.49  0.001721252    1.761    0.432
        88 -11.5959    221.0790    248.4270   9.3452230151e+01  -7.4705760411e+00    0.5119877    0.2378157  48.38  0.002540862    2.690    0.628
        89 -10.2563    196.1390     67.8137   5.8838932780e+01   2.6892479312e+01    0.3715714     0.194109  52.03  0.001512612    1.938    0.484
        90 -12.3251    237.4211     63.5745   5.1664001462e+01   1.7637620890e+01    0.7784395    0.3511837  77.21  0.002802148    3.449    0.710
        91 -12.1459    231.1216     58.7268   5.1260943130e+01   1.9804054818e+01    0.6167717    0.3235174 -51.24 0.0007038977    1.906    0.475
        92 -11.4874     19.4563     59.4576   1.0799615055e+02   6.2284270973e+01    0.3808133     0.221102 -45.61  0.001111771    1.374    0.272
        93 -10.0769    119.0254     56.5021   7.1949592618e+01   4.7807911560e+01    0.2043223    0.1360608  78.79 0.0008097948    2.517    0.603
        94 -10.1845     54.1556     53.8705   9.2531688478e+01   5.9982004318e+01    0.3908229    0.1793184 -62.55  0.001307948    4.443    0.775
        95 -10.3494    161.7383     53.4127   6.0881100984e+01   3.7939584608e+01    0.2960497    0.1494263  63.91  0.001134369    2.118    0.528
        96 -11.2024    148.8878     52.0412   6.3119265469e+01   4.1402918092e+01    0.3297473    0.2380635  51.38 0.0004792891    1.343    0.255
        97 -10.9102    157.0686     44.9900   5.9110440128e+01   4.0393801621e+01    0.3198816     0.212726  59.19 0.0005064073    1.453    0.312
        98 -11.8112     72.0512     42.7249   8.1658336905e+01   5.9405827370e+01    0.6288151    0.3333265  51.42  0.002775462    2.581    0.612
        99 -11.4692      7.8873     43.2731   1.0853850742e+02   6.6380956859e+01    0.4779099    0.2556175  35.65   0.00275164    2.495    0.599
       100 -12.1251     41.2031     38.0613   9.2082432378e+01   6.4555249942e+01    0.5721644    0.3482696   9.19  0.001533061    1.956    0.489
       101 -10.8457     49.5516     34.4697   8.7122744475e+01   6.4160498158e+01    0.3476155      0.21803  24.57   0.00166247    1.689    0.408
       102 -11.1947    139.7395     37.8696   6.0309183782e+01   4.5765051560e+01    0.3454613    0.2042481  54.08 0.0006466189    1.589    0.371
       103 -10.1627     81.1342     37.3456   7.6301359953e+01   5.8711735650e+01    0.2639633    0.1780413  71.03  0.001152159    2.914    0.657
       104 -11.8366    120.5348     34.5431   6.3583778861e+01   5.0851564799e+01     0.334368    0.2970769  51.82 0.0005199779    1.126    0.112
       105 -11.3092    104.5194     30.2974   6.6174556003e+01   5.5041434773e+01    0.7268665    0.3720806  63.74  0.002936144    2.633    0.620
       106 -10.2329     73.5944     32.3743   7.6889471582e+01   6.0824357070e+01    0.3150968      0.17342  58.47  0.001316855    3.108    0.678
       107  -9.8192    187.6719    248.5386   9.9372392131e+01  -2.4191173356e+00    0.2431867   0.09231381  35.56  0.001133728    2.227    0.551
       108 -12.4867    202.7143     21.1971   4.4952774461e+01   3.1738652449e+01    0.6508281    0.3205223 -82.54  0.002512271    2.800    0.643
       109 -10.6005     37.0277     23.5106   8.7947011461e+01   6.7538017228e+01    0.3347338    0.1576409  38.82  0.001689909    2.575    0.612
       110 -12.2075     22.2821    239.3573   1.2802987089e+02   2.2698473093e+01      0.55841    0.2008677  65.02  0.002995906    2.424    0.587
       111 -10.2389     46.6845     16.6510   8.0453986502e+01   6.7345125012e+01    0.2416596    0.1458274 -11.66 0.0009313501    1.720    0.419
       112 -11.5447    238.9800     20.6230   4.1127603357e+01   2.3063129747e+01    0.4850317    0.2461241  79.17  0.001693625    2.020    0.505
       113 -10.0969     50.9481     22.0078   8.1138385199e+01   6.5965857665e+01    0.1876182    0.1550884  -8.52 0.0003695818    1.031    0.030
       114  -9.9829     89.2888     18.2055   6.5560231202e+01   5.9776611591e+01    0.2370074    0.1815806  86.74  0.001231887    2.143    0.533
       115 -10.7003     32.6782    242.0862   1.2646728841e+02   2.1073018834e+01    0.1909024    0.1038767  56.61 0.0009319942    1.364    0.267
       116 -10.3143      8.2339    240.6322   1.3034084744e+02   2.3915369414e+01    0.1600587    0.1168917  46.92  0.001286089    1.487    0.327
       117 -10.5792     12.8236    227.5774   1.2900520968e+02   2.5821327002e+01    0.2041317    0.1168864  73.38  0.000575811    1.302    0.232
       118 -10.7037    104.2073    225.2737   1.1213467099e+02   1.4585018291e+01    0.2371594    0.1613265 -82.33  0.001406465    1.665    0.399
       119 -10.6616     96.2691    225.1560   1.1365964199e+02   1.5813376518e+01    0.2636057    0.1215414  58.15  0.001251728    2.205    0.546
       120 -10.6439    232.0441    223.5221   8.7540341774e+01  -6.1192146128e+00    0.1870692     0.101668  36.02  0.001036027    1.602    0.376
       121 -10.3763    149.1003    221.5384   1.0283607452e+02   7.9206269445e+00    0.4192341    0.2167153 -39.96  0.002027139    2.520    0.603
       122 -11.5083    226.9770    220.8791   8.7984033034e+01  -4.9991881346e+00    0.3279788    0.1632504 -34.77  0.001724506    2.167    0.538
       123 -10.7725    239.5756    215.3808   8.4811700618e+01  -6.2424832325e+00    0.3042008    0.1049504 -40.15  0.001282396    3.446    0.710
