#   1 NUMBER                 Running object number                                     
#   2 MAG_AUTO               Kron-like elliptical aperture magnitude                    [mag]
#   3 X_IMAGE                Object position along x                                    [pixel]
#   4 Y_IMAGE                Object position along y                                    [pixel]
#   5 X_WORLD                Barycenter position along world x axis                     [deg]
#   6 Y_WORLD                Barycenter position along world y axis                     [deg]
#   7 A_WORLD                Profile RMS along major axis (world units)                 [deg]
#   8 B_WORLD                Profile RMS along minor axis (world units)                 [deg]
#   9 THETA_WORLD            Position angle (CCW/world-x)                               [deg]
#  10 FWHM_WORLD             FWHM assuming a gaussian core                              [deg]
#  11 ELONGATION             A_IMAGE/B_IMAGE                                           
#  12 ELLIPTICITY            1 - B_IMAGE/A_IMAGE                                       
         1 -10.8340      1.8748     12.9858   1.0217569186e+02   7.2306776881e+01    0.5833236    0.1104288 -52.85  0.002350229    3.705    0.730
         2 -10.7598    213.3359     23.7887   4.4700429043e+01   2.8922599646e+01    0.4663672    0.3185748  35.44  0.001120926    1.938    0.484
         3 -12.0834    205.5308     31.8312   4.7763874180e+01   2.9871351455e+01    0.8747818    0.8570112 -57.31  0.005051089    1.118    0.105
         4 -12.0408    221.7999     14.3104   4.1417860691e+01   2.7959321631e+01    0.7575817    0.6562461 -74.74  0.002756483    1.004    0.004
         5  -9.0274     47.8287      2.2969   7.3499183677e+01   6.9052908344e+01    0.1643676     0.144879  33.45 0.0006841337    1.447    0.309
         6  -9.9610     91.7869    233.8439   1.1555213185e+02   1.5018323269e+01    0.2668213    0.1886437  89.09 0.0003759244    1.473    0.321
         7 -10.1730    219.5338    249.3979   9.3979238197e+01  -7.1078160238e+00    0.5875683    0.2170673  37.23  0.002929375    2.159    0.537
         8 -10.8213    101.0162    250.1776   1.1541028197e+02   1.0910543045e+01     0.395635    0.3063112  50.03   0.00171958    1.103    0.093
         9 -11.8105    111.2074    247.7559   1.1334611976e+02   9.8061032849e+00    0.9090139    0.3673767  30.86  0.003702671    3.683    0.728
        10  -9.7973     83.0000    243.5249   1.1803590582e+02   1.4572108723e+01    0.3343644     0.133048 -72.69  0.001641192    3.107    0.678
        11 -10.7406     76.6042    249.6467   1.1966200692e+02   1.4405544747e+01    0.4586296     0.236419  42.67  0.002785075    1.610    0.379
        12 -10.2496     83.7294    248.7746   1.1834751815e+02   1.3582966806e+01    0.3108684    0.2158237  27.04  0.001976261    1.968    0.492
        13  -8.8769     53.0166    250.5881   1.2374372558e+02   1.7274150987e+01    0.1529252   0.08283889  45.18 0.0009913344    1.516    0.341
        14 -11.8353     24.8686    225.4195   1.2700982118e+02   2.5007295660e+01    0.5375934     0.517554  45.03  0.003026292    1.625    0.385
        15 -12.7055      3.4291    176.7517   1.2814004670e+02   3.6812164486e+01     2.816055    0.5490086 -79.94   0.01002766    4.614    0.783
        16 -14.3145      8.0620    147.2300   1.2502871807e+02   4.2929809540e+01     6.892698     1.560122 -82.43   0.02080933    5.705    0.825
        17 -10.1057     65.1191    240.9345   1.2100088430e+02   1.7418935883e+01    0.3194827    0.2122982 -66.82   0.00141194    1.718    0.418
        18 -12.9438      9.0343    207.4309   1.2881324821e+02   3.0041089342e+01     0.926385    0.8874704  77.45  0.004704116    1.530    0.347
        19  -8.2132     53.5055    231.0415   1.2233024476e+02   2.0673310051e+01      0.15634    0.0968652 -82.03 0.0005324955    1.544    0.352
        20 -10.9846    114.1893    230.3871   1.1094271016e+02   1.2263328732e+01    0.3404528    0.2604655  48.53  0.002215271    1.087    0.080
        21 -10.0990    110.3818    228.1710   1.1142623748e+02   1.3242933686e+01     0.262514     0.215623 -72.04  0.001656787    1.373    0.271
        22  -7.9128     72.3107    230.3050   1.1884977354e+02   1.8379819379e+01   0.09664629    0.0930584  -6.81 0.0007020344    1.613    0.380
        23 -10.1293    102.8549    229.0702   1.1297296133e+02   1.4233013023e+01    0.3253448    0.1490835  45.00  0.001664997    1.775    0.437
        24 -10.5687     94.9456    225.9045   1.1415925522e+02   1.5988033522e+01    0.4060791    0.2966867  57.85   0.00262175    1.120    0.107
        25 -10.1183     48.8145    224.0051   1.2266545762e+02   2.2562667434e+01    0.2843111    0.2141853 -70.85   0.00202084    1.482    0.325
        26  -9.5250     45.2605    220.3733   1.2305196248e+02   2.3681449664e+01    0.2614588    0.1498135  67.52  0.001022644    1.467    0.318
        27  -8.6891    164.3294    224.3300   1.0041583553e+02   5.0712139644e+00    0.1275933   0.09275644  11.41 0.0006855612    1.713    0.416
        28  -9.4877     86.3233    224.6691   1.1569156967e+02   1.7472552789e+01    0.1869409    0.0961227  53.53  0.001004221    1.652    0.395
        29  -9.5179     83.3070    223.3341   1.1613979691e+02   1.8152479747e+01    0.2188809    0.1083498  36.59 0.0007407782    2.010    0.503
        30 -10.6442     74.3351    219.2131   1.1747387023e+02   2.0187860646e+01    0.4734649    0.2099874  68.35  0.002075132    2.961    0.662
        31 -13.9892      7.5148    241.1109   1.3062171656e+02   2.3928151958e+01     2.038173     1.319027  65.49  0.003806188    1.074    0.069
        32 -10.2576     39.0390    224.1642   1.2444160241e+02   2.3682702449e+01    0.3402142     0.142821  45.29  0.001567945    1.936    0.483
        33 -11.1234    237.7943    207.3887   8.3831677299e+01  -4.6863650240e+00    0.6742016    0.3922496  17.49  0.003587313    1.797    0.444
        34 -11.5418    243.8929    199.4158   8.1298841040e+01  -4.5852149291e+00     1.003878    0.6100339  16.59  0.005478085    1.681    0.405
        35 -10.4830    128.3661    231.9715   1.0840453121e+02   9.7564980117e+00    0.3586558    0.1659235 -55.95  0.001797154    2.593    0.614
        36 -11.3175    248.8380    183.3024   7.7351254137e+01  -3.1674434335e+00    0.7991738    0.4257034 -34.24   0.00411553    1.811    0.448
        37  -9.1368     51.1578    181.7436   1.1855936948e+02   3.0942680769e+01    0.3015981    0.1461937  72.30  0.001383945    2.425    0.588
        38 -10.2806     63.6505    181.7748   1.1582887452e+02   2.9364283388e+01    0.3703856     0.257198 -40.27  0.001415454    2.093    0.522
        39 -10.1528     68.7626    175.9742   1.1400001595e+02   2.9969508340e+01    0.2876404    0.2362072 -49.11 0.0007925451    1.484    0.326
        40  -9.7290     78.3864    165.7319   1.1039809220e+02   3.0939940317e+01    0.2629684    0.2307092 -74.90 0.0004671089    1.118    0.106
        41 -11.6654     65.5874    162.0693   1.1295783834e+02   3.3560829621e+01    0.4689841    0.2805642 -48.19   0.00127164    1.940    0.485
        42 -11.0588     84.0951    159.0604   1.0801930899e+02   3.1633019866e+01     0.650904    0.5298529  16.31  0.001803376    1.633    0.387
        43  -8.2699     74.3523    189.6536   1.1439182515e+02   2.6200452895e+01    0.1423499   0.08267564  68.94 9.304492e-06    1.822    0.451
        44 -10.2992     73.8650    154.8121   1.0989901236e+02   3.4119280204e+01    0.3273572     0.271014 -76.74  0.001924482    1.099    0.090
        45  -8.6641     33.0266    156.0077   1.2000369980e+02   3.8747604914e+01     0.155179    0.1215472 -86.52 0.0006345087    1.035    0.034
        46 -12.2483     37.6224    209.9021   1.2371708045e+02   2.6615672348e+01    0.8915932    0.6541603  -2.73  0.005002464    3.028    0.670
        47  -8.8805    100.5061    142.4472   1.0096485809e+02   3.2879599049e+01    0.4280445    0.2415985 -29.99  0.001553325    3.225    0.690
        48 -10.5561     87.2860    142.8851   1.0449464183e+02   3.4940458087e+01    0.2921718    0.2690925 -34.96 0.0005506364    1.265    0.210
        49  -9.0812     82.6616    142.3036   1.0560273976e+02   3.5790762615e+01    0.2536194    0.1876689 -79.68 0.0008742632    1.364    0.267
        50 -11.6523     68.4734    144.5451   1.0968515960e+02   3.7292226989e+01    0.7536078    0.4825356  79.94  0.002727071    1.841    0.457
        51  -8.6201    110.0212    132.1688   9.6358176131e+01   3.3601509691e+01      0.34921    0.1875344 -37.54 0.0008135865    2.343    0.573
        52  -9.1815     97.3033    128.4798   9.8988892737e+01   3.6722871582e+01    0.2787244    0.2419097 -29.28 0.0007164291    1.323    0.244
        53 -13.5073     47.3664    200.1709   1.2106300069e+02   2.7465630415e+01     2.335093    0.9394175  62.87   0.01060337    2.694    0.629
        54  -7.9344    168.3567    113.6690   7.7314984674e+01   2.5342320922e+01    0.1646537    0.1261224 -83.00  0.000202292    1.789    0.441
        55 -10.0393    206.9666    110.1796   6.8485972161e+01   1.7068616027e+01    0.4015953    0.1844339  43.07  0.001314652    2.374    0.579
        56  -8.8259     33.0000    110.0023   1.1402248084e+02   4.9587726295e+01    0.2221766   0.06162474 -66.48 0.0008066017    2.971    0.663
        57  -8.6878     33.0000     96.9119   1.1176521515e+02   5.2676630260e+01    0.2177436   0.06169033 -64.55 0.0007971909    2.906    0.656
        58  -9.6043    124.6215    227.4411   1.0857899658e+02   1.1127951568e+01    0.3409572    0.1726393 -74.74   0.00148261    3.438    0.709
        59  -9.8238     13.0766     59.5225   1.1112633167e+02   6.2577107354e+01    0.2155883    0.1474144 -75.55 0.0007936362    1.529    0.346
        60 -10.9040      2.1659     45.0727   1.1218351337e+02   6.6187688567e+01    0.6610473   0.09697168 -61.72  0.002361282    4.073    0.754
        61 -10.9063      2.0889     36.4914   1.0996721716e+02   6.7920536352e+01    0.5530702   0.09509321 -59.19  0.002130814    3.593    0.722
        62 -11.0081    125.3427    245.4672   1.1052529093e+02   8.0301874926e+00    0.3261115    0.2738293  20.40  0.002236458    1.480    0.324
        63 -10.2231     96.1669    246.0851   1.1590132117e+02   1.2281855450e+01     0.300859     0.140133  52.51  0.001648103    1.759    0.432
        64 -11.3868    197.2627     37.5526   5.0445263516e+01   3.1215417823e+01    0.5411375    0.4217188  70.45  0.002093471    1.245    0.197
        65 -10.0350     71.3577    243.8770   1.2012879603e+02   1.6088048178e+01    0.2687322    0.1574437  77.29  0.001676067    1.690    0.408
        66 -10.4524    139.7829    240.0197   1.0721220683e+02   6.6270537727e+00    0.2512639    0.1796716 -13.17   0.00140792    2.420    0.587
        67  -8.9377    141.3803     46.8885   6.3455919738e+01   4.4154672350e+01    0.2997134    0.2274809 -82.34 0.0009130508    1.749    0.428
