#   1 NUMBER                 Running object number                                     
#   2 MAG_AUTO               Kron-like elliptical aperture magnitude                    [mag]
#   3 X_IMAGE                Object position along x                                    [pixel]
#   4 Y_IMAGE                Object position along y                                    [pixel]
#   5 X_WORLD                Barycenter position along world x axis                     [deg]
#   6 Y_WORLD                Barycenter position along world y axis                     [deg]
#   7 A_WORLD                Profile RMS along major axis (world units)                 [deg]
#   8 B_WORLD                Profile RMS along minor axis (world units)                 [deg]
#   9 THETA_WORLD            Position angle (CCW/world-x)                               [deg]
#  10 FWHM_WORLD             FWHM assuming a gaussian core                              [deg]
#  11 ELONGATION             A_IMAGE/B_IMAGE                                           
#  12 ELLIPTICITY            1 - B_IMAGE/A_IMAGE                                       
         1 -12.7357    193.7579     40.6143   4.6621639139e+01   3.0953265437e+01     1.167534    0.9531559  19.02  0.004813053    1.529    0.346
         2 -12.3076    219.9785      9.3047   3.5766692778e+01   2.8321011961e+01    0.8801769     0.752459 -48.41   0.00424829    1.062    0.058
         3  -9.5516     80.6495     15.2796   5.9241221884e+01   6.3107222568e+01    0.2617048    0.1782382  71.92  0.001259818    1.745    0.427
         4 -10.1853     48.5738     11.6847   7.0374819297e+01   7.0365542903e+01     0.261784    0.1240722 -29.84  0.001149809    2.191    0.544
         5 -11.0101     58.9219      3.4481   6.0449137322e+01   6.9401105213e+01     0.398051    0.2946741  -4.78  0.002222185    1.405    0.288
         6 -10.0192    149.8540    225.6263   9.5085016936e+01   9.6307090990e+00    0.1789951   0.08646244  41.75 0.0009524886    1.767    0.434
         7 -10.8866    140.2116    248.9127   9.9610522618e+01   7.7541115874e+00    0.3135289    0.2158171  32.57   0.00221122    1.072    0.067
         8  -9.0821     34.0175    196.9946   1.1722959348e+02   2.9965632600e+01    0.1935405    0.1393722  43.19 0.0004006794    1.189    0.159
         9  -9.8396    194.0848    196.9341   8.2504926121e+01   7.1768955111e+00    0.2507554    0.1644414 -60.43  0.001246382    3.233    0.691
        10 -10.6062    120.9859    195.7752   9.7172495901e+01   1.8693625941e+01    0.3739017    0.2333568 -79.16  0.001079084    2.639    0.621
        11 -10.7728    113.0209    196.0162   9.8978077889e+01   1.9863474236e+01    0.4956167    0.2976388   1.06  0.001975575    3.786    0.736
        12  -9.5016     81.2650    193.9195   1.0600760610e+02   2.4857275443e+01    0.4014118    0.2063473  59.15  0.001906768    2.138    0.532
        13  -9.8114     75.1957    249.2105   1.1201386572e+02   1.5936570661e+01    0.4216462    0.1407965 -57.31  0.002148875    3.835    0.739
        14  -9.1147     68.4684    193.4889   1.0896030768e+02   2.6646192274e+01    0.2000356    0.1134131  89.88 0.0006204781    2.152    0.535
        15 -10.3029     72.0604    244.9230   1.1232834678e+02   1.6977878942e+01    0.3541988    0.2273288 -62.16  0.002444893    2.012    0.503
        16  -9.2004     89.7928    212.1170   1.0595976745e+02   2.0268867600e+01    0.2085619    0.1606662  47.91 0.0005946833    1.067    0.063
        17  -8.7114    147.6403    186.8721   9.0057669455e+01   1.6020423751e+01    0.2428716    0.1155289 -38.59  0.001099282    2.524    0.604
        18  -9.1528    147.9785    214.0000   9.3943684830e+01   1.1608754732e+01    0.2118868   0.05755301  36.58 0.0008094667    2.991    0.666
        19  -9.2700    163.6360    209.7961   9.0257047558e+01   9.9139950298e+00    0.1479132     0.117113 -52.97 0.0009525071    1.701    0.412
        20  -9.2973     92.9075    185.1228   1.0224407229e+02   2.4953977206e+01    0.2122442    0.1521111  53.61 0.0005992925    1.282    0.220
        21  -9.9715     99.1022    181.0212   1.0023230892e+02   2.4850530457e+01    0.2605462    0.1788358  30.59 0.0008261172    1.403    0.287
        22  -9.6907    187.1215    175.5771   8.0134480492e+01   1.1333533304e+01    0.2951549    0.2589854 -35.25  0.001310212    1.321    0.243
        23  -9.8389     55.7838    174.6463   1.1023803609e+02   3.2204007480e+01    0.3390633    0.1728298  48.97  0.001360362    1.708    0.414
        24 -10.9166     45.6194    173.2300   1.1269426391e+02   3.3721437241e+01    0.4982488    0.2812922  39.42  0.001925263    1.537    0.350
        25 -10.4436    114.6094    173.1437   9.5377203643e+01   2.3978195523e+01    0.3125992    0.2221946  74.92  0.001593152    1.858    0.462
        26  -9.0569    142.6524    209.2963   9.4389138976e+01   1.3125958624e+01    0.1232572    0.0859025  55.23  8.09738e-05    1.676    0.403
        27 -10.6566    103.1847    172.2352   9.8011975517e+01   2.6000729411e+01    0.3599204    0.2430098  33.62  0.001897589    1.385    0.278
        28  -8.6605    146.4776    171.9856   8.7844620085e+01   1.8819625203e+01    0.2451264    0.1747362 -72.56  0.001224912    2.148    0.534
        29  -9.5782     94.7987    167.6210   9.9432341832e+01   2.8279787191e+01    0.2095423    0.1089819  44.75 0.0008909352    1.724    0.420
        30 -11.0811    115.2252    200.7395   9.9094211984e+01   1.8680781917e+01    0.4631815    0.1608836 -48.35  0.001919563    3.469    0.712
        31  -9.9820     88.5610    157.4053   9.9541209714e+01   3.1466703802e+01     0.247289    0.2337054  26.02 0.0002008275    1.167    0.143
        32 -11.3485    111.6019    204.6378   1.0037212825e+02   1.8525876577e+01    0.4068947    0.2639128  60.83  0.001394751    1.774    0.436
        33 -10.8150     94.4923    151.0168   9.6948396474e+01   3.1945381812e+01    0.5517862    0.4566473 -23.15   0.00258264    1.543    0.352
        34  -9.1078    112.9956    151.0039   9.2087491972e+01   2.8815046241e+01     0.234635    0.1689751  70.80 0.0009945628    1.728    0.421
        35  -9.9820    134.3811    147.8811   8.6179378017e+01   2.5582230305e+01    0.5465618    0.1421802 -51.18  0.001597203    4.543    0.780
        36  -7.7499    109.6879    148.2811   9.2449468864e+01   2.9978782235e+01     0.144448    0.1061114  66.58 0.0002265706    1.569    0.363
        37 -10.1335    106.6620    137.0124   9.1127853935e+01   3.2990614293e+01    0.4777327    0.2939627 -30.06  0.001982125    2.400    0.583
        38  -9.9315    106.0417    130.8808   9.0066991049e+01   3.4476355091e+01    0.3617992    0.3118856 -71.96  0.001434698    1.226    0.184
        39 -10.8468     94.5759    136.9086   9.4453665979e+01   3.5126432702e+01    0.2802464    0.2670553 -26.17 0.0006302214    1.190    0.160
        40 -10.1997    114.3039    128.6873   8.7345618172e+01   3.3423752669e+01    0.3153903    0.2631204 -45.09 0.0007907368    1.262    0.208
        41  -8.6754    135.6082    128.7743   8.1860704208e+01   2.9228662179e+01    0.2108998    0.1408439 -58.28 0.0009518479    1.736    0.424
        42 -10.8520    107.7104    203.6657   1.0110925404e+02   1.9267299476e+01    0.2934023    0.1874199 -54.99  0.001422829    1.863    0.463
        43  -9.3630    101.6104    124.5361   8.9987496149e+01   3.6727620552e+01    0.2792773    0.2454866 -14.45 0.0007662655    1.365    0.267
        44  -8.6134    109.6830    118.0236   8.6247946775e+01   3.6684930771e+01    0.2062032    0.1880513 -57.22 0.0003226602    1.121    0.108
        45  -8.9857    231.2006    113.9496   6.0021848998e+01   1.2743085147e+01    0.2067433    0.1857666  27.03 0.0008428111    1.201    0.167
        46 -11.0566     58.9779    111.5838   1.0073879329e+02   4.6771212314e+01    0.4596026    0.2381149 -48.50  0.001743052    2.048    0.512
        47 -10.8862    117.8809    109.7710   8.1979685105e+01   3.6875839388e+01    0.5681546    0.3515926  59.74  0.002365098    1.937    0.484
        48  -8.4730    205.4893    110.4676   6.3167867611e+01   1.8132611934e+01    0.1369114    0.1248753 -14.97 0.0008096911    1.008    0.007
        49  -9.2157    135.0000    104.9947   7.6245125012e+01   3.4249146452e+01    0.4279448   0.08692097 -43.55  0.001057214    4.988    0.800
        50 -12.4267    178.3466     54.2952   5.2710062675e+01   3.2872204385e+01      1.25063    0.7396027  24.95  0.004667875    2.811    0.644
        51 -10.6091     44.8062    198.2491   1.1484703484e+02   2.8543528561e+01     0.280042    0.2286158 -75.26  0.001207259    1.377    0.274
        52 -11.5743    198.5780     35.1054   4.4513949466e+01   3.0477238272e+01    0.4832466    0.4661485 -86.22  0.001118996    1.103    0.094
        53 -19.5353     12.4092    147.2090   1.1960598154e+02   4.2932090698e+01     18.74484     3.052668 -81.18   0.05205761    6.317    0.842
        54  -7.9542     83.4816    244.4650   1.1007046461e+02   1.5670448882e+01    0.1131734   0.08386768  42.45 0.0001070445    1.018    0.018
        55 -10.2415     38.6698    199.4876   1.1632682642e+02   2.8970399547e+01     0.314204    0.1570745  53.11  0.001743008    1.630    0.387
