#   1 NUMBER                 Running object number                                     
#   2 MAG_AUTO               Kron-like elliptical aperture magnitude                    [mag]
#   3 X_IMAGE                Object position along x                                    [pixel]
#   4 Y_IMAGE                Object position along y                                    [pixel]
#   5 X_WORLD                Barycenter position along world x axis                     [deg]
#   6 Y_WORLD                Barycenter position along world y axis                     [deg]
#   7 A_WORLD                Profile RMS along major axis (world units)                 [deg]
#   8 B_WORLD                Profile RMS along minor axis (world units)                 [deg]
#   9 THETA_WORLD            Position angle (CCW/world-x)                               [deg]
#  10 FWHM_WORLD             FWHM assuming a gaussian core                              [deg]
#  11 ELONGATION             A_IMAGE/B_IMAGE                                           
#  12 ELLIPTICITY            1 - B_IMAGE/A_IMAGE                                       
         1 -13.5960      3.0553    165.6340   1.2484724980e+02   3.8913332627e+01      2.31072    0.4084107 -78.65  0.007191793    5.340    0.813
         2 -13.8131     59.6867     46.6355   8.3955042433e+01   6.0510940159e+01      2.32568     1.603302  -9.05   0.01225801    1.587    0.370
         3 -13.6324     87.6643     72.6596   8.3199770820e+01   5.0962438525e+01     2.010829     1.221811 -55.34  0.006860481    1.893    0.472
         4 -14.0891     96.2257     97.9591   8.8096884363e+01   4.3945587791e+01     1.857305     1.411675  63.29  0.006102886    1.646    0.392
         5 -14.2149      6.5851     91.7861   1.1595495611e+02   5.5914060442e+01      2.05572    0.7171909 -68.36  0.009316367    2.187    0.543
         6 -14.5858    134.8618     61.6596   6.6028466534e+01   4.3113034825e+01     2.411875     1.755871 -65.83  0.007017502    1.814    0.449
         7 -10.8174    103.4432     19.3725   5.8467473166e+01   5.6305447139e+01    0.6569386    0.5485432 -32.58  0.003895466    1.318    0.241
         8 -12.7659     90.6995     34.7265   6.8329849098e+01   5.7041516331e+01     1.017436    0.8119435  12.01  0.004163045    1.220    0.180
         9 -12.1203    106.7917     32.4364   6.2763371863e+01   5.3978411823e+01     1.222179    0.7671993  19.75  0.005661558    1.945    0.486
        10 -14.2808    142.7568     24.4914   5.1730151626e+01   4.6485591278e+01     2.571697      1.66827  74.68  0.008214317    1.670    0.401
        11 -11.8018    158.1091      6.0745   4.3237052435e+01   4.4537486923e+01    0.5647964    0.5154055  72.37  0.003372589    1.016    0.016
        12 -12.2829    205.8041     25.9135   4.2933960497e+01   3.0631688366e+01    0.9449915    0.5780404 -84.73   0.00460422    1.799    0.444
        13 -11.4661      2.0078      7.6695   9.4635591910e+01   7.3272451040e+01    0.9132096    0.1003462 -48.23  0.003003955    5.759    0.826
        14 -10.9875     84.5076     21.7422   6.4835455530e+01   5.9993608376e+01    0.6039321    0.3861451  26.50  0.003167631    1.565    0.361
        15 -11.3397    172.9648     17.3264   4.4625521848e+01   3.9720772482e+01    0.5614575    0.4857977  87.50  0.002230083    1.090    0.083
        16 -10.9531    229.5595     14.8286   3.7852491062e+01   2.6357790837e+01    0.4049504    0.2929143 -30.41  0.002396456    1.472    0.321
        17 -10.6870    190.2426     13.9487   4.1516723046e+01   3.5783315463e+01    0.5121827    0.2673744  77.69  0.002379987    1.883    0.469
        18 -10.5601    169.7155    190.4634   9.0433826661e+01   9.3966230861e+00    0.5074797    0.3472701  47.93  0.002021323    1.472    0.321
        19 -10.2934    244.1586    249.1398   8.6483240320e+01  -1.1054453020e+01       0.3357    0.2045839  19.08   0.00170905    1.337    0.252
        20 -11.1675    200.1860    235.5214   9.2099219072e+01  -3.0816535666e+00    0.4920773    0.3794072  10.22  0.002350258    1.195    0.163
        21 -12.8383    206.4938    246.5477   9.2650577109e+01  -5.4986730381e+00    0.8609012     0.715005  15.03  0.004136214    1.083    0.077
        22 -11.6576    197.2921    250.4400   9.4889533724e+01  -4.6405418958e+00     0.910418    0.2323011  42.02  0.003408514    3.492    0.714
        23  -8.5509    174.9849    250.5448   9.8980396145e+01  -1.2943401504e+00    0.1900623   0.09651424  37.24  0.001029247    1.594    0.373
        24 -11.1534    119.1356    249.6061   1.0925641550e+02   7.3895566294e+00    0.3792058    0.1825583  42.18  0.001598508    1.668    0.401
        25 -12.8039     29.5991    243.9709   1.2480104853e+02   2.0221922202e+01    0.7478437    0.4079043  76.78  0.003570987    1.551    0.355
        26 -13.0554     96.5124    249.1389   1.1338409028e+02   1.0777338188e+01     1.303636    0.5041612  40.40  0.005546319    2.127    0.530
        27 -12.7425     54.7389    213.6278   1.1804902056e+02   2.3136094526e+01     1.070953    0.6373815 -70.62   0.00634695    1.625    0.385
        28 -13.8786     64.3326    248.0480   1.1908281803e+02   1.5337982605e+01     1.783821    0.5062566  38.15  0.007938015    3.073    0.675
        29 -15.4262     45.1893    232.2705   1.2133803789e+02   2.0613149053e+01     1.849449    0.9603214  81.91   0.01005068    1.904    0.475
        30 -13.3411     76.0984    234.1337   1.1577373140e+02   1.6310722177e+01      0.76029    0.4931669 -64.64  0.002939501    1.690    0.408
        31 -14.3108     69.6039    218.8194   1.1559103450e+02   2.0153939864e+01     1.763636    0.9769089  84.97   0.00687297    2.059    0.514
        32 -11.8370     16.9572    249.8395   1.2717639241e+02   2.0523695226e+01     0.569488    0.2159617  39.23  0.003340099    2.331    0.571
        33 -15.0577      4.8791    236.3031   1.2850897594e+02   2.4173935278e+01     1.427544    0.5144972 -77.40  0.008160669    2.400    0.583
        34  -9.0512     71.1489    184.1872   1.1145788285e+02   2.7338159614e+01    0.1881327    0.1370112  69.73 0.0007057247    1.306    0.234
        35 -11.4073     89.3349    229.2713   1.1276385209e+02   1.5367195467e+01    0.3628728    0.2186245 -88.56   0.00150586    1.975    0.494
        36 -12.8564     11.3301    161.4490   1.2268559978e+02   3.9206324769e+01     2.013355    0.7171683 -89.50  0.008177077    3.118    0.679
        37 -12.0638     10.1307    144.9357   1.2148421133e+02   4.3137540209e+01    0.7526923    0.4319672  68.70  0.003154753    1.761    0.432
        38 -12.5626     13.5784    130.2567   1.1906270673e+02   4.6353396482e+01    0.7666501     0.425652 -83.48  0.003198187    1.570    0.363
        39 -14.1925     33.7223    158.6171   1.1717566248e+02   3.7812268533e+01     1.974571    0.7529484 -82.68  0.007687167    3.035    0.670
        40 -14.1763    152.6275    164.7370   8.9174826070e+01   1.7783232951e+01      2.54696     1.327267 -61.31  0.007764304    2.740    0.635
        41 -13.4465    141.9963    135.7809   8.5319337755e+01   2.6261238713e+01     2.246691     1.266555 -42.41  0.007611536    1.776    0.437
        42  -9.4782     66.0713    175.0806   1.1147025474e+02   3.0115337486e+01    0.2770167    0.2018563 -36.57 0.0008858907    1.896    0.473
        43  -8.5333     58.1737    169.6285   1.1263507235e+02   3.2417081243e+01    0.1694234    0.1285441  22.67 0.0009508659    1.708    0.415
        44 -13.8377     22.1381    142.4771   1.1823006137e+02   4.2745848076e+01     1.421237    0.5399331 -71.83  0.004648745    2.134    0.531
        45 -12.9861    232.7794    156.9464   7.1173901474e+01   3.6379242394e+00     1.138017    0.8451892   4.23  0.003591214    1.461    0.315
        46 -12.7347    246.8252    148.3881   6.6933994135e+01   2.5303028791e+00     1.018694    0.8583059 -52.57  0.004733858    1.439    0.305
        47 -10.3928     62.7820    161.7987   1.1047585304e+02   3.3678524567e+01    0.4074614    0.2155666 -47.01  0.001275283    2.191    0.544
        48 -11.2355    200.1343    155.5347   7.6978711671e+01   1.0111688123e+01    0.6385513    0.4755167 -35.22  0.002869029    1.294    0.227
        49 -12.2059    164.5313    150.7113   8.3457341142e+01   1.8335640542e+01     1.039887    0.8183945  52.65  0.003541041    1.344    0.256
        50 -10.0380    135.6563    151.3230   9.0365892161e+01   2.4053039050e+01    0.3015324    0.2730942 -71.02   0.00106866    1.146    0.127
        51 -10.3617    131.1177    149.1077   9.1003556412e+01   2.5442188573e+01    0.4774004    0.3706371  62.23  0.001633975    1.428    0.299
        52 -12.9925     78.6128    141.6251   1.0313764880e+02   3.6359781148e+01     1.556506     1.374053 -32.61  0.008812518    1.314    0.239
        53 -12.5609     40.5223     69.3060   9.8931150088e+01   5.8357593165e+01     1.104479    0.8305065 -49.39  0.004787091    1.132    0.117
        54 -11.8417    146.8394    225.7773   1.0092056910e+02   7.0277222038e+00    0.6716208    0.4529696  27.41   0.00265299    1.524    0.344
        55 -10.1213     47.1750    185.7657   1.1697820795e+02   3.0051277946e+01    0.4048596    0.2310911  86.42  0.001679382    1.752    0.429
        56 -14.2614     52.7910     98.6196   1.0203251155e+02   5.0297250885e+01     2.083128      1.78875   9.00   0.01133425    1.366    0.268
        57 -13.6469     74.0188     89.4276   9.2728486481e+01   4.9579144720e+01     1.580134     1.121286  45.08  0.005782939    1.610    0.379
        58 -13.6820     93.7468    115.5085   9.3362455084e+01   4.0285050925e+01     1.448982     1.246791 -39.10  0.005254139    1.159    0.137
        59 -11.0976    222.0838    221.2694   8.5718112479e+01  -4.4790701876e+00    0.5386247     0.351936  10.70  0.002025988    1.532    0.347
        60 -11.0481    216.7675    113.2490   6.3882158822e+01   1.4454716887e+01    0.7489911    0.6026143 -43.09  0.003811461    1.172    0.147
        61 -11.9281    217.1194    130.4691   6.7970047493e+01   1.1279708383e+01    0.6724838    0.5882896  62.81  0.002806535    1.351    0.260
        62 -12.7342    221.7043    124.7426   6.5797950268e+01   1.1361885198e+01     1.028077    0.8739911 -86.53  0.004563313    1.534    0.348
        63 -11.2487    124.9448    126.8462   8.7502132291e+01   3.1779297173e+01    0.6631538    0.4670547 -40.62  0.002120285    1.432    0.302
        64 -11.2560    117.3189    123.0012   8.8590316220e+01   3.4179369636e+01    0.6856138    0.5201994  57.72  0.002060413    1.465    0.318
        65 -11.3900    235.9557    121.5878   6.2663825230e+01   9.0292765823e+00    0.9282162    0.3685164 -41.09  0.003619011    2.260    0.558
        66  -8.6656     60.1226    181.5788   1.1363993893e+02   2.9402189962e+01    0.1577702    0.1268684  19.97 0.0006124992    1.669    0.401
        67 -11.9235    100.6819    137.5567   9.6387192163e+01   3.3792815359e+01    0.9216145    0.7562319  21.30  0.003236667    1.444    0.308
        68 -11.4276     41.6855    128.1049   1.1103992554e+02   4.4368564782e+01    0.6740429    0.4311848 -42.10  0.002686701    1.727    0.421
        69 -12.1728     26.0834     86.3897   1.0837730060e+02   5.5834035559e+01     1.069011    0.5596037 -68.43  0.005343838    1.748    0.428
        70 -13.7599     14.0678    109.6559   1.1629054088e+02   5.1235873925e+01     1.537792    0.6682549 -47.86  0.005996851    2.152    0.535
        71 -12.3456      4.7827    105.2984   1.1847004730e+02   5.2857886121e+01    0.7040557    0.3477006 -39.93  0.003155078    2.219    0.549
        72 -11.2874    230.8539    216.5127   8.3305079139e+01  -5.1586288254e+00    0.7454175    0.4194635   1.06  0.003620614    2.359    0.576
        73  -9.7610     45.1541    118.9566   1.0850751104e+02   4.6239109597e+01    0.3728559    0.2356977  85.21  0.001715312    1.961    0.490
        74 -13.8852    134.0100     88.5422   7.4723691373e+01   3.8261021326e+01     2.036241      1.51261 -85.09  0.007013609    1.989    0.497
        75  -9.8843    137.2531    220.4846   1.0210087877e+02   9.5391820482e+00    0.2443596    0.2102675  80.54   0.00137161    1.308    0.235
        76  -9.5993    209.0476     85.6679   5.8213986914e+01   2.1037378013e+01    0.3897626     0.222747  65.45  0.001649371    2.063    0.515
        77 -13.0715     68.0284     73.3491   9.0062036187e+01   5.4018153984e+01      1.19146    0.9561486  77.99  0.004052346    1.846    0.458
        78 -10.9664    112.8574     78.0504   7.7236948928e+01   4.4982682280e+01    0.6174927    0.4118045 -55.41   0.00243335    1.728    0.421
        79 -11.1363     99.0749     68.3758   7.8167184826e+01   4.9681610716e+01    0.5962813    0.4371198 -58.37  0.002239781    1.657    0.397
        80 -11.7631    102.9417     63.8733   7.5457974508e+01   4.9765237489e+01     1.042751    0.7822924 -88.49  0.004702687    2.236    0.553
        81 -11.6106     14.4570     58.7230   1.0635636219e+02   6.2857818939e+01     0.526323    0.2930093 -29.67  0.002935271    1.798    0.444
        82  -9.6430    167.5069     59.5079   5.8263774161e+01   3.5493785374e+01    0.3186823    0.1473399  58.71  0.001212432    2.171    0.539
        83 -10.9622     72.3573     55.1003   8.2393516608e+01   5.7004119542e+01    0.3578333    0.3021132 -33.70  0.001909025    1.120    0.107
        84 -11.4482      2.1320     37.5502   1.0587930379e+02   6.7922194719e+01    0.6060616    0.1057523 -61.63  0.001825857    6.030    0.834
        85 -11.0036      9.0004     44.4810   1.0477812241e+02   6.6156005371e+01    0.2721784    0.1752773 -34.41  0.001172672    1.295    0.228
        86 -11.2068      3.7882     44.4325   1.0710441491e+02   6.6462363447e+01    0.3490689     0.230094 -14.38  0.002279001    1.599    0.374
        87 -12.0102     86.6484     50.5412   7.5796029544e+01   5.5326636946e+01    0.8441686    0.4486376  39.41  0.003809966    1.922    0.480
        88 -11.2580     97.4284     47.6978   7.1309026009e+01   5.3703829964e+01    0.6440164    0.5089885  29.17  0.002868145    1.247    0.198
        89 -13.0007    153.4201    207.9376   9.6875912747e+01   9.0773224458e+00     1.110025    0.8324931  73.97  0.004674795    1.802    0.445
        90  -9.5713     32.2372    209.6454   1.2211549004e+02   2.6592975709e+01    0.2042363    0.1585012 -72.55 0.0007630117    1.361    0.265
        91 -11.1449     17.3411    206.8779   1.2476157221e+02   2.8711747820e+01    0.3255471    0.2085626  74.26  0.001155783    1.230    0.187
        92 -12.1310     12.4172    203.0357   1.2545023247e+02   2.9982208544e+01    0.5844314    0.3820606 -69.09    0.0021867    1.523    0.344
        93 -12.9668    228.8184    197.3233   8.0132631543e+01  -2.0972730060e+00     1.845745    0.6811875 -33.77  0.007693373    2.699    0.629
        94 -10.7311     43.0508    199.1497   1.1911993945e+02   2.7590374681e+01    0.4531157    0.3392233  80.54  0.002973005    1.096    0.088
        95 -10.9315    216.3760     26.0525   4.1813194244e+01   2.8091728946e+01    0.4270428    0.2914796  -0.51  0.002107007    2.270    0.559
        96  -9.8795    249.9550    197.9013   7.6536878904e+01  -5.4654435723e+00    0.2847939    0.2009108 -29.92  0.001399044    1.367    0.268
        97 -11.4485    150.5764    192.6448   9.4915778795e+01   1.2476229331e+01    0.7047978    0.5452718 -71.28  0.003124509    1.610    0.379
        98 -10.0128     33.4594     23.0927   8.5348063143e+01   6.7919182950e+01    0.3139924    0.1938151 -25.48  0.001621906    1.388    0.279
        99  -9.7099    248.9482     21.9410   3.7845360760e+01   2.1266384292e+01    0.2187255    0.1193576 -61.22   0.00114116    1.716    0.417
       100 -10.2347     64.9195    194.0195   1.1399664006e+02   2.5989945935e+01    0.4369302    0.2436195 -87.95  0.001579367    1.963    0.490
       101 -10.1940     58.0464    191.1728   1.1517590893e+02   2.7511247925e+01    0.3759492    0.2185532 -66.04  0.001395834    1.625    0.384
