#   1 NUMBER                 Running object number                                     
#   2 MAG_AUTO               Kron-like elliptical aperture magnitude                    [mag]
#   3 X_IMAGE                Object position along x                                    [pixel]
#   4 Y_IMAGE                Object position along y                                    [pixel]
#   5 X_WORLD                Barycenter position along world x axis                     [deg]
#   6 Y_WORLD                Barycenter position along world y axis                     [deg]
#   7 A_WORLD                Profile RMS along major axis (world units)                 [deg]
#   8 B_WORLD                Profile RMS along minor axis (world units)                 [deg]
#   9 THETA_WORLD            Position angle (CCW/world-x)                               [deg]
#  10 FWHM_WORLD             FWHM assuming a gaussian core                              [deg]
#  11 ELONGATION             A_IMAGE/B_IMAGE                                           
#  12 ELLIPTICITY            1 - B_IMAGE/A_IMAGE                                       
         1 -13.0665    165.4725     49.5918   7.5543685684e+01   3.7584513779e+01    0.9069616     0.576309 -29.19  0.003224361    1.792    0.442
         2 -14.1810    179.6203     33.7193   6.8907623317e+01   3.6270275930e+01     1.211834    0.9929284  10.87  0.004557542    1.666    0.400
         3 -12.6949    183.9411     27.0413   6.6566989077e+01   3.6042263812e+01    0.5201893    0.4371365  78.82  0.000974257    1.033    0.032
         4 -11.6441    189.6516     14.7643   6.2782988146e+01   3.6065779726e+01     0.250788    0.1923362  83.44 0.0008579321    1.118    0.106
         5 -12.5561    201.2071      2.6045   5.8674094338e+01   3.4612128853e+01    0.5657476    0.3566978  59.85  0.002468962    1.521    0.342
         6 -12.0386    197.2095      2.3889   5.9030802582e+01   3.5560037899e+01    0.3918194    0.3069723  69.11  0.001477615    1.188    0.158
         7 -10.0289     62.3347      6.6963   8.6381455480e+01   6.4328444824e+01   0.09747612    0.0939871 -88.45 0.0005373372    1.663    0.399
         8 -10.0534    125.2412      2.9956   6.9166239031e+01   5.2250626439e+01    0.1472275    0.1062976 -18.27 0.0008902659    1.632    0.387
         9 -10.5689     62.6172    216.7580   1.3663690797e+02   2.1573074047e+01    0.2880454    0.1745459  61.19  0.001177056    1.503    0.334
        10 -16.7561    139.9354    242.6972   1.2413493874e+02   3.9833536523e+00     7.511895     2.370904  41.53   0.02896941    2.693    0.629
        11 -10.4028     64.9231    213.6458   1.3583042334e+02   2.1930581435e+01    0.2447032    0.1863756  67.08 0.0008576706    1.130    0.115
        12  -9.6690     92.9256    207.0634   1.2907591296e+02   1.9164503077e+01    0.2059962    0.1747173  82.09 0.0004560573    1.063    0.059
        13 -11.8573     12.7294    206.2371   1.4547960580e+02   2.9780664775e+01    0.2945365    0.1697067  71.57  0.001796223    1.495    0.331
        14  99.0000      7.9087    205.7950   1.4635137146e+02   3.0342629160e+01    0.3340587    0.1674209  53.95  0.001236174    1.809    0.447
        15 -10.5721    164.2256    205.5515   1.1318499970e+02   6.6663445994e+00    0.2733082    0.2242021 -46.35 0.0008584578    1.308    0.235
        16 -11.7733     72.1562    203.1862   1.3308619638e+02   2.3225882058e+01    0.4156384    0.2888342 -53.58   0.00146771    1.618    0.382
        17  -9.5723     62.9478    203.5979   1.3511132588e+02   2.4439663214e+01    0.1775358    0.1364613  58.41 0.0005590661    1.202    0.168
        18 -12.5969    193.7866    194.3158   1.0481197594e+02   3.2129005469e+00     1.037297    0.5770136 -61.00  0.004044486    2.870    0.652
        19 -19.3819     36.6608    145.3856   1.3373659426e+02   4.1360757296e+01     20.72064      2.38594 -66.14   0.04547079    8.433    0.881
        20 -11.0236    103.4515    205.1381   1.2649331387e+02   1.7854574760e+01    0.4558711    0.3483013  23.92   0.00239705    1.689    0.408
        21 -11.5658    113.6583    195.5586   1.2273295237e+02   1.8230371168e+01    0.5460438    0.3272934 -30.76  0.002146689    2.986    0.665
        22 -11.1408     81.3302    192.8519   1.2969644608e+02   2.4220869337e+01    0.5109364    0.3567067  63.20  0.002512706    1.394    0.283
        23 -11.7293     81.7147    188.1239   1.2893756219e+02   2.5263649705e+01    0.6628554    0.4500416  45.79  0.003470015    1.452    0.311
        24 -10.3431    180.0367    192.4941   1.0734794831e+02   6.2228651077e+00    0.2557716    0.2085764 -67.43 0.0006366827    1.478    0.323
        25 -10.8673    128.2685    185.2225   1.1759315985e+02   1.7891944943e+01    0.3474416    0.1308999 -55.39   0.00120603    2.799    0.643
        26  -9.0991     92.1373    185.3101   1.2609055352e+02   2.4270728603e+01    0.1875762    0.1176833  50.33 0.0002376944    1.552    0.356
        27 -11.4521    207.4092    180.5153   9.9258680568e+01   3.2342409616e+00    0.8000237    0.4395846  23.59  0.003101232    2.674    0.626
        28  -9.3885     87.1267    183.1198   1.2693026426e+02   2.5594308263e+01    0.1972153    0.1900236 -52.36 0.0006275874    1.237    0.192
        29 -10.0449     99.0975    180.9252   1.2374151804e+02   2.4144879250e+01    0.2787276    0.1944708  41.57  0.001384596    1.452    0.311
        30 -10.0967    194.1600    165.8864   9.8883505850e+01   8.7639221311e+00      0.35225    0.2640302 -68.11    0.0015731    1.707    0.414
        31 -10.6321    196.9969    175.9831   1.0043745235e+02   6.1587322356e+00    0.6406754     0.398311  78.36  0.002109021    4.129    0.758
        32 -11.0379    196.1594    171.3336   9.9632495609e+01   7.2547074454e+00     0.404351    0.3540195  38.05  0.001040882    1.145    0.127
        33 -12.1266    116.8928    211.9671   1.2454935431e+02   1.4056728919e+01    0.6431737    0.4160465  60.87 0.0009939689    1.584    0.368
        34 -11.1241     89.1645    175.4892   1.2523566193e+02   2.7082559448e+01    0.5982852    0.2683387 -53.42  0.001498718    2.172    0.539
        35 -11.4798     91.6979    170.6841   1.2381618058e+02   2.7822715036e+01    0.3682932    0.3297494 -70.89  0.001110036    1.078    0.073
        36 -11.6018    126.7096    173.8518   1.1585224443e+02   2.0800935267e+01     0.548529    0.3472569  75.72  0.002172638    2.376    0.579
        37 -10.4919    118.9157    173.6858   1.1769928850e+02   2.2315829533e+01    0.2172769    0.1920172  62.27  0.001154128    1.095    0.087
        38 -11.0900    137.6075    171.0591   1.1269963067e+02   1.9314373718e+01     0.288173    0.2256871  37.15 0.0004680236    1.318    0.241
        39  -9.9523    101.2448    169.3895   1.2123492847e+02   2.6522285064e+01    0.2086572    0.1304519  51.27  0.000558709    1.625    0.385
        40  -9.3183    224.2836    164.6584   9.2654616400e+01   2.9864885554e+00    0.1400647    0.1121464 -70.37 0.0002881961    1.635    0.388
        41  -8.9304    120.2740    163.6774   1.1544151122e+02   2.4420342710e+01    0.1535491    0.1162311  84.75 0.0003537037    1.576    0.366
        42 -10.6852     97.5255    161.7811   1.2077945150e+02   2.8994599867e+01    0.2556726    0.2399513 -85.60 0.0004552422    1.028    0.028
        43  -9.5316      6.7996    161.5157   1.4288923524e+02   4.0286305306e+01     0.134465    0.1210844  30.89 0.0009792275    1.473    0.321
        44 -11.2445    101.8362    155.0534   1.1839615347e+02   2.9873966714e+01    0.6033682      0.36021 -38.39  0.002032719    2.060    0.515
        45  -9.0208    120.2372    156.4059   1.1397939995e+02   2.6153464044e+01    0.2200508    0.1403322  52.31 0.0009506684    1.635    0.388
        46  -9.0917    177.2858    154.6919   1.0004012637e+02   1.4669337531e+01    0.1529427    0.1228797 -85.73 0.0006986007    1.570    0.363
        47 -12.3091    133.9331    145.1105   1.0809184180e+02   2.6084030245e+01     1.264112    0.3306852 -55.01  0.002939241    5.552    0.820
        48 -10.6036    174.9233    149.1534   9.9311159619e+01   1.6374286940e+01    0.2425302    0.2166293  87.60 0.0005953551    1.237    0.192
        49 -11.2927    145.4987    146.0119   1.0544108423e+02   2.3451503485e+01    0.3782648    0.2875084  58.63  0.001752529    1.396    0.284
        50 -11.3699      7.0687    145.6506   1.4117963662e+02   4.3902582629e+01    0.3255928    0.2452668 -22.97  0.002121208    1.844    0.458
        51 -10.1828     78.9270    143.8519   1.2225592918e+02   3.6360122965e+01    0.2157047    0.1904325 -37.46 0.0004577925    1.247    0.198
        52 -11.0275    111.7820    139.4564   1.1253248263e+02   3.1807970388e+01    0.5086328    0.2932972 -33.17  0.001955868    2.355    0.575
        53 -11.3840    100.5779    139.9185   1.1562111996e+02   3.3749006393e+01    0.2732264    0.2622933 -40.33 0.0004350992    1.106    0.096
        54 -12.3642      3.6567    130.8446   1.4031481708e+02   4.7527930530e+01     1.328618    0.3398661 -73.38  0.004945144    3.491    0.714
        55 -10.2671    105.6790    126.5906   1.1123648209e+02   3.5991919909e+01    0.2978369    0.2450915 -30.71 0.0008673344    1.334    0.250
        56 -11.1282    117.7976    130.0333   1.0877316030e+02   3.2868471784e+01    0.3837343    0.3449352   3.40  0.001154569    1.293    0.226
        57 -12.1309    135.0152    121.8460   1.0227519091e+02   3.1192442225e+01    0.7778514    0.2225665 -48.78  0.002205276    3.586    0.721
        58 -11.1387    161.2370    128.0014   9.7414388684e+01   2.4026698539e+01    0.3897428    0.2870502 -62.90   0.00174337    1.518    0.341
        59 -11.4715    126.0198    127.5259   1.0600344406e+02   3.1793221507e+01    0.3960842    0.2731789  73.82  0.001636705    2.040    0.510
        60 -12.4454    125.6580    208.9310   1.2217127913e+02   1.3149457022e+01     0.575214    0.4073403 -31.32  0.002796023    1.997    0.499
        61  -9.6754    112.0188    119.0674   1.0767460625e+02   3.6532293957e+01    0.2239652    0.2207555 -80.21  0.000330505    1.028    0.027
        62 -10.5361    168.4380    113.4090   9.2123755918e+01   2.5479624690e+01    0.3983646    0.2824475 -83.22  0.001030141    2.004    0.501
        63 -12.6109     15.3991    107.1404   1.3366818017e+02   5.2098587266e+01    0.7340457    0.3215755 -60.41  0.003357313    1.729    0.421
        64 -14.8491      7.9005     82.5853   1.3156603307e+02   5.7910467553e+01    0.8645965    0.7408652 -34.03  0.004028892    1.174    0.149
        65 -13.2671     10.9044    100.4067   1.3388376097e+02   5.3898282002e+01    0.6791174    0.3038214 -55.25  0.002042866    1.668    0.400
        66 -13.6654      4.2787     94.9368   1.3499376442e+02   5.5492965205e+01    0.6707612    0.4009108 -65.52  0.002474671    1.338    0.253
        67 -14.3952    203.2464    121.3059   8.6887350244e+01   1.5848484738e+01     2.014821     1.537343 -51.29  0.007410257    1.275    0.216
        68 -10.6470      1.9962    112.9692   1.3843804554e+02   5.1661353741e+01    0.2802392    0.1362002 -56.98 0.0009275454    1.557    0.358
        69  -9.8349    152.4559    102.9349   9.3056088780e+01   3.1357133916e+01     0.277562    0.2151623  70.87 0.0008002091    1.470    0.320
        70 -10.2821    106.0942    130.8890   1.1212281088e+02   3.4903813685e+01    0.3499145    0.2976794 -65.22  0.001151306    1.168    0.144
        71  -8.8085     83.4418     76.4687   1.0445422755e+02   5.0755868915e+01    0.1378441     0.126492 -17.29 9.220091e-05    1.011    0.011
        72  -9.6709     78.3892    232.5924   1.3517313041e+02   1.5960507086e+01    0.1917968     0.144874  37.91 0.0006412778    1.484    0.326
        73  -8.7401     13.6431     59.7577   1.2431053306e+02   6.2120589742e+01     0.117175   0.06879514 -27.27 0.0003378801    1.590    0.371
        74  -7.3508     82.5119    212.1676   1.3198041207e+02   1.9674523548e+01    0.3945253    0.1993495  49.78  0.001176894    1.814    0.449
        75 -11.0440    107.9097    208.8749   1.2605533038e+02   1.6276440544e+01    0.6161812     0.512185  30.98  0.003194253    1.389    0.280
        76  -9.0808    112.3573     21.6886   7.8019969530e+01   5.3348323363e+01    0.1251029   0.09988151 -80.78 0.0007043259    1.737    0.424
        77 -10.6430    108.5243    202.5280   1.2497959948e+02   1.7568264015e+01    0.2675129    0.2225027  63.25 0.0008204259    1.102    0.092
        78 -12.0877     80.0885    219.6866   1.3339200736e+02   1.8411133190e+01    0.3463753    0.2352051  70.48 0.0003885005    1.388    0.280
        79 -10.2508     71.8602    213.6241   1.3439261138e+02   2.0945297710e+01    0.3278469    0.1920715  74.39  0.001634268    1.840    0.457
        80  -9.1552     66.0289    208.7784   1.3505552489e+02   2.2849721560e+01    0.4090927    0.2532366   7.91  0.001545475    4.713    0.788
