#   1 NUMBER                 Running object number                                     
#   2 MAG_AUTO               Kron-like elliptical aperture magnitude                    [mag]
#   3 X_IMAGE                Object position along x                                    [pixel]
#   4 Y_IMAGE                Object position along y                                    [pixel]
#   5 X_WORLD                Barycenter position along world x axis                     [deg]
#   6 Y_WORLD                Barycenter position along world y axis                     [deg]
#   7 A_WORLD                Profile RMS along major axis (world units)                 [deg]
#   8 B_WORLD                Profile RMS along minor axis (world units)                 [deg]
#   9 THETA_WORLD            Position angle (CCW/world-x)                               [deg]
#  10 FWHM_WORLD             FWHM assuming a gaussian core                              [deg]
#  11 ELONGATION             A_IMAGE/B_IMAGE                                           
#  12 ELLIPTICITY            1 - B_IMAGE/A_IMAGE                                       
         1 -13.5144     67.9971    145.1062   1.2748397638e+02   3.7961827191e+01      5.27478     2.652051  67.30  0.008750492    3.761    0.734
         2 -13.3746    192.4422     27.8727   6.6470739829e+01   3.3805923649e+01     1.977562     1.477919  14.77  0.008945925    2.039    0.510
         3 -11.5528    201.1115     17.4981   6.2845619558e+01   3.2886497429e+01    0.4572583    0.3385099  41.67  0.001294642    1.687    0.407
         4 -13.0105    206.2979     10.5551   6.0650879986e+01   3.2396674726e+01     1.178325    0.8262602  64.85  0.003108733    1.313    0.238
         5  -9.0376    229.9459     19.8502   6.0275295751e+01   2.5782467259e+01    0.2705638    0.1832201 -37.14 0.0008669249    1.629    0.386
         6 -10.3176      9.4908      9.9844   1.1262903633e+02   7.0897267027e+01    0.2469815   0.07102645 -38.65  0.001228564    2.725    0.633
         7  -8.1429    164.9792     11.9726   6.6213182588e+01   4.2341114477e+01    0.1560069    0.1388515  72.81 0.0004062725    1.068    0.063
         8  -9.6111     89.3038    244.6724   1.3601405298e+02   1.2461797568e+01    0.2588935    0.1911626  80.38 0.0005680934    1.277    0.217
         9 -12.0555    166.7785    249.6843   1.2131584418e+02  -1.4258593460e+00    0.8662135    0.4843995  50.49   0.00441313    1.712    0.416
        10 -11.5506    175.7310    248.4107   1.1934756576e+02  -2.7671810425e+00    0.6367698    0.2892644  31.64  0.002808932    2.228    0.551
        11 -10.1023    134.1962    249.8188   1.2781550373e+02   4.1687806398e+00    0.3462117    0.2220571  37.80  0.001922023    1.398    0.284
        12 -12.1596    147.0637    248.3396   1.2506019644e+02   2.2107213037e+00     1.249434    0.5244067  35.17   0.00532916    2.337    0.572
        13  -9.7600     62.6770    250.5493   1.4151998170e+02   1.5238715200e+01    0.2199232    0.1604487  40.81      0.00038    1.511    0.338
        14  -8.8704     63.6772    245.6785   1.4092784327e+02   1.6028697772e+01    0.1786247    0.1405725 -58.21  0.001185032    1.683    0.406
        15 -12.0514     54.5289    230.1002   1.4128086295e+02   2.0363348338e+01     0.779355    0.3767359 -65.76  0.004172335    2.044    0.511
        16 -11.3532     27.1069    221.6983   1.4573818924e+02   2.5443149458e+01    0.4913432    0.2678996  52.88 0.0006762192    1.576    0.366
        17 -13.4971     43.5553    227.5198   1.4313430423e+02   2.2302598239e+01     2.253227     1.038649 -71.53   0.01209762    2.008    0.502
        18 -11.8113      2.9911    223.1307   1.5011229508e+02   2.7641974378e+01    0.4013047    0.2734199 -85.46 0.0007082755    1.211    0.174
        19 -13.3532     50.2582    218.3997   1.4105440381e+02   2.3355424203e+01     1.823491    0.5706849  58.10  0.004876324    3.908    0.744
        20 -14.5513     58.2788    206.5834   1.3825777506e+02   2.4856505794e+01       7.6907     1.071686  47.43   0.02161553    5.999    0.833
        21  -8.8469    103.8686    238.3470   1.3245795422e+02   1.1364326376e+01    0.1966496    0.1557821  77.77 0.0003503924    1.205    0.170
        22 -10.3165    165.1918    211.3314   1.1555292502e+02   5.6207502481e+00    0.3149799    0.2348056  52.14 0.0004397861    1.312    0.238
        23 -11.1378    250.5762    232.1670   1.0221902180e+02  -1.2530904655e+01    0.2108162    0.1244613 -30.47 -0.000275831    1.670    0.401
        24  -9.8370    193.0835    196.1250   1.0674239591e+02   3.1046897959e+00    0.7649361    0.3694476 -61.97  0.002174695    5.576    0.821
        25  -9.7148      6.7664    190.8738   1.4733925472e+02   3.4019487656e+01    0.2273989    0.1840868  72.00 0.0009540552    1.176    0.150
        26 -11.1020     73.6756    186.5157   1.3244735536e+02   2.7251542083e+01    0.4255868    0.2769418 -44.54   0.00167286    1.939    0.484
        27 -11.0131     77.8196    180.6271   1.3064852993e+02   2.8015013234e+01    0.3146806    0.2530328 -48.35  0.000985414    1.431    0.301
        28 -12.7987     27.0338    248.7290   1.4757011154e+02   2.0109738544e+01     1.051294    0.3252347  47.10  0.005412041    2.434    0.589
        29  -8.9531    201.3405    183.3926   1.0245459795e+02   3.8817928472e+00     0.270781    0.2619369  75.94 0.0009881682    1.198    0.165
        30  -9.8624     37.6156    177.4985   1.3961159237e+02   3.3978509902e+01    0.2193731    0.1860794  80.15 0.0006841822    1.084    0.077
        31  -9.9646    121.5526    248.2882   1.3012530733e+02   6.5790439027e+00     0.292823    0.2022568  68.06  0.001203103    1.494    0.331
        32 -10.1012     40.9873    170.5159   1.3803735191e+02   3.5228302132e+01    0.4069552    0.2297606 -42.14  0.001976832    2.410    0.585
        33  -9.6596    227.6917    171.1705   9.4617728497e+01   9.8915337065e-01    0.3256984    0.2353277 -67.60  0.001442099    2.124    0.529
        34 -10.0650    230.5356    166.7192   9.3134547953e+01   1.2488735923e+00    0.4383307    0.1342216 -38.25  0.001450952    3.205    0.688
        35  -9.2300    247.4946    163.9952   8.9477661469e+01  -1.4298934733e+00    0.1968452    0.1115292 -56.61 0.0008106742    2.618    0.618
        36  -9.0393    112.1433    154.8966   1.1756767670e+02   2.8377093658e+01    0.2171129    0.2095989 -81.35 0.0003054658    1.038    0.036
        37 -11.3568     46.7602    149.3712   1.3381299249e+02   3.9590400718e+01    0.7116032      0.22618 -59.38  0.002425259    2.549    0.608
        38 -11.3753     54.2917    146.3222   1.3136783369e+02   3.9439951010e+01    0.4539655    0.4237097 -46.57  0.002868768    1.198    0.165
        39  -9.2015     98.7817    151.8531   1.2047276721e+02   3.1523144595e+01    0.2915956    0.1795769  63.32 0.0008056164    2.046    0.511
        40  -8.5133    177.9820    148.6746   9.9980109654e+01   1.5891748462e+01    0.2110721     0.196204  45.47 0.0007299542    1.060    0.057
        41 -11.5122     92.4165    145.8678   1.2099948547e+02   3.4054782044e+01    0.3041866    0.2745014 -42.82 0.0005280549    1.177    0.150
        42  -9.5203    103.5094    146.4988   1.1813538996e+02   3.1976782722e+01    0.3047742    0.2796236 -82.37 0.0008775131    1.067    0.063
        43  -9.2607    105.5024    143.4969   1.1697158845e+02   3.2336227868e+01    0.3461982    0.2448362 -32.85    0.0015674    1.724    0.420
        44 -10.2837    224.3361    142.5686   8.9012442638e+01   6.9724364527e+00    0.2538415    0.2411373 -53.36 0.0003094948    1.086    0.079
        45  -8.7088    132.8329    141.4577   1.0927248893e+02   2.7438513645e+01    0.5272458    0.1185775 -53.27  0.001147276    6.110    0.836
        46  -8.3551    110.2703    139.7375   1.1487044243e+02   3.2349577331e+01    0.1970233    0.1755707 -18.42 0.0004240404    1.300    0.231
        47  -9.0984    112.7432    134.1152   1.1293616558e+02   3.3211553053e+01    0.3085697    0.2572347 -24.41 0.0008799938    1.398    0.285
        48  -9.9947    100.4598    130.6754   1.1556032078e+02   3.6308738494e+01    0.2815968    0.2388892 -20.81 0.0002963191    1.375    0.273
        49 -12.2996     41.7580    127.2051   1.3168294585e+02   4.5398988454e+01    0.6449915    0.4295831 -78.57  0.003502188    1.507    0.336
        50 -12.6865     73.8908    166.3828   1.2946888342e+02   3.1986837017e+01    0.6478929      0.45856 -42.69  0.001458436    1.667    0.400
        51  -8.8744    119.0570    126.1992   1.0934209284e+02   3.3818526622e+01    0.3260946     0.193007 -26.59  0.001182983    2.602    0.616
        52  -9.5347    243.0382    124.0916   8.1616091105e+01   6.5137690806e+00    0.2469644    0.2028955  61.91 0.0004235684    1.356    0.262
        53  -8.8329    108.9645    121.9543   1.1111796116e+02   3.6781707346e+01    0.2142088    0.2136286 -14.92  0.000337969    1.027    0.026
        54 -10.7312     85.7944    170.0106   1.2707155713e+02   2.9305879208e+01    0.3277739    0.3023697 -63.36 0.0003758796    1.147    0.128
        55 -10.0103     35.1876    119.8301   1.3232318224e+02   4.7767586365e+01    0.1926145    0.1630963 -88.20 0.0007911073    1.218    0.179
        56  -9.2025    167.8044    113.2067   9.3640406710e+01   2.5781434441e+01    0.3599381    0.2716535 -85.99 0.0009554769    1.757    0.431
        57 -11.8594     91.5570    162.8650   1.2440350137e+02   3.0090080538e+01     1.205777     1.004467  77.42  0.001309399    1.204    0.170
        58  -9.8954      2.6896    103.9771   1.3935718150e+02   5.3715792825e+01    0.2808274    0.1029247  40.26  0.001317969    3.498    0.714
        59  -9.3633     43.4978    173.9752   1.3786319927e+02   3.4134944370e+01    0.2455536    0.1861733  70.57 0.0006007995    1.238    0.192
        60  -9.8187      1.4559     90.9438   1.3774246247e+02   5.6600220818e+01    0.2306788   0.09727623 -71.95 0.0009486508    2.133    0.531
        61  -9.1309    182.3007     78.7702   8.1439386625e+01   2.8830201801e+01    0.3247991    0.2294095  34.58  0.001465141    1.712    0.416
        62  -8.1468    155.3060     78.3163   8.7031898650e+01   3.5608287288e+01    0.1552064    0.1201568  18.48 0.0003849622    1.627    0.385
        63 -10.3229      5.7479     75.4669   1.3354104812e+02   5.9630101108e+01    0.2263127    0.1280962 -36.43    0.0013829    1.571    0.363
        64  -9.8904    237.5031     68.3855   6.9992647863e+01   1.7261391926e+01    0.2410518    0.2286358  89.06 0.0005184919    1.161    0.139
        65  -8.0177    123.5726     64.3468   9.0710711769e+01   4.5477635825e+01    0.1447358      0.13088  37.46 8.276023e-05    1.039    0.038
        66  -9.5875    180.0621     52.2262   7.4734776688e+01   3.3660903892e+01    0.2430608    0.2093073 -40.91 0.0006170239    1.255    0.203
        67 -11.5160    184.9379     33.8571   6.9072777616e+01   3.4935127656e+01    0.6495554     0.433159  68.88  0.001021151    1.332    0.249
        68 -15.5734      9.1452    241.5368   1.5010132877e+02   2.3435441889e+01     8.391332     1.104204 -71.44   0.01034213    5.200    0.808
        69  -9.5146     69.7726    246.0705   1.3983886914e+02   1.5095183412e+01    0.3457869    0.1755282 -70.32  0.001544881    2.034    0.508
        70 -13.2705     10.6875    206.8566   1.4772399641e+02   3.0245207500e+01    0.8000336    0.6080169  20.10  0.002782564    2.035    0.509
        71  -9.3855     49.3361     41.3759   1.0721062468e+02   6.2288726267e+01    0.4335572    0.1665006  43.19  0.001779142    3.722    0.731
        72  -8.5655     41.0318     38.9547   1.0966608232e+02   6.3655149277e+01     0.176185    0.1417847  -8.91 0.0003770097    1.042    0.041
        73 -11.7321    192.5508    244.2692   1.1536776903e+02  -5.0055478417e+00    0.6024438    0.2836776  28.37  0.002657233    2.290    0.563
        74  -8.5589     82.3111    245.3359   1.3741755610e+02   1.3399517354e+01    0.1060597   0.09956263 -12.39 0.0007044633    1.683    0.406
        75 -10.4242    135.0368     41.2987   8.0545842652e+01   4.6291833035e+01    0.2328514    0.2243724  -2.92 0.0003386801    1.128    0.114
