#   1 NUMBER                 Running object number                                     
#   2 MAG_AUTO               Kron-like elliptical aperture magnitude                    [mag]
#   3 X_IMAGE                Object position along x                                    [pixel]
#   4 Y_IMAGE                Object position along y                                    [pixel]
#   5 X_WORLD                Barycenter position along world x axis                     [deg]
#   6 Y_WORLD                Barycenter position along world y axis                     [deg]
#   7 A_WORLD                Profile RMS along major axis (world units)                 [deg]
#   8 B_WORLD                Profile RMS along minor axis (world units)                 [deg]
#   9 THETA_WORLD            Position angle (CCW/world-x)                               [deg]
#  10 FWHM_WORLD             FWHM assuming a gaussian core                              [deg]
#  11 ELONGATION             A_IMAGE/B_IMAGE                                           
#  12 ELLIPTICITY            1 - B_IMAGE/A_IMAGE                                       
         1 -13.9413    176.7975     32.0063   7.1622967586e+01   3.7241622187e+01     1.169526    0.8865066  14.35  0.004264629    1.708    0.414
         2 -13.0528    232.0650     28.7369   6.3858539872e+01   2.3672508267e+01    0.8798062    0.4991627 -72.71  0.003372679    1.957    0.489
         3 -11.5180    196.1084      1.6541   6.0459048013e+01   3.5535470422e+01    0.4741074    0.1571111  74.12  0.001786302    2.744    0.636
         4  -9.7255     73.3737    232.7147   1.3827544362e+02   1.8700681743e+01    0.1818752   0.08866171  48.44 0.0005990917    1.608    0.378
         5 -15.1922    248.2167    174.1114   9.5342948636e+01  -1.4614924619e+00      1.80778     0.864577 -28.59  0.008575661    2.040    0.510
         6 -16.9780    234.5562    238.9295   1.0930885706e+02  -7.5632067785e+00     1.959925     1.586087   8.40   0.01186128    1.125    0.111
         7 -15.5601    248.4638    205.7750   1.0133856173e+02  -5.7222715365e+00     2.331249    0.5921762 -32.69  0.008781874    4.066    0.754
         8 -16.3804    172.0400    242.8620   1.2098722500e+02   1.7207664312e+00     2.919785     1.690826  42.22    0.0127531    1.369    0.269
         9 -16.5677      7.6641    101.9701   1.4008094886e+02   5.4091522821e+01     7.113524     1.306782 -74.36   0.02119607    5.524    0.819
        10 -16.8064    130.9833    239.6486   1.2820981827e+02   8.8600167053e+00     1.903379     1.457282 -50.98   0.01266722    1.661    0.398
        11 -19.7243     37.7304    159.2264   1.3876188091e+02   3.8364893758e+01     18.08601     2.086419 -69.60   0.04714767    7.012    0.857
        12 -10.7978     73.2482    219.2265   1.3710957222e+02   2.1220752981e+01    0.2465692    0.1508453  56.10  0.001173398    1.331    0.249
        13 -12.6092    211.6224    212.3045   1.0898297874e+02  -6.0564861957e-01    0.6716522    0.4914552  -4.06  0.002923314    1.472    0.321
        14 -12.7623    204.9600    211.9823   1.1015951961e+02   5.7429874294e-01    0.8208682    0.4686481  -0.33  0.003487128    3.194    0.687
        15 -14.6707      4.2982    222.6962   1.4989734528e+02   2.8559781405e+01    0.6801675    0.3447184  82.54  0.004567451    1.542    0.351
        16 -11.1252     17.2627    205.7937   1.4675840581e+02   3.0542234502e+01    0.2457818    0.1322553  36.56  0.001038783    1.965    0.491
        17 -10.5804     12.1829    205.5968   1.4768383085e+02   3.1076597458e+01    0.2645309    0.1479287  38.79  0.001733852    1.830    0.453
        18 -10.4966     64.9444    229.7564   1.3958661983e+02   2.0374806774e+01    0.1822487    0.1088217  66.55 0.0007594092    1.425    0.298
        19 -10.1591     74.9595    225.3545   1.3733874083e+02   1.9829358569e+01    0.1683464    0.1232096  50.51   0.00104859    1.192    0.161
        20  -9.9475     91.0673    201.8709   1.3169266645e+02   2.2029808366e+01    0.2055182    0.1441986  65.52 0.0007262373    1.293    0.227
        21 -12.4864    195.1700    194.6478   1.0897659250e+02   4.9421512191e+00    0.6882586    0.5330185  56.32  0.003877849    1.492    0.330
        22 -15.4018    215.8608    170.3936   1.0031218764e+02   4.9558698204e+00     2.881926     1.756525  -2.61   0.01116146    2.512    0.602
        23 -13.0929    226.4062    144.7861   9.2906510249e+01   7.0687683276e+00    0.9253229    0.5436117 -38.44  0.004167119    1.659    0.397
        24 -13.7018    237.4519    142.8119   9.0560987488e+01   5.2058649600e+00    0.7129638    0.6343756 -47.58  0.002378065    1.272    0.214
        25 -14.4494    242.7305    128.1308   8.6408360582e+01   6.4965702600e+00     1.366823    0.9488133 -14.73  0.004907481    1.562    0.360
        26  -9.9983     82.9873    188.2961   1.3178780868e+02   2.6062027552e+01    0.1881833     0.151831  58.84 0.0005926543    1.098    0.090
        27  -9.6368     99.5294    180.5173   1.2704538138e+02   2.5134354166e+01    0.1363783    0.1197942  69.78 8.568335e-05    1.010    0.010
        28 -11.8511     92.8591    174.1098   1.2764728276e+02   2.7606143910e+01    0.6803303    0.2965514 -42.26   0.00241664    3.913    0.744
        29 -12.1811    114.3160    170.0355   1.2199384719e+02   2.4868052538e+01    0.4473737    0.2923624 -79.15  0.001751106    1.893    0.472
        30 -11.1979    105.9136    172.1876   1.2431026822e+02   2.5867455895e+01    0.2283178    0.1759931  69.42  0.001236034    1.282    0.220
        31 -11.7434    136.0589    170.5145   1.1704857729e+02   2.0737179134e+01    0.3980015    0.1335817  42.37  0.001374857    2.776    0.640
        32 -13.5050    119.5241    165.4274   1.1997431810e+02   2.4925632669e+01     1.017994    0.5815823  69.21  0.004015109    2.626    0.619
        33 -14.0373    106.1076    153.5225   1.2108823446e+02   2.9990308265e+01     1.807205      1.00655 -38.13  0.007407878    2.509    0.601
        34 -14.2069    106.4367    129.2211   1.1616200956e+02   3.5512155166e+01     1.069683    0.6498564 -52.48  0.004260364    1.611    0.379
        35 -13.0889    118.0006    130.5721   1.1340181610e+02   3.3007318936e+01    0.6189052     0.461335  -1.86  0.002122434    2.120    0.528
        36 -12.4219    101.9572    140.5698   1.1969544450e+02   3.3691913742e+01    0.3420461     0.318358 -35.54 0.0005046485    1.233    0.189
        37 -13.7344    107.9620    138.3726   1.1769071800e+02   3.3121976407e+01    0.7659469    0.5274443  24.39  0.003401062    1.889    0.471
        38 -11.8472     84.7234    163.6310   1.2802459764e+02   3.1225166899e+01     0.623162    0.3796992  68.08  0.002433966    1.864    0.464
        39 -12.7316     88.6721    157.7159   1.2613760145e+02   3.1956376347e+01    0.3819193    0.2953695 -32.53 0.0009254116    1.764    0.433
        40 -11.4965     99.3432    162.9745   1.2438317981e+02   2.9020351259e+01    0.2646305    0.2315463 -76.96 0.0003988645    1.115    0.103
        41 -11.0961     72.5958    159.8749   1.3042520617e+02   3.3879270129e+01    0.3556507    0.3061232 -57.58  0.002158549    1.282    0.220
        42 -10.5253    163.6058    155.8034   1.0792658072e+02   1.8198939442e+01    0.2122333     0.141407 -56.65  0.000956108    1.734    0.423
        43 -10.8347     82.5328    193.7453   1.3254501379e+02   2.4982466448e+01    0.3382582    0.1953413  48.50  0.001364516    1.525    0.344
        44 -13.3536    134.0372    144.9495   1.1249659404e+02   2.6599763771e+01      1.15441    0.3165869 -53.79  0.003146546    4.535    0.779
        45 -11.5009     93.2938    148.8248   1.2347307161e+02   3.3256348217e+01    0.3118911    0.1829069  54.98  0.001423213    1.788    0.441
        46 -13.2406     70.4165    142.4975   1.2833286657e+02   3.8234466547e+01    0.9807619    0.8060646 -70.26  0.003004906    1.120    0.108
        47 -12.3924    135.3006    122.2866   1.0700840769e+02   3.1308508517e+01    0.8278252    0.1537052 -48.21  0.001901739    5.725    0.825
        48 -10.0186    141.2924    126.2997   1.0648840387e+02   2.9145339807e+01    0.1507853    0.1242255   0.16  0.000240282    1.566    0.361
        49  -9.8453    157.8235    192.8828   1.1622313743e+02   1.2228561850e+01    0.1817966    0.1538858  68.64 0.0003537395    1.297    0.229
        50 -10.8674     81.0013    124.4976   1.2217691250e+02   4.0935311317e+01    0.2112743     0.138783  40.54  0.001033344    1.597    0.374
        51 -10.9856     83.8380    120.8879   1.2062759844e+02   4.1343054609e+01    0.2133643    0.1919156 -41.59 0.0004744506    1.194    0.163
        52 -11.5325    112.7552    119.3710   1.1221198727e+02   3.6577784349e+01    0.2786301    0.2494316 -45.45 0.0007477121    1.136    0.120
        53  -9.5362    168.8316    113.6180   9.6829040017e+01   2.5537781610e+01    0.2201118     0.147468  62.51 0.0005403095    1.695    0.410
        54 -13.3422    113.3843    126.1641   1.1362421898e+02   3.4906744352e+01     0.762199    0.3685708  42.39  0.003013123    2.086    0.521
        55 -13.5094    246.2699     93.0273   7.7726789607e+01   1.1295545208e+01     1.028356    0.4819162 -29.94  0.003883962    2.089    0.521
        56 -12.0299     20.4613     68.8729   1.3006024207e+02   6.0683915867e+01    0.3848804    0.2637568 -71.86  0.001767578    1.404    0.288
        57 -16.4139     94.6688    246.6830   1.3561519158e+02   1.3271229636e+01      1.78621    0.6860462  44.42  0.006761745    1.979    0.495
        58 -12.6731    163.3857     46.9469   7.8569596088e+01   3.8732785635e+01    0.4696673    0.4153811 -24.84   0.00123468    1.205    0.170
        59 -16.9237     89.9995    218.9909   1.3381145039e+02   1.8855363276e+01     3.382551      1.44494  70.59   0.01150212    4.975    0.799
        60 -12.6084    180.6426     25.2143   6.9010978285e+01   3.7057833272e+01    0.5511303    0.4609817  47.72  0.001271504    1.248    0.199
        61 -11.0772     78.1508    232.9709   1.3741415032e+02   1.7993585870e+01    0.2797956    0.2555883  24.69  0.002040712    1.592    0.372
