#   1 NUMBER                 Running object number                                     
#   2 MAG_AUTO               Kron-like elliptical aperture magnitude                    [mag]
#   3 X_IMAGE                Object position along x                                    [pixel]
#   4 Y_IMAGE                Object position along y                                    [pixel]
#   5 X_WORLD                Barycenter position along world x axis                     [deg]
#   6 Y_WORLD                Barycenter position along world y axis                     [deg]
#   7 A_WORLD                Profile RMS along major axis (world units)                 [deg]
#   8 B_WORLD                Profile RMS along minor axis (world units)                 [deg]
#   9 THETA_WORLD            Position angle (CCW/world-x)                               [deg]
#  10 FWHM_WORLD             FWHM assuming a gaussian core                              [deg]
#  11 ELONGATION             A_IMAGE/B_IMAGE                                           
#  12 ELLIPTICITY            1 - B_IMAGE/A_IMAGE                                       
         1 -13.4661    223.2979     56.5030   4.6275702587e+01   2.3293385395e+01     3.308109    0.7848957 -44.30    0.0119258    3.521    0.716
         2 -12.7785    239.4140     30.2878   3.9240858234e+01   2.3378710484e+01     2.211746     1.149336  -7.10  0.007032585    8.058    0.876
         3 -12.1852    243.1715     10.4454   3.5056603097e+01   2.4806706256e+01     1.337259     0.623726 -14.73  0.005605286    4.882    0.795
         4 -13.7734    246.7150     58.2935   4.4345036216e+01   1.8622071062e+01     2.830205     1.115266 -42.62   0.01413152    1.999    0.500
         5 -14.0325    246.6830     29.3507   3.8531560681e+01   2.2131188116e+01      3.26578     1.493877 -26.50   0.01681826    2.522    0.603
         6 -12.8555    228.7657      8.1443   3.5449540495e+01   2.7798294355e+01     2.584667      1.14582 -16.61   0.01122632    4.152    0.759
         7  -9.1931    197.3018     32.1764   4.3377907377e+01   3.1825962438e+01    0.2865824    0.1322423 -36.08  0.001365433    2.012    0.503
         8 -10.0042    220.5280     17.3421   3.7931345259e+01   2.8512835147e+01    0.3437029    0.2574297  35.22  0.002170547    1.979    0.495
         9 -14.2275    246.0990    118.2540   5.6769252343e+01   1.0228904148e+01     4.952666     1.480674 -41.27   0.01986341    2.778    0.640
        10 -13.5105    240.3264     88.7986   5.1360996296e+01   1.5575798359e+01     5.335616     1.297127 -30.04   0.01329667    7.640    0.869
        11  -9.7556    216.0642      8.8954   3.6429792345e+01   3.0288133761e+01    0.2966551    0.1193215 -43.01  0.001534589    2.058    0.514
        12  -9.5635    219.4088      3.9181   3.5151102092e+01   3.0083415957e+01    0.2540985     0.187208  16.13  0.001582421    2.287    0.563
        13 -11.1994    243.6107    240.9431   7.9952640514e+01  -7.0254959100e+00    0.2394189    0.1828119 -34.20  0.001290691    1.822    0.451
        14 -11.1005    239.6587    240.0996   8.0491402786e+01  -6.5050434941e+00    0.3361829    0.1046671 -30.34  0.001548735    2.994    0.666
        15  -8.5287    228.3124    242.3444   8.2831327673e+01  -5.5526296259e+00    0.1239277   0.06837901  -4.48   0.00068077    1.707    0.414
        16  -9.2619      2.3132    242.6611   1.3030288135e+02   2.1625192603e+01    0.1217235   0.05740156  56.76 0.0007046593    1.695    0.410
        17 -10.0628    231.2905    235.9822   8.1284980093e+01  -5.0703291059e+00    0.1731495    0.1197148 -12.03  0.001175472    1.135    0.119
        18 -10.1775    231.9403    247.4009   8.2984142907e+01  -6.5794878739e+00    0.2059092    0.1323368 -43.78   0.00125993    2.445    0.591
        19 -11.1151    248.2713    228.5648   7.7161241986e+01  -5.9836471972e+00    0.5617266    0.1830351 -37.21  0.002689583    2.879    0.653
        20  -8.5484    220.3222    233.3300   8.2825711986e+01  -3.4580751338e+00    0.1276285     0.072895  -3.76 0.0007049345    1.696    0.410
        21 -10.3899    233.8797    242.9080   8.1938826671e+01  -6.2330128670e+00    0.1860501    0.1170497  -5.00  0.001204017    1.249    0.200
        22 -10.6557    249.5074    210.9250   7.3972071581e+01  -3.8306574784e+00    0.5165898    0.3424452 -42.30   0.00321536    1.991    0.498
        23 -11.3708    241.8867    204.9362   7.4184705580e+01  -2.1251916988e+00    0.6164466    0.2260642 -27.11  0.002727661    2.719    0.632
        24  -8.2501     55.7969    216.9800   1.1705744863e+02   2.1558258517e+01    0.1464342   0.09973644 -72.94 0.0008190783    1.576    0.365
        25 -10.1061    233.5308    214.7851   7.7340461660e+01  -2.4908961639e+00    0.3216902   0.09861556 -35.48  0.001390222    2.911    0.656
        26  -8.6045    230.4814    209.4455   7.6943055930e+01  -1.3682577921e+00    0.1240632   0.09363252  -6.48  0.000285615    1.008    0.008
        27  -9.4572    234.6366    203.2807   7.5123751796e+01  -1.0039827454e+00    0.3209362   0.09929115 -38.91  0.001346225    3.002    0.667
        28  -8.3689    217.5502    205.4883   7.8576107873e+01   8.7062684151e-01    0.1287068   0.09943973  -5.89 0.0002158565    1.008    0.008
        29  -8.7371    229.4880    204.0104   7.6152908554e+01  -4.6090412023e-01    0.1513228    0.1034349 -51.84 0.0008093633    2.482    0.597
        30  -9.0924    233.6849    194.3547   7.3670663797e+01   4.1453670057e-01    0.3007241   0.09281395 -33.85  0.001221343    2.902    0.655
        31  -9.7102    250.5176    179.9588   6.8245289458e+01   3.5432087376e-01    0.3190638   0.09734596 -36.67  0.001358397    2.715    0.632
        32  -9.7792    249.7674    189.2815   7.0080260435e+01  -8.8336366034e-01    0.3658686    0.1385378 -32.34  0.001266947    2.204    0.546
        33 -10.2115    247.5647    184.7307   6.9595503253e+01   4.0637344542e-02    0.2974013     0.134251 -31.27  0.001242167    1.834    0.455
        34 -11.2168    243.6343    187.0166   7.0651743882e+01   2.0883286342e-01    0.5273556    0.1933318 -38.10  0.002431972    2.393    0.582
        35  -9.4349    238.0347    191.2031   7.2351476032e+01   3.1576279441e-01    0.2814222    0.1381922 -20.49  0.001379341    2.086    0.521
        36  -8.3351    227.2931    187.3218   7.3475207212e+01   2.3230025478e+00    0.1317087   0.08250435  -7.88 0.0003883536    1.612    0.380
        37  -8.6668    225.0000    180.9508   7.2668314599e+01   3.6296156152e+00    0.2106023   0.06349726 -38.09 0.0008028914    2.946    0.661
        38 -10.3860    100.9966    176.0014   1.0003149959e+02   2.4734976572e+01     0.207633    0.1967676  22.08            0    1.004    0.004
        39 -10.0961    250.2319    169.4340   6.6312504454e+01   1.9225459251e+00    0.4032696    0.1391195 -31.57   0.00173699    2.563    0.610
        40  -8.8193    247.0000    167.9513   6.6527252902e+01   2.5727987253e+00    0.2075819   0.05790401 -36.94 0.0008058521    2.966    0.663
        41  -9.8655    238.9152    200.5039   7.3894778260e+01  -1.1388363004e+00    0.2981333     0.141784 -28.04  0.001562334    1.815    0.449
        42 -12.4980    248.1468     89.6608   5.0636614995e+01   1.4098903639e+01     1.901767    0.2846414 -38.41  0.006014043    4.571    0.781
        43 -11.6751    248.3777    238.6734   7.8789376814e+01  -7.2442989245e+00    0.9202896    0.2417677 -38.43  0.003966474    3.890    0.743
        44 -10.9065    241.9474    216.5912   7.6205623917e+01  -3.7255945011e+00    0.3924813    0.3407166 -81.49  0.002301085    3.337    0.700
        45 -10.5350    242.1588    194.4252   7.2252778175e+01  -6.7354895697e-01    0.3890532    0.2270693 -24.56  0.002283303    1.411    0.291
        46 -12.6595    239.9290    224.0712   7.7818232759e+01  -4.4892478370e+00    0.6891819    0.5209332  10.88  0.004902472    1.250    0.200
        47  -9.6139    230.1092    146.3058   6.4898227446e+01   8.3897437738e+00    0.3997288    0.1469295 -43.03   0.00162793    2.593    0.614
        48  -8.9840    205.2337    142.8231   6.8433538692e+01   1.3117227245e+01    0.2228158    0.1567114 -74.19 0.0009633813    2.874    0.652
        49  -9.4733    224.8917    138.2343   6.4058088232e+01   1.0539523706e+01    0.2695563    0.1955273 -77.95  0.001300836    2.710    0.631
        50  -9.5154    213.5537    133.7017   6.4970909145e+01   1.3227183924e+01    0.3346432    0.1162879 -40.72  0.001271701    2.573    0.611
        51  -9.2287    224.3883    129.5796   6.2297642156e+01   1.2037993143e+01    0.2823226    0.1891046 -57.66  0.001412537    1.968    0.492
        52  -9.1401    196.8666    129.1987   6.6943626654e+01   1.7053899477e+01     0.356682    0.1767683 -57.36  0.001201564    3.767    0.735
        53  -8.2680    190.6622    127.6787   6.7770102085e+01   1.8513624141e+01    0.1494029    0.1084284   0.70 0.0007050334    1.713    0.416
        54  -8.8641    220.0172    125.0876   6.2021526822e+01   1.3531383759e+01    0.2057881    0.1557406 -61.45  0.001120945    1.692    0.409
        55 -10.1047    224.1958    122.4391   6.0789125454e+01   1.3232907802e+01    0.3876285    0.2368224 -54.25  0.001729937    1.987    0.497
        56  -8.7814    204.6534    123.2179   6.4174216548e+01   1.6639677928e+01    0.2028183    0.1187344 -29.80 0.0009427522    1.653    0.395
        57  -9.3414    175.5031    123.4927   6.9825801307e+01   2.2299219162e+01    0.1475121    0.1390552 -25.25 -1.25279e-05    1.044    0.042
        58  -8.9787    212.1405    121.6837   6.2552906175e+01   1.5513188921e+01    0.2513435    0.1657676 -43.50  0.001301021    1.422    0.297
        59  -8.9366    199.1703    121.8500   6.4833805012e+01   1.7917962202e+01    0.3136609   0.08728813 -43.03 0.0009933807    3.437    0.709
        60  -8.8395    214.8474    116.1134   6.0864837322e+01   1.5945813927e+01    0.2619624    0.1358596 -42.75  0.001213269    1.757    0.431
        61  -9.9006    221.1545    115.4037   5.9719911097e+01   1.4912927188e+01    0.2748608    0.2039602 -70.07  0.001467353    1.884    0.469
        62  -9.1384    190.0338    115.0505   6.4912784027e+01   2.0918426818e+01    0.2295742    0.1756046 -69.15  0.001025789    1.746    0.427
        63  -9.9216    220.7479    109.3250   5.8436742036e+01   1.5967981021e+01    0.3453029    0.2351698 -36.87  0.001897519    1.275    0.216
        64  -9.0776    218.3735    104.7171   5.7762165442e+01   1.7147028939e+01    0.2874861    0.1554352 -43.89 0.0008822515    1.681    0.405
        65  -8.5044    168.3235    110.3318   6.8079107125e+01   2.6296780737e+01    0.1552014    0.1163696   3.59 0.0007050318    1.703    0.413
        66  -8.9794    204.3800    105.7943   6.0200751265e+01   1.9660624986e+01    0.1986227    0.1222002 -28.30 0.0005386358    1.630    0.387
        67  -9.4144    223.3979    102.8969   5.6622519501e+01   1.6502257232e+01     0.310001     0.172014 -39.10  0.001129392    1.551    0.355
        68  -9.0678    213.4039    103.6807   5.8278805470e+01   1.8255290735e+01    0.2673901    0.1119894 -40.85  0.001120094    2.104    0.525
        69  -8.7761    166.3689    104.1824   6.6913577448e+01   2.7874386328e+01    0.2249481    0.1324221 -47.61 0.0009548161    1.761    0.432
        70  -8.7295    198.6190    100.7571   5.9964677741e+01   2.1657882674e+01    0.2071027     0.117424 -45.29 0.0009476782    1.688    0.408
        71 -10.4786    220.5851     94.8119   5.5215434351e+01   1.8291367467e+01    0.6857923    0.2969673 -24.54  0.002532613    3.325    0.699
        72  -9.5693    186.2615     91.7082   5.9862020074e+01   2.5767374320e+01    0.5055247    0.1903486 -30.42  0.001716694    3.139    0.681
        73  -9.3134    204.3883     92.2442   5.7004534840e+01   2.1882071081e+01    0.2677531    0.1243067 -32.55  0.001084302    2.103    0.524
        74  -8.8524    215.1630     92.1908   5.5388127391e+01   1.9743390199e+01    0.1937424    0.1381064 -52.62  0.001057555    1.391    0.281
        75  -9.2583    209.8390     90.4792   5.5765848756e+01   2.1063635730e+01    0.4424009     0.153763 -36.40  0.001697821    2.573    0.611
        76  -9.3584    216.1443     86.9920   5.4058361319e+01   2.0354637108e+01    0.3362352    0.1495647 -45.18  0.001210564    2.072    0.517
        77  -8.5372    181.5259     86.5092   5.9374497225e+01   2.7669117888e+01    0.1417472    0.1343236 -48.25  0.000809986    1.017    0.017
        78  -9.3807    218.2111     81.8845   5.2611397491e+01   2.0720703229e+01    0.3068288    0.1790073 -22.79  0.001400006    2.028    0.507
        79  -9.8599    219.8629     77.4148   5.1380977683e+01   2.1056805194e+01    0.4298144     0.285413 -86.32  0.002234048    2.038    0.509
        80  -9.6387    212.9612     79.4408   5.2751812009e+01   2.2132174739e+01    0.4748181    0.1797526 -28.37  0.001736817    3.208    0.688
        81  -8.8498    181.4920     77.9748   5.7170816572e+01   2.9069481638e+01    0.2089539    0.1058368 -55.00   0.00080969    2.489    0.598
        82  -8.6093    200.4867     76.9803   5.3922533172e+01   2.5083842120e+01    0.2036849   0.09583625 -53.51 0.0008101328    2.522    0.603
        83  -9.6230    209.2302     73.8893   5.1955974540e+01   2.3718740012e+01    0.4713244    0.2293113 -19.87  0.001783083    3.350    0.702
        84  -9.4524    193.3860     72.0021   5.3745781866e+01   2.7366477916e+01     0.409165    0.1086113 -37.84   0.00137702    3.280    0.695
        85  -9.4379    216.4183     71.3415   5.0430139233e+01   2.2624024058e+01    0.3386976      0.19428 -25.32  0.001540893    1.952    0.488
        86  -9.9983    216.7118     66.1047   4.9192676310e+01   2.3308319940e+01    0.3957428     0.254983 -18.80   0.00204126    1.951    0.487
        87  -8.9944    199.5441     66.7260   5.1554362086e+01   2.6810775753e+01    0.2527408    0.1282752 -29.64  0.001129592    2.056    0.514
        88  -9.5515    210.3814     63.7972   4.9432497116e+01   2.4931955154e+01     0.414905     0.152237 -50.63  0.001573088    3.042    0.671
        89  -8.9480    205.4541     65.0594   5.0358691430e+01   2.5787821664e+01     0.203613    0.1185331 -37.06  0.001022786    1.577    0.366
        90  -9.7274    215.3731     59.4400   4.7821149232e+01   2.4501996586e+01    0.3359333    0.1762427 -28.21  0.001185389    2.022    0.506
        91 -10.1502    200.2546     56.8927   4.9057067622e+01   2.8044000138e+01    0.4057183    0.1796415 -26.52  0.001671663    2.664    0.625
        92  -9.3676    187.9035     54.7435   5.0164375022e+01   3.1077867967e+01    0.3199632    0.1831678 -11.60  0.001318084    2.926    0.658
        93  -8.8738    213.2357     53.1804   4.6622005044e+01   2.5782189300e+01    0.2533545    0.1701186 -21.25  0.001377957    1.767    0.434
        94  -9.0750    161.0000     53.0175   5.3862476964e+01   3.7604686332e+01     0.229536   0.07951833 -32.10 0.0008061909    2.969    0.663
        95  -9.9011    205.0973     47.2633   4.6152527889e+01   2.8274739511e+01     0.434314    0.1891352 -25.46  0.001823055    2.791    0.642
        96  -9.4381    210.0578     56.6113   4.7786052742e+01   2.5988393518e+01    0.3942587    0.1300622 -41.91   0.00149894    2.591    0.614
        97  -9.0858    177.5704     44.3142   4.8870730921e+01   3.4843939683e+01    0.2563768    0.1176855 -37.29   0.00112862    2.079    0.519
        98  -9.1255    190.3196     42.6991   4.6780674549e+01   3.2117088898e+01    0.3654981    0.1073235 -33.04  0.001352714    3.165    0.684
        99  -9.1005    195.6567     40.5390   4.5605201138e+01   3.1189285155e+01    0.2273058    0.1131997 -33.50 0.0008913347    1.947    0.486
       100 -10.7902    248.4685    203.4323   7.2830759806e+01  -2.6982953856e+00    0.4923173    0.3164988 -35.53  0.003113571    1.558    0.358
       101  -9.1426    187.4589     33.9874   4.4915230566e+01   3.3829412719e+01    0.1930359    0.1219559 -33.65 0.0006959593    1.593    0.372
       102 -10.4553    247.1438    197.1768   7.1931805409e+01  -1.6749584821e+00    0.4095526    0.2436077  39.45  0.002403602    2.186    0.542
       103  -9.3258    175.3334     24.0988   4.3756120283e+01   3.7758361983e+01    0.2396708    0.1267605 -17.14    0.0010943    2.540    0.606
       104 -10.1677    216.6265     21.1995   3.9068429843e+01   2.8905138136e+01    0.2694757    0.1954461 -13.97  0.001651545    1.851    0.460
       105 -10.3693    245.5806    215.2412   7.5364282584e+01  -3.9602740666e+00    0.4339816    0.1768853 -40.36  0.002154748    2.602    0.616
       106 -11.0010    242.4690    211.1151   7.5171631118e+01  -3.0455616643e+00    0.4020109    0.2303433  27.40  0.002436853    1.746    0.427
       107 -10.2585    250.1677    220.7713   7.5546992113e+01  -5.1951327535e+00    0.5074893    0.1716511 -38.60  0.002404017    2.886    0.653
       108 -10.5990    240.5634    245.3221   8.1164317598e+01  -7.2385753927e+00    0.2308383    0.1225265 -40.45   0.00135117    2.421    0.587
