#   1 NUMBER                 Running object number                                     
#   2 MAG_AUTO               Kron-like elliptical aperture magnitude                    [mag]
#   3 X_IMAGE                Object position along x                                    [pixel]
#   4 Y_IMAGE                Object position along y                                    [pixel]
#   5 X_WORLD                Barycenter position along world x axis                     [deg]
#   6 Y_WORLD                Barycenter position along world y axis                     [deg]
#   7 A_WORLD                Profile RMS along major axis (world units)                 [deg]
#   8 B_WORLD                Profile RMS along minor axis (world units)                 [deg]
#   9 THETA_WORLD            Position angle (CCW/world-x)                               [deg]
#  10 FWHM_WORLD             FWHM assuming a gaussian core                              [deg]
#  11 ELONGATION             A_IMAGE/B_IMAGE                                           
#  12 ELLIPTICITY            1 - B_IMAGE/A_IMAGE                                       
         1 -10.5885    121.7781     64.8459   4.7226845147e+01   4.5195763923e+01    0.5833254    0.1985655 -42.38  0.001886638    2.952    0.661
         2 -11.4250     16.9971     42.2053   8.6120446960e+01   6.9357454552e+01    0.6635394    0.2048754 -57.51  0.002521313    2.598    0.615
         3 -11.9138     27.2376     31.4415   7.5048109169e+01   7.0890173967e+01    0.9401069    0.1409704 -51.09   0.00267052    4.746    0.789
         4 -10.2718     60.8589     30.7193   5.4674505964e+01   6.5481552314e+01    0.5257103    0.1996825 -35.80  0.001843285    2.984    0.665
         5 -11.9952     12.5847     28.0388   8.4799230441e+01   7.3076833058e+01    0.7444316     0.193321 -65.17  0.002543179    3.605    0.723
         6 -12.1522      3.3113     25.6516   9.1724047407e+01   7.4178129442e+01    0.6357535    0.2039252 -57.12  0.002651385    2.380    0.580
         7  -9.8441     49.3382     16.9943   5.3037827339e+01   7.0164495606e+01    0.3813583     0.227113  -5.17  0.001496058    2.963    0.663
         8 -10.6820     40.6978     14.2074   5.6437996225e+01   7.2270810718e+01    0.2819853    0.2114523   1.43 0.0004086006    1.507    0.337
         9 -10.2253      5.7387      6.9759   8.1922704084e+01   7.8263518471e+01    0.1672839    0.1001473 -56.99 0.0008990301    1.578    0.366
        10  -9.7712     75.0549    219.4999   9.0198750637e+01   2.0350672014e+01    0.1957707    0.0962894  31.30   0.00102496    1.578    0.366
        11  -9.4860     13.4980    250.5168   1.0529298530e+02   2.1042359786e+01    0.1080774   0.07597606  42.52 -6.01466e-05    1.013    0.013
        12  -9.3047     29.2950    219.6557   1.0087403425e+02   2.5123591117e+01    0.1276286   0.06274366  52.21 0.0003083445    1.666    0.400
        13  -9.1633     99.5295    216.0293   8.4186994188e+01   1.7997063698e+01    0.1575304   0.09919474  70.40 0.0008086003    2.438    0.590
        14  -9.7438    131.7733    213.9964   7.6699472565e+01   1.4148502627e+01    0.1864933    0.1194263  10.80  0.001041407    1.619    0.382
        15 -10.2134     77.5468    211.9901   8.8953240969e+01   2.1442271585e+01    0.3037089    0.2215036  14.90  0.001842767    1.404    0.288
        16  -9.5196    116.6599    210.3604   7.9614558445e+01   1.6761011720e+01    0.1299841   0.08536163  53.72 0.0006024404    1.827    0.453
        17 -10.3036     99.8237    206.5144   8.3077840163e+01   1.9664894973e+01    0.3375618    0.1477887  53.30  0.001354963    3.217    0.689
        18 -10.0252     56.6955    205.3669   9.3470017964e+01   2.5130764104e+01    0.2124331    0.1116486  51.13  0.001105664    1.725    0.420
        19  -9.3094     49.3088    201.6883   9.5037484255e+01   2.6672998021e+01    0.1344286   0.07415479  52.29 0.0003014488    1.623    0.384
        20 -11.8686    177.5060    197.9227   6.4882776704e+01   1.0424982500e+01    0.4749375    0.2915168  22.29   0.00278155    1.419    0.295
        21  -9.5744    149.0367    198.2842   7.0776972988e+01   1.4328652988e+01    0.1955505    0.1358046  74.30 0.0008873487    3.469    0.712
        22 -11.1153    125.7762    197.6123   7.5867380066e+01   1.7733512119e+01    0.2733584    0.2125183  16.98  0.001661066    1.160    0.138
        23 -10.4336    113.2030    197.9691   7.8858774646e+01   1.9429212760e+01    0.3061301    0.1713606  51.80  0.001475302    2.129    0.530
        24 -10.4039    113.2719    194.3324   7.8363089992e+01   2.0090540731e+01    0.2144603    0.1921415  47.60 0.0006330336    1.201    0.168
        25 -10.2770    105.5156    198.0192   8.0705668984e+01   2.0477728479e+01    0.2076433    0.1638046 -44.23 0.0007243794    1.484    0.326
        26  -9.2308     61.3185    198.6726   9.1773533246e+01   2.5957212810e+01    0.1380234   0.07815683  53.27  0.000477053    1.681    0.405
        27  -8.8821     36.6353    196.3159   9.7888624316e+01   2.9082681370e+01    0.1417234   0.06895406  51.25 0.0007039966    1.769    0.435
        28 -10.6635     66.6922    194.4939   9.0028836984e+01   2.6183665919e+01    0.3587472    0.1692881  57.15  0.001593122    2.430    0.589
        29 -10.6354    172.9537    195.6676   6.5421564909e+01   1.1381871671e+01    0.2212594    0.1816372  31.85  0.001098807    1.306    0.234
        30 -11.0642     78.3778    192.8847   8.6868691372e+01   2.5073460658e+01    0.3040784    0.1907522  60.41  0.001439544    1.786    0.440
        31 -10.3245     44.1469    193.2704   9.5757486697e+01   2.8963796978e+01     0.311307    0.1583959  64.38  0.001521533    2.100    0.524
        32 -12.3743     87.9907    189.3678   8.4011730077e+01   2.4535632679e+01    0.4763902    0.3323477  74.17  0.002518802    1.841    0.457
        33 -10.5900     88.9724    198.4546   8.4805235390e+01   2.2602351497e+01    0.3177073    0.1951417  73.58  0.001553214    2.406    0.584
        34 -10.1299    139.2340    189.8937   7.1671267372e+01   1.7146735578e+01    0.2435522    0.1924401  63.78  0.001282338    1.799    0.444
        35 -10.1172    129.9519    188.7762   7.3630521651e+01   1.8707209063e+01    0.2202406    0.1333968  50.94  0.001080465    1.993    0.498
        36 -13.2809     95.4840    184.8543   8.1532625966e+01   2.4427897219e+01     0.832019    0.4912678  57.55  0.003965699    2.067    0.516
        37  -9.4897      7.6724    188.3321   1.0492628710e+02   3.3308081634e+01    0.1368589   0.06387018  52.21 0.0007051541    1.714    0.417
        38  -9.5156    156.9458    187.4684   6.7401976784e+01   1.4950554821e+01    0.1766753   0.09904604  50.48 0.0008088843    2.505    0.601
        39  -9.5878    149.3319    187.6725   6.9079761624e+01   1.6039147951e+01    0.1243918   0.09847153  56.96 0.0006877146    1.713    0.416
        40 -11.6981    110.2652    185.7877   7.7929475201e+01   2.2141915340e+01    0.4123207    0.2921071  50.19  0.001846814    1.479    0.324
        41  -9.8998     34.7116    186.7429   9.7795387721e+01   3.1316758184e+01    0.2700622     0.118667  67.95  0.001186588    2.569    0.611
        42 -10.7559    120.5101    184.9810   7.5307223783e+01   2.0797922872e+01    0.2777303    0.1403136 -62.35  0.001213483    2.802    0.643
        43 -10.3723     66.4702    184.9923   8.9164921348e+01   2.8206233996e+01    0.2542157    0.1489793  55.83  0.001153777    1.737    0.424
        44 -11.8805     74.4791    183.0735   8.6823541308e+01   2.7614510049e+01    0.3842879    0.2670801  80.58  0.002057351    1.748    0.428
        45  -9.4809    203.4658    187.4733   5.8351192248e+01   8.3859583308e+00    0.1189364   0.09532315   2.02 4.028228e-05    1.040    0.038
        46  -9.1441    197.5411    182.5121   5.8564185059e+01   9.8731374225e+00    0.1216348   0.09893388   2.15 5.399377e-05    1.030    0.029
        47 -12.5661     78.6441    175.9892   8.4875407561e+01   2.8594312511e+01    0.6299022    0.2956004  55.56  0.002338596    2.643    0.622
        48 -10.2295     44.4138    181.6084   9.4820810152e+01   3.1461330775e+01    0.3036085    0.1691628  79.72  0.001493789    2.053    0.513
        49  -9.6205     26.1203    181.4866   9.9781601068e+01   3.3279295531e+01    0.2281746    0.1459466  59.92  0.001295618    1.394    0.283
        50 -10.1075    148.3824    180.3102   6.8095078361e+01   1.7439503163e+01    0.2271812      0.14569  46.86  0.001113793    1.755    0.430
        51  -9.1942    138.3337    179.6591   7.0266419531e+01   1.9093037475e+01    0.1318411    0.1014652  60.48 0.0007051216    1.753    0.430
        52 -10.9435     55.1963    186.5232   9.2318910508e+01   2.9204519777e+01    0.4050198    0.1879018  61.59  0.001746228    2.562    0.610
        53 -11.1789     59.9407    176.3988   9.0076711526e+01   3.0874119682e+01    0.3734729    0.1921738  54.87  0.001566312    2.000    0.500
        54  -9.5203     13.0201    176.3002   1.0307971410e+02   3.5542980466e+01    0.2842815    0.1001384  63.06  0.001181985    2.753    0.637
        55 -11.0633    106.5527    175.4509   7.7382683793e+01   2.4742014373e+01    0.3985718    0.2136724  53.17  0.001592392    2.287    0.563
        56  -9.4837    160.0058    175.5142   6.4744134894e+01   1.6471420304e+01    0.1820531    0.1049527  52.83 0.0008103919    2.575    0.612
        57 -10.3787    135.4806    171.6575   6.9606966076e+01   2.1008740573e+01    0.2874534    0.2229516  53.85  0.001583794    1.527    0.345
        58 -10.0773     44.7172    171.5677   9.3913002205e+01   3.3695516884e+01    0.2397093    0.1421916  68.24  0.001110746    1.783    0.439
        59 -11.9709    122.4844    169.3732   7.2385161983e+01   2.3509349183e+01    0.5446476    0.3771085  62.91  0.002223104    2.008    0.502
        60 -10.9926     55.1971    168.8992   9.0658508068e+01   3.3135620328e+01     0.382113    0.2156515  72.78  0.001753021    2.143    0.533
        61  -9.4645    207.6464    169.7057   5.4514985671e+01   1.0249684379e+01    0.1274757   0.08069404   2.88 0.0005628014    1.686    0.407
        62 -11.3964     88.6434    168.4752   8.1149338485e+01   2.8845480651e+01    0.2924396    0.2436118  74.87  0.001318962    1.354    0.261
        63 -10.3395    112.1590    167.2110   7.4659573102e+01   2.5571342530e+01    0.3282701    0.2132313  78.43  0.001386037    2.807    0.644
        64 -10.6975     74.8854    167.7676   8.4898787333e+01   3.0916597396e+01    0.2736165    0.1659096  69.95  0.001240512    2.139    0.533
        65 -11.5526    140.2802    165.4269   6.7390018848e+01   2.1401992570e+01    0.4398009    0.2778117  58.23  0.001995195    2.345    0.574
        66 -11.9829     99.4919    165.8696   7.7805634230e+01   2.7806702744e+01    0.5281112    0.3087237  53.39  0.001954742    1.948    0.487
        67 -12.1539     93.3966    160.0562   7.8588375691e+01   2.9997198795e+01    0.6047458    0.3526793  55.65  0.002199143    2.018    0.504
        68 -12.4660     80.1520    163.7416   8.2872147554e+01   3.1102559319e+01    0.6321374    0.3565424  75.99  0.002376434    2.882    0.653
        69  -9.5284     21.2335    166.4453   1.0029291764e+02   3.7138500927e+01    0.1961417   0.09584282  37.04 0.0008431291    1.702    0.412
        70 -10.0266    217.6143    165.2257   5.2028642671e+01   9.4636202721e+00    0.1672194   0.09586891 -22.43 0.0003470937    1.610    0.379
        71  -9.2572    160.3565    164.6663   6.2725159592e+01   1.8264584720e+01    0.1289324    0.1071328  69.12 0.0006842498    1.797    0.443
        72 -11.5692     69.9126    162.6330   8.5677558058e+01   3.2749371204e+01    0.3771228    0.2479922  87.91  0.001512865    1.865    0.464
        73  -9.7587     47.5702    163.8006   9.2377720628e+01   3.5192845493e+01    0.1909267    0.1213131  82.15 0.0009501263    1.729    0.422
        74  -9.7402     38.0188    163.7570   9.5197643750e+01   3.6215188703e+01    0.2800207    0.1338255  85.42  0.001194717    2.479    0.597
        75 -10.7226    153.4869    161.2461   6.3597399139e+01   1.9993026661e+01    0.3025092    0.1529719  26.07  0.001295826    2.176    0.541
        76  -9.7728    115.5964    160.7924   7.2697592486e+01   2.6348672935e+01    0.1852054    0.1396243 -70.29 0.0009452077    1.686    0.407
        77 -10.6192     61.9369    159.9767   8.7699823475e+01   3.4396549737e+01    0.3122053    0.1962311  83.40  0.001333792    1.928    0.481
        78 -10.7023    144.2357    159.4527   6.5373691300e+01   2.1864783215e+01    0.2756146     0.212938  53.84  0.001368946    1.543    0.352
        79  -9.7410     31.4104    159.1983   9.6805818567e+01   3.7948007227e+01    0.3070794    0.1181853  88.49  0.001142577    3.222    0.690
        80 -10.5012    129.1970    159.1317   6.8938273561e+01   2.4446225146e+01    0.2738669    0.1722896  56.25  0.001235306    2.085    0.520
        81 -12.0729    106.7617    158.0175   7.4573969059e+01   2.8358275299e+01    0.5604745     0.323285  49.21  0.002205464    1.836    0.455
        82 -10.1231    168.4760    157.9516   5.9736095994e+01   1.8085200483e+01    0.2524024    0.1839267  50.17  0.001231626    1.659    0.397
        83  -9.9953    158.7279    156.5934   6.1555529019e+01   1.9946920726e+01    0.2159374    0.1792431 -69.77 0.0009734336    1.733    0.423
        84 -11.6484    120.0366    155.5648   7.0621074910e+01   2.6699759472e+01    0.4053355    0.3001324  82.46  0.001475145    2.065    0.516
        85 -12.1494     81.9816    154.0236   8.0944888242e+01   3.3063596132e+01    0.6115518    0.3909412  77.48  0.002055885    2.183    0.542
        86 -10.9558     77.8559    146.2599   8.0990107167e+01   3.5489154295e+01    0.3900182    0.2790917  78.19  0.001477584    1.700    0.412
        87 -11.2108     49.9637    154.6126   9.0715038415e+01   3.7117719922e+01     0.526878    0.2764778  64.48  0.002267034    2.219    0.549
        88  -9.8079    213.4959    155.4929   5.0886200963e+01   1.1389991499e+01    0.1242362    0.1003661  -6.08 0.0008104817    1.028    0.027
        89 -10.4721    145.5222    154.8635   6.4204958354e+01   2.2507265515e+01    0.2829473    0.1707251  50.86 0.0009915854    1.968    0.492
        90 -11.9968     68.8584    153.1752   8.4749327160e+01   3.5105997603e+01    0.5851945    0.3290706  55.47  0.002174189    1.934    0.483
        91 -11.4711    134.0518    153.0544   6.6607173070e+01   2.4826507301e+01    0.4722682    0.3030367  61.79   0.00193192    2.372    0.579
        92 -11.1449     91.3783    151.0291   7.7722525469e+01   3.2336617004e+01    0.3677323    0.2553637 -86.41  0.001726965    1.919    0.479
        93 -10.2704    190.7321    150.5516   5.3903766438e+01   1.5640884015e+01    0.2730412    0.1789072  44.58  0.001487417    1.697    0.411
        94 -11.0484     99.0228    150.7509   7.5480655713e+01   3.1192622864e+01    0.2925501    0.2418503  78.90  0.001100643    1.436    0.303
        95 -10.1834     28.5199    148.8803   9.6888030518e+01   4.0729776271e+01    0.4609431    0.1605929  71.53  0.001433245    4.422    0.774
        96  -9.9180    143.2164    149.2260   6.3646872165e+01   2.3977860746e+01    0.1869345    0.1704873  68.93   0.00084147    1.351    0.260
        97 -10.8156     39.5770    146.6243   9.3148205766e+01   4.0214328248e+01    0.5961339    0.3007814  71.02  0.002496781    2.360    0.576
        98 -12.7209    108.3714    145.3947   7.1887480190e+01   3.0836997631e+01    0.7879617     0.480212  63.77  0.002969014    2.470    0.595
        99 -12.6395    150.6771    145.2252   6.1100741868e+01   2.3415559017e+01     0.708766    0.4387712  55.69  0.002754506    2.148    0.534
       100 -12.5584    125.4050    142.7634   6.6783244405e+01   2.8430074562e+01    0.7297304    0.5250928  88.66  0.002835539    2.317    0.568
       101 -10.7452    138.6366    144.4482   6.3789382211e+01   2.5719667938e+01    0.2580575    0.2019297  53.95 0.0009676694    1.450    0.310
       102 -11.9834     88.2783    142.9788   7.7279254100e+01   3.4681614727e+01    0.5674571     0.354152 -70.52  0.002398627    1.917    0.478
       103  -9.5428     13.3194    145.6818   1.0149869058e+02   4.2761876137e+01    0.1455041   0.07915215  54.75 0.0002740933    1.661    0.398
       104 -10.6935    166.8868    144.3741   5.7363307280e+01   2.0695435287e+01    0.3025048    0.1645911  49.90  0.001347031    2.177    0.541
       105 -10.0656    183.1865    142.3917   5.3675041770e+01   1.8199195560e+01    0.1802444    0.1235016  49.77 0.0009192677    1.722    0.419
       106 -11.9970     56.3763    144.4309   8.7482572427e+01   3.8844443825e+01    0.8426352    0.4509184  89.94   0.00346285    2.441    0.590
       107 -11.4711     69.0368    138.4057   8.2532305835e+01   3.8656582040e+01    0.6579284    0.3326843 -83.09  0.002415899    2.966    0.663
       108 -10.4276    173.4177    138.6453   5.4817235658e+01   2.0530844484e+01    0.2851231    0.2268701 -77.51   0.00147829    2.034    0.508
       109 -10.3771     81.1592    138.7049   7.8726165900e+01   3.6800930682e+01    0.2595936    0.2046631 -81.22  0.001201197    1.427    0.299
       110 -10.4524     22.8643    135.9861   9.7696864899e+01   4.4456277853e+01    0.7513758    0.2964288  88.76  0.002855273    2.867    0.651
       111  -9.3421      2.0000    138.9431   1.0479761365e+02   4.5167486482e+01    0.2154377   0.06722726 -84.32 0.0008094893    2.992    0.666
       112 -10.1142    197.9648    136.9945   4.9842538940e+01   1.6547632142e+01     0.194723    0.1630387 -64.80  0.001143182    1.730    0.422
       113 -11.0149    163.1673    136.5308   5.6502082146e+01   2.2751609019e+01    0.2568792    0.2299299 -82.31  0.001176913    1.500    0.333
       114 -10.3550     96.1153    135.6265   7.3576486666e+01   3.5119841614e+01    0.2502178    0.2110187 -81.07 0.0008211331    1.354    0.261
       115 -10.9340     38.9226    135.0045   9.2125383449e+01   4.3211323981e+01    0.3830622    0.1941426 -84.72  0.001451213    2.172    0.540
       116 -10.4883    180.5160    134.3372   5.2493181343e+01   1.9992671591e+01    0.2539252    0.2151481  79.01  0.001423739    1.738    0.425
       117 -12.6912    132.4085    130.3713   6.2364544239e+01   2.9704036547e+01    0.8505792    0.4617823 -61.03  0.003267969    2.698    0.629
       118 -11.9402    113.2525    132.6992   6.8004048600e+01   3.2777171864e+01    0.4670399    0.3632399  78.25  0.001990831    1.710    0.415
       119 -12.1495    143.8973    131.8404   5.9847749045e+01   2.7227297702e+01    0.4106825    0.3528853 -88.01  0.001724877    1.545    0.353
       120 -12.1969     83.7556    129.6545   7.6267423744e+01   3.8574385783e+01    0.9626224    0.4389601 -64.73  0.003432795    2.586    0.613
       121 -12.1417    170.1228    129.8487   5.3584999439e+01   2.2651314681e+01    0.4658912    0.3081577  53.05  0.002299697    1.774    0.436
       122 -12.3131    153.8997    129.4929   5.6999367723e+01   2.5774446507e+01    0.5041069    0.3961601 -70.93  0.002533421    1.779    0.438
       123 -12.7806     99.7150    126.0957   7.0565199858e+01   3.6708804633e+01    0.8916203    0.6365969 -65.54  0.003918972    1.598    0.374
       124 -11.0083     73.1170    128.1938   7.9477480830e+01   4.0588675859e+01    0.5509774    0.2849908 -76.13  0.002082592    2.606    0.616
       125 -10.2752     12.5477    128.5219   1.0069380459e+02   4.7139329084e+01    0.4846016    0.1808143  68.02  0.001795937    3.019    0.669
       126 -10.3613     12.7176    122.1254   1.0018487289e+02   4.8777127886e+01    0.5576603    0.1023688 -58.52  0.001673215    4.584    0.782
       127 -12.3613    118.6935    124.9931   6.4813456435e+01   3.3451896486e+01    0.7403146    0.5040819  73.46  0.002767547    2.336    0.572
       128 -11.4291    180.9214    125.0345   5.0378039062e+01   2.1468601493e+01    0.3279626    0.2802968  88.89  0.001788904    1.674    0.403
       129 -11.2879     59.2838    122.8966   8.3316211831e+01   4.3896651275e+01    0.8573792    0.4457344  88.93  0.003069249    3.022    0.669
       130 -11.4475     43.5126    121.0837   8.8735647145e+01   4.6312259776e+01     1.061749    0.4708594  81.74  0.003371419    3.912    0.744
       131 -11.2442     28.1545    121.4500   9.4452678406e+01   4.7758304951e+01    0.9140133    0.3265881  65.73  0.002704366    4.561    0.781
       132 -10.0090    190.0002    124.4953   4.8577351168e+01   1.9895891058e+01     0.198327    0.1308501  45.29  0.001038275    1.619    0.382
       133 -12.5483    159.3731    121.2094   5.3894232951e+01   2.6253176027e+01    0.4960091    0.3756013 -77.14  0.002052937    2.046    0.511
       134 -13.0489    142.7023    118.5722   5.7093709664e+01   3.0068333219e+01    0.8032318    0.5470072 -63.75  0.003559435    2.001    0.500
       135 -12.0382    172.9736    121.4932   5.1126388163e+01   2.3565256654e+01    0.3606533    0.3053618  55.75   0.00203719    1.361    0.265
       136 -12.5995    131.6999    118.2020   5.9754324888e+01   3.2349247537e+01    0.6670653    0.4832481 -70.12  0.002953555    1.893    0.472
       137 -10.8839     71.1742    119.1547   7.8457570487e+01   4.3140282330e+01    0.4667989    0.2741044 -79.07   0.00189118    2.212    0.548
       138 -11.7525    109.3979    113.3467   6.4768011522e+01   3.7818129833e+01    0.9402709    0.4587485 -61.41   0.00329287    2.848    0.649
       139 -10.7558      2.5727    115.0337   1.0347191817e+02   5.1204662983e+01    0.7609642    0.2396096  84.74  0.002677209    3.330    0.700
       140 -11.6177    186.4243    116.3727   4.7395245902e+01   2.1866328119e+01    0.2573946    0.2414976 -47.90  0.001105817    1.196    0.164
       141 -11.2929    168.4976    114.4829   5.0390563264e+01   2.5659139544e+01    0.3074993    0.2222907 -80.26  0.001383207    2.386    0.581
       142 -11.1135     79.0339    111.7497   7.4191994487e+01   4.3733239777e+01    0.7555347    0.4274034 -84.81  0.002591051    3.219    0.689
       143 -12.1774    175.6182    112.0358   4.8399859983e+01   2.4672155880e+01    0.3888946    0.3097073 -51.49  0.001892023    1.384    0.277
       144 -13.1571    159.8846    110.8353   5.1306073893e+01   2.8047089643e+01    0.7642014    0.3680667 -45.34  0.003116881    2.141    0.533
       145 -13.8707    150.7903    102.8857   5.1306408436e+01   3.1413785034e+01     1.202794    0.6834082 -54.88  0.004931522    2.198    0.545
       146 -12.2876    139.5340     91.4774   5.0872315565e+01   3.6033975693e+01    0.6953561    0.4462455 -57.94  0.002708982    1.900    0.474
       147 -11.7121    122.9060    111.9240   6.0567688200e+01   3.5438812471e+01    0.5494857    0.3782986 -56.76  0.001729124    1.631    0.387
       148 -11.4772     92.8390    110.5794   6.9265805273e+01   4.1596807326e+01    0.9623276    0.4438604 -61.78  0.003386104    2.707    0.631
       149 -10.9356     66.4447    109.4948   7.8225112186e+01   4.6301161912e+01    0.6354765    0.3345028 -74.72  0.002410347    2.446    0.591
       150 -11.0544     14.2447    108.9494   9.8535220504e+01   5.2124869452e+01    0.5667148    0.3028825 -84.58  0.002624294    1.787    0.440
       151 -11.8902    190.3208    108.6754   4.4924521926e+01   2.2362270992e+01    0.3500557    0.2201289 -54.23  0.001528735    1.996    0.499
       152 -11.3816    183.7354    109.7563   4.6343045363e+01   2.3460485092e+01     0.256592    0.2233326 -61.59  0.001111132    1.358    0.264
       153 -11.5252    133.6991    109.2556   5.7044223969e+01   3.3775065195e+01    0.3980289      0.32233 -81.88  0.001580037    1.619    0.382
       154  -9.7074     59.3482    108.8659   8.0753152892e+01   4.7495893503e+01    0.2936055    0.1444111 -74.65  0.001081241    2.521    0.603
       155 -12.7120    140.6509    103.8719   5.3933676183e+01   3.3386148676e+01    0.7198812    0.4905645 -61.28  0.003210471    1.860    0.462
       156 -12.7341    167.6874    103.7905   4.7948153684e+01   2.7695486844e+01    0.5671997    0.4196597 -66.52  0.002770868    1.811    0.448
       157 -12.1799    160.6179    100.9137   4.8665747723e+01   2.9685125371e+01    0.4103373    0.3189065 -57.57  0.001559344    1.465    0.317
       158 -11.6503     45.4519    101.9286   8.4906860061e+01   5.1116026700e+01    0.8948197    0.4291512  65.57  0.003005772    3.371    0.703
       159  -9.6897     43.3476     93.0400   8.4099643218e+01   5.3705981543e+01    0.4189996    0.1559946 -56.69  0.001232047    2.444    0.591
       160 -12.1484     22.2957     99.6249   9.4227780776e+01   5.4022009818e+01     1.277097    0.5332185  87.09  0.004586962    3.012    0.668
       161 -12.3301    129.1792    101.4834   5.6203996123e+01   3.6315096478e+01    0.6334718    0.4100009 -54.44  0.002199965    1.729    0.422
       162 -12.7836    176.3167    102.4570   4.5948246272e+01   2.6148610540e+01    0.5284265    0.3464677 -56.39  0.002494795    1.893    0.472
       163 -11.3993      7.0065    100.2644   1.0073792911e+02   5.4843682602e+01    0.6625884    0.2092328 -71.13  0.002507477    2.680    0.627
       164 -11.9511    109.4292     98.9429   6.1089161685e+01   4.1023958311e+01    0.9350607    0.5909498  70.88  0.003514213    2.586    0.613
       165 -10.1638    107.2409     92.7621   6.0054008772e+01   4.2841490637e+01    0.4040882    0.3138959   1.08  0.001836702    1.718    0.418
       166 -10.3939     82.0732     98.7868   7.0066553895e+01   4.6386074545e+01     0.653928    0.2954753 -65.04  0.002158088    3.068    0.674
       167 -13.8805    186.7001     85.1305   3.9787183027e+01   2.6788729073e+01     1.277125    0.3512127 -43.25  0.004112929    3.640    0.725
       168 -10.8175     95.1665     96.0367   6.4824859021e+01   4.4568088788e+01    0.5677218    0.2850788 -55.56  0.002147611    2.179    0.541
       169 -11.3708     63.5888     94.3355   7.5958892530e+01   5.0593959487e+01    0.8928984    0.4509191 -70.84  0.003302932    2.506    0.601
       170 -12.6057    165.2387     93.7483   4.5870295889e+01   2.9956005422e+01    0.4490523     0.346014 -58.91  0.001788477    1.481    0.325
       171 -12.4296    164.3851     87.1665   4.4293102898e+01   3.1270550768e+01    0.3943262    0.3254189 -76.94  0.001912842    1.459    0.315
       172 -11.9016    158.6028     91.6563   4.6661050418e+01   3.1766450545e+01     0.414908    0.3097821 -74.81  0.001620809    1.825    0.452
       173 -12.1922    125.3741     89.4718   5.3900753747e+01   3.9592490049e+01    0.8530533    0.4565252 -46.69  0.003434586    1.924    0.480
       174 -12.8785    179.8099     85.7886   4.1105372789e+01   2.8143350379e+01    0.4893832    0.3619535 -52.78   0.00256373    1.427    0.299
       175 -12.0060    151.3676     89.0817   4.7499108717e+01   3.3831657211e+01    0.4811609    0.3285795 -57.60  0.002203576    1.722    0.419
       176 -10.1775     58.0161     92.0023   7.7668045148e+01   5.2028400339e+01    0.2190911    0.2099852  63.99            0    1.039    0.038
       177 -11.0481     34.9174     87.2773   8.6719974151e+01   5.6164452094e+01    0.9299036     0.318634 -67.51  0.003267469    2.761    0.638
       178 -11.3609     10.6595     74.6853   9.6396589604e+01   6.1424737566e+01    0.4307522    0.2873822 -13.60  0.001739324    1.699    0.412
       179 -11.2783      8.6505     80.3586   9.8096877772e+01   6.0029818909e+01    0.3856588    0.2425912  47.21  0.001949087    1.657    0.396
       180 -11.6860      4.4089     89.6994   1.0099496545e+02   5.7759238704e+01    0.5999509    0.2986102 -84.05  0.002741942    1.858    0.462
       181 -11.2867      7.8183     84.1733   9.8910261287e+01   5.9061365741e+01    0.2768001    0.2138017 -35.86  0.001040036    1.366    0.268
       182 -13.3374    184.3341     96.6842   4.3079340904e+01   2.5459629734e+01    0.6734109    0.4502345  87.35  0.002961465    2.661    0.624
       183 -10.9632     86.7601     85.8097   6.4864874614e+01   4.8593645611e+01    0.6987154    0.4236771 -70.45  0.002400962    2.389    0.581
       184 -11.3663     48.6009     82.7389   7.9520095493e+01   5.5727130961e+01    0.8878759    0.4675919 -74.20  0.003485026    2.296    0.564
       185 -12.5105    171.1359     83.1512   4.1943499201e+01   3.0450440208e+01    0.5051664    0.3178818 -66.56   0.00214922    2.357    0.576
       186 -11.9489    168.1672     77.5343   4.0958658360e+01   3.2026139461e+01    0.3519459    0.2570651 -63.68  0.001733023    1.613    0.380
       187 -11.7447    157.4926     69.8511   4.0773410385e+01   3.5737919421e+01    0.3965198    0.2162212 -42.28  0.001706296    1.779    0.438
       188 -12.6758    159.0069     82.6187   4.4114264320e+01   3.3249607235e+01    0.5262864    0.3949258 -27.22  0.002639878    1.383    0.277
       189 -11.8213    157.9435     76.4572   4.2592577172e+01   3.4538413195e+01    0.4391201    0.2595385 -50.43  0.001568148    1.819    0.450
       190  -9.5506    116.6462     83.9257   5.4689169728e+01   4.2674620267e+01    0.3411324    0.1468296 -42.60  0.001034262    2.373    0.579
       191 -11.1823    105.0840     82.3721   5.7679365798e+01   4.5558433227e+01    0.7784014    0.4453998 -62.16  0.002916697    2.416    0.586
       192 -12.0112    141.3979     82.6714   4.7929731893e+01   3.7267400607e+01    0.5388119    0.3845167 -58.24  0.002499269    1.604    0.377
       193 -11.0687    140.9544     74.7848   4.5699978300e+01   3.8803376729e+01     0.523077     0.244036 -46.91  0.001971466    2.269    0.559
       194 -12.2480    150.9124     80.5328   4.5198026356e+01   3.5460107337e+01    0.5603967    0.3529465 -57.13  0.002430248    1.910    0.476
       195 -12.2066     25.5946     76.0394   8.9038111551e+01   6.0019324832e+01     1.282079    0.3794091 -55.46  0.004510011    2.825    0.646
       196 -10.6089    119.6157     79.5922   5.2538356654e+01   4.2879547894e+01    0.4676235    0.3048504 -61.29  0.001956663    1.930    0.482
       197  -9.9412     74.7800     80.3110   6.7754123261e+01   5.2161145847e+01    0.3628896    0.2152809 -70.74  0.001390737    2.359    0.576
       198 -12.0073    175.3553     78.4655   3.9941066734e+01   3.0272186450e+01    0.4320569    0.2238274 -49.55   0.00174206    2.102    0.524
       199 -13.1880    177.6510     94.1876   4.3636456338e+01   2.7243462306e+01    0.7392044    0.3394122 -48.18  0.002927726    2.445    0.591
       200 -10.9488     82.4254     71.1293   6.1909909891e+01   5.2806381502e+01    0.8528603    0.3424065 -54.41  0.002816166    2.925    0.658
       201 -11.5452    128.5230     74.1283   4.8482313479e+01   4.1863098354e+01    0.7533609    0.3770967 -45.16  0.002942572    2.046    0.511
       202 -11.9747    175.6974     72.1313   3.8169084350e+01   3.1183803123e+01    0.3221851     0.263128  80.31  0.001754237    1.376    0.273
       203 -12.6779    170.2772     70.6187   3.8667624588e+01   3.2646487340e+01    0.5884536    0.2806714 -52.09  0.002270843    2.521    0.603
       204 -10.9239    151.6417     72.7684   4.2790785656e+01   3.6631016298e+01    0.3070737    0.2333401 -49.00   0.00152845    1.326    0.246
       205 -11.9246    147.3863     67.3491   4.2044670109e+01   3.8557131326e+01    0.5322245      0.32289 -46.42  0.002358272    1.670    0.401
       206 -10.2112    115.9933     71.8812   5.1117925349e+01   4.5240719840e+01    0.4043458    0.2127579 -47.32  0.001586538    1.993    0.498
       207 -10.1280     42.5677     71.4931   7.9519804113e+01   5.9390106473e+01    0.4085257    0.1396406 -62.33  0.001385875    2.870    0.652
       208 -10.1869    106.0534     71.2233   5.3835636725e+01   4.7669150482e+01    0.3778459    0.2514305 -59.52  0.001321305    1.796    0.443
       209 -10.4689     95.0760     70.1818   5.7045316065e+01   5.0341679291e+01    0.6692324    0.2703983 -55.05  0.002052314    3.448    0.710
       210 -10.9591     10.1401     64.2838   9.5168062466e+01   6.4182166417e+01    0.4123904    0.1736005 -60.47  0.001765824    2.012    0.503
       211 -11.1068     51.1965     67.5244   7.4183454635e+01   5.9194493433e+01    0.8417376    0.3034384 -65.48   0.00250576    3.949    0.747
       212 -11.3391     16.4127     68.2068   9.2378474610e+01   6.2782200526e+01    0.5427037    0.2241915 -67.99  0.002231698    2.137    0.532
       213 -10.8594     18.0120     62.7080   9.0460340875e+01   6.4103731507e+01    0.3322768    0.1699467 -47.50  0.001329406    1.842    0.457
       214 -12.6347    163.6313     72.5528   4.0396775431e+01   3.3867420176e+01    0.5136856    0.2950102 -42.08  0.002305491    1.675    0.403
       215 -10.9412    138.8515     65.6227   4.3346933110e+01   4.0912830484e+01    0.4676889    0.1892329 -43.48  0.001668535    2.489    0.598
       216  -9.5818    247.5338    247.4911   6.0265456664e+01  -3.1843713571e+00   0.09794752   0.06453139   2.62 5.330129e-05    1.044    0.042
       217 -10.8329     62.2134     72.3594   7.0588574386e+01   5.6274820012e+01    0.8730848     0.156334 -51.22  0.002204427    4.927    0.797
       218 -12.5213      7.7730     53.6982   9.4791608749e+01   6.7037169794e+01     1.007241    0.2808449 -59.64  0.003773111    2.706    0.630
       219 -10.1379    100.4959     59.7159   5.1597468256e+01   5.1234125055e+01    0.4995544    0.2325377 -55.95  0.001629146    3.163    0.684
       220 -10.5734     73.2733     57.7554   6.0839671698e+01   5.7584271559e+01    0.7080006     0.270643 -49.87  0.002415382    2.776    0.640
       221 -11.7880      5.3793     69.8322   9.8522796569e+01   6.2955101513e+01    0.4624444    0.3344634  72.61  0.002526268    1.428    0.299
       222 -10.5303     25.0797     57.4702   8.5206743298e+01   6.4870812579e+01    0.4289076    0.1966454 -64.39  0.001800998    2.029    0.507
       223 -10.1358    131.1620     57.7537   4.2535099492e+01   4.4139000901e+01    0.3072674    0.1621757 -49.09  0.001211156    2.069    0.517
       224  -9.9405    139.9618     55.9889   4.0009076544e+01   4.2239820623e+01    0.2485957    0.1772234 -69.90  0.001132974    1.700    0.412
       225 -10.1843    119.3141     55.2735   4.4580797807e+01   4.7503388069e+01    0.3819212    0.2116469 -57.03  0.001400689    2.365    0.577
       226  -9.9705     62.7844     54.0482   6.4044217360e+01   6.0410472730e+01    0.3425344    0.2184219 -64.88  0.001460036    2.017    0.504
       227 -10.0949     62.7551     49.9907   6.2465193137e+01   6.1295286304e+01     0.416596    0.2169378 -40.65  0.001694254    2.024    0.506
       228 -10.6516     53.8951     51.8486   6.7500333199e+01   6.2467326235e+01    0.6863373    0.2235011 -56.74  0.002087163    3.783    0.736
       229 -10.1164     44.8205     43.6688   6.9109385894e+01   6.5760943282e+01    0.4791775    0.1984795 -45.63   0.00183627    2.389    0.581
       230 -10.1239     44.0000     54.4972   7.3636753619e+01   6.3388863349e+01    0.4046181    0.2204009 -58.73  0.001744772    1.867    0.464
       231 -11.1124     45.3150     49.1324   7.0983373688e+01   6.4450589802e+01    0.2889802    0.2477192 -24.78 0.0003258157    1.188    0.158
       232 -10.2325    110.2862     62.7316   4.9682802531e+01   4.8348186089e+01    0.4822813    0.2770577 -48.07  0.001828559    1.847    0.459
       233  -9.6339    105.8356     52.7133   4.7374376074e+01   5.1266606897e+01    0.3059655    0.1943147 -63.18  0.001234889    2.144    0.534
       234 -10.7036     20.1540     50.7308   8.6421269971e+01   6.6995210783e+01    0.5296899    0.2123862 -60.88  0.002171394    2.170    0.539
       235  -9.1635     23.5013     46.5435   8.3111700470e+01   6.7739855789e+01     0.205457    0.1151242 -51.44  0.000521649    1.623    0.384
       236 -11.1804     30.9753     48.7349   7.9143776713e+01   6.6434999074e+01    0.7623229    0.2291151 -60.74  0.002585215    3.160    0.684
       237 -10.5454     92.2704     48.7902   5.0148077115e+01   5.5222844864e+01    0.7084492    0.2426554 -44.81  0.002279283    3.131    0.681
       238 -10.1620     81.9687     45.6542   5.2552645732e+01   5.8174356395e+01    0.5162578    0.2245326 -36.97  0.001882648    2.495    0.599
       239 -10.7908     37.5046     62.5009   7.9646898444e+01   6.2284474658e+01    0.6289234    0.2706915 -62.58   0.00244613    2.286    0.563
       240 -10.1321    237.8989    230.0471   5.9298935399e+01  -5.9246311115e-01    0.2140981    0.1174664 -20.92   0.00114117    1.569    0.363
       241 -10.3747     58.1198     41.3595   6.1052707889e+01   6.3971696676e+01    0.5143395    0.2528383 -57.35  0.001916977    2.736    0.635
       242 -10.3648     69.2189     39.8968   5.5224475727e+01   6.2042797806e+01     0.535811    0.2436498 -45.38  0.002066949    2.317    0.568
       243  -9.1515    113.8373     41.2255   4.0791202136e+01   5.1193662738e+01    0.1981513    0.1711731  23.19 0.0002682758    1.312    0.238
       244  -9.6200    106.3623     41.1415   4.2743279791e+01   5.3102456624e+01    0.2229986    0.1328509 -46.00 0.0007457432    1.787    0.440
       245 -10.4057     36.9504     38.9467   7.1814100562e+01   6.7967045914e+01    0.4793659    0.1940081 -52.61  0.001880514    2.373    0.579
       246  -9.6993     95.4801     37.0502   4.4243324214e+01   5.6475314412e+01    0.3459439    0.1327279 -41.16  0.001209811    2.696    0.629
       247 -11.0574    162.1433    225.4895   7.1898573323e+01   8.5190438919e+00    0.4089758     0.237999  10.85  0.002373246    1.703    0.413
       248  -9.5217    111.6327     33.8509   3.8431278849e+01   5.2867737779e+01    0.2198637    0.1304782 -43.40 0.0009505702    1.755    0.430
       249 -12.4280      5.3606     38.6606   9.3409168359e+01   7.0934995197e+01    0.8405533    0.2926899 -70.71   0.00337245    2.550    0.608
       250 -10.4682     99.0295    225.3145   8.5248876088e+01   1.6464172316e+01    0.2794047    0.1817281  20.68  0.001030083    1.368    0.269
       251 -10.1283     72.5048     29.8007   4.9064642588e+01   6.3120962198e+01    0.4271761    0.1482232 -35.25  0.001444729    3.110    0.678
       252  -9.9406    193.2132    225.4111   6.6043895505e+01   4.7707162197e+00    0.1483436   0.08651788  32.99 0.0004930787    1.609    0.379
       253  -9.7937     81.8338     27.0205   4.4174929790e+01   6.1377343433e+01    0.3497545    0.1706134 -53.68  0.001239931    3.053    0.673
       254 -10.8155     86.8293    227.5698   8.8199140559e+01   1.7547374403e+01    0.3541446    0.1041942  25.92  0.001374838    3.110    0.678
       255  -9.5405     40.5945     21.6110   6.0980715959e+01   7.0976634680e+01    0.3124612     0.179715 -21.22  0.001230519    2.464    0.594
       256 -10.1864     60.8967    223.5465   9.3794175471e+01   2.1208274934e+01    0.3652751   0.09606397  44.12  0.001500071    2.912    0.657
       257 -10.2239     49.9209     30.2613   6.0091680337e+01   6.7692099361e+01    0.5175854    0.1771968 -36.82   0.00166344    3.660    0.727
       258  -9.8487     19.5633     19.6923   7.5427372826e+01   7.4317294361e+01    0.2652328    0.1125763 -51.27  0.001152627    2.152    0.535
       259  -9.8469     73.5533     17.7996   4.2451293241e+01   6.4699939499e+01    0.3569207    0.1326892 -34.53   0.00131539    2.758    0.637
       260  -9.6767     91.5207     25.0985   4.0111350554e+01   5.9264405233e+01    0.3406811    0.1260305 -37.87  0.001214878    2.744    0.636
       261 -11.0844    126.2967    220.5770   7.8704917733e+01   1.3808940526e+01    0.2322667    0.1855717  35.98 0.0007100274    1.196    0.164
       262  -9.3221    112.4874     46.5005   4.3162276452e+01   5.0690083540e+01    0.1519773    0.1447264  81.29 0.0008102544    1.039    0.037
