#   1 NUMBER                 Running object number                                     
#   2 MAG_AUTO               Kron-like elliptical aperture magnitude                    [mag]
#   3 X_IMAGE                Object position along x                                    [pixel]
#   4 Y_IMAGE                Object position along y                                    [pixel]
#   5 X_WORLD                Barycenter position along world x axis                     [deg]
#   6 Y_WORLD                Barycenter position along world y axis                     [deg]
#   7 A_WORLD                Profile RMS along major axis (world units)                 [deg]
#   8 B_WORLD                Profile RMS along minor axis (world units)                 [deg]
#   9 THETA_WORLD            Position angle (CCW/world-x)                               [deg]
#  10 FWHM_WORLD             FWHM assuming a gaussian core                              [deg]
#  11 ELONGATION             A_IMAGE/B_IMAGE                                           
#  12 ELLIPTICITY            1 - B_IMAGE/A_IMAGE                                       
         1  -8.4950     55.6679     10.1214   7.2808466364e+01   6.6832630672e+01    0.1828817    0.1626726  24.24 0.0006711446    1.301    0.231
         2  -8.5284     90.8659      9.1521   6.0424056825e+01   6.0400906235e+01    0.1820738    0.1773872 -22.55 0.0005992412    1.260    0.206
         3  -7.5207    101.4859      8.4208   5.7276925359e+01   5.8185714259e+01    0.1309672      0.11719  34.05 0.0001616613    1.057    0.054
         4  -8.5382     33.5110      5.5014   8.0210663349e+01   7.0579843342e+01    0.2085762    0.1731729 -58.98  0.001090255    2.303    0.566
         5  -8.6962     79.0869      3.8911   6.1477256530e+01   6.3307955270e+01    0.2869434    0.1530388 -32.71  0.001019674    2.038    0.509
         6  -7.7683     44.7062      3.3204   7.3881521253e+01   6.9323894787e+01    0.1030559   0.09193781 -35.80  0.000357182    1.610    0.379
         7  -8.2887     62.2368      1.5949   6.5971942532e+01   6.6676179409e+01    0.1634484    0.1454293  40.41 0.0003475824    1.361    0.265
         8  -8.4262    113.1706    248.6422   1.1247048802e+02   8.9362029135e+00    0.1909063    0.1432317  86.96  0.001018335    1.504    0.335
         9  -8.4683     93.9752    249.5135   1.1601087027e+02   1.1602344291e+01    0.2115504    0.1356554  76.21    0.0011277    1.638    0.390
        10  -7.4416     86.2936    250.6409   1.1746988212e+02   1.2496503483e+01    0.1201609   0.06801526  66.37  0.000630288    1.697    0.411
        11  -8.1251     26.4800    250.4950   1.2751381205e+02   1.9975132769e+01    0.1071585   0.07152122  67.32 0.0008100686    1.036    0.035
        12  -9.2965    103.9553    247.0706   1.1398688984e+02   1.0561814279e+01    0.4062836    0.2214312 -88.12  0.001854478    2.769    0.639
        13  -8.9634    242.9874    246.8965   8.8878069169e+01  -1.0566311493e+01    0.3035083    0.1462088 -26.21  0.001260361    2.198    0.545
        14  -8.8100    232.5969    247.3770   9.0717514161e+01  -9.1776597845e+00    0.2041469    0.1781259  -8.88 0.0008406916    1.368    0.269
        15  -9.3742    211.0259    246.7145   9.4375000784e+01  -5.9650319316e+00    0.2064093    0.1667559 -53.30 0.0007651896    1.959    0.489
        16  -8.7903    132.2341    247.7941   1.0889099892e+02   6.1617354423e+00    0.2160672    0.1535392  66.35 0.0007605926    1.519    0.342
        17  -9.9629    223.9821    244.1382   9.1704012138e+01  -7.5712268060e+00    0.3956923    0.2270612 -43.73  0.002289678    2.460    0.593
        18  -9.1109    147.2444    246.3940   1.0595468871e+02   4.0261847565e+00    0.2624596    0.1598617  61.94  0.001445589    2.008    0.502
        19  -8.6412    146.7810    240.6421   1.0532372022e+02   4.9795617442e+00    0.3473011    0.2340509  83.54   0.00188171    2.419    0.587
        20  -9.2000    120.3116    245.5440   1.1083713949e+02   8.3558330061e+00    0.3299718    0.2020937  79.13  0.001796482    2.321    0.569
        21  -9.2159     78.3168    243.4529   1.1827725311e+02   1.4824324623e+01    0.4014917    0.1594898  63.67  0.001770878    3.158    0.683
        22  -8.1026     67.4927    245.0813   1.2032062808e+02   1.5990031521e+01    0.1538112    0.0998193 -79.63  0.001029368    1.579    0.367
        23  -7.8603     50.6893    245.3784   1.2323840800e+02   1.8066593242e+01    0.1214721   0.05949295  66.51 0.0007027282    1.793    0.442
        24  -9.2212    202.2276    242.7080   9.5347067819e+01  -4.1299540277e+00      0.31625     0.183842 -28.90  0.001628563    2.025    0.506
        25  -8.9494    169.1696    243.0917   1.0146003335e+02   1.0244410375e+00     0.250075     0.182174 -38.18  0.001397416    1.686    0.407
        26  -8.7404      9.4669    243.7847   1.2988954055e+02   2.2919930651e+01    0.1875612   0.07643683  89.88   0.00112875    2.139    0.532
        27  -8.4704    194.5405    243.5139   9.6857683860e+01  -3.0439277990e+00    0.2213875   0.09576894  36.00 0.0005722773    1.900    0.474
        28  -9.0105    194.1807    240.1297   9.6423872864e+01  -2.5395226635e+00    0.2260227    0.2081464 -74.18 0.0006931587    1.613    0.380
        29  -9.6581    160.2479    240.4669   1.0277031297e+02   2.8405974600e+00    0.3541434     0.244965  83.92  0.001546538    2.589    0.614
        30  -8.4394    214.2317    241.5327   9.3018184454e+01  -5.8117188158e+00    0.2297065    0.1304298 -18.27   0.00104068    2.164    0.538
        31  -9.1866    183.2914    240.4117   9.8467990958e+01  -8.5258242172e-01      0.38572    0.2449016  64.63   0.00178099    2.788    0.641
        32  -8.1069    153.4257    242.1907   1.0427503119e+02   3.6776076705e+00    0.1468488    0.1161806 -77.68 0.0005882056    1.728    0.421
        33  -8.1451     88.2036    242.1883   1.1638619740e+02   1.3667290321e+01    0.1620525    0.1087718  69.27 0.0005032858    1.361    0.265
        34  -8.3435    240.5824    240.3157   8.8235006136e+01  -9.5070065889e+00    0.1848938    0.1032477 -33.98 0.0008275324    2.027    0.507
        35  -8.0867     41.4304    239.9394   1.2446409697e+02   2.0143306592e+01    0.1580686   0.06716571  76.11 0.0008061813    2.526    0.604
        36  -8.3052    208.8592    238.5926   9.3525007018e+01  -4.6242832260e+00    0.1716931    0.1376978 -29.63 0.0007132682    1.464    0.317
        37  -9.3762    135.5049    238.9776   1.0724392728e+02   7.0448773072e+00    0.2360598    0.1380894  53.37 0.0008610736    1.578    0.366
        38  -8.2280    129.2122    239.1398   1.0845208756e+02   8.0154407270e+00    0.1732774    0.1230874  61.27 0.0007892079    1.379    0.275
        39  -9.2260    230.7626    236.7718   8.9353387640e+01  -7.6898829609e+00     0.286534    0.2048258 -47.08  0.001132867    2.178    0.541
        40  -8.7699    217.0233    235.9971   9.1653113050e+01  -5.5446787851e+00    0.2015406    0.1750204  39.85 0.0005706607    1.403    0.287
        41  -9.3226    213.7583    231.8704   9.1578959428e+01  -4.5148596830e+00     0.268601    0.2329963  76.23  0.001244901    1.979    0.495
        42  -8.4661     25.4743    236.9812   1.2697905244e+02   2.2475222699e+01     0.160172   0.06206907  75.43 0.0008100912    2.622    0.619
        43  -8.9617    203.1696    234.9210   9.3986923932e+01  -3.2598439226e+00     0.279836    0.1872676 -55.43  0.001231661    2.443    0.591
        44  -8.6641    194.5929    232.8493   9.5244809899e+01  -1.6136905873e+00    0.1895795    0.1812886  86.74   0.00103765    1.476    0.322
        45  -9.7270    175.7056    233.3770   9.8863702611e+01   1.3802453067e+00    0.4119104     0.239187 -58.23  0.002113466    2.666    0.625
        46  -8.0417    170.1509    236.0759   1.0030175730e+02   1.8887916406e+00    0.1578275    0.1344178  58.00 0.0004573498    1.325    0.245
        47  -7.8955     57.9640    237.0000   1.2139027904e+02   1.8659556057e+01    0.1801923   0.05376444  38.68  0.000803672    2.951    0.661
        48  -8.8562    247.9540    234.7311   8.6070203873e+01  -9.9044527950e+00     0.211024    0.1430518 -10.98 0.0009476654    1.358    0.264
        49  -7.6468    184.4295    235.4477   9.7530051061e+01  -3.3922257380e-01    0.1237415     0.100052  27.81 9.776064e-05    1.031    0.030
        50  -8.0975    152.5954    235.4839   1.0355118681e+02   4.8448012514e+00    0.1228644    0.1025633  41.14 0.0001116407    1.019    0.018
        51  -9.2489    108.9703    234.5211   1.1176190216e+02   1.1943969267e+01    0.4279362    0.1921722  54.54  0.001838949    2.135    0.532
        52  -8.3268     99.7894    234.5882   1.1350628984e+02   1.3316581499e+01    0.2299858    0.1328016  76.65  0.001210728    2.178    0.541
        53  -9.1516     78.6468    234.3578   1.1743082490e+02   1.6397702147e+01    0.2594329    0.1475214  85.64  0.001013793    1.988    0.497
        54  -9.3479      7.8774    235.0727   1.2976713678e+02   2.4630728476e+01    0.1681818   0.09769206  68.07 0.0009850411    1.226    0.184
        55  -8.3293    122.8974    233.9893   1.0904527659e+02   9.8720027743e+00    0.1986909    0.1284653  67.27 0.0009468845    1.738    0.424
        56  -9.3169     68.3555    232.1047   1.1912993991e+02   1.8207939262e+01    0.4591114    0.2232919  78.66  0.002299078    2.529    0.605
        57  -7.9270    144.9942    233.4699   1.0473916294e+02   6.4058794428e+00    0.1893152     0.096425  49.04 0.0006658136    1.752    0.429
        58  -8.6908    140.1826    230.1615   1.0523466688e+02   7.7357317139e+00    0.4272592    0.1748412  54.57  0.001715294    3.042    0.671
        59  -8.8614    132.7962    232.7396   1.0699242258e+02   8.5044951205e+00    0.2229826    0.1491352  80.05 0.0009639906    2.091    0.522
        60  -9.1607    186.5240    230.8271   9.6441455618e+01  -1.9211429881e-02    0.2846477    0.2277314 -87.83  0.001103656    2.138    0.532
        61  -8.5194    157.9942    232.0683   1.0205266914e+02   4.4953587230e+00    0.1878773    0.1402506  67.72 0.0006038767    1.675    0.403
        62  -8.1713     92.6628    231.9716   1.1458637159e+02   1.4836032660e+01    0.2621449    0.1056799  57.65  0.001153358    2.677    0.626
        63  -8.9989      1.8860    231.1016   1.3056189126e+02   2.5927011268e+01    0.2194392   0.09542098  74.21 0.0008540532    1.822    0.451
        64  -8.6975    235.9888    230.8766   8.7475359854e+01  -7.7476722482e+00    0.1895001    0.1492401 -11.88 0.0004031675    1.244    0.196
        65  -9.1275    246.4885    229.1499   8.5381041064e+01  -9.0559435819e+00    0.2633048    0.1803117 -26.85  0.001080567    1.525    0.344
        66  -7.8959    205.4915    230.4579   9.2857690625e+01  -3.0288601084e+00    0.1238085    0.1004112  23.80 9.721651e-05    1.027    0.027
        67  -9.1889    151.3248    228.9808   1.0291253743e+02   6.0927531864e+00    0.2689357    0.1863598 -77.97  0.001466811    2.206    0.547
        68  -9.4481    148.6819    224.6599   1.0282821311e+02   7.2464538228e+00    0.4193849    0.2837813  86.57  0.001149193    2.461    0.594
        69  -7.9253    229.6150    228.8239   8.8247431752e+01  -6.5509581303e+00    0.1494535     0.108632 -37.88 0.0006268796    1.718    0.418
        70  -8.6771    162.2748    227.7802   1.0061925012e+02   4.4609809096e+00    0.2909682    0.1902799  62.00  0.001296679    1.962    0.490
        71  -8.9891    127.9381    227.3089   1.0725512165e+02   1.0216397305e+01    0.2831647    0.1872873  69.69  0.001038277    1.802    0.445
        72  -8.3877    119.9767    227.7150   1.0886154759e+02   1.1423075894e+01    0.2095166    0.1520265  87.39 0.0008092575    1.639    0.390
        73  -8.4851     49.5023    227.2461   1.2218682173e+02   2.1524888451e+01    0.3095814    0.1026331  57.77  0.001386445    2.888    0.654
        74  -7.9477    223.4710    227.5070   8.9117852803e+01  -5.4513146124e+00    0.1213618   0.09894503  17.92  8.10027e-05    1.064    0.061
        75  -8.6832    206.0202    226.4842   9.2119208581e+01  -2.5719566824e+00    0.1960734    0.1771143 -50.93 0.0006770192    1.547    0.354
        76  -8.4184    199.9928    226.3269   9.3211558089e+01  -1.5759315650e+00    0.1771506    0.1389787  32.78 0.0008147036    1.113    0.102
        77  -8.8990    180.4272    224.4238   9.6612713115e+01   1.9384686341e+00    0.2318196    0.2005482  70.33 0.0005362283    1.515    0.340
        78  -8.8735    104.7836    223.6986   1.1136604434e+02   1.4530473846e+01    0.3046915    0.1914697  82.79   0.00150982    1.974    0.493
        79  -8.8629     94.1686    224.3878   1.1351671756e+02   1.6009009310e+01     0.347487    0.1686059  61.59  0.001530976    2.256    0.557
        80  -8.0406     38.4232    224.9046   1.2401751111e+02   2.3284108087e+01    0.1613972   0.07003124  76.56 0.0008041913    2.443    0.591
        81  -8.5928    216.4237    223.6085   8.9736255196e+01  -3.8407031818e+00    0.2163071    0.1761854  54.34  0.000822947    1.684    0.406
        82  -8.6475    172.9502    223.2389   9.7872866853e+01   3.3809260721e+00    0.2039794     0.173595  76.36 0.0005797112    1.555    0.357
        83  -8.2483    113.8907    224.1546   1.0962738303e+02   1.3025781991e+01    0.2006337    0.1436086  63.76  0.001057859    1.331    0.249
        84  -8.1965     59.9688    223.9602   1.2000595101e+02   2.0840556512e+01    0.2042098    0.1057203  64.92 0.0009994416    1.783    0.439
        85  -9.4367    225.8543    222.2501   8.7804174868e+01  -5.1381388750e+00    0.2570221     0.245706  88.77 0.0008891836    1.703    0.413
        86  -9.3716    192.6052    221.5863   9.3834677967e+01   3.2478759479e-01    0.2901272    0.2445752  81.64  0.001163572    1.846    0.458
        87  -9.2868    160.5118    221.4466   1.0003431355e+02   5.7803409832e+00    0.5614491     0.258811  58.12  0.002078975    3.727    0.732
        88  -8.3148    140.2889    222.8462   1.0423451543e+02   8.9589381101e+00    0.1863091    0.1491842  83.50 0.0007677985    1.502    0.334
        89  -8.8355    238.9229    221.5205   8.5372496664e+01  -7.0320250992e+00    0.1939637    0.1614338 -33.89 0.0006287099    1.551    0.355
        90  -8.4525      9.0461    222.4599   1.2899356972e+02   2.6855300110e+01    0.1128781   0.09378549 -13.41 0.0006823072    2.456    0.593
        91  -8.5854     82.6366    220.5497   1.1536528204e+02   1.8418565797e+01    0.3070588    0.1414756  63.63  0.001117601    2.507    0.601
        92  -8.0256     27.6568    220.8983   1.2568040411e+02   2.5254316854e+01    0.2110575   0.07663194 -68.38  0.001102413    2.563    0.610
        93  -9.0885    120.2050    219.1574   1.0775452548e+02   1.2927798503e+01    0.3639097    0.2052933  68.42  0.001630146    2.432    0.589
        94  -8.1549     72.5545    220.0771   1.1727487914e+02   1.9920112602e+01    0.1663983   0.08567167  79.28  0.000804981    2.365    0.577
        95  -8.5063    202.5260    220.5112   9.1785254316e+01  -1.1646653943e+00    0.2190758    0.1224912 -36.28 0.0006038835    1.991    0.498
        96  -8.2127    249.3622    218.7104   8.3085380294e+01  -8.2187872871e+00     0.183403    0.1535724  33.01  0.001025364    1.444    0.307
        97  -8.1525    246.1480    218.6147   8.3616717275e+01  -7.7388097640e+00    0.2128204     0.158531   8.59 0.0007039297    1.088    0.081
        98  -8.3452    210.0860    219.2706   9.0167906830e+01  -2.2273165480e+00    0.1726901    0.1450557  24.81 0.0004547561    1.090    0.083
        99  -9.2653    132.9360    216.1834   1.0479204501e+02   1.1368702026e+01    0.4246289    0.2554285  74.94  0.001916111    2.703    0.630
       100  -8.7395     51.5461    217.5477   1.2106605344e+02   2.3149678905e+01    0.2556781    0.1424454  75.51 0.0009518786    1.689    0.408
       101  -7.9903    179.3512    217.2842   9.5691479005e+01   3.2269742190e+00    0.1577623    0.1233681 -52.13 0.0005279751    1.593    0.372
       102  -8.8170    169.3578    216.4031   9.7514961276e+01   5.0901729765e+00    0.2664465    0.2197877 -81.16 0.0009101858    1.690    0.408
       103  -8.8820    142.6910    216.3639   1.0284493521e+02   9.6865057050e+00     0.273815    0.1775946 -67.49  0.001114234    2.032    0.508
       104  -8.5187    111.6784    217.1209   1.0921363249e+02   1.4677406036e+01    0.2018863    0.1450996  78.65  0.001000095    1.527    0.345
       105  -8.3548     61.7876    216.9356   1.1906373926e+02   2.1972661830e+01    0.2248024    0.1319505  78.72  0.001079709    1.664    0.399
       106  -8.6029    232.5419    214.9490   8.5340739576e+01  -5.2164867263e+00    0.2372768    0.1825809 -54.42  0.001125198    2.159    0.537
       107  -8.2483     18.5087    216.0698   1.2701827023e+02   2.7149702424e+01    0.1633981   0.08710043 -83.59 0.0009124797    1.584    0.369
       108  -8.6276    185.6111    214.6329   9.4038813158e+01   2.5680772154e+00    0.2221649       0.1998 -81.66  0.000704889    1.537    0.349
       109  -8.1108    154.2143    215.1629   1.0034548795e+02   7.9182957382e+00    0.1779694    0.1455851  67.63 0.0006905034    1.388    0.279
       110  -9.1307     93.1045    214.1687   1.1260944029e+02   1.8122552910e+01    0.3033459    0.1697828  70.58  0.001148067    2.115    0.527
       111  -9.4874    213.8618    212.2300   8.8251453857e+01  -1.8480215265e+00    0.3041179    0.2595586  58.81  0.001426607    1.634    0.388
       112  -9.3100     73.2244    211.8859   1.1635177203e+02   2.1444216787e+01    0.6294931    0.2343525  61.61  0.002349901    3.764    0.734
       113  -8.0620    225.1232    212.6552   8.6262918529e+01  -3.7382732932e+00    0.2144411    0.1364427 -45.51 0.0008255335    2.083    0.520
       114  -8.6826    161.7020    212.5268   9.8432643722e+01   7.0691303423e+00    0.2380456    0.1890938  82.56 0.0007279054    1.720    0.419
       115  -7.9452    106.4739    212.9751   1.0975716582e+02   1.6293719995e+01    0.1729893    0.1225887 -72.75 0.0007161982    1.533    0.348
       116  -9.0097    204.2380    210.8965   8.9822774424e+01  -4.3978790019e-02     0.254053    0.1953472 -53.29 0.0007233333    1.793    0.442
       117  -9.4907    175.4542    210.1815   9.5300571914e+01   5.0512318721e+00    0.3839928    0.2696396  74.96  0.001457759    2.451    0.592
       118  -8.1454    192.3087    210.4993   9.2041350705e+01   2.0585407167e+00    0.2002319    0.1610878 -66.05  0.001021071    1.839    0.456
       119  -8.8120    147.9459    210.6043   1.0092668461e+02   9.8065658348e+00    0.2768928    0.1955834  68.71  0.001115948    1.776    0.437
       120  -9.0497    116.2676    210.2682   1.0740100065e+02   1.5240856119e+01    0.3380001    0.2266442  84.70  0.001149024    1.889    0.471
       121  -9.1033    236.5142    208.5816   8.3493284379e+01  -4.9878395562e+00    0.2668654    0.2531068 -64.47  0.001318978    1.691    0.408
       122  -8.7097     85.5796    209.5131   1.1361308883e+02   2.0162388895e+01    0.3025466    0.1718078  86.96  0.001053442    2.175    0.540
       123  -8.1020     46.3006    209.8510   1.2144881724e+02   2.5325383728e+01    0.1949085    0.1158335  78.95 0.0009497539    1.513    0.339
       124  -8.4534    126.7274    208.8423   1.0504181774e+02   1.3775102496e+01     0.232774    0.1730841  87.28 0.0008950708    1.622    0.383
       125  -8.7470      5.6698    207.8117   1.2884864250e+02   3.0014281158e+01    0.3076166    0.0977174  74.11  0.001322845    3.521    0.716
       126  -9.3421    246.3559    207.3404   8.1551314461e+01  -6.3390089835e+00    0.2551032    0.1911842 -22.20 0.0006401743    1.292    0.226
       127  -7.9900    156.4389    208.1688   9.8812282507e+01   8.7507373413e+00    0.1676259    0.1292559 -69.80 0.0008182799    1.668    0.400
       128  -8.4215    139.2513    208.1168   1.0234144585e+02   1.1769439837e+01    0.2583109    0.1532387  61.87 0.0008838514    2.073    0.518
       129  -9.3124     99.4828    206.2084   1.1036140694e+02   1.8723824778e+01    0.4147946    0.2391136  85.00  0.001530521    2.425    0.588
       130  -7.7459     11.7555    207.0128   1.2771556968e+02   2.9605042857e+01    0.1390769    0.0737793 -84.31 0.0003560744    1.539    0.350
       131  -8.5180     56.6250    205.5554   1.1905667200e+02   2.4932843920e+01    0.3194972    0.1351917  63.54  0.001433759    2.625    0.619
       132  -8.3543    226.3650    204.4083   8.4546269441e+01  -2.7888627538e+00    0.3508796    0.1996168  -5.43  0.001262057    2.440    0.590
       133  -8.0963    222.4506    201.9634   8.4809931701e+01  -1.7915238485e+00      0.28675     0.162988 -56.55  0.001157259    3.868    0.742
       134  -9.2418    194.8416    203.6262   9.0347920129e+01   2.7000191725e+00    0.3028072    0.2665332 -47.20  0.001134587    1.386    0.278
       135  -9.2181    192.3919    197.3179   8.9691554821e+01   4.1595336445e+00    0.3233842    0.2491813 -60.52  0.001178363    1.797    0.444
       136  -9.0026    183.8682    204.2428   9.2618212416e+01   4.5435207736e+00    0.3180754    0.2067381  60.86  0.001015398    2.168    0.539
       137  -8.7192    131.3144    204.1981   1.0341513182e+02   1.3878828040e+01    0.3113057     0.192329  75.60 0.0008567931    2.506    0.601
       138  -8.4489    108.9441    205.1933   1.0825467292e+02   1.7424919106e+01    0.2063258    0.1568832  66.05 0.0007236855    1.248    0.198
       139  -8.1294     24.8254    204.9799   1.2518061215e+02   2.8714972125e+01    0.1983514   0.09315642  73.61  0.001073387    1.969    0.492
       140  -9.7024    163.7730    203.0932   9.6484642346e+01   8.3415491000e+00    0.3881579     0.250498  59.04   0.00090238    1.869    0.465
       141  -9.3786    250.0970    202.0439   7.9928731761e+01  -6.2132710165e+00    0.3285024    0.1636574 -31.13  0.001209649    1.921    0.480
       142  -9.2945    243.0065    200.5916   8.0876562317e+01  -4.9256295744e+00    0.3224175    0.1718541 -34.37  0.001014755    1.876    0.467
       143  -8.2513    210.9064    202.1136   8.6988759163e+01   1.3980362334e-01    0.1812248    0.1742464  36.58 0.0005772758    1.304    0.233
       144  -9.0282    140.3111    201.0029   1.0103468576e+02   1.2918747151e+01    0.3695932    0.2365754  73.88  0.001197928    2.364    0.577
       145  -8.5536     80.1541    201.4451   1.1382951911e+02   2.2600105006e+01     0.306052    0.1489555  73.69   0.00124922    3.051    0.672
       146  -8.0609     48.1383    201.7463   1.2041133385e+02   2.6771888169e+01    0.2357105    0.1170427  87.85 0.0009793217    2.105    0.525
       147  -9.1820    237.0894    198.6995   8.1557919151e+01  -3.7255735182e+00    0.3413441    0.1909049 -41.34  0.001411639    2.065    0.516
       148  -9.3769    149.4930    198.6513   9.8721429177e+01   1.1724050247e+01     0.385281    0.2686275  85.03  0.001056624    2.233    0.552
       149  -9.0916    123.8904    199.2113   1.0425241809e+02   1.6127029163e+01    0.3122486    0.2208314 -89.61  0.001430348    1.783    0.439
       150  -9.4644    113.0370    198.5771   1.0648615614e+02   1.8084130994e+01    0.4421648    0.2488106  68.91  0.001620568    2.458    0.593
       151  -9.2415     88.7828    198.1608   1.1162271535e+02   2.2014501171e+01    0.4684983    0.2437347 -78.80  0.001794285    2.353    0.575
       152  -8.5052    176.9795    198.9870   9.3082679224e+01   6.6702192339e+00    0.2176205    0.1869175 -55.86 0.0005501845    1.396    0.284
       153  -8.5103    202.3947    197.8936   8.7839640413e+01   2.2788066245e+00    0.2287518    0.2033181 -72.00  0.001024346    1.608    0.378
       154  -9.2394     61.6348    197.1632   1.1723107835e+02   2.6044914855e+01    0.3987895    0.1904932  71.10  0.001484821    2.554    0.608
       155  -8.0837     12.8012    197.9992   1.2699795134e+02   3.1335497190e+01    0.1974542   0.08776055  71.48  0.001066505    2.026    0.506
       156  -8.9131    215.6086    195.6887   8.4906678567e+01   3.0719204751e-01    0.2721281    0.2149366 -49.50 0.0009906942    1.647    0.393
       157  -7.9049     29.3062    197.6248   1.2380481757e+02   2.9764547114e+01    0.1291232   0.06609542  69.67 0.0004142941    1.771    0.435
       158  -9.6185    245.9946    194.0484   7.9115145116e+01  -4.5000379192e+00    0.3445683    0.2767231 -66.90  0.001440177    2.422    0.587
       159  -8.7611    224.7219    194.3360   8.2957072294e+01  -1.0514517234e+00    0.2756745    0.1651634 -47.87  0.001025306    2.220    0.550
       160  -8.8703    185.1686    194.8802   9.0688592421e+01   5.8813103929e+00    0.2271036    0.2167348  87.36 0.0007210303    1.300    0.231
       161  -9.1289    161.1840    194.5903   9.5576007043e+01   1.0349079580e+01    0.2807027    0.2125034  71.60  0.000894638    1.723    0.419
       162  -9.0270     44.0420    193.7628   1.2053968751e+02   2.8944271853e+01    0.4304567    0.1880562  69.09  0.001945167    2.640    0.621
       163  -7.9565    231.1033    194.1683   8.1764301639e+01  -2.0994412546e+00    0.1608166    0.1529734 -13.22   0.00052446    1.313    0.238
       164  -8.9232     77.1496    193.8538   1.1359379278e+02   2.4632720282e+01    0.2641815    0.1787637  69.28 0.0007014213    1.406    0.289
       165  -8.5599    172.5010    191.9848   9.2751962940e+01   8.7287523761e+00    0.2841909    0.2218709 -88.13  0.001436815    1.921    0.479
       166  -8.4581    132.9969    196.0156   1.0181297788e+02   1.5176838278e+01    0.2174482    0.1563133  74.16 0.0005754044    1.697    0.411
       167  -7.7295    205.2327    192.0007   8.6185056964e+01   2.7163380365e+00    0.1676296    0.1098953 -35.02  0.000494611    1.586    0.370
       168  -8.2733    199.0179    191.8505   8.7368023268e+01   3.8627049792e+00    0.1904053    0.1803273  59.41 0.0004903174    1.304    0.233
       169  -7.9573    178.9073    191.7885   9.1395214179e+01   7.5730460913e+00    0.1794728    0.1606674  66.59 0.0004921588    1.324    0.245
       170  -9.2420    139.6062    190.8768   9.9555960692e+01   1.5011498501e+01    0.3677033    0.2543678  80.01  0.001161451    2.059    0.514
       171  -8.0166     22.9507    192.2287   1.2466111708e+02   3.1555182911e+01    0.1412067   0.08570113  42.11  0.000879954    1.660    0.398
       172 -10.4774     92.1700    188.7311   1.0967950572e+02   2.3501279394e+01    0.9202924    0.2961529  50.71  0.003265648    3.328    0.699
       173  -9.2034    216.4650    188.3112   8.3328896448e+01   1.3009294547e+00    0.3146013    0.2322048 -32.73 0.0008932366    1.383    0.277
       174  -8.7959    148.5143    189.4548   9.7385861104e+01   1.3661404740e+01    0.2474843    0.2011773 -68.36  0.001079833    1.425    0.298
       175  -9.0451    129.3146    188.8223   1.0147056245e+02   1.7273448780e+01    0.3077557    0.2241144  76.31  0.001152338    1.660    0.398
       176  -9.8841    120.9596    186.8464   1.0300461829e+02   1.9153545258e+01    0.5597608    0.2940241 -72.73  0.002228575    2.869    0.651
       177  -8.3428    237.2311    188.5056   7.9571046551e+01  -2.2940336654e+00    0.2359364    0.1608321 -26.35 0.0006328162    1.388    0.280
       178  -9.3602    156.0330    187.5389   9.5430307002e+01   1.2634293339e+01    0.3483513     0.230571 -60.18  0.001010301    1.839    0.456
       179  -8.7368     34.2216    188.2875   1.2208373082e+02   3.1225402053e+01    0.2993881     0.141765  70.38 0.0009974032    2.160    0.537
       180  -8.3277      6.6536    189.6756   1.2766532691e+02   3.3622215208e+01    0.1038317   0.07534087 -56.84 9.006084e-05    1.743    0.426
       181  -8.5123    242.5159    188.0107   7.8545617282e+01  -3.0925557998e+00    0.1901181    0.1159639 -32.29  0.001021431    1.580    0.367
       182  -8.7218    191.4393    187.4611   8.8038744715e+01   5.9959137565e+00    0.2702188    0.2268708  84.37  0.001154376    1.736    0.424
       183  -9.3115    109.6776    186.4319   1.0545781432e+02   2.1170995553e+01    0.4060664    0.2569244  76.89  0.001311817    2.073    0.518
       184  -9.1847     54.7730    186.9562   1.1763847646e+02   2.9124771006e+01    0.4256496    0.2045646  72.25  0.001543231    2.522    0.603
       185  -7.9452    230.4271    187.3074   8.0553928232e+01  -9.7207774292e-01    0.1688157    0.1196838 -40.18 0.0008690034    1.573    0.364
       186  -9.5952    183.0426    186.1819   8.9499758053e+01   7.7930946086e+00    0.3279086    0.2412258 -39.50 0.0008856884    1.448    0.309
       187  -8.7361    164.8611    186.7295   9.3398649300e+01   1.1128024026e+01    0.2499497    0.2060429 -60.10 0.0006027769    1.412    0.292
       188  -8.5294    249.3078    185.7478   7.6930484538e+01  -3.8692697352e+00    0.2195098    0.1806496 -43.12 0.0009243636    1.573    0.364
       189  -9.0539    210.3106    184.0805   8.3669068740e+01   3.0827679925e+00    0.3237689    0.1996682 -35.22 0.0009794235    1.649    0.393
       190  -8.3767    202.8261    184.6010   8.5223901024e+01   4.3691103780e+00    0.2385745     0.178885 -56.17 0.0005643956    1.781    0.438
       191  -9.2441     66.7450    184.4823   1.1476489424e+02   2.8117193094e+01    0.3917601    0.2093056  62.17  0.001098184    1.939    0.484
       192  -8.5053    224.1387    183.7082   8.0990791318e+01   6.6609777533e-01      0.21728    0.1726674 -34.81 0.0005865056    1.335    0.251
       193  -9.0911    174.2109    183.6051   9.0842661744e+01   9.9354929317e+00    0.2905937    0.2465753 -73.32 0.0009250409    1.506    0.336
       194  -9.0461    241.4280    182.1395   7.7572363031e+01  -2.0618025919e+00    0.3470041    0.2511555 -64.14  0.001699053    2.752    0.637
       195  -8.9121     44.4530    182.5135   1.1941075947e+02   3.1344216844e+01    0.3380302    0.1766569  72.48  0.001093437    1.995    0.499
       196  -8.1150      2.0552    183.6764   1.2819904168e+02   3.5275118204e+01    0.1961758   0.07342405  41.38  0.001070098    2.427    0.588
       197  -9.3071    147.4702    180.6987   9.6068116421e+01   1.5591463109e+01    0.3443583    0.2682686 -83.79 0.0009508019    1.641    0.391
       198  -9.3552     25.8446    179.1044   1.2306460513e+02   3.4098826116e+01    0.6775686    0.2383767  78.95  0.002282371    4.924    0.797
       199  -7.6459     19.3357    182.6587   1.2468981616e+02   3.3957097724e+01    0.1287026   0.06631636  68.37 0.0007050722    1.760    0.432
       200  -8.0840    235.2767    181.6313   7.8555508624e+01  -9.4760433460e-01    0.1213578    0.1047649 -58.02 0.0002677988    1.681    0.405
       201  -7.8635     91.1758    181.6070   1.0892647501e+02   2.5210514816e+01    0.1808438    0.1274975  30.40 0.0009451476    1.660    0.397
       202  -8.7735    137.4451    179.4665   9.8080811402e+01   1.7720872164e+01    0.2971687    0.2301371  81.67 0.0009323224    1.571    0.364
       203  -8.8190    204.9397    177.8154   8.3458225104e+01   5.1189307691e+00    0.2877114    0.2021621 -34.65  0.000753384    1.442    0.307
       204  -9.4591    191.5130    178.4020   8.6254138226e+01   7.5662080497e+00    0.3021834     0.261263  74.33 0.0005801085    1.521    0.343
       205  -8.1529    169.3515    178.6318   9.0920221553e+01   1.1803054331e+01    0.2024695     0.164647  76.87  0.001041129    1.596    0.373
       206  -9.2493     35.6840    175.8473   1.2067239680e+02   3.3805080453e+01    0.6833281    0.2457768 -86.76  0.002553362    3.667    0.727
       207  -9.7119    248.4093    176.4957   7.5232000214e+01  -2.3951349323e+00    0.4283126    0.2552298 -45.94   0.00209462    2.107    0.525
       208  -8.6410    250.5095    172.9154   7.4147034681e+01  -2.2187715799e+00    0.2184915    0.1674756 -23.38 0.0004559585    1.173    0.147
       209  -8.8767    129.1850    177.3123   9.9571080892e+01   1.9694167358e+01    0.3154684    0.2254999 -76.07  0.001053875    1.691    0.409
       210  -8.3635     97.1124    177.8108   1.0701985852e+02   2.5113794004e+01    0.2108935    0.1653878   4.14   0.00108427    1.967    0.492
       211  -8.6084    231.1735    176.8521   7.8324472331e+01   4.9350478799e-01    0.2257266    0.1677896 -37.13 0.0007251673    1.407    0.289
       212  -8.4539    217.3439    177.0692   8.0921582210e+01   2.9415923210e+00    0.2110802    0.1946962  72.69 0.0005682302    1.477    0.323
       213  -9.0470    183.0634    175.9739   8.7505620326e+01   9.6371488234e+00    0.2797836    0.2310156 -65.18 0.0005200629    1.539    0.350
       214  -9.5327    104.3669    174.8413   1.0488265377e+02   2.4584813858e+01     0.533511    0.3151848  73.12  0.001802697    2.381    0.580
       215  -8.6436     89.1203    176.7401   1.0870724177e+02   2.6612264248e+01    0.2855868    0.1863385  78.61 0.0008738863    1.758    0.431
       216  -9.9864     57.2518    173.2496   1.1558504035e+02   3.1880385749e+01    0.8043416    0.3537789  80.69  0.002769805    4.190    0.761
       217  -8.7137     12.7156    176.3735   1.2559046106e+02   3.5930995694e+01    0.2179496    0.1108909  85.38 0.0008988473    1.689    0.408
       218  -9.3238    158.7054    175.0079   9.2528508612e+01   1.4576829213e+01    0.3697365    0.2745027  87.02  0.001271546    1.988    0.497
       219 -10.6083     76.0278    171.2364   1.1098181346e+02   2.9811940340e+01     1.040325    0.4192829 -79.78  0.003233466    4.656    0.785
       220  -8.5204     74.3514    160.3298   1.0983033302e+02   3.2583491693e+01    0.2450421    0.1712663   9.07  0.001148329    2.367    0.578
       221  -8.4328    224.3667    174.3036   7.9044152254e+01   2.1099183577e+00    0.2300606    0.1637445 -40.22  0.000513794    1.492    0.330
       222  -7.9215    241.4732    174.4674   7.6011246366e+01  -9.2791108667e-01    0.1335759     0.113792  -3.56  0.000111144    1.013    0.012
       223  -9.5914    175.7611    171.9208   8.8227930249e+01   1.1829190785e+01      0.45221    0.2748042 -42.21  0.001734473    1.718    0.418
       224  -8.3648    143.1352    172.8787   9.5599025702e+01   1.8017930064e+01    0.2234653    0.1884798  76.93 0.0005555028    1.327    0.246
       225  -8.5945    134.7483    171.7571   9.7305128553e+01   1.9844881743e+01     0.284991     0.197502  78.63  0.001024874    2.006    0.502
       226  -9.6256    121.5414    170.3670   1.0011898514e+02   2.2583630073e+01    0.4933066    0.3034267 -76.32  0.001401787    2.227    0.551
       227  -9.1142     45.0861    170.8108   1.1807834283e+02   3.3901030805e+01     0.399751    0.1931973 -87.25  0.001282429    2.207    0.547
       228  -9.1289    204.9760    170.7046   8.1991832100e+01   6.3330999664e+00    0.3027867    0.2315862  42.54 0.0009531123    1.318    0.241
       229  -8.2597    237.2112    169.6720   7.5766656393e+01   5.4532456914e-01    0.2173918    0.1699044 -35.64 0.0006703057    1.320    0.242
       230  -8.5086    230.2136    170.1600   7.7117104100e+01   1.7153880860e+00    0.2089874    0.1662893  -3.13 0.0006342645    1.191    0.160
       231  -8.4340    198.5064    170.1391   8.3158049713e+01   7.6840198160e+00    0.2105348    0.1994794  83.14 0.0006290477    1.315    0.239
       232  -9.1807    167.2678    168.7474   8.9416535811e+01   1.4131638462e+01    0.3619285    0.2527862  70.08  0.001276766    2.046    0.511
       233  -8.5397    149.8568    169.5858   9.3450185930e+01   1.7402819290e+01    0.2736606    0.1957978 -72.19 0.0007691076    1.828    0.453
       234  -8.1618    244.4880    169.5036   7.4466531656e+01  -6.9430509173e-01    0.1335898     0.114807  -7.28 -4.101221e-05    1.033    0.032
       235  -8.4521    218.8338    168.3651   7.8837864465e+01   4.0991266072e+00    0.2220489    0.1832662 -39.06 0.0005545286    1.297    0.229
       236  -8.0776    211.4781    168.4999   8.0265431336e+01   5.4675260937e+00    0.2379844    0.1276559 -48.02 0.0006694209    2.224    0.550
       237  -8.1110     88.7602    168.8103   1.0762179650e+02   2.8466769711e+01    0.1959065     0.146759  79.67 0.0007881288    1.367    0.269
       238  -9.0079    191.6239    166.9246   8.3880958894e+01   9.6185702175e+00    0.3346799    0.2632173  -6.32   0.00117244    1.418    0.295
       239  -8.7705    111.6674    167.3286   1.0191900397e+02   2.5016147978e+01    0.3521539    0.2302883  84.39   0.00120276    2.113    0.527
       240  -8.9286    185.0261    166.5496   8.5168026891e+01   1.1003434649e+01    0.2690416    0.2030132 -59.29 0.0009016667    1.648    0.393
       241 -10.0878     94.9711    162.7275   1.0516408394e+02   2.8882604350e+01    0.8984847    0.4873172  82.55  0.003062217    3.576    0.720
       242  -8.6294     68.5712    166.8833   1.1214904266e+02   3.1859363596e+01    0.2188845    0.1597695  67.06 0.0003937119    1.318    0.241
       243  -8.9993     20.5609    166.3219   1.2312949263e+02   3.7451883986e+01    0.3311672     0.141174  62.56  0.001069596    2.473    0.596
       244  -9.9402    136.6675    164.3011   9.5454214606e+01   2.1081083413e+01    0.6286591    0.3732003  61.00  0.002033166    2.120    0.528
       245  -8.3325    233.8909    165.1088   7.5396023281e+01   1.8554009333e+00    0.1954934    0.1771151 -36.43 0.0005834122    1.267    0.211
       246  -8.7351    159.5663    164.2034   9.0192759451e+01   1.6585997108e+01    0.3133467    0.2430913 -81.38 0.0009030316    1.736    0.424
       247  -9.4739     33.4529    163.4684   1.1996454873e+02   3.6847190935e+01    0.5222499    0.2219838  57.17  0.002316008    2.509    0.602
       248  -8.2367    240.0410    164.2473   7.4132926055e+01   8.8991942026e-01    0.1911675    0.1621882  83.54 0.0005728636    1.914    0.478
       249  -8.6134    212.9080    163.6831   7.8968134843e+01   6.0187800237e+00    0.2642089    0.1950625 -40.41 0.0006649698    1.397    0.284
       250  -8.5383    242.0410    160.0345   7.2892486763e+01   1.1933961426e+00    0.2333379    0.1742065  22.61 0.0003501371    1.353    0.261
       251  -9.7495    248.7680    149.4262   6.9472656310e+01   1.6543963184e+00    0.4105038    0.1950948 -32.12 0.0008740053    1.905    0.475
       252  -9.0139    246.9597    143.9821   6.8575799313e+01   2.8434875395e+00    0.2803041    0.1744602 -27.99 0.0004988343    1.460    0.315
       253  -9.5443    246.0509    162.9799   7.2834151230e+01   3.0127799812e-02    0.4773691    0.1748558 -38.19  0.001914753    2.561    0.609
       254  -8.9586    243.0988    155.1387   7.1659927244e+01   1.7744041550e+00    0.3260856    0.2108002 -54.17  0.001501401    2.203    0.546
       255  -9.3434    238.7017    151.4306   7.1604608816e+01   3.1710044600e+00    0.3983797    0.3155249 -60.26  0.002141204    1.741    0.426
       256  -8.9103    233.5048    147.7930   7.1703171251e+01   4.7439771510e+00    0.2804041    0.2188572 -29.47 0.0007411122    1.177    0.151
       257  -9.8378    250.1862    157.8525   7.1053572541e+01   9.7006887192e-02    0.3676628    0.1841248 -35.39 0.0008947233    1.811    0.448
       258  -9.1332    246.5413    155.5302   7.1163579642e+01   1.0967980886e+00    0.2974554    0.2000794 -18.85 0.0005206844    1.426    0.299
       259  -8.5226    204.8689    163.0562   8.0395611164e+01   7.6958953980e+00    0.2043078    0.1970082 -71.33 0.0004632725    1.265    0.209
       260  -7.7468     58.6509    163.2840   1.1403740483e+02   3.4002913061e+01    0.1386025   0.08699626  68.67 0.0007018248    1.652    0.395
       261  -9.4205      3.4309    162.4199   1.2655004887e+02   3.9768745604e+01    0.3701342    0.1524667  55.26  0.001499869    2.325    0.570
       262  -9.1863    177.5158    160.7877   8.5540081784e+01   1.3626145399e+01    0.3252461    0.2493287 -67.59 0.0008289148    1.713    0.416
       263  -8.9096    151.5886    161.1407   9.1370585940e+01   1.8821696360e+01    0.3132733    0.2418106 -82.61 0.0008771323    1.702    0.412
       264  -8.7294     60.6956    160.5373   1.1318660555e+02   3.4384802910e+01    0.3389259    0.1672585  65.89   0.00133453    2.635    0.621
       265  -8.5958    227.4757    159.1810   7.5279551175e+01   4.0001682541e+00    0.2983552    0.2058121 -55.14 0.0009995286    1.983    0.496
       266  -8.4396    128.1700    159.2742   9.6489326771e+01   2.3808435091e+01    0.2745783    0.1888617 -83.90 0.0008607482    2.011    0.503
       267  -9.7223    105.8189    158.0204   1.0169404995e+02   2.8154752370e+01    0.5020256    0.3320353  77.95  0.001131702    1.993    0.498
       268  -8.1372    237.2000    159.1493   7.3541052456e+01   2.2057314101e+00    0.1781769    0.1581677 -44.15 0.0005692992    1.328    0.247
       269  -8.4851    196.6078    158.2279   8.1000102533e+01   1.0219619245e+01    0.2595989    0.2174872 -78.93 0.0008329768    1.650    0.394
       270  -9.1766    167.5840    157.5308   8.7007932224e+01   1.6312524852e+01     0.362485    0.2744749 -77.65  0.001328505    1.856    0.461
       271  -8.3373    188.3019    158.0434   8.2666167624e+01   1.1946669400e+01    0.2047492    0.1844892 -34.10   0.00040347    1.126    0.112
       272  -8.5118     79.3343    158.5775   1.0833903857e+02   3.2273630888e+01    0.2467575    0.1251084  41.94 0.0009160473    1.963    0.491
       273  -8.5290    217.9874    156.5253   7.6452101254e+01   6.2649115606e+00    0.2761196    0.1858338 -49.02 0.0008638915    1.721    0.419
       274  -9.1561    157.5715    155.9675   8.8922241672e+01   1.8693111868e+01    0.3165248    0.2444102 -63.72 0.0008763677    1.498    0.332
       275  -9.3931    119.4494    155.1064   9.7794152209e+01   2.6382000738e+01    0.4453155     0.285675 -78.31  0.001437904    2.131    0.531
       276  -8.6998    144.7980    155.0094   9.1675947138e+01   2.1492563510e+01    0.3698225    0.2471345  69.36  0.001155638    2.064    0.516
       277  -9.5440     81.4896    154.7246   1.0719192769e+02   3.2862978082e+01     0.478875     0.276531  69.93  0.001667578    2.289    0.563
       278  -9.3400     49.7479    155.3091   1.1517045191e+02   3.6961367126e+01    0.3992965    0.1976972  65.45  0.001754579    2.494    0.599
       279  -7.9419     22.6525    156.6555   1.2178321783e+02   3.9460709010e+01    0.1221689   0.08015081 -49.25 -1.625603e-05    1.802    0.445
       280  -7.8774    204.7557    155.1870   7.8702669384e+01   9.1264278030e+00    0.2224075     0.175299 -51.63 0.0006893579    1.456    0.313
       281  -9.7189    132.8212    153.1151   9.4137842301e+01   2.4284419686e+01    0.4426633     0.339712  83.88  0.001257313    1.628    0.386
       282  -9.4356    133.6382    148.6755   9.3014019590e+01   2.5115270259e+01    0.4091105    0.2578016 -43.14  0.001810478    1.660    0.397
       283  -9.6808     67.7839    153.4585   1.1043897819e+02   3.5122238757e+01    0.4606085    0.2647437  82.16  0.001343917    2.257    0.557
       284  -7.7847    232.9767    154.0083   7.3168056696e+01   3.8187843050e+00    0.2054668    0.1693889 -62.73 0.0006594456    1.671    0.402
       285  -8.7562    151.9641    152.8017   8.9533650609e+01   2.0511523544e+01    0.2767955    0.1985829 -63.99  0.001267479    1.650    0.394
       286  -8.9665     19.9501    152.3772   1.2200435812e+02   4.0687828472e+01    0.2185663    0.1355105  88.02 0.0009742012    1.385    0.278
       287  -8.8650     98.4572    150.9968   1.0226073401e+02   3.1047708977e+01    0.2973714    0.2177229  89.24 0.0009334291    1.563    0.360
       288  -9.6682     29.3264    150.6730   1.1959549178e+02   4.0224763938e+01    0.4537854     0.202978  72.08  0.001749172    2.935    0.659
       289  -8.9995    243.2707    149.7675   7.0462129353e+01   2.5966190642e+00    0.3241746    0.1641264 -36.60 0.0008338774    1.806    0.446
       290  -9.7417    240.9389    144.7938   6.9757847228e+01   3.8298540559e+00    0.4060949    0.2849896  -8.94  0.001568457    1.551    0.355
       291  -8.8533    189.3753    150.2773   8.0720193755e+01   1.3205514628e+01    0.3044431    0.2428393 -65.79 0.0007963336    1.597    0.374
       292  -7.9486    182.4172    151.2855   8.2411680891e+01   1.4469070930e+01    0.2034361    0.1416246 -52.08 0.0006709522    1.597    0.374
       293  -8.3602    162.8068    150.7303   8.6596141096e+01   1.8699896243e+01    0.2749991    0.1995537 -74.85 0.0009227752    1.952    0.488
       294  -8.1617    212.8836    149.8659   7.5938871962e+01   8.4392620784e+00    0.2173849    0.1855817  -2.29 0.0004277831    1.160    0.138
       295  -8.2214    198.8542    149.0532   7.8503879820e+01   1.1459217857e+01    0.2168827    0.1974543 -71.46 0.0005253677    1.331    0.249
       296 -10.4368    106.6850    144.3369   9.8883968986e+01   3.1195244381e+01    0.8350827    0.5247567  89.70  0.002174521    2.499    0.600
       297 -10.0638     89.1939    146.3774   1.0379624683e+02   3.3658240930e+01    0.6825091    0.3821911  88.80  0.002488308    3.145    0.682
       298  -9.1014     78.7088    147.5439   1.0671482131e+02   3.4987979278e+01    0.4519779    0.2444395  73.48  0.001688117    3.018    0.669
       299 -10.4454     54.4939    143.7939   1.1240416090e+02   3.9142387422e+01    0.9396618    0.4577581  83.58   0.00326722    3.438    0.709
       300  -9.0738     57.0627    135.4983   1.1045388343e+02   4.0832580021e+01    0.2919971    0.2226165   9.15  0.001593349    1.836    0.455
       301  -9.7716     39.6769    147.8710   1.1672741446e+02   3.9843359975e+01     0.503219    0.2239953  62.34  0.001957693    2.915    0.657
       302  -8.5261    223.4623    147.1210   7.3347227183e+01   6.8074278943e+00    0.2126945    0.2032787 -84.66 0.0005761626    1.311    0.237
       303 -10.1899    148.9637    145.0528   8.8539296183e+01   2.2798967713e+01    0.5821733    0.4057347 -87.31   0.00156807    2.287    0.563
       304  -9.9939    139.1700    144.9811   9.0872100840e+01   2.4829587723e+01    0.5723831    0.3586365 -77.60  0.001349383    2.727    0.633
       305  -9.3364     13.3425    146.2159   1.2298489127e+02   4.2662261132e+01    0.3527649    0.1673169  64.50  0.001216278    2.270    0.559
       306  -8.0236    206.9010    146.4784   7.6324859232e+01   1.0267231290e+01    0.2089791    0.1446237  47.90 0.0007291186    1.518    0.341
       307  -8.1062    175.6822    146.1931   8.2711794909e+01   1.6905184691e+01    0.2309008    0.1904738 -63.21 0.0007640466    1.410    0.291
       308  -9.9810    125.0106    142.7275   9.3881826695e+01   2.8156076261e+01    0.5561751    0.3530816 -79.41  0.001475489    2.443    0.591
       309  -7.9174    194.1793    144.1859   7.8338017177e+01   1.3356611235e+01    0.1971689    0.1795408 -78.09 0.0004241261    1.324    0.244
       310  -8.9034    165.4092    144.0728   8.4509029453e+01   1.9533506186e+01    0.2811854    0.2209854  55.51 0.0006580377    1.347    0.258
       311 -10.8032     69.2298    140.5648   1.0802523760e+02   3.8020375553e+01    0.8789291    0.5154343 -85.70  0.003028819    2.089    0.521
       312  -9.3911     70.5054    134.2224   1.0658395623e+02   3.9381034187e+01    0.3341844    0.2097051  20.43  0.001335604    2.202    0.546
       313  -9.2523      2.8220    142.1981   1.2512738110e+02   4.4366409497e+01    0.2797155    0.1524572  70.47  0.001187732    1.777    0.437
       314  -8.6261    182.0552    141.7519   8.0308184206e+01   1.6425060538e+01    0.2560466    0.2080727 -55.39 0.0005254875    1.357    0.263
       315  -8.0271    250.5439    140.7412   6.7277525054e+01   2.7020504832e+00    0.1868836    0.1164058 -41.11   0.00054832    1.550    0.355
       316  -9.8404     23.5897    138.2718   1.1964126653e+02   4.3664471629e+01    0.4889876    0.2255725  68.15  0.001977174    2.760    0.638
       317  -9.6416    241.9330    137.9040   6.8048784676e+01   4.7650117645e+00    0.4209025    0.2120654 -43.36  0.001841448    1.987    0.497
       318  -7.8554    218.6115    138.7535   7.2325281244e+01   9.2415041816e+00    0.2012696    0.1295489 -43.95 0.0004220992    1.571    0.363
       319  -8.6545    172.1694    138.4028   8.1674452708e+01   1.9244741198e+01    0.3104771    0.2331485 -79.65  0.001029251    1.920    0.479
       320  -8.3771    207.6949    138.1243   7.4237943438e+01   1.1626974062e+01    0.2357289    0.1781958 -53.75 0.0007380286    1.516    0.340
       321  -8.7839    197.5321    137.5873   7.6114606836e+01   1.3893408246e+01    0.2862118    0.2372759 -55.34 0.0008703995    1.350    0.259
       322  -8.2618    162.6665    136.3469   8.3331273994e+01   2.1742203906e+01    0.2722121    0.1840458 -55.48 0.0006256033    1.640    0.390
       323  -9.0821    150.9606    135.9505   8.5976535460e+01   2.4354791479e+01    0.4067154    0.2509659  25.60  0.001591688    2.206    0.547
       324 -10.4984     83.2858    133.2679   1.0291290988e+02   3.7737143947e+01    0.6145811    0.3672101 -64.14  0.001341306    1.611    0.379
       325  -9.2711     39.2625    136.2589   1.1532635680e+02   4.2658275858e+01    0.2984532    0.1801461  70.94 0.0008858932    1.864    0.463
       326  -9.3231    250.6944    129.7315   6.4792813163e+01   4.4286278579e+00    0.5393344    0.1187356 -35.68  0.001629133    3.940    0.746
       327  -9.0809    248.4795    135.1508   6.6362722954e+01   3.9749765490e+00    0.3530723    0.1960991 -39.46 0.0006545014    1.654    0.395
       328  -8.5572    246.8999    130.2077   6.5499109638e+01   5.0710699631e+00    0.2386169    0.1685512 -40.04 0.0005451515    1.329    0.247
       329  -7.7189    188.2645    135.6721   7.7558479526e+01   1.6272837499e+01    0.1489362    0.1207746 -71.22  0.000256215    1.570    0.363
       330  -8.1925    237.5045    133.9690   6.7894037892e+01   6.2698207887e+00    0.2173675    0.1267743 -36.85 0.0009666392    1.560    0.359
       331  -7.7569    231.4607    134.4609   6.9036950123e+01   7.3823394114e+00    0.1427477    0.1297277 -26.14 0.0001128437    1.059    0.056
       332  -8.7055    179.3585    134.0928   7.9070712664e+01   1.8542405665e+01    0.2805631    0.2319689  57.02  0.000821212    1.302    0.232
       333  -9.4137    112.9886    133.1446   9.4889881665e+01   3.2676606294e+01    0.4368376    0.2870392 -60.30   0.00135294    1.555    0.357
       334  -9.6110    143.0161    131.5809   8.6863052809e+01   2.7006398203e+01    0.4208317    0.3051743 -66.29 0.0009592922    1.637    0.389
       335 -10.3483    132.7975    131.5930   8.9413481276e+01   2.9137868512e+01    0.6309638    0.4458023  78.58   0.00183299    2.025    0.506
       336  -8.9727    132.8426    125.3362   8.7905289319e+01   3.0543809822e+01    0.4986158    0.1798381  36.58  0.001482221    3.517    0.716
       337 -10.5062     98.1193    130.2232   9.8240917564e+01   3.6045679914e+01     0.759828    0.3296729 -58.32  0.001664507    2.320    0.569
       338  -9.0065    100.0023    119.8542   9.5408636181e+01   3.8187036265e+01    0.4062374    0.2657379   8.79  0.001597831    2.693    0.629
       339 -10.1621     12.9427    129.5069   1.2140178302e+02   4.6582026696e+01    0.4411343    0.2171103  72.74  0.001966727    2.365    0.577
       340  -8.0660    204.4425    130.2513   7.2995272739e+01   1.3776546637e+01    0.2095414    0.1373823 -47.44 0.0009342119    1.590    0.371
       341  -8.1251    192.9335    130.2861   7.5294800304e+01   1.6291906295e+01    0.2070701    0.1998239   9.81 0.0004218934    1.033    0.032
       342  -9.1553    168.3502    129.5583   8.0396770592e+01   2.1909942151e+01    0.3165537    0.2568788 -75.15 0.0007984772    1.531    0.347
       343  -8.4441    161.7050    129.9939   8.2020734304e+01   2.3293358208e+01    0.2272165     0.206696 -43.72 0.0007479677    1.094    0.086
       344  -9.6343    152.7748    127.9977   8.3629167691e+01   2.5685721876e+01    0.6868154    0.2910327 -46.39  0.001840425    2.363    0.577
       345  -9.9628     73.0693    129.3219   1.0497585079e+02   4.0210477163e+01    0.4190145    0.2852872 -81.94  0.001227231    1.614    0.380
       346  -7.9326    211.6038    128.8929   7.1301804386e+01   1.2480148290e+01    0.2169955    0.1301879 -47.62 0.0007341621    1.763    0.433
       347 -10.7413     44.7956    123.6018   1.1193107651e+02   4.5130928566e+01     1.033746    0.5094164  80.37   0.00376172    3.722    0.731
       348  -8.1823     26.7199    129.5806   1.1777735110e+02   4.5452352635e+01     0.202132    0.1296687  18.92  0.001136809    2.084    0.520
       349  -8.6776    232.4806    128.4904   6.7476360732e+01   8.1920581962e+00    0.1440182    0.1302359 -26.46 9.214963e-05    1.037    0.036
       350 -10.0571    118.0801    125.1921   9.1722133893e+01   3.3559151662e+01    0.6290999    0.4533195 -85.40  0.001852483    1.895    0.472
       351 -10.3705     60.0221    125.2355   1.0789143107e+02   4.2957118170e+01    0.6986208    0.3960595  79.07  0.002506273    2.740    0.635
       352  -8.2173    228.3893    125.2607   6.7416918494e+01   9.5820111857e+00    0.2098422    0.1243995 -43.79 0.0007018336    1.653    0.395
       353  -8.7952    179.1752    124.8742   7.6845554474e+01   2.0435372162e+01    0.2805928    0.2440993 -66.80 0.0007524709    1.298    0.230
       354 -10.1845     28.5044    122.6475   1.1636543289e+02   4.6950934560e+01    0.6848288    0.3269014  78.24  0.002787592    3.171    0.685
       355  -8.9093     26.5163    114.1575   1.1571040698e+02   4.9151056316e+01     0.233631    0.1465906 -29.40 0.0009065346    2.133    0.531
       356  -8.0194    188.6742    124.3417   7.4705818354e+01   1.8395589377e+01    0.2335863    0.1839332 -76.91 0.0006929233    1.695    0.410
       357  -7.5673    212.2805    123.6732   6.9913398430e+01   1.3282016948e+01     0.147981    0.1157708 -64.77 0.0003592358    1.597    0.374
       358  -8.6319     84.5151    122.7869   1.0043866338e+02   4.0078244557e+01    0.3132181    0.2106903   8.31  0.001356045    2.394    0.582
       359  -8.0512    220.4322    130.1882   6.9986368199e+01   1.0377307172e+01    0.2018406    0.1304841 -45.28 0.0004677581    1.569    0.363
       360  -7.8829    202.7882    122.0509   7.1312081988e+01   1.5668832804e+01    0.2048233    0.1178962 -38.26 0.0003041853    1.658    0.397
       361  -7.9351    194.6402    121.7508   7.2842805265e+01   1.7551284491e+01    0.2189142    0.1358705 -47.79 0.0003858623    1.670    0.401
       362  -8.4677    172.0045    121.7517   7.7627229840e+01   2.2695310774e+01     0.267674    0.2191165 -43.39 0.0005295203    1.207    0.172
       363  -9.0363    158.5838    121.6210   8.0657612906e+01   2.5761811646e+01    0.3456829    0.2695934 -86.21 0.0009140129    1.718    0.418
       364  -9.8134    131.0699    118.7545   8.6727790788e+01   3.2399190243e+01    0.5550793    0.3771694 -89.09  0.002073973    2.469    0.595
       365  -9.7178     71.2253    119.8739   1.0364914594e+02   4.2765552225e+01    0.4112421    0.2387249 -73.58  0.001141791    1.941    0.485
       366  -9.9460    141.6337    118.7515   8.4033758965e+01   3.0139785162e+01    0.4530995    0.3286226 -74.21  0.001175177    1.843    0.457
       367  -9.8376      3.1062    117.6504   1.2272819864e+02   5.0008035300e+01    0.4277566    0.1987588  71.03  0.002053719    2.638    0.621
       368  -8.2542    231.5602    117.7199   6.5087110301e+01   1.0217091774e+01    0.2064126     0.125052 -44.13 0.0008593794    1.599    0.374
       369  -9.1243    109.4411    107.8439   8.9784165390e+01   3.9250181306e+01    0.4162103    0.2880102  -7.20   0.00168424    2.368    0.578
       370 -10.0484    109.3090    114.3227   9.1471887621e+01   3.7777765991e+01    0.5480343    0.3626081 -79.15  0.001524449    2.260    0.557
       371  -7.9215    185.6397    115.8786   7.3191700399e+01   2.0741591838e+01    0.2229224    0.1385668 -48.48 0.0006008356    1.671    0.401
       372  -8.7111     59.5487    115.1986   1.0614402929e+02   4.5453952749e+01    0.3156229    0.1845457 -23.20  0.001280894    3.015    0.668
       373  -8.6343    249.9786    115.4717   6.1646495979e+01   6.8618452357e+00    0.1943821    0.1392447  49.49  0.001028365    1.582    0.368
       374  -8.2952    192.9676    115.1952   7.1520476284e+01   1.9186652293e+01     0.231859    0.2049372 -69.32 0.0005079504    1.276    0.216
       375  -7.5539    153.3249    115.6773   8.0371569273e+01   2.8210847927e+01    0.1622154    0.1269626 -84.37 0.0007047661    1.685    0.406
       376 -10.1998     92.8406    112.7863   9.5785706878e+01   4.1108361126e+01    0.5754192    0.3607175 -72.62  0.001492176    2.046    0.511
       377  -9.0939     93.4766    104.6837   9.3597542139e+01   4.2904870671e+01    0.6025475    0.3530974  12.13  0.002108297    3.458    0.711
       378 -10.0751     79.0444    112.6245   9.9801072851e+01   4.3370929771e+01    0.5944415    0.3801218 -89.66  0.001997933    2.393    0.582
       379  -8.8332     77.7694    105.5991   9.8558491468e+01   4.5241106898e+01    0.2967505    0.2256561   0.95 0.0009535336    1.773    0.436
       380  -7.7979    167.4826    114.4909   7.6765359668e+01   2.5220564185e+01    0.1572178    0.1533486 -58.70 0.0001835895    1.044    0.042
       381 -10.2544     66.3107    109.8191   1.0300595675e+02   4.5872499182e+01    0.6761464    0.3123117 -62.08   0.00248856    2.048    0.512
       382  -9.9413    121.9746    112.4791   8.7527837967e+01   3.5702986641e+01    0.3561947    0.2895362 -64.70 0.0007361211    1.311    0.237
       383  -9.8846     13.9762    111.1437   1.1891685342e+02   5.0825907263e+01    0.3839498    0.2038856  79.46  0.001907256    2.252    0.556
       384 -10.8169    248.5747    108.5895   6.0258256126e+01   8.2519243502e+00    0.5713717    0.3245429 -25.05  0.002608453    1.805    0.446
       385  -8.5478    174.7431    111.9467   7.4486316318e+01   2.4050192661e+01    0.2892623    0.2087634 -56.81 0.0006437085    1.554    0.357
       386  -8.6165    159.0900    111.8738   7.8002520925e+01   2.7698682358e+01    0.2771992    0.2227483 -46.48 0.0006451754    1.235    0.190
       387  -9.9350    133.4988    109.2650   8.3626164073e+01   3.3997274788e+01    0.6962389    0.3168066 -45.49  0.001817442    2.148    0.535
       388  -9.2277     42.8229    109.4073   1.1007472848e+02   4.8766262163e+01    0.2853251    0.1386162  21.09  0.001280816    2.749    0.636
       389  -8.6373      4.2392    109.3260   1.2147666288e+02   5.1873576022e+01    0.1980651    0.1116351  -1.72  0.001083134    2.736    0.634
       390  -8.2414    189.0433    107.8113   7.0395831051e+01   2.1510521343e+01    0.2951573     0.187199 -50.83  0.001001631    1.689    0.408
       391  -9.9260    119.0107    106.5164   8.6764939300e+01   3.7655979062e+01    0.4192185    0.3734731  -4.14  0.002142723    1.270    0.212
       392 -10.6420    109.6852     99.3281   8.7429865081e+01   4.1137118110e+01    0.9314978    0.5079606  65.33  0.003028626    3.607    0.723
       393  -9.1777    107.9067     92.3695   8.5981268519e+01   4.3031515294e+01    0.4860207     0.280353  28.95   0.00194108    2.201    0.546
       394  -9.3229    139.9713    104.7701   8.0741107731e+01   3.3552592320e+01    0.4186577    0.3190408 -88.99  0.001071259    1.812    0.448
       395 -10.5726     45.5259    102.3652   1.0789384773e+02   5.0170028122e+01     0.742126    0.4159841  77.32  0.002887225    3.172    0.685
       396  -9.1755     45.3006     93.1092   1.0602995615e+02   5.2385729744e+01    0.4935911    0.2643099 -19.73  0.001968651    3.399    0.706
       397 -10.7580     22.9752    102.6801   1.1499679416e+02   5.2163603586e+01     0.728464    0.3771616  74.80  0.002796647    2.956    0.662
       398  -8.5740    166.7678    104.3759   7.4219816427e+01   2.7445464592e+01    0.3045102      0.23637 -65.82 0.0007945524    1.526    0.345
       399  -9.5416    150.6331    103.3206   7.7694624500e+01   3.1436650123e+01     0.485947    0.3012228 -61.20  0.001157031    2.118    0.528
       400  -9.1480      7.0290    103.1746   1.1989733273e+02   5.3138538511e+01    0.2611042    0.1582377  78.14  0.001028026    1.814    0.449
       401 -10.3783    128.9232    101.2720   8.2645543862e+01   3.6737890130e+01    0.6981449    0.3932054 -34.67  0.002031318    1.951    0.487
       402  -8.2482    175.6901    102.1749   7.1663212927e+01   2.5763402689e+01    0.2544618     0.191341 -56.62 0.0007128568    1.457    0.314
       403  -8.2772    159.8222    101.1370   7.4911258902e+01   2.9740793956e+01    0.2458783    0.2088577 -63.98 0.0005269707    1.290    0.225
       404  -9.2525     81.9947    100.0378   9.5894044609e+01   4.5896020866e+01    0.3448493    0.2579554 -81.14 0.0007983122    1.665    0.400
       405  -8.9011     65.6148     87.4278   9.7889835014e+01   5.1237926255e+01    0.5684962    0.2958702  10.80  0.002010134    3.939    0.746
       406 -10.1931     63.8357     96.0082   1.0063498313e+02   4.9489099237e+01    0.5922998    0.3778382 -85.87  0.001684333    2.381    0.580
       407  -9.2822     95.0578     97.1193   9.1132656069e+01   4.4372393167e+01    0.3231633    0.2304575 -62.77 0.0005283327    1.516    0.340
       408  -9.2777    120.5034     92.9751   8.2569887170e+01   4.0332321281e+01    0.2735135    0.2245461  59.04  0.001335317    1.345    0.256
       409  -9.9625    124.5893     90.9520   8.0853164675e+01   3.9891485353e+01    0.4628763     0.373381 -68.36  0.001024887    1.460    0.315
       410  -8.3979    151.4318     94.9368   7.5137728155e+01   3.2977440622e+01    0.4055315    0.2510957  -6.90  0.001334846    3.242    0.692
       411  -8.2748    176.3822     93.2319   6.9048654433e+01   2.7322725476e+01    0.2847598    0.1866263 -47.20 0.0008071808    1.543    0.352
       412  -8.0745    164.5627     94.0710   7.1845513567e+01   3.0021233819e+01    0.2395142    0.1528495 -39.48  0.000445646    1.536    0.349
       413  -7.9120    188.4318     93.2633   6.6616271578e+01   2.4394597318e+01    0.2264993     0.140014 -47.11 0.0009458595    1.634    0.388
       414  -9.2307    139.0960     92.3897   7.7450125788e+01   3.6361938718e+01    0.3822839    0.2920941 -88.98 0.0008037954    1.816    0.449
       415  -9.7627      5.0616     92.0068   1.1895729883e+02   5.5834066459e+01    0.3511864     0.218764  67.17  0.001471036    1.959    0.489
       416  -9.9830    247.1940     89.8297   5.6033820302e+01   1.1544734503e+01    0.4978088    0.2566037 -62.55  0.001834943    3.270    0.694
       417  -8.2212    157.7403     91.7348   7.2729019659e+01   3.2120194843e+01    0.2801216    0.1924363 -35.83 0.0004684141    1.454    0.312
       418  -9.7233     34.8103     89.8786   1.0883592913e+02   5.4178267024e+01    0.4747579     0.257011 -83.81  0.001621069    2.584    0.613
       419  -9.1623     22.8952     90.4033   1.1291205947e+02   5.5049867965e+01    0.2971228    0.2362841 -24.18  0.001580467    1.451    0.311
       420  -7.8762    150.9808     89.1818   7.3574527608e+01   3.4239014247e+01    0.2328236    0.1624398 -55.52 0.0004417574    1.600    0.375
       421 -10.1258     86.4446     86.0711   9.0710983520e+01   4.8353054319e+01    0.6352059    0.4005146 -62.65  0.001796762    1.871    0.466
       422  -7.7065    164.1939     87.4115   7.0015683922e+01   3.1400358655e+01    0.2082057    0.1533759  67.10 0.0004646477    1.545    0.353
       423  -9.9308     48.5901     84.2004   1.0284944145e+02   5.4095566706e+01    0.5657743    0.3607193 -84.23  0.002109707    2.279    0.561
       424  -8.5444    157.8924     84.2203   7.0495720306e+01   3.3543694500e+01    0.2712391    0.2062768 -49.31 0.0005104156    1.348    0.258
       425 -10.1021    110.7274     74.5922   7.9723239076e+01   4.6203102549e+01    0.2728516    0.2619981   9.71 0.0002263252    1.046    0.044
       426  -9.3177    105.7922     71.2216   8.0087250312e+01   4.7883874849e+01    0.5619167    0.2478302 -51.71  0.001963826    2.790    0.642
       427  -9.7408    104.7686     83.2629   8.4208931681e+01   4.5615115079e+01    0.4611853    0.3225408 -70.00  0.001027403    2.007    0.502
       428  -8.5723    104.8370     77.7322   8.2472324465e+01   4.6759194127e+01    0.3599045    0.2350059 -10.00    0.0012517    2.384    0.580
       429  -9.1276    140.8896     82.6970   7.4101435132e+01   3.7902088932e+01     0.343066    0.2188018 -43.15 0.0008940477    1.552    0.356
       430  -9.7858     24.6092     80.5189   1.1038917608e+02   5.7197588936e+01     0.485393    0.2676749 -86.25  0.001567806    2.549    0.608
       431  -9.5751     10.1130     81.3448   1.1558764313e+02   5.7988712125e+01    0.3825018    0.2025588  63.45  0.001453817    2.937    0.659
       432  -8.6614    250.2465     82.2536   5.3830452602e+01   1.2093445846e+01    0.2368635   0.08588032 -43.19 0.0008935959    2.432    0.589
       433  -7.4700    179.3064     85.6798   6.6320123072e+01   2.8018203414e+01    0.1609525    0.1212614 -70.47 0.0005282272    1.637    0.389
       434  -8.5603    150.1761     80.6306   7.1211502974e+01   3.6096109000e+01    0.2784706    0.2043768 -48.36  0.000639956    1.400    0.286
       435  -8.8857    119.3045     80.4679   7.9133242795e+01   4.3207420214e+01    0.3449621     0.243996 -60.32 0.0009048249    1.706    0.414
       436  -9.0332     74.5272     80.4085   9.2961434833e+01   5.1523665351e+01    0.3297755     0.219413 -66.70  0.001191759    1.851    0.460
       437  -8.3608    166.7789     79.5596   6.7152025920e+01   3.2235059632e+01     0.281695    0.2060372 -37.31 0.0002394167    1.349    0.259
       438  -7.6916    184.2587     78.3384   6.3259673389e+01   2.8110703775e+01    0.1527066    0.1217477   6.78 0.0004158883    1.581    0.367
       439  -9.9135     63.5691     73.9610   9.4834576306e+01   5.4524838638e+01     0.711485    0.3063498 -61.45  0.002556163    3.177    0.685
       440  -8.8443     64.3717     63.6180   9.1336101026e+01   5.6600529353e+01    0.5444075    0.2970534 -13.79  0.001966492    3.662    0.727
       441  -9.7044    127.9737     75.2746   7.5123066788e+01   4.2326467124e+01    0.4404493    0.2867444 -59.06 0.0007042746    1.962    0.490
       442  -7.7192    157.2720     76.6332   6.8359604542e+01   3.5117657251e+01    0.1623079    0.1202175 -66.06 0.0004609528    1.667    0.400
       443  -8.7190    140.3183     75.4479   7.2000800007e+01   3.9434865613e+01    0.3218995      0.24233 -80.21  0.000898544    1.855    0.461
       444  -9.7507     82.3518     72.4482   8.7918820593e+01   5.1980280922e+01    0.5218678    0.3005669 -58.83 0.0009473314    2.136    0.532
       445  -9.1297     85.4319     64.1230   8.4152732910e+01   5.3143094861e+01    0.5162658    0.2862873  12.07  0.001750542    3.823    0.738
       446  -9.0227    115.7467     72.9644   7.7747840699e+01   4.5468719213e+01    0.3266412    0.1937532 -46.31 0.0007092035    1.710    0.415
       447  -8.3713     42.6433     72.8808   1.0207405335e+02   5.7289758448e+01    0.2527237    0.1541792 -70.02 0.0008775509    1.898    0.473
       448  -7.8323    175.5308     72.5354   6.3277670772e+01   3.1303830870e+01    0.1523681    0.1507293 -56.56 0.0001038819    1.012    0.012
       449  -9.2080     95.1052     71.2027   8.3373466379e+01   4.9970513633e+01    0.3870598    0.2221581 -54.98 0.0009077169    2.056    0.514
       450  -8.6595     94.8614     65.4236   8.1524692535e+01   5.1164477556e+01    0.4245235    0.2177632 -22.61 0.0009219681    3.140    0.681
       451  -9.5867     51.4340     69.6579   9.7944344211e+01   5.7014559574e+01    0.4110231    0.2296717 -67.68   0.00127463    2.376    0.579
       452  -9.1903     30.1629     69.9174   1.0594561196e+02   5.9130117357e+01    0.4502929    0.2213638 -20.17  0.001914351    3.219    0.689
       453  -9.1177     16.5723     69.8531   1.1102167060e+02   6.0172446641e+01    0.3047192      0.18642 -80.31   0.00133997    1.856    0.461
       454  -8.7728    147.0458     68.0926   6.8050514401e+01   3.9167460391e+01    0.3504139    0.2109709 -44.46 0.0007154666    1.702    0.412
       455  -8.9110    138.6197     66.0952   6.9428867531e+01   4.1556921648e+01    0.3206995     0.213655 -52.58  0.000944468    1.709    0.415
       456  -8.7798    121.7529     66.2013   7.3839494505e+01   4.5442686133e+01    0.3132966    0.2242944 -55.31 0.0007385005    1.633    0.388
       457  -9.1590    110.1014     63.7311   7.6296138446e+01   4.8432162509e+01    0.3517424     0.228722 -49.98 0.0009383559    1.696    0.411
       458  -8.6277     37.3445     64.6244   1.0181294111e+02   5.9627907914e+01    0.2500528    0.1992536  84.51 0.0008982776    1.762    0.432
       459  -7.9728    207.4841     68.5289   5.6488509090e+01   2.4018915793e+01    0.3306389    0.1461185 -16.44 0.0008098721    6.054    0.835
       460  -7.4737    187.6759     63.3345   5.8332313586e+01   2.9779322597e+01    0.1617213    0.1131318 -67.14 0.0007050931    1.711    0.416
       461  -7.8985    158.1383     62.0810   6.3666745660e+01   3.7457101569e+01    0.2070308    0.1781798 -69.75  0.000361096    1.287    0.223
       462  -9.2253     97.4217     60.6783   7.9079033641e+01   5.1578284772e+01    0.2705868    0.2486659  26.89  0.000925574    1.113    0.101
       463  -9.6308     73.3226     59.6742   8.6792714238e+01   5.6046105587e+01    0.3908287    0.2349944 -53.87  0.001187882    1.862    0.463
       464  -7.5983    164.3075     60.2890   6.1825050235e+01   3.6197893799e+01    0.1540293    0.1177926  23.75 0.0003093917    1.575    0.365
       465  -8.4186    163.4652     73.0764   6.5922000837e+01   3.4228114691e+01    0.3307488    0.1400037 -41.52 0.0009114151    2.327    0.570
       466  -9.8872     23.4813     56.6173   1.0507272855e+02   6.2548336873e+01    0.4324355    0.2681602 -87.07  0.001971496    2.813    0.645
       467  -8.6905    130.8386     57.8611   6.8628542432e+01   4.4834929654e+01     0.265007    0.1997087 -41.68 0.0005593437    1.356    0.262
       468  -9.4425      7.6726     57.3949   1.1167021534e+02   6.3419277875e+01    0.2605154    0.1870974  86.06 0.0009021912    1.824    0.452
       469  -8.4649    139.9342     56.3354   6.5887834513e+01   4.2913500773e+01    0.2604468    0.1984074 -44.31 0.0004525548    1.363    0.266
       470  -9.3163    119.1983     55.5385   7.0880866706e+01   4.7909384412e+01    0.4739079    0.2432061 -43.04  0.001507346    2.027    0.507
       471  -9.4715     54.1915     55.2403   9.2365748310e+01   5.9674954914e+01    0.3685214    0.2270101 -63.54 0.0009710269    2.232    0.552
       472  -9.0508     44.0789     55.3410   9.6369694494e+01   6.0869825793e+01    0.3061604    0.1926517 -64.14  0.001047722    1.958    0.489
       473  -8.4138    105.8254     53.1759   7.3835839381e+01   5.1222652783e+01    0.2143048    0.1963388 -58.16 0.0006091627    1.273    0.214
       474  -8.1980     74.5583     52.1741   8.3681759095e+01   5.7278309884e+01    0.3771159    0.2107175   4.92   0.00132821    3.787    0.736
       475  -9.4292     92.5122     50.6399   7.7015478109e+01   5.4343796947e+01    0.3648912    0.2346716 -51.01  0.001147091    1.860    0.462
       476  -8.6980    144.8652     49.1124   6.2336650559e+01   4.2849133004e+01    0.2268588    0.2013195 -58.36 0.0005244217    1.223    0.182
       477  -8.2492    129.8690     49.0926   6.5842196866e+01   4.6496192817e+01     0.220793    0.2004845 -66.87 0.0005021743    1.258    0.205
       478  -8.7351    120.8559     47.5361   6.7588149868e+01   4.8844506955e+01    0.2626921    0.2126968   9.20 0.0004455985    1.340    0.254
       479  -8.9471    155.9999     47.0140   5.9290060030e+01   4.0369926987e+01    0.1779738    0.1726963  57.04 0.0003554343    1.003    0.003
       480  -8.3469    112.1408     46.9223   6.9728221652e+01   5.0901037168e+01    0.2149919    0.1949098 -61.78  0.000513494    1.311    0.237
       481  -8.8894     82.1047     46.5140   7.8912856898e+01   5.6994217306e+01    0.2400909    0.2057098 -54.15 0.0005212735    1.429    0.300
       482  -8.4088     44.9579     44.9210   9.2433961309e+01   6.2818137672e+01    0.1735189    0.1556362 -79.04 0.0004873092    1.598    0.374
       483  -8.8505     16.7304     44.7164   1.0449718370e+02   6.5498736210e+01    0.2258563    0.1416309 -62.57 0.0006230643    1.574    0.365
       484  -9.0838    132.9505     43.5097   6.3134390663e+01   4.6608112975e+01    0.2748696    0.1977135 -49.20 0.0007254735    1.566    0.362
       485  -8.5132     92.9601     42.8012   7.3889324571e+01   5.5568882971e+01    0.2239276    0.1789409   8.36  0.000643999    1.271    0.214
       486  -9.3056     69.5985     41.2095   8.1297744409e+01   6.0036666039e+01    0.5141982     0.236665 -45.90  0.001866814    2.327    0.570
       487  -8.9187     58.2405     42.5272   8.6158029683e+01   6.1533838643e+01    0.2846897    0.2082708 -61.09  0.001270994    1.949    0.487
       488  -9.5452      5.1912     42.0718   1.0885146575e+02   6.6737517688e+01    0.2959139    0.1805357 -76.18  0.001408291    2.019    0.505
       489  -8.5298    105.9628     41.3096   6.9375738327e+01   5.3120740699e+01    0.2443393    0.1939908 -54.99  0.000656909    1.564    0.360
       490  -7.7995    140.2608     41.6265   6.0806918279e+01   4.5096304345e+01    0.1504342    0.1108134 -60.12 0.0003732108    1.658    0.397
       491  -8.4847     36.8261     41.0413   9.4461279894e+01   6.4459023113e+01    0.1809053    0.1559513 -46.33 0.0005560786    1.268    0.211
       492  -8.8118     95.4845     38.0086   7.1216792110e+01   5.5811900583e+01    0.2710216    0.2164991 -52.20 0.0008162857    1.556    0.357
       493  -8.1737     80.7832     36.8234   7.5532220173e+01   5.8827450166e+01    0.1741318    0.1587124 -44.89 0.0004244588    1.330    0.248
       494  -9.3941     26.0099     35.4723   9.7236749307e+01   6.6557458899e+01    0.2752028    0.2068081 -60.74 0.0008866114    1.606    0.377
       495  -7.6532    133.4557     36.4660   6.0519820423e+01   4.7484865707e+01    0.1436274    0.1377105  37.72 8.887055e-05    1.023    0.022
       496  -8.2531    125.9821     35.6882   6.1983379149e+01   4.9388536584e+01     0.200342    0.1756809  45.99  0.000397303    1.090    0.083
       497  -8.6383    111.8175     34.8655   6.5273561830e+01   5.2775360718e+01    0.2506773    0.1892313 -50.27 0.0005848701    1.592    0.372
       498  -7.8689    104.4883     34.5000   6.7158177234e+01   5.4439141243e+01    0.1418856    0.1283256  14.02 7.107434e-05    1.010    0.010
       499  -9.0164     48.4990     33.5181   8.6525730933e+01   6.4433827949e+01    0.2270499    0.2074974 -37.88 0.0006597521    1.334    0.251
       500  -8.7591     60.7460     32.6811   8.1180735277e+01   6.2840114794e+01    0.2323653    0.1926414 -37.96 0.0006121754    1.314    0.239
       501  -7.8934    139.3457     32.1324   5.7697578690e+01   4.6611209124e+01     0.207358    0.1250476 -39.28 0.0009377719    1.747    0.427
       502  -8.8071     72.1741     31.4336   7.6327849116e+01   6.1182221829e+01    0.2379115    0.1984683 -63.30 0.0006425062    1.810    0.447
       503  -8.8915     12.9242     30.3806   1.0156622567e+02   6.8546332000e+01    0.2400908    0.1507959 -65.22  0.001127795    1.957    0.489
       504  -8.4128    101.4884     29.4981   6.6021203158e+01   5.5771781330e+01     0.224243    0.1871902 -67.31 0.0006892073    1.651    0.394
       505  -8.2692    119.2001     33.2260   6.2732276225e+01   5.1315122641e+01    0.1857632    0.1663905 -58.46 0.0003958462    1.313    0.239
       506  -8.8056     81.4019     27.5175   7.1426412085e+01   6.0090032063e+01    0.2568666    0.2106579 -49.16 0.0008034155    1.568    0.362
       507  -8.8592      3.5362     27.8528   1.0530321434e+02   6.9601076797e+01    0.1846706     0.166978 -74.64 0.0007940392    1.500    0.333
       508  -7.8074    110.2801     27.6431   6.2869770155e+01   5.4083301926e+01    0.1366375    0.1079904 -59.71 0.0007013686    1.662    0.398
       509  -8.8263     91.8065     26.4443   6.7630393319e+01   5.8198357500e+01     0.281405    0.1826427 -37.41 0.0006904623    1.648    0.393
       510  -7.7150    145.7216     26.3251   5.4397654209e+01   4.5736052680e+01    0.1429129    0.1071831 -63.38 0.0002869195    1.590    0.371
       511  -8.5380    104.5497     22.7902   6.2450108267e+01   5.5958955285e+01    0.1824339    0.1252113 -36.47 0.0003767502    1.579    0.367
       512  -8.0174     34.9478     23.4840   8.8247585205e+01   6.7755423860e+01     0.149815    0.1027585  52.05 0.0008093379    2.643    0.622
       513  -8.8625     63.5559     21.0514   7.4953446099e+01   6.4134849317e+01    0.2751872    0.1966067 -48.76  0.001153373    1.933    0.483
       514  -8.9462     48.4223     21.6802   8.1393925996e+01   6.6340778097e+01    0.2239369    0.1874664 -37.92 0.0006517788    1.417    0.294
       515  -8.2003     19.5732     21.7342   9.4935002434e+01   6.9580843469e+01    0.1501746   0.09848952 -50.94 0.0004408649    1.592    0.372
       516  -7.7527    120.5308     21.0111   5.7762083517e+01   5.2515635464e+01     0.201745    0.1026578 -48.10 0.0008095431    2.635    0.620
       517  -8.9810     73.9192     19.4646   7.0433715309e+01   6.2550715377e+01    0.2680567    0.1737969 -35.82 0.0008345481    1.638    0.389
       518  -7.9657     87.6529     17.7757   6.5180617238e+01   6.0122525996e+01    0.1767929    0.1146142 -32.61 0.0004697342    1.615    0.381
       519  -8.0061     38.5565     18.0679   8.4103895983e+01   6.8178011187e+01    0.1806784    0.1017133 -35.82  0.001016411    1.565    0.361
       520  -8.0397    112.8113     16.7842   5.7925925731e+01   5.4781911654e+01    0.1744019    0.1607719 -70.44 0.0003708562    1.320    0.242
       521  -8.0922     29.8491     16.0353   8.7282170854e+01   6.9504052748e+01    0.1686357    0.1309497 -55.89 0.0008803755    1.975    0.494
       522  -8.4689    134.4713     14.8848   5.2532117042e+01   4.9804746175e+01    0.1950858    0.1360037 -24.92 0.0007156219    1.535    0.348
       523  -8.0024     96.9682     14.9562   6.1249541854e+01   5.8502952090e+01    0.1941931    0.1586448 -55.96  0.000520664    1.637    0.389
       524  -7.9830      7.5251     15.5137   9.8590260212e+01   7.1575541083e+01     0.112719   0.08513413 -31.01 -5.021343e-06    1.058    0.055
       525  -7.7532     17.2488     14.6004   9.3007750452e+01   7.0970959616e+01    0.1013443   0.08441042 -54.96 0.0006943499    1.692    0.409
       526  -7.7681     83.6537     11.3302   6.3526599318e+01   6.1649999294e+01    0.1224102    0.1030993 -63.81  0.000704993    1.758    0.431
       527  -8.4616    249.1351    248.9108   8.8168152973e+01  -1.1608193793e+01    0.2567814    0.1182745 -29.05  0.001490337    2.282    0.562
       528  -7.5382     47.6746     10.3584   7.6250931900e+01   6.8024959701e+01    0.1087273   0.09638369 -51.21 0.0007043985    1.778    0.438
       529  -9.3151    248.5051    242.4458   8.7241777841e+01  -1.0835191687e+01    0.2407378    0.1792571 -29.50 0.0008573252    1.634    0.388
       530  -9.1600    218.9569    247.2731   9.3063313356e+01  -7.2052733311e+00    0.3427057    0.1742298 -24.14  0.001894175    2.357    0.576
       531  -8.1198    191.4500    249.5058   9.8277164498e+01  -3.3435506770e+00    0.2069976   0.09129971  46.69 0.0009056905    2.213    0.548
       532  -8.9781    175.6987    247.9179   1.0091360111e+02  -6.8523537821e-01    0.2984895    0.1962645  64.58  0.001401707    2.362    0.577
       533  -8.8846    156.2337    248.3290   1.0453707643e+02   2.3219758135e+00    0.2442699    0.1474606  56.79 0.0004284622    1.836    0.455
