#   1 NUMBER                 Running object number                                     
#   2 MAG_AUTO               Kron-like elliptical aperture magnitude                    [mag]
#   3 X_IMAGE                Object position along x                                    [pixel]
#   4 Y_IMAGE                Object position along y                                    [pixel]
#   5 X_WORLD                Barycenter position along world x axis                     [deg]
#   6 Y_WORLD                Barycenter position along world y axis                     [deg]
#   7 A_WORLD                Profile RMS along major axis (world units)                 [deg]
#   8 B_WORLD                Profile RMS along minor axis (world units)                 [deg]
#   9 THETA_WORLD            Position angle (CCW/world-x)                               [deg]
#  10 FWHM_WORLD             FWHM assuming a gaussian core                              [deg]
#  11 ELONGATION             A_IMAGE/B_IMAGE                                           
#  12 ELLIPTICITY            1 - B_IMAGE/A_IMAGE                                       
         1 -13.4989    242.2343    108.3309   7.5355171198e+01   1.1057775428e+01     6.224333    0.9647769 -28.80   0.01669589    5.506    0.818
         2 -11.9219    216.6146     48.7451   6.3410226520e+01   2.4409941674e+01    0.9364407    0.8278276 -25.56  0.004642602    1.111    0.100
         3 -12.7515    226.6510     41.5437   6.0023568082e+01   2.2732750057e+01     2.266217      1.16793 -47.70  0.009370743    2.219    0.549
         4 -12.3402    142.7553     26.8562   6.8793153655e+01   4.6152524564e+01     2.369658    0.9729605  60.40  0.008736555    2.462    0.594
         5 -12.7434    177.6736     77.8246   7.8509531091e+01   3.0186929844e+01      4.35515     1.212981 -44.43   0.01120667    5.144    0.806
         6 -12.2788    173.1181     59.3748   7.3840122473e+01   3.4075282969e+01      1.98245      1.21744 -81.93   0.00690272    3.345    0.701
         7 -12.9395    139.1474     40.3702   7.4556568520e+01   4.5251479066e+01     3.182845     1.884299  77.17   0.01220903    2.729    0.634
         8 -11.3438    247.1270     22.4185   5.2553441153e+01   1.9742450390e+01     0.662787    0.3355042 -45.00 0.0007176457    1.986    0.496
         9 -11.8664    233.8920     63.4881   6.5121726347e+01   1.8429504371e+01     1.739216    0.5574052 -34.48  0.006145305    2.815    0.645
        10 -11.0883    179.4208     19.6968   5.9770766342e+01   3.7380737209e+01     1.664191    0.8302131  61.62  0.006869002    1.882    0.469
        11 -10.0886    250.6355     12.0029   4.9523757316e+01   1.9890763922e+01      0.40961    0.1229187 -20.43 0.0003297934    3.198    0.687
        12 -11.5958    197.4150     13.8572   5.5440426944e+01   3.3155962177e+01     2.077968     1.078116 -84.70  0.007748746    2.835    0.647
        13 -13.3961    235.5116      4.7665   4.8880644153e+01   2.4169195171e+01     3.328406          nan  63.18  0.008345678    6.505    0.846
        14 -10.4414    142.4789     14.9842   6.4324051844e+01   4.7574758510e+01    0.7073455    0.2703677 -20.57  0.002554559    2.684    0.627
        15 -10.4107    143.3071     10.3423   6.2369405906e+01   4.7833893617e+01    0.7458576    0.3847708   8.06  0.002850033    2.593    0.614
        16  -8.4186    172.0400      3.1467   5.5176225132e+01   4.0899665730e+01    0.3394273    0.1525421 -38.13  0.001027929    2.338    0.572
        17 -10.6396    209.4884      2.4600   5.0615946975e+01   3.0980116353e+01    0.4288632    0.2777788 -53.83  0.001770306    1.664    0.399
        18 -11.7393    119.8343     10.2526   6.7134587904e+01   5.3665886130e+01    0.7686868    0.6298419  55.92  0.002865129    1.256    0.204
        19  -8.8339    103.9626    160.5352   1.1293852856e+02   3.0173286399e+01     0.184783    0.1502891  87.60 0.0002546159    1.250    0.200
        20  -7.5170    203.3649    160.7023   9.3440208714e+01   1.2213376374e+01    0.1233946    0.1033089  75.87 0.0007032501    1.722    0.419
        21  -8.6399    170.0511    156.3804   9.8820194360e+01   1.9266424347e+01    0.1942571    0.1742646  -1.39 0.0002299164    1.205    0.170
        22 -10.1125    216.5588    151.5172   8.9280221128e+01   1.0848889066e+01    0.2374457     0.204806  23.40 0.0009423727    1.045    0.043
        23 -10.2667    232.2715     78.3363   6.9309544701e+01   1.6988785483e+01    0.4055932    0.3367686  -3.53 0.0004381406    1.144    0.126
        24  -8.2425    102.6475    145.1926   1.1087560088e+02   3.3233250824e+01    0.1579829    0.1470626 -75.22  0.000353047    1.117    0.104
        25  -9.0960    192.1187    143.8415   9.2095590206e+01   1.6779271898e+01     0.198235    0.1823877  58.82 0.0005516079    1.257    0.204
        26 -10.2072     67.6304    144.1211   1.1849641601e+02   3.8410923394e+01    0.5234126    0.2857477  61.66  0.002285465    1.985    0.496
        27  -7.9674    164.1532    133.8140   9.5457241710e+01   2.4051076792e+01    0.1836211    0.1546565  10.50 0.0003687465    1.299    0.230
        28  -8.1264    168.3596    129.1839   9.3585589222e+01   2.3951260403e+01    0.1791573     0.131062 -47.62  0.000224943    1.544    0.353
        29  -9.1892    160.2086    128.4159   9.5102510347e+01   2.5764140438e+01     0.322184     0.211998 -29.05  0.001574004    1.743    0.426
        30  -8.6258    203.3134    126.6524   8.6238378554e+01   1.6932194438e+01    0.1348511     0.113297 -73.18 0.0007046763    1.718    0.418
        31 -11.3078    185.5969    121.3364   8.8345469820e+01   2.1541196219e+01    0.7357764    0.3848378 -21.41  0.002975526    2.492    0.599
        32  -9.0698    200.0100    123.5023   8.6116439022e+01   1.8095460451e+01     0.222199    0.1321931  48.83  0.001036039    1.603    0.376
        33  -8.2213    141.5966    122.7985   9.7880659031e+01   3.0510360855e+01    0.1986191    0.1308516 -55.76 0.0009576947    1.751    0.429
        34  -7.6295    134.5156    123.4823   9.9616266947e+01   3.1766520846e+01    0.1361119    0.1297493  56.79 0.0002698742    1.021    0.020
        35  -9.8405    194.3468    118.1130   8.5902225966e+01   2.0124308685e+01     0.277372    0.2068031  52.12 0.0008421162    1.357    0.263
        36  -9.3931    216.6290    115.9059   8.1344113431e+01   1.5565106971e+01    0.3112822    0.2003956  22.46  0.001474835    1.696    0.410
        37  -9.4599    210.1049    113.9916   8.2024002534e+01   1.7256391483e+01    0.4181229    0.1686998 -35.63  0.001621823    2.516    0.603
        38 -10.8509    204.6202    110.4495   8.2139093934e+01   1.8976273510e+01    0.6528266    0.2573693  39.70  0.002365035    2.664    0.625
        39 -10.1250    167.5085    113.0970   9.0022332256e+01   2.6808907666e+01     0.405114    0.3249574 -85.25  0.001419989    1.742    0.426
        40 -10.3667    130.8600     47.9189   7.9203542870e+01   4.6084902453e+01    0.3026382    0.2464236 -16.02 0.0002521359    1.222    0.181
        41 -11.4852    110.1224     41.1910   8.2122754418e+01   5.1724234544e+01    0.6869901    0.6137547 -64.27  0.001969763    1.373    0.272
        42  -9.7638     85.5153    238.7660   1.2443940271e+02   2.0260331965e+01    0.1923174    0.1104843  68.57  0.001386509    1.655    0.396
        43  -8.7437     92.5019    237.4843   1.2325118200e+02   1.9548129954e+01    0.0998602    0.0739555  54.67 -1.017105e-05    1.063    0.059
        44  -9.9419    184.3634     71.8717   7.5485588365e+01   2.9443610904e+01       0.2986     0.250949  43.76 0.0002740612    1.156    0.135
        45  -8.1458      7.5782    235.3683   1.3589468982e+02   2.9087455247e+01   0.09827785   0.06601319 -88.39 0.0004258027    1.422    0.297
        46 -10.0789    155.1601    218.5972   1.1109961985e+02   1.3060104039e+01    0.1861029    0.1550483  48.88  0.000643041    1.107    0.096
        47  -8.1584    135.1319     94.8129   9.2609687197e+01   3.6984713087e+01     0.212402    0.1926325 -83.70 0.0006703445    1.258    0.205
        48  -8.6363    192.6893     93.1938   7.9901384315e+01   2.4255542650e+01    0.3170176    0.1878559  42.35  0.001398341    1.636    0.389
        49  -9.3341    158.6643     90.6623   8.6103172333e+01   3.2583451948e+01    0.3040445    0.2235332  21.04   0.00143884    1.579    0.367
        50 -10.0204    161.5040     88.5363   8.4898959785e+01   3.2292987716e+01    0.3157307    0.3126615   9.87 0.0009830409    1.070    0.066
        51  -8.5906    216.2208     89.9354   7.4881459041e+01   1.9203259050e+01    0.2768068    0.1901776 -88.11 0.0009827943    2.550    0.608
        52  -8.8218    167.5034     88.6496   8.3655184410e+01   3.0884467095e+01    0.2846141    0.1943502 -61.86   0.00081899    2.078    0.519
        53  -9.4310    143.2800     86.7216   8.8479327814e+01   3.6713413226e+01    0.3032562    0.2682429 -46.06  0.000853802    1.178    0.151
        54  -8.8188    175.9996     87.0816   8.1473104351e+01   2.9141650265e+01    0.2202788      0.20284  14.83 0.0003432021    1.043    0.041
        55  -9.8241    222.2324     81.4287   7.1656750876e+01   1.8931452984e+01    0.6538252    0.2381806 -45.28  0.002031944    3.942    0.746
        56 -11.0787    158.4683     79.0026   8.2833708593e+01   3.4589759144e+01    0.4065336    0.3184783 -17.48  0.002018134    1.346    0.257
        57  -9.1053    215.3581     74.5343   7.0877912020e+01   2.1471851170e+01    0.4015861    0.3597986  53.34  0.001613835    1.173    0.147
        58  -9.8334    206.9734     65.4865   6.9684869134e+01   2.4718497471e+01     0.938167    0.4547346 -60.32   0.00259118    5.300    0.811
        59  -9.2866    213.8091     67.9962   6.9307566725e+01   2.2705096972e+01    0.4707178    0.2934221 -54.39  0.001906601    2.116    0.527
        60 -10.3548    209.4265     62.4255   6.8416845502e+01   2.4509449481e+01     1.252756    0.5746461 -59.01  0.003213008    6.119    0.837
        61 -10.0434    194.3547     64.5006   7.1510267422e+01   2.8002410882e+01    0.3514028    0.2303961  36.66  0.001092384    1.571    0.364
        62 -10.6292    200.0786     60.7293   6.9430416695e+01   2.7072445144e+01    0.4990075    0.2912083  39.54  0.002135202    1.772    0.436
        63  -7.6850      1.4305     75.5135   1.2650490018e+02   5.8752815811e+01    0.1102274   0.08229992 -71.57 3.414163e-05    1.027    0.027
        64  -9.0195     10.1621     71.2228   1.2317115154e+02   5.9145402959e+01    0.1957666   0.07838243 -41.76 0.0009531861    2.879    0.653
        65  -8.0149    118.4466     70.4810   8.9856608701e+01   4.4940014054e+01    0.1434547    0.1360474 -14.48 0.0001199835    1.019    0.018
        66  -9.0852    223.0257     66.0000   6.7350529518e+01   2.0718995716e+01    0.3705706    0.2464461 -53.88   0.00169606    1.882    0.469
        67  -8.9361    149.2269     97.5923   9.0068121351e+01   3.3477585174e+01     0.300562    0.2466474  26.10 0.0008920293    1.280    0.219
        68  -7.6051     69.5338     66.5487   1.0290689565e+02   5.4202271900e+01    0.1301196    0.1158941 -45.47  8.22217e-05    1.004    0.004
        69  -9.3920    226.2446     96.7501   7.5004759078e+01   1.6002740612e+01    0.2605828    0.2044471 -17.54  0.001393683    1.222    0.182
        70  -8.2454    245.0466     60.4965   6.2858818704e+01   1.6178852770e+01    0.2003503    0.1397255  62.06  0.001019657    1.559    0.358
        71  -8.3355    209.9170     96.6699   7.7710683335e+01   1.9734381233e+01    0.2087821    0.1806907  45.24  0.000605013    1.162    0.140
        72  -7.7812    248.2893     53.2980   6.0572053728e+01   1.6246117273e+01     0.140383   0.09927417  21.74 0.0003242777    1.557    0.358
        73  -8.8628    189.1004     51.6464   6.8531282968e+01   3.1067644601e+01    0.4692074    0.2812236 -68.36  0.001735848    2.843    0.648
        74  -8.7677     63.4103     51.7016   1.0046063645e+02   5.8018119217e+01    0.2089914    0.1824742 -65.54 0.0004650075    1.280    0.219
        75  -8.9011    240.6697     47.2313   5.9869542979e+01   1.8698455507e+01     0.397176    0.2497158 -13.79  0.001388007    1.602    0.376
        76  -8.8388    187.8429     44.8993   6.6639266386e+01   3.2260413065e+01    0.4131078    0.1855002 -38.50   0.00155487    2.269    0.559
        77  -8.8065    185.0379     40.9950   6.5865648688e+01   3.3478410311e+01    0.3792919    0.2318966 -44.68  0.001431809    1.801    0.445
        78  -8.8715     61.7421     46.2967   9.9257969802e+01   5.9293977575e+01    0.2907352    0.1634399 -53.52  0.001257426    1.761    0.432
        79 -10.7270    247.6277     44.1286   5.8236533670e+01   1.7402067865e+01    0.4483194    0.3304518 -73.88  0.002334504    1.699    0.411
        80  -8.9277    250.3360     33.3710   5.5117526870e+01   1.7899097466e+01    0.7979364    0.1187488 -24.76  0.002187815    4.997    0.800
        81  -8.8233     28.7586    214.4225   1.3183394636e+02   3.0245565494e+01    0.1119982   0.08009432  40.48 0.0003445932    1.569    0.363
        82  -9.8932    243.3545     24.0842   5.3358359074e+01   2.0478930943e+01    0.4486217    0.1826464 -42.67   0.00130768    2.439    0.590
        83  -7.8003    244.6336     33.7853   5.5818325380e+01   1.9196897716e+01    0.1927846     0.113914 -33.08 0.0004472946    1.563    0.360
        84  -9.6416      6.7741    115.3637   1.2939542773e+02   5.0169798882e+01    0.2370795    0.1321813  68.93  0.001520951    1.748    0.428
        85  -7.3994    195.6253     28.3086   6.0218460779e+01   3.2165638438e+01    0.1581834    0.1089142 -62.13 0.0007030821    1.777    0.437
        86 -12.2819      4.7835    204.7102   1.3517856083e+02   3.3976733080e+01    0.6459571    0.3595915  89.78  0.005217322    1.471    0.320
        87  -7.5658    156.9550    204.0067   1.0891071209e+02   1.4681837042e+01    0.1398626    0.1092857  44.02 0.0003387318    1.016    0.016
        88 -13.2776     35.8063    180.9996   1.2859433872e+02   3.5091651371e+01     1.200983    0.9796578   1.37  0.001828524    2.232    0.552
        89 -12.4351     47.6802    172.3008   1.2567124802e+02   3.5400316739e+01    0.8191915    0.6039818  85.47  0.002903113    1.149    0.130
        90  -8.6190    191.2003    191.5859   1.0107035357e+02   1.0471081439e+01    0.2271861    0.1473882 -72.98 0.0009574276    4.536    0.780
        91  -9.6301    237.1435     38.7022   5.7972429257e+01   2.0473606709e+01    0.7787509    0.3595677  -6.67  0.002865658    2.921    0.658
        92  -8.2567    236.6924    249.3268   1.0222952414e+02  -2.4922101104e+00   0.08936206   0.07126361  48.02 0.0007037553    1.654    0.395
        93  -8.0653    103.5611    248.5060   1.2240169282e+02   1.6668836521e+01   0.09903504    0.0707188  53.52 0.0001641946    1.021    0.021
        94 -11.8772    242.7079    240.9100   1.0021241068e+02  -2.7051018339e+00    0.2090771    0.1524522  30.18 0.0004347251    1.141    0.124
