#   1 NUMBER                 Running object number                                     
#   2 MAG_AUTO               Kron-like elliptical aperture magnitude                    [mag]
#   3 X_IMAGE                Object position along x                                    [pixel]
#   4 Y_IMAGE                Object position along y                                    [pixel]
#   5 X_WORLD                Barycenter position along world x axis                     [deg]
#   6 Y_WORLD                Barycenter position along world y axis                     [deg]
#   7 A_WORLD                Profile RMS along major axis (world units)                 [deg]
#   8 B_WORLD                Profile RMS along minor axis (world units)                 [deg]
#   9 THETA_WORLD            Position angle (CCW/world-x)                               [deg]
#  10 FWHM_WORLD             FWHM assuming a gaussian core                              [deg]
#  11 ELONGATION             A_IMAGE/B_IMAGE                                           
#  12 ELLIPTICITY            1 - B_IMAGE/A_IMAGE                                       
         1 -11.7051    250.2262     68.6578   6.8620867845e+01   1.4978979819e+01     1.532503    0.1591242 -30.20  0.003561571    7.926    0.874
         2 -11.7039    202.6586     36.0774   6.5486343591e+01   2.9424475874e+01     1.111315    0.5123262 -52.97  0.004574622    2.250    0.556
         3  -9.3172     31.2237     12.7571   1.0721915695e+02   7.4379092549e+01     1.011409    0.2562781 -41.16   0.00337359    3.847    0.740
         4 -11.6313     29.9498     23.9939   1.1443579388e+02   7.2294663120e+01    0.5075386    0.3176966 -38.42  0.001801087    1.453    0.312
         5 -11.7814    211.6996     33.0439   6.3720789313e+01   2.7631471987e+01    0.8054109    0.4610766 -39.82  0.003554361    1.524    0.344
         6 -11.7725     67.0446     21.3085   9.0704352098e+01   6.6645901815e+01    0.8618587    0.7100703   1.09  0.004097626    1.239    0.193
         7 -11.8350     77.9836     28.9680   8.9976241364e+01   6.3020316541e+01     1.162977    0.7960912   2.82   0.00516797    1.953    0.488
         8 -12.3971     66.4795     30.9679   9.6140091389e+01   6.5123541460e+01    0.8262712    0.6154484  74.44  0.003724846    2.099    0.524
         9 -12.3838    131.6983     20.5913   7.0590893598e+01   5.0245616796e+01     1.757071     1.304104 -69.85  0.007791369    1.493    0.330
        10 -11.3372    130.2603     14.0552   6.8217371908e+01   5.1372003499e+01     1.325749    0.2071455  57.35  0.003622772    4.074    0.755
        11 -10.5873    140.2696      6.7976   6.3744926054e+01   4.9287223295e+01    0.7829158    0.2132156 -25.12  0.002557708    3.538    0.717
        12 -12.9246    131.4890      3.7665   6.3828643362e+01   5.2016539923e+01     1.615211    0.4172364  69.79  0.005050516    3.248    0.692
        13 -12.5665    112.3873     22.5723   7.5668205583e+01   5.5314439639e+01     1.050264    0.6652895 -37.83  0.004745936    1.667    0.400
        14 -13.7688    100.5455      6.5759   7.1040795307e+01   6.0293938508e+01     0.847513    0.6462007 -46.42  0.004338679    1.473    0.321
        15 -12.3997     93.1897      8.3137   7.3853917880e+01   6.2065394256e+01    0.6656631    0.4573951  52.92  0.003194798    1.293    0.227
        16 -11.8977    112.0027      7.7770   6.9031688101e+01   5.7068677352e+01    0.9557138    0.3819721  71.20  0.003453964    2.463    0.594
        17 -10.7530     89.7702     22.7935   8.2398476522e+01   6.1168913758e+01    0.7776352    0.3722488 -13.78  0.002630868    3.347    0.701
        18 -11.0008    148.2465     24.9723   6.9307389066e+01   4.5122828640e+01    0.7705802    0.4373321  34.50  0.003070545    2.309    0.567
        19 -11.5482     26.5984      4.0124   1.0504679635e+02   7.6557481509e+01    0.6196168    0.3852557 -17.10  0.003259875    1.722    0.419
        20 -11.1915     18.8967      3.4146   1.1159741269e+02   7.7577597261e+01    0.4714001    0.3584465  32.31    0.0029043    1.509    0.337
        21 -11.2081      4.8351     26.9577   1.3470067778e+02   7.3396030524e+01    0.5720758    0.4432536  59.72   0.00350128    1.606    0.377
        22 -10.8871     11.8496     25.6315   1.2887545288e+02   7.3416191543e+01    0.7177224    0.2454932 -37.71  0.002903843    2.732    0.634
        23 -10.7177      8.8923     19.4032   1.2908411662e+02   7.4986743310e+01    0.7144638    0.2955408  11.39  0.003294502    2.576    0.612
        24 -11.9715     18.6336     13.4252   1.1797924619e+02   7.5632915928e+01    0.4877657    0.3916174 -14.94  0.002390216    1.122    0.109
        25 -11.5330     13.0652      8.6609   1.2046921299e+02   7.7067109134e+01    0.4540823    0.4054167 -44.60  0.002544541    1.194    0.162
        26 -13.1008      4.2232     10.0997   1.2971687566e+02   7.7257202432e+01    0.8908682     0.449625 -67.92    0.0028252    1.893    0.472
        27 -12.1410    117.0756     15.3583   7.1371483871e+01   5.4890489584e+01     0.569755    0.3498216 -88.42  0.002045532    2.036    0.509
        28  -9.9808    161.4202     18.6910   6.5135956605e+01   4.2212149649e+01    0.3722491    0.1671276 -26.75  0.001473884    2.276    0.561
        29 -11.2956     50.5017     10.5493   9.2741041660e+01   7.1628085801e+01     0.527697    0.4151473  19.35  0.002224977    1.192    0.161
        30 -11.1669     40.9144     21.6490   1.0557637024e+02   7.1341994780e+01    0.4659636    0.1941518 -46.16  0.001393164    2.341    0.573
        31 -12.2880     43.6994     15.7437   1.0026868646e+02   7.1989663047e+01     1.019988     0.564637  51.60  0.004481304    2.514    0.602
        32 -11.6796     68.2086      4.7911   8.0252843727e+01   6.8625609756e+01    0.7436169    0.3370039  46.39  0.002876895    1.948    0.487
        33 -11.1493     60.2996      4.1703   8.3303911463e+01   7.0479993245e+01    0.5205916    0.2756517  25.84  0.002016027    2.311    0.567
        34 -11.8121     55.4562      2.5377   8.4532977479e+01   7.1716973298e+01    0.5267765    0.3341092  48.59  0.001167175    1.478    0.323
        35 -11.0559    200.1959      6.3323   5.7450390158e+01   3.3327274983e+01    0.7048534    0.4891319 -61.37  0.003902694    1.286    0.222
        36  -9.9027    204.3797      6.7611   5.7263311510e+01   3.2259613944e+01    0.1869779    0.1234683 -28.37 0.0003414707    1.504    0.335
        37 -11.4619    208.6091      3.8191   5.6185523514e+01   3.1522792821e+01    0.5224188    0.3414783 -76.31  0.002874978    1.420    0.296
        38  -9.9811    187.2696     14.4242   6.0859724423e+01   3.5777870996e+01    0.3751717    0.2177037  76.39  0.001556996    1.658    0.397
        39  -9.8583    188.2395     10.0036   5.9464309059e+01   3.5979944296e+01      1.20385     0.707122   3.69  0.005226996    2.655    0.623
        40 -10.9432    240.4983     13.4723   5.6601002046e+01   2.3390086537e+01    0.4581833    0.1845997  75.51  0.001688307    2.629    0.620
        41 -10.9077    211.1029     13.6825   5.8621433529e+01   2.9943137549e+01    0.3723356     0.295651  85.18  0.001323542    1.244    0.196
        42 -12.1235    231.4144     10.3330   5.6399220847e+01   2.5654982049e+01    0.5637903    0.4701186 -69.32  0.002742959    1.100    0.091
        43 -11.0149    202.2449     19.4657   6.0918659021e+01   3.1466216763e+01    0.7570872    0.3909791  86.85  0.003045751    2.076    0.518
        44 -10.6586    207.8813     17.1899   5.9812788365e+01   3.0342919339e+01    0.4335733    0.2410983 -85.69  0.002034614    1.906    0.475
        45 -11.4201    220.9896     12.3482   5.7565701543e+01   2.7777754178e+01    0.6297525    0.3300245  74.08  0.003190129    1.940    0.484
        46  -9.6635    224.4694      8.5517   5.6388491301e+01   2.7374327905e+01    0.2070655    0.1721437  84.05 0.0008175634    1.252    0.201
        47 -10.3173    151.1804     14.9933   6.5245972424e+01   4.5434595693e+01    0.3661215    0.1926343 -44.06  0.001394546    1.911    0.477
        48 -10.4112    147.1617     11.9002   6.4688162897e+01   4.6870470096e+01    0.3929355    0.2333707 -67.40  0.001198754    1.897    0.473
        49  -9.6413    167.7325      7.6609   6.0708061092e+01   4.1625087406e+01    0.2054273    0.1482322 -18.24 0.0002547153    1.565    0.361
        50 -10.1279    167.2769      3.1713   5.9286617465e+01   4.2164051016e+01    0.5327798    0.2794793 -61.68  0.002325179    1.967    0.492
        51 -10.7075    163.9377      5.9590   6.0545393884e+01   4.2815176571e+01    0.3545406    0.2020551 -46.46  0.001062821    1.702    0.413
        52 -10.9171    170.1881     14.0450   6.2518739725e+01   4.0325867098e+01    0.4465433    0.2298411 -42.52  0.001255719    1.845    0.458
        53 -11.3007    165.3809     11.8301   6.2340406762e+01   4.1853804089e+01    0.5375448    0.3140987 -59.04  0.002005668    1.759    0.431
        54 -11.0477    123.2838     10.0505   6.7819363284e+01   5.3726176552e+01    0.4444973    0.2654692  65.91  0.001154016    1.497    0.332
        55 -10.1015    250.4587      9.5359   5.5154834100e+01   2.1750450516e+01    0.2328447    0.1313415 -20.27 0.0006701692    1.906    0.475
        56 -10.3211     77.1263      9.3662   7.9595285277e+01   6.5992223937e+01    0.3778344    0.2675147  43.48  0.001067947    1.277    0.217
        57 -11.4275     82.6993      5.7628   7.5595623760e+01   6.5016381440e+01    0.6508201    0.3099951 -26.97   0.00196584    2.200    0.545
        58  -9.7931     77.3846      4.7792   7.6792755223e+01   6.6437308941e+01    0.2956836    0.1859854  18.89 0.0008726915    1.847    0.459
        59 -11.4345    156.4594      4.6106   6.0901785047e+01   4.4986906413e+01    0.5763489    0.4308749  57.40  0.002363789    1.328    0.247
        60  -9.7544    241.3136      4.3574   5.4446742608e+01   2.4133593717e+01     0.210399    0.1573559  21.06 0.0006805782    2.017    0.504
        61  -9.4060    216.2211      5.0198   5.6011887802e+01   2.9610349275e+01    0.2664179    0.1590837 -23.00 0.0008443963    1.743    0.426
        62 -10.4681    216.9815      1.4979   5.5067852025e+01   2.9770805080e+01    0.2717705    0.1141001  76.35  0.001079265    2.329    0.571
        63 -10.7514    176.1879      4.5404   5.8888067435e+01   3.9653905421e+01    0.4934394    0.2072122  80.10   0.00150045    2.292    0.564
        64  -9.1050     42.4537      4.6050   9.3546331332e+01   7.3988100030e+01    0.3087995    0.2363515  55.58  0.001719445    1.689    0.408
        65 -12.2402    247.3792      2.6645   5.3770873867e+01   2.3047788766e+01    0.3667252     0.246536  71.29 0.0008054793    1.677    0.404
        66 -10.3280    223.7591      2.2169   5.4863147469e+01   2.8153461424e+01    0.2249445    0.1855185  65.33  0.001440188    1.402    0.287
        67  -9.5210    229.9286      1.4427   5.4343477297e+01   2.6854255223e+01    0.1750531    0.1114187  89.26  0.001008579    1.542    0.352
        68 -10.1597    246.7743     16.7786   5.6991879219e+01   2.1751110273e+01    0.3012565    0.1259293 -47.98  0.001492024    1.912    0.477
        69  -9.1245    183.4140      1.4080   5.7319744823e+01   3.8043840390e+01    0.1390135    0.1157828 -69.40 5.639622e-05    1.054    0.051
        70  -9.3871     44.9630      1.5449   8.9666563885e+01   7.3950619734e+01    0.1898572     0.118407  39.69 -6.343935e-05    1.483    0.325
        71 -10.9896     48.7924    102.1608   1.2744036440e+02   5.0856031543e+01     0.328406    0.1462098 -55.74  0.001273626    2.084    0.520
        72 -10.6257    184.4276    101.0206   8.6170857813e+01   2.3907048559e+01    0.4028333    0.2203931 -16.16  0.001448538    2.822    0.646
        73  -9.1876     81.4909    102.4771   1.1506411589e+02   4.6016470765e+01    0.1549792    0.1493415  71.95 0.0008100728    1.023    0.022
        74  -9.3168     75.6767    102.3280   1.1715741600e+02   4.7032754504e+01    0.1627428    0.1166683  69.67 0.0007049183    1.694    0.410
        75 -10.2769     28.5177    102.0372   1.3544436678e+02   5.2896344977e+01    0.2637379    0.2156652  20.07  0.001095845    1.355    0.262
        76 -11.3501      4.2662     99.1203   1.4465048556e+02   5.5154531433e+01    0.3765748    0.2884463 -84.46   0.00167442    1.116    0.104
        77 -11.1346    177.6626     99.3309   8.7068258871e+01   2.5738461783e+01    0.2903061    0.2074369 -38.21 0.0008171694    1.368    0.269
        78 -11.5949    174.9897     96.9715   8.6981385465e+01   2.6777434013e+01    0.4457554    0.3626556 -32.57  0.001690232    1.207    0.172
        79 -11.4547    158.3058     96.7172   9.0547092810e+01   3.0738784987e+01    0.4645184    0.4168876  51.28  0.001999245    1.121    0.108
        80  -9.7627     45.9978     98.5055   1.2789160293e+02   5.2147188539e+01    0.2084414    0.1440478  25.93 0.0007048837    1.532    0.347
        81 -10.2164    226.5621     96.7189   7.8057192225e+01   1.5691322522e+01    0.2645863    0.1217644 -27.60   0.00104885    2.071    0.517
        82  -9.8023     38.9149     96.8597   1.3048620495e+02   5.3335202472e+01    0.2216213     0.186023 -41.11  0.001214263    1.260    0.206
        83  -9.6420     53.6901     96.6792   1.2443025322e+02   5.1711045488e+01    0.1533632    0.1085591 -33.35 0.0003389981    1.646    0.392
        84 -10.7797    188.1676     94.0165   8.3622419111e+01   2.4266320794e+01    0.2555752    0.2203786  54.47 0.0008210411    1.225    0.184
        85 -10.3254    205.1577     86.0910   7.8641115198e+01   2.1747254046e+01      0.36176    0.1671644 -40.69  0.001291992    2.013    0.503
        86 -10.5097    193.6736     91.6399   8.2002299025e+01   2.3417847483e+01    0.4368552    0.3159393 -18.22  0.002125249    1.489    0.328
        87 -11.4055    200.0490     89.8751   8.0449049839e+01   2.2279387361e+01     0.521413    0.3206783  64.58  0.002041298    1.964    0.491
        88 -11.1965     36.0458     91.6453   1.3079905791e+02   5.5000427453e+01     0.601693    0.3163114  23.94  0.002679802    2.018    0.504
        89 -11.2257      3.0664     88.9986   1.4441299717e+02   5.7822162231e+01    0.5469753     0.254763 -57.76  0.002598713    1.922    0.480
        90 -11.6660      4.5518     81.6303   1.4318507128e+02   5.9678924611e+01     0.616887    0.2343896 -54.39  0.002126409    2.314    0.568
        91 -10.1809     87.9852     90.2365   1.0948826848e+02   4.7893391637e+01      0.36322     0.227653 -42.14   0.00109982    1.688    0.408
        92 -11.1491    220.8434     92.1555   7.7785162312e+01   1.7503869856e+01    0.3629733    0.2149091 -56.01  0.001644348    2.190    0.543
        93 -11.2102     51.9913     87.5610   1.2317295612e+02   5.4325697134e+01     0.623233    0.4274309  15.69  0.002944929    1.674    0.403
        94 -10.6684     57.4289     85.2349   1.2030160272e+02   5.4214123200e+01     0.527577    0.3189284   4.65  0.002105635    2.439    0.590
        95 -11.1019     13.9948     88.5404   1.3978220986e+02   5.7450778398e+01    0.3758674    0.3071069  36.93  0.001199465    1.324    0.245
        96 -10.6187    241.8550     85.4522   7.3407311221e+01   1.4339022344e+01    0.4130888    0.2795461  23.89  0.001937159    1.946    0.486
        97 -10.9909    239.0903     82.4876   7.3054112978e+01   1.5267374167e+01    0.5810629    0.3535985 -11.26  0.002851387    2.013    0.503
        98 -10.9175    154.1755     87.4125   8.8846913740e+01   3.3518300637e+01    0.4371639    0.2940825  67.64  0.001829787    1.803    0.445
        99 -10.4525     97.9546     77.3729   1.0196572500e+02   4.8912493085e+01    0.4707533    0.2829701  58.97  0.001808105    2.074    0.518
       100 -11.0539    106.8641     86.1032   1.0168185779e+02   4.4987942383e+01    0.6296374    0.5025582  27.56  0.002756353    1.354    0.261
       101  -9.9964    100.4456     83.5345   1.0305542650e+02   4.6967586617e+01    0.2879671    0.2532537  32.69  0.000518111    1.149    0.130
       102 -10.8481    103.0026     81.0010   1.0138331037e+02   4.6993906659e+01    0.3345552     0.241018 -51.45   0.00143623    1.439    0.305
       103 -10.1528     42.3522     87.0238   1.2722152496e+02   5.5591544432e+01    0.3150084    0.1541259 -59.24  0.001100561    1.830    0.454
       104 -10.2881     29.0713     77.8137   1.3145104114e+02   5.9272430203e+01     0.335884    0.1907807 -75.93  0.001551831    1.692    0.409
       105 -12.3295     25.3936     84.9976   1.3434653996e+02   5.7660791320e+01    0.7456974    0.3964574  71.34  0.003179598    2.312    0.567
       106 -10.1493     82.2135     86.1877   1.1049664377e+02   4.9968333092e+01    0.3376292    0.2004913 -42.15  0.000371428    1.787    0.440
       107 -10.1366    146.8127     86.2221   9.0259837224e+01   3.5549147289e+01    0.2289759    0.1930916  15.51  0.001081018    1.361    0.265
       108 -10.5941    119.5211     86.3416   9.7758944903e+01   4.2073310717e+01    0.6667312    0.2028358  45.88  0.001915468    3.211    0.689
       109 -10.8007    248.7085     84.2045   7.2315733322e+01   1.3237392132e+01    0.2580746    0.2087675 -63.18 0.0007494175    1.447    0.309
       110 -11.5170    217.3028     82.8490   7.5999027985e+01   1.9614800987e+01    0.3971502    0.2729485 -32.05  0.001184636    1.307    0.235
       111 -11.0069    220.1023     75.3234   7.3729203716e+01   2.0113347240e+01    0.4874598    0.4080098  21.75  0.002805127    1.391    0.281
       112 -10.4409    192.2498     72.9525   7.7199853560e+01   2.6754393888e+01    0.4063393    0.3475259 -36.84   0.00219103    1.107    0.096
       113 -10.7453    188.5157     80.9886   8.0046040310e+01   2.6354203685e+01    0.4436644    0.3231842 -71.30  0.002067835    1.771    0.435
       114  -9.6622    229.4839     83.5153   7.4505155357e+01   1.7009077614e+01    0.1346958    0.1177205 -29.56 -7.946343e-06    1.010    0.010
       115  -9.5474    182.0166     83.6929   8.1964798652e+01   2.7443558415e+01    0.2026992    0.1929239  59.07 0.0003867711    1.091    0.083
       116  -9.7423     76.0238     82.8119   1.1194353448e+02   5.1913946945e+01    0.2347294    0.2039852  86.24 0.0009595986    1.295    0.228
       117 -10.1386    159.8704     81.2071   8.5723893216e+01   3.3274736837e+01    0.3837485    0.2552083  71.50  0.001085909    1.878    0.467
       118 -11.4591    135.4635     79.7950   9.1188484120e+01   3.9613235089e+01    0.4937655    0.2764428 -32.23  0.001744137    1.997    0.499
       119 -10.4474     17.9537     81.9005   1.3723430803e+02   5.8974016196e+01    0.2999836    0.1845335  -8.91  0.001477493    1.999    0.500
       120  -9.9057     63.0665     79.5758   1.1640337774e+02   5.4848068158e+01    0.3618374    0.2520859  82.68  0.001563243    1.996    0.499
       121 -10.3508    186.2095     84.2184   8.1341681926e+01   2.6364535978e+01    0.2756598    0.2633455 -69.58  0.001007526    1.098    0.089
       122 -10.2528    176.9941     77.7044   8.1214002515e+01   2.9664355431e+01    0.3636762    0.2499846 -47.30  0.001670269    1.475    0.322
       123 -11.4691    172.0751     71.5993   8.0363566028e+01   3.1905577882e+01    0.5838866    0.3762517 -84.17   0.00228404    2.421    0.587
       124 -11.0235    167.7358     76.7320   8.2737893193e+01   3.2115467304e+01    0.6647655     0.362811  73.16  0.002355242    2.754    0.637
       125 -11.1372     68.3939     75.8940   1.1305484148e+02   5.4925655284e+01     0.488384    0.3664802 -50.68  0.002000473    1.298    0.230
       126  -9.7254     58.2404     77.0313   1.1781104277e+02   5.6206464246e+01    0.3364103    0.2273192 -39.81   0.00155117    1.547    0.353
       127 -11.5784     59.0342     69.7878   1.1535311232e+02   5.7909064513e+01    0.6268259     0.554308 -33.68   0.00336861    1.128    0.113
       128 -10.2441    237.5205     76.5152   7.1838950478e+01   1.6383399578e+01    0.2569597    0.2051505 -30.75  0.001055698    1.081    0.075
       129 -10.5997    234.2794     73.3578   7.1470130686e+01   1.7454478563e+01     0.453682    0.2347237 -43.87  0.001544474    1.760    0.432
       130 -12.3352    124.6352     69.8361   9.0903492588e+01   4.4279667849e+01    0.7072733    0.5448082 -69.26  0.002763411    1.597    0.374
       131 -10.1593    126.3528     64.0779   8.8432917577e+01   4.4961430198e+01    0.3276989    0.2373501  22.86 0.0006005539    1.761    0.432
       132 -11.3240     82.0102     74.9773   1.0716074558e+02   5.2717599017e+01    0.2443618    0.2190317  37.06            0    1.116    0.104
       133 -11.5712    223.8231     45.4427   6.5732697257e+01   2.3336613415e+01    0.7457382    0.5659177 -40.44  0.003410195    1.146    0.127
       134 -10.1221     16.1877    240.3889   1.4718994461e+02   2.2723651084e+01    0.1608423   0.06301805  40.49 0.0007096358    1.661    0.398
       135 -11.8596    233.6338     47.2367   6.5211972467e+01   2.0994525026e+01    0.4049645    0.3219563 -58.46  0.001272379    1.185    0.156
       136 -10.9966    242.2332     54.5135   6.6132882258e+01   1.8319346021e+01    0.4311604    0.2486594  61.39  0.002311893    1.980    0.495
       137 -12.0131    234.8263     56.7325   6.7401251386e+01   1.9544062747e+01    0.5452644     0.349251  56.05  0.002712016    1.778    0.438
       138 -11.0769    237.6256     51.7184   6.5912062888e+01   1.9604109837e+01    0.3805835    0.2568072  41.31   0.00208772    1.896    0.473
       139 -10.6547    150.6368     72.3996   8.5094428288e+01   3.7203737895e+01    0.3648849    0.3192813  78.28  0.001804345    1.218    0.179
       140 -12.0274     29.0990     82.3012   1.3224033041e+02   5.8087178118e+01    0.6647881    0.2649308  38.04  0.002661004    2.564    0.610
       141 -10.3989     18.3334     73.4267   1.3582662368e+02   6.1174925866e+01    0.2637815    0.1945795 -68.44  0.001030082    1.187    0.158
       142  -9.9083     21.7479     71.4087   1.3382386568e+02   6.1488931901e+01    0.2394033    0.1292517  -7.05  0.001057549    2.369    0.578
       143  -9.5574      3.1717     74.6257   1.4317439503e+02   6.1537694403e+01    0.1705691    0.1166441 -19.22 0.0008300813    1.677    0.404
       144 -10.5253    214.7275     71.9038   7.3582511507e+01   2.1766888963e+01    0.3614141    0.2690813  14.14  0.001851381    1.745    0.427
       145 -11.2892    115.8280     69.9720   9.3554631917e+01   4.6414585467e+01    0.4702033    0.3370178 -44.69  0.002082549    1.433    0.302
       146 -11.2839     31.4134     43.0203   1.2132085515e+02   6.7859406083e+01     0.387285    0.3006169  52.69  0.001295828    1.583    0.368
       147 -11.6417     42.5078     49.8332   1.1718323017e+02   6.5012981744e+01    0.6830582    0.2859252  26.13  0.002402774    2.538    0.606
       148 -11.1666     38.0768     44.0323   1.1764205946e+02   6.6908387044e+01    0.5048966    0.4115353  59.22  0.002764056    1.539    0.350
       149 -11.1491     42.5421     69.1937   1.2304267651e+02   6.0217556619e+01    0.6739338    0.5713306  32.26  0.003294649    1.250    0.200
       150 -11.1128     36.3123     63.8613   1.2479464197e+02   6.2239276452e+01    0.6538596    0.3867564  17.41  0.003062373    1.870    0.465
       151 -10.3249     32.4638     62.0212   1.2633789911e+02   6.3075568081e+01    0.2683045    0.2448751 -88.01 0.0006690435    1.161    0.139
       152 -10.8627     33.2564     58.0641   1.2487387603e+02   6.4002102050e+01    0.3159611    0.2643988 -77.29 0.0008073712    1.243    0.195
       153 -10.9323     36.5118     56.0311   1.2251539970e+02   6.4186181534e+01    0.4402832    0.2324263 -61.77  0.001124453    1.770    0.435
       154 -10.7234     32.6679     70.4425   1.2822209294e+02   6.0892513457e+01    0.4286409    0.2292587 -51.86   0.00195396    1.682    0.405
       155  -9.7064    202.2048     70.4401   7.4970181272e+01   2.4804431132e+01    0.2710752    0.1831489 -42.01  0.001077426    1.377    0.274
       156  -8.6148    198.5049     70.5234   7.5548210865e+01   2.5652586237e+01    0.2315936    0.1429853  58.86 0.0007010452    1.709    0.415
       157 -10.2279    102.1237     70.2965   9.8126297735e+01   4.9560476494e+01     0.315112    0.2164457 -72.57  0.001241288    2.149    0.535
       158 -10.3054      5.8612     71.1341   1.4155114258e+02   6.2351941597e+01    0.1932182    0.1588647  72.93 0.0003129183    1.233    0.189
       159 -10.3950    188.7763     75.7898   7.8564289074e+01   2.7132546462e+01    0.3451043    0.2334142 -54.91  0.001090265    1.627    0.385
       160 -11.1446    133.0161     68.3907   8.8117454739e+01   4.2448938020e+01    0.4699149    0.3462481  79.07   0.00201998    1.698    0.411
       161 -11.1803    140.1601     68.2339   8.6241209599e+01   4.0650769560e+01    0.6367166    0.3074836  50.51  0.002347453    2.005    0.501
       162 -10.5306    179.8620     68.7968   7.8113530709e+01   3.0421979626e+01    0.4997593    0.1926307  53.59  0.001777258    2.557    0.609
       163 -12.4156    166.0714     58.6481   7.7538794843e+01   3.5549806852e+01     1.242915    0.7141935 -17.53  0.004824216    2.291    0.564
       164 -11.8121    160.0588     50.3543   7.5995058399e+01   3.8421264672e+01    0.6018867     0.433566 -85.59  0.002116513    1.641    0.391
       165  -9.7925     69.0678     69.4752   1.1075608927e+02   5.6380048357e+01    0.2243683    0.1493702  36.22 0.0004893958    1.520    0.342
       166 -12.0975    151.9388     66.5005   8.2918614687e+01   3.7919626653e+01    0.6937196    0.3127829  47.65  0.001713748    2.238    0.553
       167 -11.3914    148.4974     64.9756   8.3193312727e+01   3.9079785267e+01    0.7133472    0.4178015 -69.02  0.002439295    2.922    0.658
       168 -11.3956    109.2954     67.2674   9.4669025399e+01   4.8536158119e+01    0.4446908    0.2482935  25.15  0.001448813    3.022    0.669
       169  -9.5167     92.3765     66.8384   1.0039948946e+02   5.2467986490e+01    0.2248801     0.145914 -32.63 0.0006324837    1.736    0.424
       170 -10.4581     26.3801     65.2221   1.3027609749e+02   6.2765479661e+01     0.465824    0.1884642 -42.06    0.0018234    2.536    0.606
       171 -10.4632    205.3808     65.5366   7.3198026959e+01   2.4793114094e+01    0.3247364    0.2346587  89.27   0.00101667    1.684    0.406
       172 -10.0783    190.0875     64.9962   7.5317697020e+01   2.8501204771e+01    0.2208427    0.2179149   9.55  0.000801053    1.082    0.076
       173  -9.8014     29.0104     49.0124   1.2470403168e+02   6.6636760273e+01    0.2067936    0.1848766 -42.65 0.0003722041    1.007    0.007
       174 -10.9704     10.9494     63.5557   1.3802630077e+02   6.4111965647e+01    0.3828667    0.2685655 -62.81  0.001851091    1.216    0.178
       175 -12.9751     19.5852     58.9697   1.3258958578e+02   6.4839778971e+01    0.6243297    0.4303221 -42.60  0.003116985    1.360    0.265
       176 -11.5069     25.7196     53.0247   1.2775074276e+02   6.5916185530e+01    0.3110255    0.2243961 -23.02 0.0005689124    1.455    0.313
       177 -10.0267    234.3778     63.2438   6.9024274133e+01   1.8788154284e+01    0.2087114    0.1819578 -11.85 0.0004136682    1.227    0.185
       178 -11.0676     51.4003     71.2774   1.1934393465e+02   5.8606722227e+01    0.6156545    0.3138607  45.04  0.001865882    2.205    0.546
       179  -9.9654     53.8997     62.3674   1.1545974461e+02   6.0482068542e+01    0.4699836    0.2581238 -70.35  0.001848304    2.379    0.580
       180  -9.5349     57.7520     60.2571   1.1287887412e+02   6.0423477970e+01    0.2897851    0.1856693  27.51  0.000934388    1.642    0.391
       181 -10.8273    212.0490     54.5880   6.9412501946e+01   2.4793948811e+01    0.8590524    0.3130527 -55.78  0.002525023    4.741    0.789
       182 -10.6985    216.2065     60.5130   7.0453374289e+01   2.3044388851e+01    0.4727379    0.1854533  60.51  0.001905026    2.692    0.629
       183 -11.0650    221.7354     57.3466   6.8982244918e+01   2.2250746165e+01    0.7319929    0.3605705 -50.33  0.003245033    2.058    0.514
       184 -11.3850     67.3001     61.9477   1.0898939381e+02   5.8470172638e+01     0.318019    0.2982238   6.99 0.0007767184    1.073    0.068
       185  -9.7007    111.4667     62.5005   9.2262122391e+01   4.8978773663e+01    0.1608862    0.1536803  25.23 3.009537e-05    1.058    0.055
       186 -10.9788     97.6306     61.6885   9.6604361273e+01   5.2406864282e+01    0.3597045    0.2742453  77.85  0.001372886    1.751    0.429
       187 -10.7635    185.2801     60.6218   7.4823662211e+01   3.0346736319e+01    0.3147628    0.2171607 -64.70 0.0008174604    1.675    0.403
       188 -10.2722    178.1949     59.9676   7.5792739748e+01   3.2226625780e+01    0.6143291    0.2858444 -25.26  0.002234824    2.454    0.592
       189 -10.9113    171.5062     49.3097   7.3646313820e+01   3.5550681325e+01    0.9489676    0.1075986 -32.47  0.002143825    6.143    0.837
       190 -11.7095    180.4054     38.4895   6.8937345785e+01   3.4724617462e+01    0.6338001    0.3273249 -61.62  0.002454394    2.415    0.586
       191 -10.0093    186.8197     38.1840   6.7985587846e+01   3.3109965175e+01    0.2568037    0.2074838  54.64  0.001362931    1.314    0.239
       192 -12.1348    185.9593     46.8073   7.0662549251e+01   3.2174524672e+01    0.6227077    0.5109165 -48.93  0.001843236    1.155    0.134
       193 -10.9062    174.2511     57.3686   7.5678308776e+01   3.3632368864e+01    0.3888818    0.2747173 -18.51 0.0009862258    1.616    0.381
       194 -11.8957    176.8255     52.1416   7.3652620735e+01   3.3753132733e+01    0.6171303    0.4316545  39.69  0.002190211    1.648    0.393
       195  -9.8503     79.7937     61.2389   1.0330829020e+02   5.6311854991e+01    0.3403218    0.1666306  53.23  0.001187632    2.600    0.615
       196  -9.5664    126.5776    216.7511   1.2178459015e+02   1.3455987896e+01    0.1476048    0.1243016 -88.51 0.0009403718    1.632    0.387
       197 -10.2536    200.7451     46.3967   6.8579501790e+01   2.8560958507e+01     0.548924    0.2676438 -29.33  0.002340675    1.964    0.491
       198 -11.0378    200.6802     59.1018   7.2105292411e+01   2.6821137638e+01    0.5165687    0.3025032  87.81  0.002165567    2.399    0.583
       199 -10.5047    201.3644     53.5228   7.0475863131e+01   2.7443269232e+01    0.5094188    0.4475043  39.95  0.002481022    1.290    0.225
       200 -11.0255    194.7259     38.9924   6.7227452769e+01   3.1009456595e+01     0.730757    0.2766365 -44.63  0.002751143    2.468    0.595
       201 -10.8283    194.6699     30.6368   6.4832741141e+01   3.2064035529e+01    0.3714811    0.2909463   5.81   0.00127168    1.654    0.395
       202 -11.4919    205.3755     44.2031   6.7416165922e+01   2.7736515210e+01    0.4444908    0.2576375 -48.11  0.002103888    1.617    0.382
       203 -10.6214    207.5341     41.4589   6.6422102500e+01   2.7575971479e+01    0.2451966     0.210997 -43.23 0.0006426212    1.068    0.064
       204  -9.5008     46.6373     59.5948   1.1822166718e+02   6.2138142150e+01    0.2203645    0.1524553 -30.21 3.262906e-05    1.562    0.360
       205  -9.9289    191.9853     58.9708   7.3316133354e+01   2.8937379801e+01    0.2909609    0.2047281  65.08  0.001427125    1.482    0.325
       206  -9.5968    139.0890     59.0823   8.3404681464e+01   4.2570842945e+01    0.2222557    0.1861045 -64.23  0.001057775    1.301    0.231
       207 -10.3049      3.4045     57.8733   1.4124714463e+02   6.5825287128e+01    0.3086201    0.1810282  60.63  0.001573949    1.943    0.485
       208  -9.8413    158.3405     58.1340   7.8866032044e+01   3.7655282704e+01       0.3768    0.2266141  30.38  0.001436181    2.351    0.575
       209 -11.6190    116.4370     50.1932   8.6114949073e+01   5.0038946234e+01     1.298833    0.7261423 -55.19  0.004821853    2.347    0.574
       210 -11.1696    123.0431     55.0000   8.6073827970e+01   4.7482372425e+01    0.4074885    0.2721093  37.40   0.00115887    1.631    0.387
       211 -10.7860     88.0969     55.9648   9.7958946829e+01   5.5719376750e+01    0.5796215    0.3262789  65.46  0.001732324    3.069    0.674
       212 -10.9386     85.9601     52.2202   9.7299521708e+01   5.6953438527e+01    0.5114489     0.367795  -3.28  0.001342925    1.930    0.482
       213 -10.6163     12.8236     56.4301   1.3584594413e+02   6.5852459412e+01    0.3807571    0.1932845  29.24  0.001824277    2.156    0.536
       214 -10.2326     99.6640     55.5949   9.3562628002e+01   5.3172902590e+01     0.385779    0.3339369  -1.29  0.001898908    1.295    0.228
       215 -10.3976    133.8551     52.2846   8.2267873541e+01   4.5116934237e+01    0.5829924    0.2634989  38.37  0.001862303    2.993    0.666
       216 -11.5017    150.1116     52.6079   7.8710182364e+01   4.0725718138e+01    0.5707284    0.4548086  29.12  0.002712439    1.452    0.311
       217 -11.4589    140.9688     51.4273   8.0287153658e+01   4.3361876639e+01    0.5279735    0.3873618  37.22  0.001344204    1.499    0.333
       218 -10.8350    146.2790     48.2626   7.8014325220e+01   4.2439031239e+01     0.505582    0.2937435  72.89   0.00199619    1.969    0.492
       219 -10.7660     60.8134     52.8551   1.0869430228e+02   6.1661328104e+01    0.3923717    0.2502917 -53.74  0.000717489    1.597    0.374
       220 -10.5208    192.9526     53.8926   7.1729013612e+01   2.9432665803e+01    0.2150879    0.1975713 -59.71 0.0003950492    1.031    0.030
       221 -10.1866    104.9124     53.9317   9.1136003960e+01   5.2240353891e+01    0.3352389    0.2289086  42.13  0.000996558    1.449    0.310
       222 -10.1229     71.2841     53.2146   1.0390882688e+02   5.9726289517e+01    0.3378002    0.1836347 -51.21  0.001098261    1.924    0.480
       223 -10.8584     75.6373     51.4322   1.0126244939e+02   5.9266163144e+01    0.3365935    0.3016994 -81.75  0.001361848    1.343    0.256
       224 -10.0454      7.0472     48.7177   1.3782114543e+02   6.8028369681e+01    0.2488138    0.2105573 -55.12 0.0007028849    1.033    0.032
       225  -9.9492     55.1574     50.0033   1.1043681130e+02   6.3215183313e+01    0.2610706    0.1974693  41.08 0.0009320434    1.405    0.288
       226 -10.4012     55.1292     46.1708   1.0892269091e+02   6.4080784471e+01    0.2862681    0.2381054  43.47  0.001098934    1.307    0.235
       227 -10.2249    194.5770     48.0147   6.9828572210e+01   2.9850910473e+01    0.3915638    0.3392958 -68.19   0.00162013    1.124    0.110
       228  -9.9312     93.8895     48.3446   9.2692697571e+01   5.5929301362e+01    0.3854762     0.177679  43.77  0.001410709    2.134    0.531
       229 -10.5180    152.9414     44.7982   7.5475274211e+01   4.1165335678e+01    0.4430109     0.236056 -20.15  0.001471977    2.340    0.573
       230  -9.7546     12.6356     34.3653   1.3099216798e+02   7.1322256113e+01     0.247699    0.1609754  22.78 0.0009631119    1.704    0.413
       231  -9.6687     16.0295     31.5746   1.2772305433e+02   7.1794469683e+01    0.2725742    0.1764871 -76.93 0.0004987528    1.698    0.411
       232 -12.5251     20.1722     42.2260   1.2816785252e+02   6.8982527096e+01    0.6829174    0.4813364  77.50  0.001442386    1.833    0.454
       233 -10.5623     11.8369     41.3786   1.3334110115e+02   6.9661311966e+01    0.5129497    0.2370838 -24.64  0.002292193    2.393    0.582
       234 -11.1023    141.8241     43.4832   7.7257296947e+01   4.4377192890e+01    0.5156994    0.3192319  63.37  0.002049671    1.572    0.364
       235 -10.9769    118.2343     41.9822   8.2364058657e+01   5.0953300297e+01    0.5796453     0.343983 -38.11  0.002315734    1.737    0.424
       236 -10.1919    248.6368     43.7805   6.3060138354e+01   1.8356026020e+01    0.3214093    0.1425883  63.52  0.001574926    2.537    0.606
       237 -10.1873     80.1426     69.1975   1.0599331822e+02   5.4432703896e+01    0.2328707    0.2064298   0.62 0.0006015011    1.228    0.185
       238  -9.8487    106.3976     43.8352   8.6580311253e+01   5.3703549881e+01    0.3236905    0.2470196 -69.13  0.001461794    1.673    0.402
       239 -10.3905     66.9179     43.6650   1.0194292628e+02   6.2574838959e+01    0.2636535    0.2109076 -52.02  0.000799844    1.348    0.258
       240  -9.8666    213.9339     42.7883   6.6077716267e+01   2.5907529414e+01    0.1971993    0.1787349  40.30 0.0006825261    1.297    0.229
       241 -10.5959     99.6640     38.1422   8.6306803001e+01   5.6353314220e+01    0.3686144    0.2830832   4.52  0.001227306    1.595    0.373
       242 -11.2665    246.4893     57.1509   6.6342945806e+01   1.7148431742e+01     0.475495    0.3043983 -27.31  0.001895596    1.398    0.285
       243 -10.5045     86.8169     41.1239   9.2225937065e+01   5.8906157948e+01    0.3451022    0.3256516 -70.48  0.001219939    1.201    0.167
       244  -9.7273    161.6675     41.2749   7.2706788213e+01   3.9316342590e+01    0.2385222    0.2104417  77.58 0.0007344726    1.099    0.090
       245  -9.9399    161.7596     37.7543   7.1518638026e+01   3.9776729881e+01    0.2362936    0.2101384 -73.01 0.0008506996    1.101    0.092
       246  -9.5363    242.5021     40.5348   6.2812511388e+01   1.9969428319e+01    0.1302356    0.1033953 -48.36 0.0008088755    1.062    0.059
       247  -9.6770    130.2765     40.1346   7.8590439306e+01   4.8017801597e+01    0.2057628    0.1999856 -76.13 0.0004955577    1.051    0.048
       248 -10.4050    171.0143     37.9321   7.0118361147e+01   3.7269844387e+01    0.4857239    0.2653942 -77.44   0.00101759    2.619    0.618
       249 -10.4995     46.0120     37.1506   1.1013046667e+02   6.7430906777e+01    0.3964044    0.1831899 -47.33  0.001566712    2.030    0.507
       250 -11.3393     54.1534     36.4625   1.0519353506e+02   6.6317588837e+01    0.8130847    0.4759255  46.25  0.003654007    1.941    0.485
       251 -10.1636     51.1953     30.7881   1.0409950773e+02   6.7952620757e+01    0.2423552    0.2006829   3.16 0.0007074004    1.203    0.169
       252 -10.5439     55.1344     29.8632   1.0141708766e+02   6.7463713199e+01     0.284354    0.2256171  27.02 0.0004354696    1.232    0.189
       253 -10.8459    124.2064     35.5289   7.8230978069e+01   5.0346065716e+01    0.5846204    0.3431235 -17.62  0.002340042    2.126    0.530
       254 -10.5059    109.7150     37.1091   8.2744186258e+01   5.3959857416e+01    0.4492163    0.2144586 -39.37  0.001261292    2.169    0.539
       255 -10.0262     36.9867     27.7198   1.1137276154e+02   7.0665106846e+01    0.3044891    0.2615606 -83.31  0.001732749    1.598    0.374
       256 -10.3975     26.2400    212.8676   1.4420553395e+02   2.6829509700e+01    0.1973195    0.1494764  -9.10  0.001254595    2.086    0.521
       257  -9.5961     25.3097     38.2551   1.2357027116e+02   6.9544479044e+01    0.1609312     0.152511  72.99 0.0003011802    1.253    0.202
       258 -10.5604     24.7572     34.3475   1.2254866929e+02   7.0505401738e+01    0.2714761    0.2209338  84.50   0.00154777    1.580    0.367
       259 -10.5915     23.4796     28.8470   1.2131987335e+02   7.1873265558e+01    0.3628302    0.2386532 -65.58  0.001700272    1.601    0.375
       260 -11.1876     28.3197     29.1079   1.1796950664e+02   7.1361570335e+01     0.398347    0.2680794 -32.57  0.001051749    1.392    0.282
       261 -10.2394    247.8201    203.3913   9.6274499475e+01  -1.8456738237e+00    0.1591898   0.08304197  21.44  0.000830252    1.686    0.407
       262 -10.4430    222.1326     36.4795   6.3616832460e+01   2.4818125677e+01    0.3051161    0.2216544  77.10  0.001275723    1.466    0.318
       263  -9.7160    114.1914     36.9659   8.1415153060e+01   5.2809499307e+01    0.2529526     0.178312   8.59  0.001072603    1.926    0.481
       264  -9.6220    245.3300    187.3384   9.3912468201e+01   3.0302960163e-01    0.1251367   0.07177347   2.20 0.0007051899    1.737    0.424
       265 -11.1593    217.6193     29.2514   6.2167865538e+01   2.6700463501e+01    0.3564741    0.2446555 -65.91  0.001249079    1.417    0.294
       266 -11.4477    147.7220     35.0665   7.3046942295e+01   4.3971782857e+01    0.7388074    0.3016504  67.04  0.002581819    2.459    0.593
       267 -10.8558     88.5809     33.9864   8.8281071950e+01   5.9740160123e+01    0.5748479    0.2991006  47.21  0.002340266    1.816    0.449
       268  -9.6876     37.7929    180.3701   1.3973521457e+02   3.2479307997e+01    0.1746593    0.1159311  18.66 0.0009588945    1.721    0.419
       269 -10.7452     81.0201     33.4754   9.0962273532e+01   6.1577842561e+01    0.3726443     0.261987  55.40  0.000873877    1.493    0.330
       270 -11.9283    246.1667    177.3411   9.1982947945e+01   1.3906986443e+00    0.2754547    0.1778542 -25.57 0.0009679275    1.391    0.281
       271 -10.7660     73.7078     17.1250   8.5404611922e+01   6.5798558176e+01    0.2876028    0.2781646 -74.53  0.001411307    1.231    0.188
       272 -10.1671     70.1580     17.6008   8.7188855655e+01   6.6531143070e+01    0.2346333    0.2016178 -16.82 0.0004634804    1.180    0.152
       273 -10.6009    229.0324    175.5369   9.4443781607e+01   4.0331220171e+00    0.2037388    0.1579419 -31.58 0.0004039123    1.458    0.314
       274 -10.6468     61.7435     31.4331   9.8720655776e+01   6.5960551414e+01    0.2581162    0.2169903  25.70  0.001029823    1.148    0.129
       275  -9.6786    245.8486     33.3623   6.0871226382e+01   2.0124264593e+01    0.3312419    0.1576059  63.27  0.001295157    2.351    0.575
       276 -10.9966    248.6912     29.6780   5.9816607222e+01   1.9968901858e+01    0.3352456    0.2497253 -81.66  0.002140805    1.408    0.290
       277 -11.0445    236.9336     31.9994   6.1234391125e+01   2.2120505404e+01    0.5701879    0.2471723  70.66  0.002678357    2.515    0.602
       278 -11.9141    229.7696     29.4254   6.1179857439e+01   2.3953798050e+01    0.6337003    0.4455878 -84.29  0.003491837    1.484    0.326
       279  -9.7830    136.2593     38.7841   7.6723365200e+01   4.6590814341e+01    0.2156809    0.1754229  36.25  0.000454251    1.322    0.244
       280  -9.5140      9.3055    167.3451   1.4647753333e+02   3.8000976960e+01    0.1163003   0.08675152 -51.27 0.0007041995    1.692    0.409
       281 -11.1425    247.2153    166.0262   8.9714112487e+01   2.6431239274e+00    0.1960199    0.1533627  13.69 0.0004734563    1.185    0.156
       282 -10.0887     14.0518    165.3484   1.4514108873e+02   3.8092940762e+01    0.2495754    0.1322773  62.26  0.001328933    1.603    0.376
       283 -11.6640    107.4079     29.4684   8.0076610350e+01   5.5710903074e+01     1.089751    0.5077472  72.48   0.00352162    3.196    0.687
       284 -11.0187    249.5378    161.7385   8.8543474131e+01   2.8531781740e+00    0.2621404    0.1472289 -33.19  0.001248935    1.662    0.398
       285  -9.8173      2.2200    161.5796   1.4814438355e+02   3.9829880411e+01    0.1499135    0.1158341   3.92 0.0009500685    1.682    0.405
       286 -10.5501    249.3226    155.8409   8.7437408736e+01   3.6290500159e+00    0.2248428    0.1661272 -31.33  0.001015142    1.381    0.276
       287 -10.2556     76.7504    155.9905   1.2648497903e+02   3.3350803405e+01    0.2862965    0.1139449  57.01  0.000901422    3.662    0.727
       288 -12.3710     19.6423    148.2537   1.4267134933e+02   4.1719072454e+01     0.661509    0.4065189 -44.98  0.003439188    2.056    0.514
       289 -10.1791    177.8490     26.9702   6.5714535723e+01   3.6838520287e+01    0.4264073    0.2065758  58.37  0.001783032    2.008    0.502
       290 -10.8461    183.1346     28.1726   6.5437188086e+01   3.5309398070e+01    0.6991709    0.1994186 -40.75  0.002363544    3.016    0.668
       291 -10.4715    179.5543     30.7058   6.6657674703e+01   3.5937527017e+01    0.3814756    0.1804378  55.24  0.001092057    2.122    0.529
       292  -9.1176     38.3384     33.2264   1.1307261217e+02   6.9317475108e+01    0.1366061   0.09744401 -11.56 0.0002663485    1.533    0.348
       293 -11.3565    170.5969     30.7591   6.7875689527e+01   3.8306217345e+01    0.6386281    0.3064367  81.42  0.002398967    2.466    0.594
       294  -9.0014    160.6462     32.7268   7.0009762541e+01   4.0744360249e+01    0.1555685     0.108894  39.43 0.0007001364    1.640    0.390
       295  -9.7976     94.4660     31.6469   8.5097239911e+01   5.8690869453e+01    0.6636741    0.3169818  69.80  0.002056493    3.664    0.727
       296 -11.4407    236.1863    135.1358   8.5233806700e+01   8.4269198662e+00    0.3204415    0.2206687  15.48   0.00123163    1.545    0.353
       297 -11.4590    152.8732     27.8667   6.9581604497e+01   4.3489625300e+01    0.4781891    0.2970193 -18.85 0.0006784864    1.857    0.461
       298  -9.7304    146.6664     30.3007   7.1518105908e+01   4.4894619353e+01    0.2382165    0.1863885 -87.35 0.0006245859    1.328    0.247
       299 -12.8596    239.0576    145.8525   8.7012515297e+01   6.4887567957e+00    0.8305397    0.5958343  73.73  0.004111471    3.271    0.694
       300  -9.5798     25.7882     14.4291   1.1252629389e+02   7.4717442697e+01     0.217076    0.1175834  30.16 0.0007958033    1.900    0.474
       301 -11.2134    248.2048    144.8514   8.5427991314e+01   5.2126823209e+00    0.2788624    0.2081081 -26.10  0.001452676    1.204    0.170
       302 -11.8658    245.4509    140.5016   8.4952017735e+01   6.2090315191e+00    0.3331524    0.2289075  32.24  0.001711534    1.528    0.346
       303 -10.6995    229.1794    153.5530   9.0156725012e+01   6.9923461428e+00    0.2591676    0.1648868 -35.16  0.001452264    1.550    0.355
       304 -11.0915     38.8909    145.9991   1.3669331706e+02   4.0522432618e+01    0.4537557    0.2876181 -84.22  0.002335691    1.523    0.343
       305  -9.7720      5.1014    147.1822   1.4685120081e+02   4.3030003521e+01    0.1850413    0.1564165 -68.66  0.001213411    1.298    0.229
       306 -10.7769      6.8444    143.0805   1.4617339992e+02   4.3910086702e+01    0.3601706    0.1436301  49.03  0.001675194    2.131    0.531
       307 -11.7000    211.9274    138.4868   8.9963636533e+01   1.2132166050e+01    0.5832453    0.3811566  10.67  0.002555579    1.813    0.449
       308 -11.0933      3.1615     17.3697   1.3331471797e+02   7.5668437517e+01    0.2337398     0.141614 -45.64 0.0004829582    1.329    0.247
       309  -9.7695     34.4890    150.4909   1.3842492177e+02   3.9848336048e+01    0.1361865      0.11482  66.11 -4.833979e-05    1.022    0.022
       310  -9.8878    191.6962     26.4434   6.3944536020e+01   3.3312558599e+01    0.2176305    0.1710818  10.27 0.0009041728    1.661    0.398
       311 -10.2522      3.9721    135.8282   1.4671967293e+02   4.5863066476e+01    0.2790507    0.2192156  10.01  0.001744194    1.542    0.351
       312 -10.1058    201.3240     25.6739   6.2730770445e+01   3.0995713675e+01    0.2333369    0.1716951 -53.70 0.0006756773    1.233    0.189
       313  -9.7589      8.9952    134.9787   1.4513590403e+02   4.5766107983e+01    0.2223372    0.1541836  39.32 0.0004663256    1.392    0.282
       314 -10.3424    159.4209     24.4373   6.7375369199e+01   4.2104552760e+01    0.3042852    0.2640828  46.28 0.0008861005    1.236    0.191
       315 -10.5484     50.7678     25.2714   1.0146209370e+02   6.9087300844e+01    0.5851511    0.2209086  32.23   0.00209127    3.030    0.670
       316 -11.3168    249.3691    132.5303   8.2743978206e+01   6.6565597178e+00    0.3307859    0.2285255  -0.45  0.001969937    1.464    0.317
       317 -11.4625     12.8528    125.1158   1.4332120228e+02   4.8002004858e+01    0.2706556    0.1918968  76.79 0.0006165615    1.244    0.196
       318 -10.9502     15.0256    132.6061   1.4310145375e+02   4.5956819649e+01    0.3853432    0.3006625  -5.18  0.001909619    1.637    0.389
       319 -10.4531     55.1562     17.5621   9.4546874434e+01   6.9644857330e+01     0.346238    0.2400509 -11.03  0.001671405    1.626    0.385
       320 -11.0392     12.2294    129.8899   1.4382723732e+02   4.6831897066e+01    0.3658062    0.2428879 -21.35  0.001832514    2.046    0.511
       321 -11.6628    225.9890    126.7690   8.5026667782e+01   1.1376947659e+01    0.4952821    0.3325119  -2.37  0.001522407    1.681    0.405
       322 -10.0774     72.4990    129.0186   1.2364186639e+02   4.0659558319e+01    0.2376052    0.1918924  36.58 0.0008270657    1.211    0.174
       323  -9.5800    244.7337     25.5683   5.9143698538e+01   2.1223598830e+01     0.161683    0.1053097 -76.08 0.0009332671    1.591    0.371
       324 -10.6271    168.7191     24.1057   6.5972388843e+01   3.9613838391e+01    0.5342759    0.2631651  53.27  0.002200737    2.053    0.513
       325 -11.1316     98.2657     22.2266   7.9392029457e+01   5.9094793326e+01    0.3212908    0.2509274  49.04 0.0007260846    1.181    0.154
       326  -9.6214    228.1971     21.7441   5.9403475993e+01   2.5159283564e+01     0.151998    0.1430741  37.56  0.000307341    1.334    0.251
       327  -9.7940    218.0850     22.2457   6.0313023480e+01   2.7387491470e+01    0.2298127    0.1220932 -65.24  0.001077715    1.961    0.490
       328 -11.4767     24.7417    128.4933   1.3962520339e+02   4.6270052926e+01    0.5114589    0.2380168  20.51   0.00228332    2.326    0.570
       329 -10.8420     55.6094    127.0579   1.2900497038e+02   4.3472920057e+01    0.4118258    0.2087083 -54.79  0.001375002    1.989    0.497
       330  -9.9459    207.8289    127.2009   8.8185914727e+01   1.4662827246e+01    0.1954336    0.1527714   1.20  0.000636379    1.304    0.233
       331 -10.4450     66.0362    124.5535   1.2504912227e+02   4.2740034371e+01    0.3448282    0.1651003 -33.97  0.001086233    3.911    0.744
       332 -11.1584    241.9846    130.0085   8.3279606618e+01   8.1812644366e+00    0.2903147    0.1699697  34.05  0.001566393    1.860    0.463
       333 -10.8498    244.4346     20.7843   5.8056048861e+01   2.1804358253e+01    0.3095665    0.2559173 -86.93   0.00125889    1.269    0.212
       334 -10.0474    240.5740     19.7617   5.8067227302e+01   2.2713278342e+01    0.2596041    0.1074477 -41.17  0.001254914    1.860    0.462
       335 -10.3208    217.0272    120.4917   8.5075686290e+01   1.3963938644e+01    0.2759295    0.1790025 -15.76  0.001376046    1.623    0.384
       336 -10.9626     22.7428    108.0381   1.3837876957e+02   5.1755082692e+01    0.3566292    0.2818912 -29.72  0.002015641    1.487    0.327
       337 -12.0368     22.1232     96.2916   1.3728949642e+02   5.4903037869e+01    0.5982702    0.3557477 -34.32   0.00250822    1.978    0.495
       338 -11.3189      5.5649    117.7205   1.4532206663e+02   5.0313637660e+01    0.6497955    0.2495924 -84.05  0.002790157    2.270    0.559
       339 -11.0728     15.9826     98.4798   1.4000844405e+02   5.4723063569e+01    0.4107867    0.2562835 -46.32  0.001276918    1.670    0.401
       340 -11.8613     18.3038    104.3664   1.3969057122e+02   5.3029213892e+01    0.4533809    0.2945773  22.88  0.001503089    1.674    0.403
       341  -9.8816    232.6019     18.8137   5.8372993712e+01   2.4512293009e+01    0.3126403   0.06483449 -35.20  0.001155047    3.085    0.676
       342 -11.3059      8.7899    109.4650   1.4367129400e+02   5.2261975876e+01     0.486163     0.220925 -50.64  0.002121564    2.296    0.564
       343 -10.2361    148.1875     18.1863   6.6843660903e+01   4.5922504504e+01    0.3962058    0.2146615  28.27  0.001484273    2.779    0.640
       344 -10.9634     11.7839    105.4125   1.4226069710e+02   5.3150523321e+01    0.3551094    0.2019803   5.26  0.001556863    2.161    0.537
       345 -10.4982    246.8568    122.1250   8.0909004748e+01   8.4542620922e+00    0.1901325    0.1527658 -34.75 0.0009146225    1.242    0.195
       346  -9.9541     79.2036     15.9524   8.2572874095e+01   6.4673135571e+01    0.2862621     0.225215 -72.08  0.001424588    1.748    0.428
       347  -9.8619     13.0149    117.4883   1.4274029929e+02   4.9946663489e+01    0.1819186    0.1302059  20.12 0.0006069406    1.561    0.359
       348 -10.3572    233.1064     99.1789   7.7715062442e+01   1.4078100639e+01    0.2919908     0.265546 -29.76   0.00186496    1.091    0.083
       349 -10.1040    245.0723     93.2776   7.4799862537e+01   1.2683678835e+01    0.2241207    0.1629316 -39.32 0.0004735692    1.238    0.192
       350 -11.6914    245.8515     97.6493   7.5685979485e+01   1.1950913392e+01    0.6005907    0.4065461  86.74  0.003085669    2.597    0.615
       351 -12.3864    246.3452    109.3010   7.8204580652e+01   1.0280867815e+01    0.4790853    0.3756175 -20.22  0.002090725    1.080    0.074
       352  -9.8501    156.3866     16.2957   6.4986751160e+01   4.3855579334e+01    0.3563935    0.1861173 -51.05    0.0014809    2.002    0.501
       353  -9.7792     92.1477     15.6868   7.8000978298e+01   6.1502057167e+01    0.2172229    0.1697049  51.96  0.001109896    1.168    0.144
       354  -9.8901    178.8503     14.6852   6.1780347782e+01   3.7948177495e+01    0.2009046    0.1632795  89.36 0.0004851037    1.144    0.126
       355  -9.8270     84.0176     30.9773   8.8562153246e+01   6.1309515423e+01    0.2222553    0.2003908  26.94 0.0003216143    1.057    0.054
       356 -11.8382    241.7679    101.2601   7.7022686906e+01   1.2188740661e+01    0.5710756     0.422893 -69.00  0.002195171    1.972    0.493
       357 -12.3408    227.8580    112.5846   8.1555762080e+01   1.3121413344e+01    0.7661688    0.3417926  47.09  0.003429599    2.435    0.589
       358 -11.6688    237.8524    113.3917   8.0273372959e+01   1.1195646546e+01    0.2986728    0.2262952 -32.32 0.0008895223    1.178    0.151
       359  -9.3722     97.4970    115.0120   1.1254090773e+02   3.9990020180e+01    0.2222441    0.1291853 -32.24 0.0008092907    2.442    0.590
       360  -9.1752     22.9774    115.0663   1.3900496424e+02   4.9892276074e+01    0.1583665    0.1361522  88.16 0.0003060483    1.030    0.030
       361 -11.4936    194.5917    112.7276   8.7189094161e+01   1.9690077661e+01    0.3847148    0.3130954 -13.50   0.00205121    1.231    0.188
       362 -10.9414    199.9256    112.9170   8.6254060429e+01   1.8548990568e+01    0.2829807    0.2218299  57.40  0.001050925    1.476    0.322
       363 -10.6892    133.1228    111.5090   1.0094209030e+02   3.3472689619e+01    0.3830793    0.2422661 -34.47  0.001581808    1.772    0.436
       364 -10.9174    201.3872    108.1596   8.4833678134e+01   1.9027372246e+01    0.3316773    0.1729511 -32.59  0.001435983    1.817    0.450
       365  -9.8720     68.4836    106.0092   1.2064823458e+02   4.7208682978e+01    0.2287842    0.1105235 -41.05 0.0008104039    2.595    0.615
       366 -11.6706    207.4616    112.6345   8.4856619215e+01   1.7059524926e+01    0.5143186     0.268576 -46.58  0.001175596    2.140    0.533
       367  -9.3557     73.9869    108.2057   1.1909874301e+02   4.5790666302e+01     0.206805    0.1204196  33.52 0.0008604329    1.714    0.416
       368  -9.8447     35.1437    108.6855   1.3375862194e+02   5.0552481189e+01    0.2839993    0.1020093  31.86  0.001088499    2.592    0.614
       369  -9.2267    188.5431    107.4885   8.7034056430e+01   2.1876223082e+01    0.1470495    0.1378348 -11.28 9.083256e-05    1.005    0.005
       370 -10.5177    230.7558    105.3040   7.9460579570e+01   1.3640998358e+01    0.2514903    0.2078897 -11.94 0.0008186603    1.134    0.118
       371 -10.6730    133.7958    103.3621   9.8585682318e+01   3.5091430285e+01    0.4892684    0.2468259 -44.18  0.001831134    2.035    0.509
