#   1 NUMBER                 Running object number                                     
#   2 MAG_AUTO               Kron-like elliptical aperture magnitude                    [mag]
#   3 X_IMAGE                Object position along x                                    [pixel]
#   4 Y_IMAGE                Object position along y                                    [pixel]
#   5 X_WORLD                Barycenter position along world x axis                     [deg]
#   6 Y_WORLD                Barycenter position along world y axis                     [deg]
#   7 A_WORLD                Profile RMS along major axis (world units)                 [deg]
#   8 B_WORLD                Profile RMS along minor axis (world units)                 [deg]
#   9 THETA_WORLD            Position angle (CCW/world-x)                               [deg]
#  10 FWHM_WORLD             FWHM assuming a gaussian core                              [deg]
#  11 ELONGATION             A_IMAGE/B_IMAGE                                           
#  12 ELLIPTICITY            1 - B_IMAGE/A_IMAGE                                       
         1 -17.3881     22.8172    153.0921   9.0602397207e+01   4.0291443653e+01     5.387308     3.574564 -48.47   0.02621763    1.746    0.427
         2 -13.8241    122.9337     44.5580   2.9968502034e+01   4.8665858250e+01    0.6238208    0.3662673  39.20  0.002565912    2.345    0.574
         3 -10.9565      5.9201      6.0766   6.9071972091e+01   8.0305382704e+01    0.2583506    0.2071967  13.95  0.001298975    1.170    0.145
         4 -11.3808    217.1259    232.2652   5.3536025708e+01   6.0709132288e-01    0.1864518    0.1111501 -20.44  0.001327769    1.392    0.281
         5 -13.3581    231.2929    234.6439   5.1682798495e+01  -9.4834977138e-01    0.4407066    0.2715931  -4.62   0.00336561    1.271    0.213
         6 -13.7681    237.0935    227.4551   4.9824624711e+01  -6.4478100600e-01    0.5571452    0.3370982 -15.27  0.003729612    1.266    0.210
         7 -14.2873    239.3739    218.0331   4.8144829419e+01   2.3235277984e-01    0.8153504    0.4132785 -13.12  0.005170445    1.906    0.475
         8 -13.1425    248.5220    213.9964   4.6265596063e+01  -1.2509643026e-01    0.5585057    0.2609224 -26.78  0.002557431    1.686    0.407
         9 -12.8158    233.8335    245.0309   5.2705369876e+01  -2.3052853587e+00    0.4480088    0.1868655 -29.17  0.002418845    2.030    0.507
        10 -12.8057    248.8451    224.4099   4.7721509271e+01  -1.3193334037e+00    0.4993798    0.2924536  -7.76  0.002682884    1.375    0.272
        11 -13.5694    242.0281    237.3111   5.0475045256e+01  -2.1527272305e+00    0.7668512    0.3208196 -17.19  0.004504706    2.512    0.602
        12 -12.9168    242.7640    246.4055   5.1586952945e+01  -3.1717298626e+00    0.4724622    0.2462522 -25.69  0.002867828    1.536    0.349
        13 -13.5001    247.6098    241.5753   5.0258745930e+01  -3.0538347756e+00    0.8403853    0.3035937 -40.39  0.004882832    3.210    0.688
        14 -12.2096    249.7683    232.8930   4.8778459440e+01  -2.3139050952e+00    0.3694518     0.155942 -31.96  0.001707345    1.936    0.483
        15 -11.5868    225.3939    248.8339   5.4474013044e+01  -2.0125713002e+00    0.2338352    0.1259516 -21.45  0.001471401    1.534    0.348
        16 -11.5274    211.0688    248.5892   5.6688592390e+01  -7.4660910053e-01    0.2707052    0.1038876 -24.90  0.001469878    2.800    0.643
        17 -11.0652    169.0342    250.4769   6.4193188079e+01   3.0171581740e+00    0.2856051   0.08583722  27.00  0.001358623    2.717    0.632
        18 -11.7080    229.2719    226.6527   5.0871864124e+01   1.4818262571e-01    0.2075526    0.1056377 -25.44  0.001391925    1.632    0.387
        19 -12.4125    228.1850    218.6035   4.9879712363e+01   1.2047530311e+00    0.2754336    0.1613835 -17.27  0.001559035    1.406    0.289
        20 -12.3417    234.0861    210.9348   4.7867519236e+01   1.5683415647e+00     0.264426    0.1486949 -11.42   0.00148413    1.631    0.387
        21 -10.1297    216.6496    208.6713   5.0189933258e+01   3.5987385633e+00    0.1167446   0.06701482  -7.24 0.0007048302    1.765    0.433
        22 -11.9869    247.7311    204.6661   4.4986284903e+01   1.0274377290e+00    0.2219391    0.1400838   0.37  0.001055551    1.410    0.291
        23 -12.2946    240.6649    205.1236   4.6042035816e+01   1.6397823813e+00    0.1953122    0.1264881   7.85  0.001048265    1.412    0.292
        24 -11.1671    250.3214    199.9294   4.3913950309e+01   1.3440588969e+00    0.1516473   0.09775105 -21.05  0.001152211    1.136    0.120
        25 -11.5019    243.9218    198.8412   4.4623017243e+01   2.0854176274e+00    0.1678739     0.107888  -9.84   0.00123074    1.288    0.224
        26 -10.4720    141.3895    247.8049   6.9206886074e+01   6.2693022710e+00    0.1485437   0.09461085 -29.88 0.0009495622    1.726    0.421
        27 -13.2312    108.6335    109.9892   5.4009601569e+01   3.8825117532e+01    0.3874862     0.278718 -32.69  0.001724408    1.661    0.398
        28 -14.5597     95.3764    106.9066   5.7308702685e+01   4.2240643641e+01    0.8030211    0.4666912  32.12  0.003181211    1.955    0.489
        29 -13.1354    142.3018     89.5356   3.9923759036e+01   3.5951650900e+01    0.3514012    0.2604708  29.05    0.0016534    1.784    0.440
        30 -12.8054     63.2592     88.9338   6.4405492756e+01   5.2869011869e+01    0.4476689    0.3356869 -17.14  0.001963272    1.838    0.456
        31 -12.4636     77.0171     87.1263   5.8347366634e+01   5.0771535094e+01    0.3193752    0.2718186 -13.30  0.001412596    1.484    0.326
        32 -14.0836     83.4364     95.8167   5.8437292948e+01   4.7349869981e+01    0.5722474    0.5118737  53.41  0.002892357    1.093    0.085
        33 -12.3756     70.2033     86.2504   6.0774904880e+01   5.2299942891e+01    0.3346356    0.2859588 -20.30  0.001621936    1.422    0.297
        34 -15.2360    120.1409     78.1716   4.1843498584e+01   4.3291338794e+01    0.8746137     0.724395  19.26  0.004247543    1.608    0.378
        35 -13.2251     94.4624     76.8565   4.8912005285e+01   4.9496400440e+01    0.4674863    0.3351698  21.00  0.001963888    2.033    0.508
        36 -12.1625      2.7273     82.5986   9.3171978669e+01   6.1390344371e+01    0.2822452    0.1476725 -65.98 0.0009903141    1.725    0.420
        37 -12.9554     82.7456     81.2358   5.4402936265e+01   5.1035404848e+01    0.4557076    0.3520333   6.82  0.001999289    1.878    0.468
        38 -14.5280    116.7451     69.2769   3.9894145530e+01   4.5861621381e+01    0.9087119    0.3827763  48.68  0.003262881    2.435    0.589
        39 -14.2522    105.1683     75.6855   4.5186231294e+01   4.7303591063e+01    0.5861169    0.4820777  21.96  0.002799255    1.571    0.363
        40 -13.4464    108.4394     68.7152   4.1942521364e+01   4.7965339007e+01    0.5673513    0.4171973  18.65  0.002431097    2.119    0.528
        41 -13.4838     75.7520     93.6788   6.0692473341e+01   4.9373624502e+01    0.4626339    0.3731123   4.21  0.002127807    1.630    0.387
        42 -13.0307    143.7366     80.1721   3.6997580484e+01   3.7411899296e+01     0.267949     0.266049  25.57  0.001533557    1.160    0.138
        43 -14.7747     94.6151     95.4961   5.4504039717e+01   4.5159111620e+01     1.286638    0.6977872 -25.92  0.003662259    4.465    0.776
        44 -12.9857     97.9463     71.1896   4.5904389807e+01   4.9928775919e+01    0.3851796     0.359419 -74.01  0.001423216    1.047    0.045
        45 -11.8746     76.2637     76.0721   5.5207650897e+01   5.3599268486e+01    0.3524863    0.2891676 -23.77  0.001643663    1.513    0.339
        46 -11.5945     84.4807     73.2114   5.1152871442e+01   5.2520346983e+01    0.3333469    0.2551868   4.23   0.00143679    1.999    0.500
        47 -12.3893      5.0067     73.9970   9.0964862125e+01   6.3669157014e+01    0.2230934    0.2067941 -73.14 0.0007825627    1.009    0.009
        48 -12.0736     89.8241     72.5171   4.9030699087e+01   5.1494047483e+01    0.3025222    0.2612367  -5.49  0.001458303    1.504    0.335
        49 -13.0930     88.9797     79.0185   5.1467989367e+01   5.0221403528e+01    0.4762296    0.3701935  -5.21   0.00208467    1.937    0.484
        50 -14.6874     90.3071     88.2805   5.3869712901e+01   4.7779441079e+01    0.8435916    0.5616416 -42.36  0.003650096    1.617    0.382
        51 -12.2360      2.9644     67.5388   9.1381017723e+01   6.5525545539e+01    0.2945619    0.2043047 -75.81  0.001364173    1.338    0.253
        52 -12.9803     69.5108     95.6135   6.3638188722e+01   5.0027159364e+01    0.3738671    0.2885418 -39.73  0.001731749    1.449    0.310
        53 -13.6093    147.6220     64.9441   3.1796433360e+01   3.9218946027e+01    0.3830105    0.2697073  46.44  0.001868018    1.644    0.392
        54 -12.2859     86.7947     64.1350   4.7137990094e+01   5.3986080274e+01    0.4121543    0.3226235   7.10  0.001848764    1.890    0.471
        55 -13.6075    132.4537     53.3872   3.1068485361e+01   4.4846570076e+01    0.5222493    0.3221444  42.22  0.002273522    2.045    0.511
        56 -14.5928    122.2551     61.4800   3.5961674933e+01   4.5981600787e+01    0.8576943    0.4594014  48.24  0.003507812    1.997    0.499
        57 -12.7884     96.1461     61.0093   4.2888893857e+01   5.2440229598e+01    0.4985782    0.3732028  -6.09  0.002150935    2.126    0.530
        58 -13.7930    113.7878     59.6226   3.7397815265e+01   4.8408805228e+01    0.7551137    0.4005904  37.01  0.002717835    2.822    0.646
        59 -14.4062    121.3203     51.4697   3.2754907858e+01   4.7957468380e+01     1.109302    0.3351697  52.02  0.003517147    3.300    0.697
        60 -12.8569    159.6729     60.1225   2.8338667130e+01   3.7175666165e+01    0.2572916    0.1928931  87.35  0.001348296    1.391    0.281
        61 -13.1564    143.2310     58.9226   3.0777032116e+01   4.1282126096e+01    0.4372416    0.1718342  49.43  0.001560874    2.910    0.656
        62 -12.3090     11.5501     56.9584   8.4013857069e+01   6.7900549318e+01    0.3703472    0.2441906 -55.47  0.001493879    1.406    0.289
        63 -14.5809    113.8593     94.3762   4.8326637658e+01   4.1283281698e+01     0.677193      0.45484  41.21  0.003002945    1.576    0.365
        64 -10.8966     88.9910     56.0118   4.3332009699e+01   5.5128593610e+01    0.2482574    0.1961401  16.48  0.001143635    1.759    0.432
        65 -12.1909      6.9904     63.0160   8.8187127385e+01   6.6560112777e+01    0.2222903    0.2028297 -55.81 0.0009214369    1.039    0.037
        66 -13.2032      3.0560     49.9807   8.8643422720e+01   7.0195359188e+01    0.6294758    0.3417633 -68.22  0.002203058    1.673    0.402
        67 -13.3733    141.3036     53.3188   2.9373667860e+01   4.2665077166e+01    0.4775048    0.2848422  31.14  0.001828761    3.051    0.672
        68 -12.2087    104.7193     60.1880   4.0035069752e+01   5.0530043906e+01     0.370657    0.2417136  33.47  0.001537735    2.079    0.519
        69 -12.0124    106.0704     49.1560   3.5599804715e+01   5.2199300604e+01     0.323546    0.2254588  22.32  0.001356436    2.304    0.566
        70 -11.6151     16.3301     48.8476   7.8590695405e+01   6.9629376689e+01     0.353078    0.1434668 -60.08   0.00141966    2.196    0.545
        71 -13.5849    101.6313     94.4703   5.1968961165e+01   4.3918399579e+01    0.4009939    0.3246694  11.38  0.001849039    1.662    0.398
        72 -12.5442    225.7104    241.5596   5.3465461819e+01  -1.2383597313e+00    0.2722625    0.1486562 -27.12  0.001335787    1.553    0.356
        73 -12.9178    113.9306     43.6524   3.1594635537e+01   5.1112518263e+01    0.4282232    0.2983451  35.75  0.001954119    1.879    0.468
        74 -10.7224     95.7923     45.1346   3.6875128379e+01   5.5471884676e+01    0.2078295    0.1842006  26.11  0.001079318    1.357    0.263
        75 -11.3304     86.4536     44.5366   3.9532641272e+01   5.7883876516e+01    0.3399058    0.2322769  19.34  0.001389981    2.414    0.586
        76 -12.8690    132.8755     40.5994   2.6685756025e+01   4.6727697970e+01    0.3380978    0.2337577  42.99  0.001614245    1.786    0.440
        77 -11.4609      1.8148     39.4818   8.7500391725e+01   7.2930710416e+01    0.2553172    0.1774203 -71.01 0.0009338928    1.374    0.272
        78 -11.0758     99.0101     39.2029   3.3545636196e+01   5.5639976616e+01    0.2517062    0.1583433  38.51  0.001075086    1.987    0.497
        79 -11.7078    107.7943     37.6214   3.0697422523e+01   5.3628326517e+01    0.3765546    0.1914061  45.90  0.001488429    2.260    0.557
        80 -12.2922     12.5200     36.3102   7.7522769000e+01   7.3047244174e+01    0.3786221    0.2688076 -70.78  0.001524222    1.468    0.319
        81 -12.3993    144.0212     45.3438   2.6367190066e+01   4.3224420491e+01    0.2499206    0.2152914   9.50  0.001342953    1.593    0.372
        82 -10.1714     94.6707     34.6613   3.2808930462e+01   5.7455981743e+01    0.1520067    0.1132795  29.79 0.0007051846    1.735    0.424
        83 -12.7226    135.2540     32.2562   2.3422664353e+01   4.7288489509e+01    0.2937157    0.2448567   5.17  0.001568033    1.655    0.396
        84 -11.9067    117.9372     30.5637   2.5793694609e+01   5.2001366856e+01    0.2671236    0.2179961  -2.67  0.001383509    1.642    0.391
        85 -11.0190    110.6159     29.8988   2.6993219050e+01   5.4006537396e+01    0.2922239    0.1731976  45.85  0.001283945    1.928    0.481
        86 -11.5453    126.8030     28.4081   2.3415318797e+01   4.9975998895e+01    0.2088431    0.1205269  59.33 0.0009454626    1.696    0.410
        87 -10.9575     19.5050     27.9910   6.7995363854e+01   7.4258806713e+01    0.2067309    0.1302294 -55.85  0.001036738    1.601    0.375
        88 -14.3278     81.0745    105.6768   6.1861465384e+01   4.5310592580e+01    0.5881637    0.4954162  -6.88  0.002800766    1.512    0.339
        89 -11.6964     12.8858     19.8837   6.9883481072e+01   7.6756505183e+01    0.3665729    0.2220377 -38.20  0.001876181    1.651    0.394
