#   1 NUMBER                 Running object number                                     
#   2 MAG_AUTO               Kron-like elliptical aperture magnitude                    [mag]
#   3 X_IMAGE                Object position along x                                    [pixel]
#   4 Y_IMAGE                Object position along y                                    [pixel]
#   5 X_WORLD                Barycenter position along world x axis                     [deg]
#   6 Y_WORLD                Barycenter position along world y axis                     [deg]
#   7 A_WORLD                Profile RMS along major axis (world units)                 [deg]
#   8 B_WORLD                Profile RMS along minor axis (world units)                 [deg]
#   9 THETA_WORLD            Position angle (CCW/world-x)                               [deg]
#  10 FWHM_WORLD             FWHM assuming a gaussian core                              [deg]
#  11 ELONGATION             A_IMAGE/B_IMAGE                                           
#  12 ELLIPTICITY            1 - B_IMAGE/A_IMAGE                                       
         1 -12.9429     38.6468     51.0325   9.1091954069e+01   6.2813450935e+01     1.050265    0.5857056 -51.16  0.005452205    1.736    0.424
         2 -11.2206     78.5485     31.7260   6.7542953558e+01   6.0002454250e+01     1.182934     0.550769 -11.38  0.003667643    5.159    0.806
         3 -12.5802     57.5486     34.4886   7.6675178601e+01   6.3219616532e+01    0.3445921    0.3066416 -44.01 0.0001644765    1.436    0.304
         4 -12.0057     13.1261      2.4083   8.3710653824e+01   7.3459334730e+01    0.3702423    0.2932281  34.31  0.001093317    1.832    0.454
         5 -11.0108     32.4362      1.7330   7.2708909854e+01   7.1294393120e+01     0.238704    0.1467563  34.34 0.0007954265    1.568    0.362
         6 -11.5828     22.3211     25.8318   8.9491115006e+01   6.9022585292e+01    0.4949182    0.2546248 -32.09   0.00210898    1.685    0.406
         7 -10.1996     15.0906     14.1524   8.8337291239e+01   7.1566366704e+01    0.2081933    0.1434339 -40.75 0.0006556088    1.446    0.308
         8 -11.5436     20.5403     15.5557   8.5958728059e+01   7.0836700946e+01    0.5848932    0.3632285 -15.34  0.003659128    1.438    0.305
         9 -10.8420     26.9872      3.0305   7.6219813429e+01   7.1846661577e+01     0.343551    0.2026395  45.30  0.001956151    2.499    0.600
        10 -11.6362     23.5517      7.9096   8.0610792926e+01   7.1620238878e+01    0.2864674    0.2033397  24.78 -4.300506e-05    1.429    0.300
        11 -11.2278     20.9292      3.1589   7.9592616345e+01   7.2545138295e+01    0.3408033    0.2174443 -26.93  0.002103865    1.383    0.277
        12 -11.3882    130.2606     26.5377   5.1405899053e+01   4.9267682819e+01    0.5009599    0.4464257  81.91  0.002964818    1.179    0.152
        13 -11.7729    129.6005     19.1515   4.9025557188e+01   5.0240509089e+01    0.4566815     0.276153 -14.18 0.0004217376    2.040    0.510
        14 -10.9592    128.4331     11.4908   4.6634150546e+01   5.1281192570e+01    0.3880852    0.2253985  71.42 2.199558e-05    1.684    0.406
        15 -10.4119    127.0059      8.0384   4.5716598576e+01   5.1939029231e+01    0.1972897    0.1692637  53.25 0.0003075073    1.036    0.035
        16 -11.4764    103.8245     19.6989   5.5081801790e+01   5.6214667822e+01    0.5333833    0.4144498 -88.84  0.002757956    1.762    0.432
        17 -11.3792      9.8358     15.5794   9.1969021400e+01   7.1779577952e+01    0.2450348    0.1531159 -17.81 0.0005834001    1.353    0.261
        18 -11.8261      3.9079     17.8789   9.6346302459e+01   7.1817778150e+01    0.3678257    0.3475917  43.73  0.002395838    1.669    0.401
        19 -10.1755      5.1849     13.2414   9.3666840112e+01   7.2499968867e+01    0.1699554    0.1553694  57.84 0.0008233688    1.923    0.480
        20 -11.2298     48.7127     15.1860   7.1883172430e+01   6.7316919821e+01    0.6696394    0.2232822  44.12  0.002795715    3.166    0.684
        21  -9.9685     43.4718      8.6679   7.1037661503e+01   6.8911619690e+01    0.2908151    0.2010986 -17.16  0.001230399    1.331    0.249
        22 -11.2601     34.2551     15.8052   7.8930704322e+01   6.9253288085e+01    0.4202125    0.2174539  11.92  0.001406523    2.359    0.576
        23 -10.4660     30.9943     12.8479   7.9145758767e+01   7.0070221076e+01     0.319671    0.1658881 -18.32  0.001685753    2.057    0.514
        24 -11.2481     39.9855     12.5318   7.4572221866e+01   6.8934206126e+01    0.4901381    0.2066702 -36.63  0.001681428    2.382    0.580
        25 -10.3171     63.8213     13.7001   6.5040992136e+01   6.4990097055e+01    0.3968639    0.2215548   9.65  0.001905469    2.308    0.567
        26 -11.5772    175.4649     11.7957   3.9566167715e+01   3.9673514784e+01    0.2637433    0.2403399  68.32 0.0002880525    1.134    0.118
        27 -10.9876     80.5370      4.3386   5.5181334515e+01   6.2720805744e+01    0.3513903    0.2153353 -31.99  0.001961292    1.874    0.466
        28 -10.1397     74.4328     15.9719   6.2270064132e+01   6.2767580230e+01    0.4586036    0.3267902  76.98  0.002335795    2.507    0.601
        29 -10.4297     74.3109      2.7644   5.6372680526e+01   6.4113821474e+01    0.4028921    0.1976496 -29.85  0.001677311    2.241    0.554
        30 -11.5792     75.7007     10.4930   5.9417484190e+01   6.3107089437e+01    0.4320048    0.3826727 -58.15  0.002785327    1.603    0.376
        31 -10.6641     79.4752     10.4593   5.8197430276e+01   6.2360321325e+01    0.2912409    0.1669856  39.27 0.0008129412    1.506    0.336
        32 -10.7543    156.6268      9.2747   4.1325031187e+01   4.4570005479e+01    0.2931877    0.1406336 -35.43 0.0009699827    2.206    0.547
        33  -9.9825     55.2488      9.9406   6.6607361840e+01   6.6898345344e+01    0.2234611    0.1045102 -21.14  0.000605528    2.291    0.563
        34 -10.4333     98.6766     12.7858   5.3703773790e+01   5.8072358938e+01    0.4143396    0.1776931  48.14  0.001869584    1.942    0.485
        35 -10.7900    117.8746     10.3553   4.8323722562e+01   5.3906868123e+01    0.4290052     0.202571 -44.69  0.001878114    2.696    0.629
        36 -11.5277    241.5184      9.8011   3.2885722028e+01   2.4648779602e+01    0.2334083    0.1725257 -61.81 0.0009098526    1.106    0.096
        37 -11.1537    229.7220     10.0017   3.3812189040e+01   2.7156996700e+01     0.172574    0.1340841 -65.07 0.0004292758    1.080    0.074
        38  -9.9174    164.3127      9.0780   4.0223146492e+01   4.2688722762e+01    0.2379626    0.1702719 -62.16 0.0006956771    1.470    0.320
        39  -9.4843    161.1864      6.8918   4.0007712617e+01   4.3665591428e+01    0.1755926    0.1591553  85.28 0.0003098066    1.067    0.063
        40 -10.2779    226.1833     11.1758   3.4347654344e+01   2.7806321026e+01    0.2507669    0.1016022 -23.57  0.001034058    3.532    0.717
        41  -9.5235     59.3755      9.8158   6.4913315004e+01   6.6207224154e+01    0.1621733    0.1053744 -10.10 0.0009346382    1.543    0.352
        42 -11.3384      7.8633      8.8563   9.0086232902e+01   7.2989565096e+01    0.4172823    0.1883282  37.02  0.002164892    3.250    0.692
        43 -11.5447    247.1747      7.0598   3.1941712256e+01   2.3774243617e+01    0.3509363    0.1601255  56.27  0.001781948    2.686    0.628
        44 -12.0208    216.4342      6.7991   3.4184275299e+01   3.0459893077e+01    0.4205571     0.256017  52.58   0.00232867    1.933    0.483
        45 -12.3032    178.9214      4.2605   3.7150830171e+01   3.9560954678e+01    0.3101653    0.2326392  73.12 0.0003476547    1.156    0.135
        46 -11.1866    146.8292      6.8960   4.2031878071e+01   4.7206526251e+01    0.4514772     0.212394  43.23  0.002006764    2.284    0.562
        47 -10.2854     33.9009      7.5837   7.5046740494e+01   7.0393223596e+01    0.1912829    0.1392545 -13.51 0.0004148846    1.178    0.151
        48  -9.4891     37.3391      6.2947   7.2700296365e+01   7.0082100553e+01    0.1867519    0.1108591   7.69 0.0005393202    1.730    0.422
        49 -10.6807    191.5253      6.2973   3.6348932868e+01   3.6323618378e+01    0.3096928    0.1800449 -51.61  0.001651567    1.687    0.407
        50 -11.0748     92.5769      5.5168   5.2339491055e+01   6.0078558355e+01    0.4825183    0.2145074  31.28  0.001697328    2.601    0.616
        51 -10.4150     97.5686      4.5800   5.0696399145e+01   5.9064768755e+01    0.3431893     0.190607  28.02  0.001711007    1.948    0.487
        52 -10.0198    130.7317      5.9794   4.4346483179e+01   5.1219598753e+01    0.1759932    0.1651792  46.01 0.0005301008    1.115    0.103
        53 -11.7234    237.1891      3.4411   3.1891207593e+01   2.6253577054e+01    0.2761884    0.2257347  -4.48  0.001816996    1.900    0.474
        54  -9.9366    164.5206      5.0544   3.9054729951e+01   4.3012327062e+01    0.1783393    0.1270831 -33.34   0.00101648    1.564    0.361
        55  -9.5554    182.7062      8.3419   3.7803218931e+01   3.8248545978e+01    0.1866084    0.1581195 -49.07  0.000598358    1.245    0.197
        56 -11.3657     64.6845      4.0059   6.0166633492e+01   6.5846904142e+01    0.2160973    0.1684865  31.89  0.000360641    1.082    0.076
        57 -11.1803     68.4634      3.5133   5.8625598299e+01   6.5182958297e+01    0.2289057     0.173081  26.92 0.0005467737    1.096    0.088
        58 -10.4208    243.3197      3.0526   3.1400149579e+01   2.5005419814e+01    0.1678753    0.1251433 -60.40 0.0006286949    1.110    0.099
        59  -9.9171    126.6095      3.3041   4.4162516572e+01   5.2437045249e+01    0.2268291    0.1198144 -28.18   0.00103822    2.124    0.529
        60 -10.5758    194.5674      1.8967   3.4968156753e+01   3.6026426003e+01    0.2669538    0.1410928 -83.15   0.00131076    1.929    0.482
        61  -9.4335     87.4811      2.0205   5.2219382367e+01   6.1468508262e+01    0.1747027   0.09131359  18.08 0.0008081161    2.390    0.582
        62  -9.9059    230.9904      1.7417   3.1972383864e+01   2.7760820248e+01    0.1488419   0.08893278  81.37 0.0004331704    1.489    0.328
        63 -10.6926    203.2197      3.3440   3.4526847940e+01   3.3851673951e+01     0.208341    0.1720568 -59.25 0.0007832047    1.168    0.144
        64  -9.8214    165.9889      1.4491   3.7863841016e+01   4.2972899769e+01     0.202416    0.1098063  71.56 0.0004217514    1.565    0.361
        65 -11.9005     50.7926    161.9294   1.1046167764e+02   3.5474748260e+01    0.6213441    0.4149022  72.57  0.002135718    1.578    0.366
        66 -12.2763    226.0763    245.6465   8.3986705063e+01  -8.5654040244e+00    0.6175434    0.3274441   0.61  0.003041584    2.564    0.610
        67 -11.9035    232.5783    244.6623   8.2655867441e+01  -9.3097673825e+00    0.6239882    0.1882689 -30.29  0.002518972    3.978    0.749
        68 -10.9701     88.6534    249.7774   1.1154948130e+02   1.1282508470e+01    0.2953294    0.1885398  36.67  0.001117606    1.418    0.295
        69 -10.0219     72.5856    250.1030   1.1470959789e+02   1.3436330122e+01    0.1832305     0.159992  11.85  0.001262404    1.635    0.388
        70 -12.7372     19.7627    238.5857   1.2385098298e+02   2.1955724383e+01    0.7049034    0.3338225  46.89  0.004264754    1.669    0.401
        71 -12.0605     28.9905    248.2725   1.2271302037e+02   1.9123405313e+01    0.5549753    0.2623691  75.79  0.003162185    2.012    0.503
        72 -11.7418      4.2576    236.7861   1.2653546148e+02   2.3847103626e+01    0.4079726    0.2567899 -58.68  0.002736448    2.092    0.522
        73 -13.2713      6.0567    245.0282   1.2657801608e+02   2.2113655659e+01    0.8641559    0.5715014  48.36  0.004568483    1.327    0.246
        74 -12.2335     21.8598    248.8199   1.2400871107e+02   1.9796032550e+01    0.4066054    0.2415364  47.81  0.001600645    1.365    0.267
        75 -11.3626     17.2709    247.4130   1.2474382996e+02   2.0540871735e+01     0.253301    0.1467794  54.43 0.0007551321    1.304    0.233
        76 -11.0320     44.6487    162.4853   1.1214117492e+02   3.6050856519e+01    0.3745643    0.2458226 -84.84  0.001596987    1.449    0.310
        77  -9.8147     67.8638    165.8484   1.0650572643e+02   3.2326309378e+01    0.3663365    0.1449916  54.20  0.001270303    3.289    0.696
        78  -9.7498     99.1637    164.8974   9.8098450998e+01   2.7767084561e+01    0.2178919    0.1885736  76.39 0.0003434189    1.175    0.149
        79  -9.0044    200.3200    162.6675   7.3602281893e+01   8.8592479229e+00    0.1404732    0.1179026 -82.42 0.0007049021    1.696    0.411
        80  -9.0266      7.9549    162.0000   1.2133411832e+02   3.9623183188e+01    0.1709806    0.0691556  24.05 0.0006421363    2.933    0.659
        81 -12.1994     22.0098    157.0993   1.1739551797e+02   3.9630361046e+01    0.5323572    0.4966443  12.13  0.003646371    1.373    0.271
        82  -9.3147    216.3875    155.1788   6.8861645729e+01   7.1912524584e+00    0.1918656    0.1259069 -46.45 0.0003980147    1.577    0.366
        83  -9.4819    157.4796    155.0401   8.1357084159e+01   1.8972893720e+01    0.2290485    0.1309979 -24.45 0.0008096691    2.714    0.632
        84  -9.9527     11.2200    153.4315   1.1979624580e+02   4.1398325444e+01    0.2016677    0.1267366  15.71  0.001142933    2.102    0.524
        85  -9.9713    177.5874    151.0528   7.5868492005e+01   1.5675226419e+01    0.2962339     0.214521  59.27  0.001178473    1.646    0.392
        86 -10.6076     17.3984    147.0085   1.1756884606e+02   4.2454338792e+01    0.2408092    0.1871868  10.73 0.0008412591    1.681    0.405
        87 -10.0975    207.0777    146.3266   6.8698390709e+01   1.0615549333e+01     0.199334    0.1854433  31.78 0.0006861481    1.125    0.111
        88  -8.9907     41.3201    146.2659   1.1094767447e+02   4.0405390185e+01    0.1290024   0.09663882 -38.72 0.0001659763    1.557    0.358
        89  -9.6875    220.4586    143.9692   6.5670102762e+01   8.4415616312e+00    0.2161789     0.129892 -38.17 0.0006311901    1.537    0.349
        90 -10.1895     29.9153    143.9485   1.1382100001e+02   4.2114780824e+01    0.1974161    0.1684659 -84.39 0.0006537942    1.023    0.023
        91  -9.4185    239.7063    140.6706   6.1639970944e+01   5.4452109698e+00    0.1375604   0.09991717  -5.99 0.0004663559    1.629    0.386
        92  -9.6652     81.9909    140.2186   9.8293816856e+01   3.6599712981e+01    0.2236394     0.149491 -41.56 0.0007798435    1.629    0.386
        93 -10.2140     56.3211    139.4622   1.0564017861e+02   4.0374850901e+01    0.3521823    0.2157439  56.94  0.001656948    1.867    0.464
        94  -9.7024     15.0345    140.0000   1.1746803126e+02   4.4335088554e+01    0.1830068   0.07306179  22.03 0.0008122138    3.011    0.668
        95 -10.7379      2.7973    137.3390   1.2052233602e+02   4.5822579132e+01    0.2639797    0.1316813 -76.02 0.0008721869    1.603    0.376
        96  -9.9572      9.3330    136.9199   1.1870782169e+02   4.5491914009e+01    0.1831798    0.1266774 -75.76 0.0004197974    1.173    0.147
        97  -9.6271    122.5603    135.4708   8.5824530480e+01   3.0518186412e+01    0.1533971    0.1520319 -65.71 8.743448e-05    1.008    0.008
        98  -9.7675     20.8304    135.3337   1.1532073712e+02   4.5015968604e+01    0.1864289    0.1329027 -78.32 0.0007525229    1.194    0.162
        99  -9.9966    249.5002    134.0243   5.8676617245e+01   4.8201836534e+00    0.2047039    0.1153858 -37.30 0.0005518536    1.528    0.345
       100 -10.2062     55.3943    132.9973   1.0482795879e+02   4.2103853542e+01     0.304134     0.181358  41.98 0.0008867556    1.774    0.436
       101 -10.3113    110.9450    130.6323   8.7924885261e+01   3.3926069256e+01    0.2206621     0.199416  48.36 0.0006719736    1.119    0.107
       102 -11.4846     36.5421    130.1134   1.1002503102e+02   4.4899435496e+01     0.471122    0.3438789 -31.38  0.002517576    1.630    0.386
       103 -11.3623     73.7750    129.4212   9.8605269842e+01   4.0523580106e+01    0.3478144      0.26652  62.65  0.001757105    1.471    0.320
       104  -9.3123      9.4715    129.4306   1.1787563580e+02   4.7285902871e+01    0.1250442    0.1020834 -75.79 7.221594e-05    1.013    0.013
       105 -11.5229     21.8217    121.1568   1.1319249665e+02   4.8401363233e+01    0.3745751    0.2257043 -39.20            0    1.819    0.450
       106 -10.8245     24.8082    117.6166   1.1175521902e+02   4.9027427749e+01    0.4083576    0.2441439 -87.87    0.0019291    1.802    0.445
       107 -11.2540     13.7856    126.1395   1.1624926025e+02   4.7785753488e+01      0.37741    0.2275178  18.97 0.0006274027    2.042    0.510
       108 -11.1785     10.7866    122.7837   1.1673202571e+02   4.8801455355e+01    0.2820886    0.2071783  88.33  0.001079852    1.278    0.218
       109  -9.9684     57.7998    125.4494   1.0273845112e+02   4.3687173659e+01     0.269803     0.200573 -24.35   0.00137508    1.655    0.396
       110  -9.9817     24.3072    126.0157   1.1310916138e+02   4.7013299932e+01    0.1877802    0.1471383 -68.28 0.0004214493    1.076    0.071
       111  -9.4252    220.2738    124.3565   6.1301097748e+01   1.2014723493e+01    0.1446448    0.1089819  -6.39 0.0007003122    1.647    0.393
       112 -10.8848      2.9352    123.2700   1.1908817104e+02   4.9170452270e+01       0.3126    0.1501121 -63.09 0.0008246758    1.636    0.389
       113 -10.0288      1.3498    119.1571   1.1911071484e+02   5.0239598344e+01     0.221409      0.13495  86.92  0.000695692    1.573    0.364
       114 -11.0435     15.9764    115.9276   1.1427750804e+02   5.0105333897e+01    0.2377864    0.2146079 -69.56 0.0006892046    1.093    0.085
       115 -10.2573     72.2401    117.3683   9.6554393363e+01   4.3722779462e+01    0.3764504    0.1732908 -65.65  0.001389925    2.524    0.604
       116 -10.4209     85.9628    116.6204   9.2068232327e+01   4.1764425212e+01    0.2465926    0.1950354 -42.59 0.0004112967    1.246    0.197
       117  -9.7861    213.9770    115.6701   6.0384929439e+01   1.4885912417e+01    0.1951785    0.1831735  43.43 0.0005273015    1.145    0.127
       118  -9.1295    179.3363    116.6715   6.7323256910e+01   2.2303384356e+01    0.1595871    0.1227225 -80.07 0.0007051935    1.727    0.421
       119 -10.8541    249.3553    112.2721   5.4040858185e+01   8.4365932415e+00    0.2503655    0.2012859 -49.45 0.0006676125    1.165    0.142
       120  -9.8437     94.7951    112.7565   8.8400785998e+01   4.1171135738e+01    0.2113469    0.1810167 -88.78 0.0008273685    1.359    0.264
       121 -12.5723     14.4737    108.9713   1.1377840578e+02   5.1884238792e+01    0.5556311    0.3104325 -44.82  0.002197586    1.711    0.416
       122 -11.7661     55.1954    110.4218   1.0059534722e+02   4.7714901544e+01    0.2742274    0.2561654 -21.20 0.0003716122    1.139    0.122
       123  -9.8310     42.8668    111.2021   1.0483649583e+02   4.8924328821e+01    0.1923443     0.143091 -40.62 0.0005308005    1.334    0.250
       124 -11.4045     36.8225    109.7516   1.0656942678e+02   4.9884930795e+01     0.419795    0.2663557  69.27  0.001596612    2.121    0.529
       125 -11.3260      2.8656    106.8440   1.1721196767e+02   5.3080613596e+01    0.4679733    0.2997784 -65.77  0.002164841    1.226    0.185
       126  -9.7510     82.5200    108.9667   9.1317419248e+01   4.4165899777e+01    0.2328662    0.1417194 -54.86  0.001027501    1.585    0.369
       127  -9.6508     70.7610    108.0661   9.4921619794e+01   4.6196897213e+01    0.2085375     0.177899 -54.04 0.0004850415    1.096    0.087
       128 -10.8077     25.7335    104.6807   1.0938274188e+02   5.2090878521e+01    0.6329278    0.1345873 -63.07  0.001841987    3.386    0.705
       129 -10.7570    243.9349    104.6816   5.3152364893e+01   1.0713170044e+01    0.1823539    0.1714772 -51.01 0.0005900068    1.085    0.078
       130 -10.4891     36.7085    102.7636   1.0529030322e+02   5.1588007696e+01    0.3365228    0.2040585  18.96  0.001715706    1.940    0.485
       131  -9.0344    223.2913    103.6994   5.6025582802e+01   1.5047824899e+01    0.1417246    0.1047037 -66.13 0.0003046128    1.565    0.361
       132 -10.3974    119.6384    101.6647   7.8079469828e+01   3.8856067784e+01    0.6980589    0.3389734 -24.50  0.001785409    5.296    0.811
       133 -11.8765      2.6763     97.8835   1.1609437330e+02   5.5198871634e+01    0.4881225    0.2364625  85.20  0.002237103    2.653    0.623
       134 -11.2712    143.6006     98.3773   7.0741811155e+01   3.4248734120e+01    0.5121147    0.3782205  73.98  0.002249418    1.739    0.425
       135 -10.2553     57.5022     96.5193   9.6674576672e+01   5.0760345397e+01    0.2412679    0.2092571 -59.89 0.0006111682    1.123    0.110
       136 -10.9510     61.9451     99.0265   9.5735506542e+01   4.9587230620e+01     0.317989    0.3050553 -58.70 0.0009117919    1.079    0.073
       137  -9.7904     66.4559     98.4099   9.4031564609e+01   4.9110588386e+01    0.2215355    0.2052078 -18.89 0.0005251404    1.091    0.084
       138  -9.7972     50.9432     99.3048   9.9621680970e+01   5.0904239907e+01    0.1795406    0.1722049 -18.75 0.0004307763    1.105    0.095
       139  -9.7993    173.4637     83.4933   5.9839459253e+01   3.0028004853e+01     0.208091    0.2050999  74.87 0.0008670371    1.034    0.033
       140 -11.2917    157.2135     82.1812   6.2921308975e+01   3.4195273321e+01    0.7144498    0.4164164  27.02    0.0025817    2.762    0.638
       141 -11.3062    161.9501     93.4780   6.5028354188e+01   3.0924639077e+01     0.298772    0.2943974  57.56 0.0007275501    1.020    0.019
       142 -12.4528    158.8150     89.6284   6.4665768023e+01   3.2411612458e+01    0.5710585    0.4452212 -30.18  0.001520076    1.362    0.266
       143 -12.2137    165.7054     84.1359   6.1622550682e+01   3.1785100345e+01    0.8593776    0.6658823  64.83    0.0041654    1.345    0.256
       144 -10.4838     39.8254     96.9568   1.0301950751e+02   5.2671329769e+01    0.3644071    0.2241136  84.43  0.001346469    2.562    0.610
       145 -10.9485     14.3245     96.9288   1.1198145171e+02   5.4762167434e+01    0.4959477     0.129293 -62.48  0.001951785    2.685    0.628
       146 -10.9074     11.4441     90.9742   1.1200655341e+02   5.6336445427e+01    0.3576326    0.1872864  11.34 0.0009779383    2.354    0.575
       147  -9.6779    249.8402     95.8004   5.0407756131e+01   1.1016936223e+01    0.1819793    0.1386025 -58.80  0.000429422    1.298    0.229
       148  -9.4991     27.9969     95.7205   1.0696795092e+02   5.4046647880e+01    0.1636834    0.1517138 -48.70   0.00106504    1.095    0.087
       149  -9.3264     77.5373     95.4610   8.9494497000e+01   4.8128863050e+01    0.1462363    0.1361751 -32.52 0.0004767994    1.014    0.013
       150 -11.0562     20.8106     93.6607   1.0913769850e+02   5.5090453681e+01    0.5093021   0.06075623 -59.48   0.00161022    4.016    0.751
       151 -10.7644     21.8167     87.1426   1.0753109719e+02   5.6539849425e+01     0.293721    0.2080476 -54.11  0.001744771    1.159    0.137
       152  -9.3946     91.3401    100.3333   8.6270053693e+01   4.4683031089e+01    0.1585608    0.1164138 -13.74 0.0006363054    1.750    0.429
       153 -10.1688     46.7900     92.7764   9.9596309862e+01   5.2920466157e+01    0.1738547    0.1548034  83.97 0.0003584473    1.314    0.239
       154  -9.8515     31.4927     92.9427   1.0516265923e+02   5.4404328381e+01    0.1967518    0.1144557 -62.13 0.0003813055    1.495    0.331
       155 -10.3803     36.4093     91.1383   1.0299413907e+02   5.4377416074e+01    0.2872756     0.224205   5.48  0.001119235    1.459    0.315
       156 -10.6275     25.8300     91.0806   1.0683909295e+02   5.5315237933e+01     0.286596     0.218919 -70.50  0.000886646    1.246    0.197
       157 -10.9509    152.5631     91.3497   6.6590422380e+01   3.3565142158e+01    0.3094946    0.1944868  47.40 0.0008860601    1.581    0.368
       158 -10.8645     96.4320     89.6919   8.1661594234e+01   4.6125075780e+01    0.3804203    0.2747705  -3.52  0.001699943    1.872    0.466
       159  -9.9430     82.9590     88.8554   8.5837369169e+01   4.8725751086e+01    0.2233486    0.1869604 -15.28 0.0005404546    1.265    0.209
       160 -10.6654     46.7895     87.9716   9.8448339944e+01   5.4036734574e+01    0.3150667    0.2410303  87.74  0.001676856    1.742    0.426
       161 -10.9007     44.7734     83.7995   9.8164972556e+01   5.5215427821e+01    0.4717073    0.3517829 -85.98  0.002501447    1.787    0.440
       162 -10.5882     78.8345     87.7586   8.6925567089e+01   4.9656499423e+01    0.3051136    0.2042438 -58.53  0.001430229    1.625    0.385
       163 -10.2616     65.0285     87.4848   9.1686313121e+01   5.1830069096e+01     0.245562    0.2214727   2.63  0.001119957    1.143    0.125
       164 -10.3427     67.5867     84.2292   8.9867837047e+01   5.2188665793e+01    0.2918305    0.1740346 -29.03  0.001286168    1.961    0.490
       165 -11.8647      5.5976     83.5040   1.1286625571e+02   5.8382377218e+01    0.7607289    0.3836819 -74.41  0.003936415    1.837    0.456
       166 -10.4189     10.8841     62.8437   1.0664790709e+02   6.2693351191e+01     0.335889     0.172294 -42.13 0.0009649777    1.599    0.375
       167 -12.6005      3.7042     64.5666   1.1005243325e+02   6.2698378661e+01    0.8474019    0.3391837 -61.74  0.004233874    1.922    0.480
       168 -11.7048      5.0166     58.6743   1.0820854417e+02   6.3899901888e+01    0.3441897    0.2757271  61.60 0.0008557168    1.721    0.419
       169 -12.2119     13.1283     76.0245   1.0860549831e+02   5.9660880368e+01    0.5467464    0.2727579 -51.84  0.001569417    1.557    0.358
       170 -11.5804      8.4672     74.0049   1.1003360882e+02   6.0380313955e+01    0.4667699    0.2664894   3.69  0.001773637    2.100    0.524
       171 -13.7123     16.2857     67.6597   1.0550420668e+02   6.1314728391e+01    0.6196438    0.2832369 -55.68 0.0007157138    1.713    0.416
       172 -11.6377     22.1022     66.8462   1.0288823338e+02   6.1080085822e+01    0.3892867    0.2562696  56.02  0.001202664    2.301    0.565
       173  -8.9486    120.6958     87.3083   7.3654663931e+01   4.1672066794e+01    0.1525871    0.1242498 -86.69 0.0004023142    1.606    0.378
       174  -9.9765    108.5651     91.4947   7.8428826223e+01   4.3355445341e+01    0.1520287    0.1465366 -14.45 0.0001317407    1.016    0.016
       175 -10.7370    115.8918     84.8909   7.4304542325e+01   4.3203647304e+01    0.3620257    0.2152957 -32.39  0.001496405    1.862    0.463
       176 -10.0368     75.8348     82.5260   8.6450138807e+01   5.1291085139e+01    0.2750464    0.1991554  88.57   0.00121181    2.376    0.579
       177 -12.0083     30.7063     81.7694   1.0302757789e+02   5.7062101979e+01    0.3097751    0.2514765 -18.25 0.0004303933    1.274    0.215
       178 -10.3937     35.0000     79.2869   1.0078194591e+02   5.7234460533e+01    0.3749359     0.205289 -42.90  0.001828528    1.611    0.379
       179 -10.0479     22.2012     73.9574   1.0455913990e+02   5.9510238990e+01    0.4315965    0.1310874 -64.13  0.001617985    3.153    0.683
       180 -11.1891     21.7041     81.2285   1.0636181710e+02   5.7908104820e+01     0.481625    0.1936147 -40.55  0.001795799    2.366    0.577
       181 -10.4004     19.0095     79.2326   1.0697874143e+02   5.8554306199e+01    0.1973904    0.1613512 -49.29 0.0006318385    1.008    0.008
       182 -10.0750     86.3097     80.2926   8.2174419406e+01   4.9991307030e+01    0.2446172     0.179482  33.13 0.0004587059    1.392    0.282
       183  -9.3297    179.6789     79.2212   5.7460913617e+01   2.9283030547e+01    0.1911751    0.1384314 -31.04   0.00027809    1.465    0.317
       184  -8.9890    112.2707     79.6868   7.3771966517e+01   4.5023247362e+01    0.1459069    0.1214911 -80.49 0.0001732024    1.552    0.356
       185 -10.7944     60.9611     78.4121   9.0626773927e+01   5.4412033015e+01    0.3197265    0.2138478 -49.31 0.0005774935    1.393    0.282
       186  -9.9915     57.8045     74.3492   9.0627705839e+01   5.5719413153e+01    0.2282391    0.2072329 -19.31 0.0004657059    1.039    0.037
       187 -10.5328     54.0374     73.7363   9.1891456029e+01   5.6344816641e+01    0.2721983    0.2234823 -15.68 0.0009913057    1.200    0.167
       188 -12.1282     62.3542     71.5269   8.8046942392e+01   5.5686343096e+01    0.4525083    0.2856604 -19.88 0.0001292631    1.934    0.483
       189 -10.8916     41.5500     36.7728   8.4560700512e+01   6.5074856554e+01    0.5204977    0.3951986  34.06  0.003222367    1.510    0.338
       190 -12.7392     44.7242     75.2792   9.5949313034e+01   5.7125042101e+01    0.3348867    0.2610733  30.80 0.0005483873    1.428    0.300
       191 -12.0326     36.4092     66.5942   9.6873631931e+01   5.9881328115e+01    0.7810938    0.4991748  54.14  0.003065698    2.434    0.589
       192 -10.5194     31.8132     67.9499   9.9145194356e+01   6.0030595590e+01    0.2203532     0.172169 -12.33  0.000364706    1.297    0.229
       193 -11.3004     28.3501     59.9621   9.8385315306e+01   6.2034336832e+01    0.5804836    0.3812943  28.74    0.0033614    1.722    0.419
       194 -11.8264     26.9316     49.8492   9.5956036447e+01   6.4211957258e+01    0.7662156    0.4945475 -35.47  0.004092115    1.304    0.233
       195 -10.5872    249.4707    247.5860   8.0163963133e+01  -1.1818344463e+01    0.3454862     0.176655  -2.51  0.001816085    2.382    0.580
       196 -11.9299     33.8247     49.8584   9.2839482092e+01   6.3551870364e+01    0.4393492    0.2594763 -38.40   0.00144959    1.450    0.310
       197 -11.0821     91.6666     74.4994   7.8574442146e+01   5.0200201816e+01    0.4515568    0.3127052 -29.97  0.002163302    1.504    0.335
       198 -10.4106     74.3324     75.5522   8.4879468447e+01   5.3019980784e+01    0.2534187    0.1547986 -30.32 0.0008968705    1.779    0.438
       199 -10.0956    208.0693     73.5865   5.1153989042e+01   2.3493145130e+01    0.2242838    0.1788859 -56.05 0.0003696224    1.192    0.161
       200 -10.1858    144.7698     73.9114   6.3360670019e+01   3.8698853204e+01     0.320123    0.2534521  40.00  0.001570167    1.284    0.221
       201  -9.8350    137.6222     73.8960   6.5090408346e+01   4.0405029197e+01    0.2350506    0.1914608 -11.80 0.0006262151    1.430    0.301
       202 -10.2710    102.9122     73.3232   7.4594043527e+01   4.8224152414e+01    0.2162673    0.1857525  36.61 0.0008343035    1.149    0.130
       203  -9.2953    128.7167     71.6696   6.6677366809e+01   4.2892786011e+01    0.1530399    0.1186366   8.99 0.0001905796    1.610    0.379
       204 -11.7881     50.4675     68.6020   9.1764238949e+01   5.7885539248e+01    0.4143938    0.2844428   3.91 9.492497e-05    1.671    0.401
       205  -9.9398    173.1527     70.0827   5.6195184286e+01   3.2433352973e+01    0.2099631    0.1963002  28.14   0.00026075    1.182    0.154
       206 -10.4391    167.9622     69.9146   5.7157654769e+01   3.3736467102e+01    0.2160394    0.2080204  70.50 0.0003081002    1.026    0.025
       207 -11.4490     78.4287     69.6155   8.1534379632e+01   5.3555348951e+01    0.5339381    0.2664645  38.12  0.002287171    2.042    0.510
       208 -10.8344     77.3145     64.5894   8.0268823764e+01   5.4733754591e+01    0.4134745    0.3158648 -46.08  0.002203346    1.353    0.261
       209  -8.9283    194.6727     69.6629   5.2273543268e+01   2.7277564339e+01    0.1459465    0.1144292  21.06 0.0007051769    1.726    0.421
       210  -9.2837    110.4757     68.5792   7.0766143156e+01   4.7537324231e+01    0.1500832     0.138212  15.62 -6.522528e-05    1.065    0.061
       211 -11.3914     94.0231     66.3564   7.5136932015e+01   5.1332367096e+01    0.4007691    0.2885148   7.17  0.001897567    1.727    0.421
       212 -11.1229     51.4791     62.5379   8.9473059272e+01   5.9010033202e+01    0.3235349    0.2760857 -53.19  0.001365131    1.288    0.224
       213  -9.3836    173.0034     61.9729   5.3951829469e+01   3.3789616736e+01    0.1816691    0.1600618  67.69 0.0003993925    1.096    0.087
       214 -10.7071     85.5801     60.5758   7.5992085580e+01   5.4015616261e+01     0.447329    0.2656054  14.89  0.001814649    2.523    0.604
       215  -9.6174    167.5077     61.0350   5.4713370526e+01   3.5298101336e+01    0.2088884    0.1145061 -57.58 0.0006195704    2.338    0.572
       216 -10.3391    155.6460     60.8812   5.7029723127e+01   3.8259157081e+01    0.2126345    0.1873158 -44.74   0.00113129    1.170    0.145
       217 -10.1175    120.4067     61.4622   6.5613962971e+01   4.6600880581e+01    0.3201291    0.1418536  50.77  0.001213035    2.185    0.542
       218 -10.2682     98.1995     60.3742   7.1761690228e+01   5.1594026300e+01    0.2426704    0.1916045 -31.25 0.0001875941    1.273    0.214
       219 -11.1900     63.4279     60.1432   8.3944785370e+01   5.7823961480e+01    0.2767656    0.2037501  -4.97   0.00129637    1.474    0.322
       220 -11.3069     58.1609     57.9071   8.5252427323e+01   5.9024851416e+01    0.5309733     0.355958 -73.37  0.002342714    2.911    0.656
       221  -9.3629    215.2089     60.4012   4.6898663316e+01   2.3905185189e+01    0.1752999    0.1265605  83.15 0.0002954541    1.455    0.313
       222 -11.2001    147.1870     56.6653   5.7548798568e+01   4.1011621380e+01    0.2543518    0.2475049 -48.09 0.0002897798    1.075    0.069
       223 -11.6502     75.1797     56.0861   7.8098025175e+01   5.6694502068e+01    0.2376171     0.204578 -29.33 0.0002863328    1.134    0.118
       224  -9.9266     47.4599     56.6865   8.9212226260e+01   6.0682381752e+01    0.2246444    0.1453714  -0.53 0.0008498989    1.818    0.450
       225 -10.4437     98.3374     55.9737   7.0186719752e+01   5.2331991854e+01    0.2671734    0.1952403  34.26 0.0003242158    1.332    0.249
       226 -10.8420      7.0650     41.1087   1.0267772612e+02   6.7381005605e+01    0.2452195    0.1202645 -45.59 0.0006719545    1.541    0.351
       227 -10.9751     11.2102     44.3242   1.0161901013e+02   6.6499940414e+01    0.4689641    0.2878345 -63.20  0.002197359    1.706    0.414
       228 -10.9406      4.0856     46.1154   1.0552682477e+02   6.6546610461e+01    0.3180597    0.1918023 -68.37  0.001380161    1.756    0.430
       229 -11.1712     12.7227     52.0274   1.0310518374e+02   6.4854574494e+01    0.4128277    0.2128711 -56.96  0.001958897    1.641    0.390
       230 -12.1859      7.9605     51.6316   1.0517692072e+02   6.5218509181e+01    0.3271601    0.2500759 -15.95 0.0005163182    1.286    0.222
       231 -10.2535    132.4715     54.6345   6.0280015699e+01   4.4900250230e+01     0.376244    0.1215438  50.33  0.001251168    2.820    0.645
       232 -10.4619    120.2306     52.7328   6.2741648600e+01   4.8074380170e+01    0.3288319    0.2183619  27.90 0.0008717302    1.756    0.430
       233 -11.5654    105.1921     52.5015   6.6871794216e+01   5.1467233821e+01    0.3698924    0.2467109  42.59 0.0009232016    1.424    0.298
       234 -11.1098     87.9527     51.5689   7.1982111581e+01   5.5150646834e+01    0.3242424    0.2542765  20.12 0.0007748759    1.269    0.212
       235 -10.0548     62.3838     53.2018   8.1927307385e+01   5.9292068331e+01    0.1778771    0.1230559 -48.97 0.0002845793    1.577    0.366
       236 -11.8407    129.7321     49.3092   5.9192990996e+01   4.6371879710e+01    0.6291027    0.4501491  -5.43  0.002761598    1.799    0.444
       237  -9.5813    237.6893     51.3214   4.2087827577e+01   2.0243733816e+01    0.1391041   0.08471065 -64.12 0.0004067743    1.649    0.393
       238 -10.0011     73.8088     51.1518   7.6815647294e+01   5.7809220969e+01    0.2805461     0.160478  27.14 0.0004380949    1.893    0.472
       239 -11.2006     78.5437     47.4404   7.3713530045e+01   5.7604668292e+01    0.3606887     0.231294 -32.31   0.00104739    1.548    0.354
       240  -9.1298    181.3415     49.6679   4.9100948127e+01   3.3585139678e+01    0.1542403    0.1030562 -70.64 -0.0001646786    1.750    0.429
       241 -10.2705    151.9435     47.9875   5.3882769687e+01   4.1141881388e+01    0.2295632     0.167399  28.35 0.0004653814    1.662    0.398
       242 -10.6356    112.7800     47.3408   6.2887271204e+01   5.0604996908e+01    0.3477825    0.2740538  83.47  0.001086145    1.701    0.412
       243 -11.4657     57.2113     46.5325   8.1558325649e+01   6.1264731478e+01    0.2809198    0.2029734  -4.48  0.001012553    1.430    0.301
       244 -10.6313    142.9780     45.6056   5.4987094610e+01   4.3699736787e+01     0.300458    0.2535348 -78.24  0.001123616    1.335    0.251
       245 -10.1201     95.3824     35.2718   6.3475238602e+01   5.6141366818e+01    0.2883852     0.223638 -67.58  0.001493518    1.935    0.483
       246 -10.3759     97.5261     31.1620   6.1251380222e+01   5.6234917145e+01     0.310711    0.2031294  35.68  0.001592657    1.446    0.308
       247 -10.8902    101.7474     28.8608   5.9161007596e+01   5.5610732951e+01    0.3511012    0.2694049 -74.00 0.0007785662    1.956    0.489
       248 -10.9566     91.7404     42.9508   6.7539760291e+01   5.5781419871e+01    0.4748803    0.2911411 -33.83  0.002328967    1.678    0.404
       249 -10.1768     96.1224     41.9561   6.5785606699e+01   5.5030101406e+01    0.3353994    0.1925639 -17.91  0.001186317    2.178    0.541
       250 -11.4287    100.9686     36.9784   6.2462441923e+01   5.4714564152e+01    0.5573337    0.3091429  27.21  0.002381333    2.255    0.557
       251 -10.0070     51.1997     45.0946   8.3525594882e+01   6.2369412814e+01    0.1954376    0.1506903 -16.18 0.0003870188    1.176    0.149
       252 -11.0225     83.6818     40.3886   6.9223837493e+01   5.7763243770e+01    0.4329853    0.2361817  22.59  0.001326332    2.455    0.593
       253 -11.0027     81.1732     35.4771   6.8149826369e+01   5.8971329050e+01    0.3833786    0.2429067 -22.53  0.001110801    1.657    0.397
       254 -10.3586     71.4770     41.4012   7.3979630938e+01   5.9842756704e+01    0.3612789    0.1242302 -41.82  0.001264567    3.047    0.672
       255 -11.7666     67.5772     39.2838   7.4622490789e+01   6.0846291324e+01    0.5411651    0.3179922  -9.97  0.002012161    2.313    0.568
       256 -11.0773     73.4050     37.6843   7.1793147700e+01   6.0082926026e+01    0.3047118    0.2090548 -19.39 0.0009459239    1.485    0.327
       257 -12.0744     36.8579    243.4776   1.2099524824e+02   1.9140478989e+01    0.6362055    0.2976646  87.67  0.002940397    2.225    0.550
       258 -10.2915    123.5355     41.9522   5.8217287466e+01   4.8908717984e+01    0.2680855     0.200046  72.63 0.0007874215    1.532    0.347
       259 -11.8081     53.1195     39.8856   8.0706731059e+01   6.3002534574e+01    0.5491786    0.4110166  29.25  0.002031677    1.348    0.258
       260 -12.7044     74.9103    238.9581   1.1328081568e+02   1.5212243754e+01    0.6891984    0.5057529 -78.95  0.004434061    1.441    0.306
       261 -10.1710     50.2774     27.5944   7.6843227905e+01   6.5365450387e+01    0.2734082    0.1845653  21.52 0.0008619929    1.391    0.281
       262 -10.4947     23.7436     41.4935   9.4680139391e+01   6.6104969438e+01    0.3984723    0.2196601  47.88  0.001883672    3.284    0.696
       263 -11.3505     30.2738     33.0329   8.8394757837e+01   6.7006783033e+01    0.2984519     0.197192   5.28  0.000338696    1.503    0.335
       264 -12.1270     28.6294     37.9154   9.1055658257e+01   6.6311459542e+01    0.4280865    0.2928197   3.05  0.001446895    1.449    0.310
       265 -12.0214     24.6777     34.9435   9.1874496732e+01   6.7224360573e+01    0.4711009    0.2410983  -1.77 0.0003891259    2.544    0.607
       266 -10.0889    138.3073     41.0720   5.4527608408e+01   4.5476819601e+01     0.191254    0.1887154 -30.39 0.0006088606    1.093    0.085
       267 -11.0280     47.9484     31.6205   7.9584662962e+01   6.5079955581e+01    0.3737203    0.1998554  32.99 0.0007579651    1.846    0.458
       268  -9.1142    188.4816     39.5334   4.5295419471e+01   3.3227595932e+01    0.1393013    0.1249998 -86.67 0.0008094423    1.006    0.006
       269 -10.1001    152.9417     39.0477   5.0945484194e+01   4.2129424475e+01     0.214851     0.198305  70.60 0.0005563164    1.011    0.011
       270 -10.5143    222.7208     38.1976   4.0737356391e+01   2.5320575352e+01    0.3209347    0.1777309  78.67  0.001582804    1.863    0.463
       271  -9.9993    171.3150     36.7806   4.7105639326e+01   3.7835679708e+01    0.2405488    0.1468094  47.98 0.0007204054    1.697    0.411
       272  -9.8612      1.8155     36.9968   1.0407659867e+02   6.8459606729e+01     0.190344    0.1165087 -34.20  0.001214459    1.300    0.231
       273 -11.4656     10.4148     25.5763   9.5712431864e+01   7.0053360976e+01    0.5088341    0.2713413  30.65   0.00275338    2.241    0.554
       274  -9.8171    149.6568    240.6909   9.8134201357e+01   3.6111483268e+00    0.1284744   0.09267865   8.43 0.0007044474    1.696    0.410
       275  -9.2977     50.3200    240.3135   1.1823579949e+02   1.8146891856e+01   0.09997573   0.09232717 -30.97 0.0006141673    1.652    0.395
       276 -12.2335      8.7042     32.4074   9.9080619589e+01   6.8938328546e+01    0.3767823    0.3478344 -31.99  0.001648997    1.298    0.229
       277 -11.0209     17.7205     31.3862   9.4048928194e+01   6.8467466901e+01    0.3860875    0.2500832  10.37  0.002431717    1.554    0.357
       278 -10.1205    195.4241    238.7397   8.8663401417e+01  -3.2254092601e+00    0.2578732    0.1737338  17.94  0.001512233    1.360    0.265
       279 -10.1920    243.5339    237.5243   7.9546152263e+01  -9.8453884648e+00    0.1839439    0.1030079 -42.13  0.001010402    2.312    0.567
       280  -9.9288    135.3379    237.9876   1.0072654983e+02   6.3447417294e+00    0.1938899   0.09332906 -31.55 0.0007051446    4.382    0.772
       281 -10.1797     24.1202    232.4728   1.2270613019e+02   2.2691372207e+01    0.2011299     0.184863  34.40 0.0008890825    1.501    0.334
       282 -10.5766     29.5114    232.9813   1.2171958465e+02   2.2007708016e+01    0.2635671    0.1478547  62.82  0.001613192    1.458    0.314
       283 -10.2902    159.8579    235.9235   9.5367107779e+01   2.7776846767e+00    0.1988316    0.1594185  12.95 0.0005259412    1.267    0.211
       284  -9.9388    225.8837     33.3776   3.9305470332e+01   2.5235373587e+01    0.2264169    0.1472291 -54.65 0.0006220515    1.377    0.274
       285 -10.3721    201.8269     33.9304   4.2105875264e+01   3.0727835553e+01     0.218221    0.1993194 -76.03 0.0007080553    1.070    0.065
       286 -11.3692    234.6256     30.9928   3.7926953886e+01   2.3613891890e+01    0.4229677    0.2765949  36.20  0.001342712    2.521    0.603
       287  -8.8843    141.6818     33.3453   5.1326130923e+01   4.5656372974e+01     0.145966    0.1052629 -70.69 0.0007048955    1.724    0.420
       288  -9.1560    208.6790     32.3033   4.0900192972e+01   2.9313157432e+01      0.14117   0.08846443 -68.01 0.0004169589    1.631    0.387
       289 -10.4565    165.8083     31.8774   4.6573717373e+01   3.9828832489e+01    0.3126206    0.1892735  73.72  0.001338776    1.627    0.385
       290  -9.9255     89.3494     31.5775   6.3901335623e+01   5.7893023875e+01     0.230518    0.1678563  38.97 0.0007131096    1.245    0.197
       291  -9.2741    139.2166     30.9266   5.1033148830e+01   4.6561450483e+01    0.1654344    0.1147015 -31.16 0.0004807235    1.572    0.364
       292  -9.4261    191.2504     30.3540   4.2514841777e+01   3.3724613809e+01    0.1265882    0.1035038  28.47 0.0004022696    1.598    0.374
       293  -9.5256    145.6315     29.6803   4.9392951153e+01   4.5127510091e+01    0.1513651   0.09686393  35.52 0.0007036668    1.790    0.441
       294 -10.3162    109.4889    242.8558   1.0665366668e+02   9.4868078642e+00    0.2625379    0.1647913  61.49 0.0009655533    1.687    0.407
       295  -9.9821    177.3994    234.8261   9.1628843047e+01   1.5954393043e-01    0.1687427    0.1154377 -25.67  0.000946349    1.685    0.407
       296 -10.6900     86.4396    233.2639   1.1037319204e+02   1.4696539430e+01    0.2428002    0.1199688  53.15  0.001196501    1.850    0.459
       297  -9.9998     38.2359    232.7917   1.2003639294e+02   2.1062778608e+01    0.1728075    0.1225038  66.99 0.0005948732    1.116    0.104
       298 -10.8061    111.6482     26.5448   5.5676397621e+01   5.3665509449e+01    0.4975545    0.2235997 -21.11   0.00137368    2.736    0.634
       299 -11.0379     69.7533     26.3878   6.8467927051e+01   6.2354627184e+01     0.338033    0.2271844  18.30  0.001101431    1.498    0.333
       300 -10.7002     59.4030     21.7196   7.0416693377e+01   6.4764621874e+01    0.2020324    0.1384869  27.41 0.0009272348    1.314    0.239
       301 -10.7198     62.9444     23.4385   6.9777314607e+01   6.3940643987e+01    0.4228318    0.2375403  18.20  0.002037474    2.119    0.528
       302  -9.8273     68.7911     22.0191   6.6932601515e+01   6.3097384481e+01    0.2330469    0.1640171  41.20 0.0007255164    1.354    0.262
       303 -12.2293    194.8344     25.8736   4.0919947555e+01   3.3397975645e+01     0.396889    0.2669939  86.88  0.002123704    1.432    0.302
       304  -9.3436    154.7193     28.3344   4.7351431174e+01   4.3026091766e+01    0.1410862    0.1005945 -67.64 0.0002342514    1.614    0.380
       305 -10.6012    118.6445     26.3958   5.3930397770e+01   5.2057478830e+01    0.3444731    0.2081666  -3.18 0.0009779856    2.297    0.565
       306 -10.0417    241.9641     26.4622   3.6304157265e+01   2.2606972944e+01    0.1780995   0.08579552 -76.39 0.0005788652    2.457    0.593
       307  -9.6819    218.7606     25.9841   3.8333370274e+01   2.7763134741e+01    0.1715428    0.1492519 -66.12  0.000316552    1.081    0.075
       308 -10.1311    213.8073     25.9350   3.8824833947e+01   2.8905393293e+01    0.1881182    0.1726948  67.66 0.0006393704    1.244    0.196
       309  -9.8408      1.4732     25.8867   1.0070218250e+02   7.0557227333e+01    0.1613514   0.08754808 -48.63 0.0003434765    1.466    0.318
       310 -11.2163     95.2366     22.7416   5.8610802587e+01   5.7759389719e+01    0.5960135    0.3090542  56.59  0.002782121    1.899    0.473
       311  -9.5044    169.7163    229.3170   9.2345674784e+01   2.2833354707e+00    0.1216578   0.09902707  62.11 0.0003295451    1.583    0.368
       312  -9.3484    107.3214     18.3144   5.3669687967e+01   5.5572869382e+01    0.1428209   0.08971661  30.91 0.0007040169    1.657    0.397
       313 -10.6786    186.5715     21.9900   4.0920605196e+01   3.5856133084e+01    0.4165062    0.1357566 -45.61  0.001567438    3.080    0.675
       314  -9.9315    155.8431     21.8535   4.5202577787e+01   4.3483660643e+01    0.1856587    0.1484442 -80.11 0.0002682805    1.302    0.232
       315  -9.8898     81.0426     22.2183   6.2751615259e+01   6.0752199971e+01    0.1826805    0.1485552  34.56  0.001102756    1.098    0.089
       316 -10.2322    121.0578     20.5300   5.1291128319e+01   5.2142996289e+01    0.2418771    0.1796418  14.54  0.001306959    1.559    0.358
       317  -9.1871     99.2377     20.6319   5.6659695601e+01   5.7129887770e+01    0.1239361    0.1009772 -56.99 0.0002296667    1.605    0.377
       318 -11.3553    154.6842    227.6651   9.5226344455e+01   5.0235690410e+00    0.4177141    0.2686928  17.44  0.002108278    1.837    0.456
       319 -11.2364    120.2476    226.4972   1.0241229988e+02   1.0854773737e+01    0.2224434    0.1894934 -68.16 0.0008897434    1.341    0.254
       320  -9.9843     65.9854    226.2122   1.1393695814e+02   1.8942495209e+01    0.1986756    0.1640784  89.03 0.0006557053    1.181    0.153
       321 -10.0018    139.8951     19.8896   4.7310052356e+01   4.7649025733e+01    0.2096599    0.1626488  44.67 0.0005812445    1.248    0.199
       322  -9.8718    142.9706     16.9991   4.5834436832e+01   4.7191687598e+01    0.2009775    0.1773292  60.30            0    1.031    0.030
       323 -10.9126      4.5415    226.0589   1.2599819780e+02   2.5918779584e+01    0.2883506    0.1250551  54.05  0.001465835    1.804    0.446
       324 -11.5570     21.0978    222.3172   1.2268043468e+02   2.5053489595e+01     0.263513    0.1711915  84.95   0.00119038    1.291    0.225
       325  -9.7397    123.5158    221.9997   1.0110322022e+02   1.1191813507e+01    0.2743057    0.1830244 -19.68  0.001280623    2.553    0.608
       326  -9.3932    126.5438    221.5277   1.0037796100e+02   1.0788863842e+01    0.1362375    0.1154546  50.77 8.991989e-06    1.081    0.075
       327 -11.1598     41.8692     19.1418   7.6839431446e+01   6.7781374695e+01    0.4147843    0.2208651  35.77  0.001990899    1.861    0.463
       328 -10.2676    142.7753    220.6893   9.6728124864e+01   8.2590253167e+00    0.2823879    0.1129952  31.52   0.00107696    2.648    0.622
       329  -9.2384     54.6586     19.2665   7.1247637735e+01   6.5860265995e+01    0.1072456    0.1003404  59.25 0.0004887632    1.601    0.375
       330 -10.7128     60.0477     16.8999   6.7970766292e+01   6.5269586177e+01     0.213624    0.1604728  -6.90 0.0003667081    1.241    0.194
       331  -9.7395    190.4893    226.8738   8.7734868956e+01  -6.6030296219e-01    0.1794019    0.1248641 -35.65   0.00102481    1.567    0.362
       332 -10.6184    233.6606     15.3383   3.4637525561e+01   2.5702895862e+01    0.2447437   0.06131532 -45.18 0.0009640635    3.106    0.678
       333 -10.2188    186.8741     16.0246   3.9328546764e+01   3.6442655605e+01    0.2538784    0.1400738  48.35  0.001118642    2.030    0.507
       334 -10.0573    177.5790     15.4804   4.0303038520e+01   3.8774023775e+01    0.2220486    0.1808761 -59.03 0.0005879727    1.228    0.185
       335 -11.6908      9.7201    217.2010   1.2458164327e+02   2.7228789495e+01    0.3049169    0.1849305  57.93  0.001563786    1.334    0.250
       336  -9.7499     37.9630    217.5141   1.1899567774e+02   2.4221147339e+01    0.1713166     0.106822  39.05 0.0008116064    1.549    0.355
       337 -11.4450     29.9761    215.9715   1.2051002781e+02   2.5433957801e+01    0.3579896    0.2612516  14.82  0.002212473    2.052    0.513
       338 -11.4121    236.0716    214.7835   7.6950046090e+01  -5.7752936414e+00    0.3813752    0.2759458  10.25  0.001961632    1.217    0.178
       339 -11.2994    240.9875    211.7236   7.5522996880e+01  -6.0411707344e+00    0.3457914    0.2904721  -4.33  0.002342738    1.112    0.101
       340  -9.5005    137.1847    215.6246   9.7191683569e+01   1.0157767025e+01    0.2003037    0.1186896  29.00 0.0009456953    1.718    0.418
       341 -10.4257     88.8915    241.2349   1.1067591617e+02   1.2819945052e+01    0.2115995    0.1549971 -34.16   0.00122538    2.114    0.527
       342 -10.5646     21.3025    212.5047   1.2202768851e+02   2.7075760063e+01    0.2551078    0.1480505  61.08  0.001541888    1.442    0.306
       343 -10.1080    208.9570    212.0223   8.1535977076e+01  -1.2539867951e+00    0.2031459    0.1657708   4.64 0.0005631523    1.077    0.071
       344  -9.5990     76.3475    212.2872   1.1030864203e+02   2.0431043866e+01     0.119327    0.1033701 -13.22 0.0005205059    1.656    0.396
       345 -11.8886      5.4824    210.5043   1.2504233900e+02   2.9011206548e+01    0.4567437    0.2777477  32.91  0.002935138    1.817    0.450
       346 -10.2741    184.8347    208.3460   8.5736434362e+01   3.3332657399e+00    0.1974788    0.1133754  27.62 0.0004161087    1.726    0.420
       347 -11.8530      5.5203    207.0249   1.2484755955e+02   2.9740135194e+01    0.5044075     0.180473  59.08  0.002457125    2.485    0.598
       348 -10.7839     19.9683    200.5090   1.2149879471e+02   2.9793033113e+01    0.2878934    0.1191478 -61.19  0.001411008    2.413    0.586
       349 -10.3273    175.4143    202.7034   8.6718872816e+01   5.9665595586e+00    0.2409118     0.197814  36.83 0.0005407549    1.153    0.133
       350  -9.3577    243.3103    202.3106   7.3391322583e+01  -5.0168836610e+00    0.1299707   0.08368415  -1.44 0.0002779118    1.624    0.384
       351  -9.4584      9.5090    202.5112   1.2379121167e+02   3.0344936093e+01    0.1181896   0.08967789  76.92 0.0001665698    1.008    0.008
       352  -9.0819    223.4800    201.4983   7.6835311218e+01  -1.8959180973e+00    0.1279936    0.1138322   0.73 0.0001709086    1.123    0.109
       353  -9.1132     34.3289    201.3026   1.1849065111e+02   2.8129043017e+01    0.1125414   0.09170184 -45.21 0.0007033679    1.648    0.393
       354  -9.2587    238.6604    200.7126   7.3915365635e+01  -4.0978916572e+00    0.1317129   0.08554651   1.91 0.0007019761    1.639    0.390
       355  -9.4680    215.5205    194.5250   7.7030227550e+01   5.0791954506e-01    0.1368399    0.1148906   0.86  0.000245033    1.052    0.050
       356 -10.8365     16.3869    193.2699   1.2175594936e+02   3.1735236141e+01    0.2446143    0.2057089  29.01   0.00102793    1.499    0.333
       357  -9.5783    211.4953    188.4831   7.6644519929e+01   2.1968672810e+00    0.2461439    0.1194405 -28.68  0.001032084    2.317    0.568
       358  -9.5060      1.9535    188.0079   1.2449202872e+02   3.4161436771e+01    0.1433982    0.1095359  81.38 0.0006004201    1.002    0.002
       359 -11.3885     15.9907    182.9459   1.2109295906e+02   3.4098740286e+01    0.4971777    0.2188694  83.22  0.002320667    2.345    0.574
       360  -9.5763     61.6425    184.8556   1.1057548586e+02   2.8608911849e+01    0.1954584    0.1159441 -83.65 0.0009458613    1.764    0.433
       361  -9.7963    167.4984    183.5015   8.4887310706e+01   1.1072749750e+01     0.145867     0.135334  17.94 0.0008106736    1.010    0.010
       362  -9.6619     58.6024    182.2004   1.1099885779e+02   2.9627607746e+01    0.1865403    0.1127287 -59.21 0.0009418874    1.644    0.392
       363  -9.2689      1.5345    180.4982   1.2412259967e+02   3.5869065272e+01    0.1191677    0.0914088  83.81 0.0001596654    1.003    0.003
       364 -10.2929     26.2790     14.1459   8.2218478102e+01   7.0439516468e+01    0.1736306    0.1183798 -12.35  0.000301442    1.243    0.195
       365 -10.1096    244.2429    178.4039   6.8651732824e+01  -1.5237165923e+00    0.2486174    0.1368603 -25.50  0.001230102    1.763    0.433
       366  -9.3853     69.6196    178.1580   1.0776413730e+02   2.9115287232e+01    0.1874259    0.1159298 -54.58 0.0005424083    1.669    0.401
       367 -10.5222     46.5009    177.6997   1.1344048600e+02   3.2175629347e+01    0.2610092    0.2228556  75.57  0.001366994    1.041    0.039
       368  -9.4399    200.5277    176.4777   7.6435751868e+01   6.2575101716e+00    0.1424982    0.1287427  -0.29 0.0001644758    1.008    0.008
       369 -12.1717     34.3795    174.2604   1.1603402230e+02   3.4332053219e+01    0.2931477    0.2427433  24.48 0.0004588388    1.483    0.326
       370 -10.9555     18.0092    173.1406   1.1985001186e+02   3.6180567452e+01    0.3753036    0.2031776  65.68  0.001991199    1.804    0.446
       371 -10.7300     36.9673    157.9497   1.1360624616e+02   3.7988912776e+01    0.2505204    0.1778301 -89.14 0.0003721816    1.297    0.229
       372 -12.0055     36.3930    164.9786   1.1455646753e+02   3.6342416505e+01    0.6852683    0.4233921 -85.89  0.003639149    1.516    0.340
       373 -11.1084     40.5961    163.8118   1.1334898289e+02   3.6176655265e+01    0.4027305    0.2119581 -74.55  0.001418501    1.734    0.423
