#   1 NUMBER                 Running object number                                     
#   2 MAG_AUTO               Kron-like elliptical aperture magnitude                    [mag]
#   3 X_IMAGE                Object position along x                                    [pixel]
#   4 Y_IMAGE                Object position along y                                    [pixel]
#   5 X_WORLD                Barycenter position along world x axis                     [deg]
#   6 Y_WORLD                Barycenter position along world y axis                     [deg]
#   7 A_WORLD                Profile RMS along major axis (world units)                 [deg]
#   8 B_WORLD                Profile RMS along minor axis (world units)                 [deg]
#   9 THETA_WORLD            Position angle (CCW/world-x)                               [deg]
#  10 FWHM_WORLD             FWHM assuming a gaussian core                              [deg]
#  11 ELONGATION             A_IMAGE/B_IMAGE                                           
#  12 ELLIPTICITY            1 - B_IMAGE/A_IMAGE                                       
         1 -11.9189     80.5059     23.3045   6.5419594930e+01   6.0752910689e+01    0.5364226    0.2508446  37.30  0.000167615    2.060    0.515
         2  -9.3128     26.9326     22.1820   8.7267366118e+01   6.8999640043e+01    0.6897714    0.3015701 -29.10  0.003363616    2.234    0.552
         3  -8.9578     45.9856     20.9201   7.7658795399e+01   6.6859952655e+01     0.363066     0.205955 -33.60   0.00170777    1.640    0.390
         4  -9.0881     71.5198      8.9190   6.1951407696e+01   6.4100653362e+01    0.2388278    0.2252276  31.99  0.000519571    1.290    0.225
         5  -9.1718     74.5094     13.5113   6.3071521747e+01   6.3048710529e+01    0.4145848    0.2428601   2.37  0.001445775    2.014    0.503
         6  -9.3667     78.8102     12.8166   6.1349965860e+01   6.2293761042e+01    0.4012961    0.2123011  50.44  0.002011673    1.795    0.443
         7  -9.0295     63.8761     14.1218   6.7120560459e+01   6.4919003848e+01     0.351273     0.201891  27.25   0.00186505    1.677    0.404
         8  -9.4364    133.7927     13.5790   4.8185701587e+01   4.9959688157e+01    0.2560831     0.208053  47.13  0.000238288    1.124    0.110
         9  -8.4532     97.0786     12.2304   5.5791068692e+01   5.8577392921e+01    0.3442915    0.1582922  32.94  0.001464011    2.387    0.581
        10  -9.7326     31.6921     10.8860   7.9510331974e+01   7.0142144978e+01     0.467092    0.2261334  15.32 0.0004938309    2.545    0.607
        11  -9.1299     32.2739      6.0166   7.6701663210e+01   7.0709133553e+01    0.2400527    0.1764664  -4.21 0.0001708497    1.068    0.063
        12  -8.7900    235.9011     11.4432   3.5233284480e+01   2.5715226373e+01    0.2026623    0.1683145 -37.37 0.0004307089    1.308    0.235
        13  -7.3655    113.2776     10.9838   5.1383863584e+01   5.5066976617e+01    0.1541102    0.1164864 -16.84 0.0003992199    1.434    0.303
        14  -8.5030     14.6895     10.8546   8.8504217830e+01   7.1959129023e+01    0.2659864    0.1490767  22.84 0.0009802029    1.833    0.454
        15  -9.6274     20.5792      8.5660   8.4118868252e+01   7.1725838202e+01    0.2627417    0.2004235  13.91 0.0002369969    1.309    0.236
        16  -8.5707    125.1513     10.1985   4.8629345832e+01   5.2353151953e+01    0.2029669    0.1570204  41.28 0.0003880373    1.193    0.161
        17  -7.3266    142.6419      9.7268   4.5343031892e+01   4.8162328441e+01    0.1429877   0.08693013  41.88 0.0002593042    1.649    0.394
        18  -8.7018     41.0124      5.8946   7.2472482742e+01   6.9532293026e+01    0.3125307    0.1603089 -15.09  0.001413204    2.044    0.511
        19  -8.6523      3.5950      7.2394   9.3202049096e+01   7.3410995559e+01    0.3351747    0.1440339 -17.12  0.001422695    2.768    0.639
        20  -7.9316    156.4257      7.4555   4.2526235049e+01   4.4973300628e+01     0.131733    0.1173821  69.97 4.664183e-05    1.011    0.011
        21  -9.6470    119.2246      6.7203   4.8524924126e+01   5.4062627091e+01     0.246581    0.1989972  47.16 0.0002270807    1.080    0.074
        22  -9.4364     76.2325      5.8144   5.8970384535e+01   6.3498989309e+01    0.3467981    0.2367155 -23.32  0.002050908    1.535    0.348
        23  -9.4713     46.7130      6.2313   7.0114660507e+01   6.8644948904e+01    0.2361077    0.1673713  13.53 0.0002896512    1.198    0.165
        24  -9.1442     91.7169      5.7409   5.4469770947e+01   6.0333480258e+01    0.3282665    0.1738562  49.30  0.001677225    1.601    0.375
        25  -9.8464     84.9339      5.4838   5.6219221411e+01   6.1778761130e+01    0.2499745    0.2107583  10.02  0.001612746    1.121    0.108
        26 -10.2863     13.3985      4.4829   8.6036595952e+01   7.3016032086e+01    0.3041269    0.2062856   5.34  0.002119055    1.306    0.234
        27  -7.9621    247.9806      5.7484   3.3149914691e+01   2.3764108893e+01    0.1502671   0.09033591  80.86   0.00088663    1.575    0.365
        28  -8.1996    125.3024      3.8539   4.6317238797e+01   5.2864480431e+01    0.2217049    0.1585698  22.59 0.0005801417    1.523    0.343
        29  -8.8318    110.1583      2.4935   4.8778127235e+01   5.6516052867e+01    0.2994356    0.2749909 -28.53  0.001571336    1.260    0.206
        30  -8.5985    104.8139      2.0734   4.9768020966e+01   5.7764180392e+01    0.3378514    0.1167768  47.05  0.001407807    2.363    0.577
        31  -8.8748     57.6827      3.4685   6.4245481961e+01   6.7150077712e+01    0.2402914    0.1639114  19.24 0.0005573559    1.275    0.216
        32  -7.8443    143.1305      2.1502   4.2779400275e+01   4.8696395623e+01    0.1992425    0.1510214  45.48 0.0003302792    1.263    0.208
        33  -7.8317    159.9794      1.3686   4.0204331823e+01   4.4627556159e+01    0.1898532    0.1105118  70.73 0.0009668204    1.503    0.335
        34  -7.7344      2.8388      1.3237   9.0731666404e+01   7.4365611424e+01    0.1462318   0.08211932   3.50 0.0005325482    1.711    0.416
        35  -8.0421    134.1729    106.0344   7.7932443003e+01   3.4833150787e+01    0.2594305    0.1808193 -16.27 0.0006259236    1.940    0.485
        36  -8.8183    220.2550    250.0513   8.8727377640e+01  -7.8196822985e+00    0.1636078    0.1265166  11.12 0.0004583153    1.033    0.032
        37  -8.7177    173.0398    250.4890   9.7561434448e+01  -1.0049999956e+00    0.1981378   0.09898748  36.11  0.001045212    1.629    0.386
        38  -7.6125    109.7675    106.4313   8.4810103369e+01   3.9778646353e+01    0.2131448    0.1490192  25.89 0.0009402632    1.664    0.399
        39  -9.0396     14.3810    105.5696   1.1491755878e+02   5.2377512647e+01    0.3030779    0.1267063 -42.03  0.001372694    2.487    0.598
        40  -7.8038     94.0341    103.4770   8.8730680830e+01   4.3368866702e+01    0.2224181     0.150684  35.34 0.0007827832    1.570    0.363
        41  -7.6165    129.7301     97.2147   7.6638399551e+01   3.7690780701e+01    0.2457362    0.1207068  35.94 0.0006625033    2.374    0.579
        42  -9.4101     11.8163     94.5151   1.1404120511e+02   5.5159099641e+01    0.3194133    0.1654191 -45.73  0.001156499    1.718    0.418
        43  -8.7290     19.5588     93.6439   1.1126602505e+02   5.4859243037e+01    0.2765526   0.04758967 -54.31 0.0009550462    3.371    0.703
        44  -7.6564     83.9776     93.3438   8.9162700799e+01   4.7408125121e+01    0.2357585     0.124446  12.15 0.0007050062    4.402    0.773
        45  -8.4740     44.3186     92.1903   1.0236303405e+02   5.3041778593e+01    0.2850246     0.185837 -25.00  0.001161702    1.790    0.441
        46  -8.3828     96.3014     90.5456   8.4428098556e+01   4.5884666873e+01    0.4307005    0.2805858  -7.48  0.001705945    2.481    0.597
        47  -8.0131    109.8000     90.4215   8.0279024700e+01   4.3317248242e+01    0.2176452    0.1445943  28.27 0.0009426068    1.727    0.421
        48  -8.0732    126.5970     83.8030   7.3510897767e+01   4.1141778003e+01    0.3171081    0.1709722  21.24 0.0009429276    3.963    0.748
        49  -8.4460     66.1743     83.9906   9.2562540111e+01   5.2245293644e+01    0.2221415    0.2008412   7.35  0.000328865    1.169    0.144
        50  -9.9485     37.4241     80.9770   1.0219547395e+02   5.6332324003e+01    0.6141149    0.3250032 -12.36  0.002597174    3.010    0.668
        51  -8.1176     20.3067     84.5603   1.0928191247e+02   5.6928937669e+01    0.1569858    0.1155126 -15.43 0.0009425975    1.554    0.356
        52  -8.0687    200.0524     80.3703   5.6520230766e+01   2.4416534132e+01    0.3569326    0.1982841 -25.31  0.001447308    2.121    0.528
        53  -9.7921      8.0293     77.7211   1.1245191721e+02   5.9256863566e+01    0.6268801    0.2467145 -31.22  0.002757814    3.031    0.670
        54  -8.8612     87.9043     79.1158   8.3685857181e+01   4.9856202376e+01    0.4935906    0.2749469  18.33  0.001859914    2.810    0.644
        55  -7.6171    184.3715     78.1974   5.8721683935e+01   2.8522430204e+01    0.2052103    0.1342487 -45.13 0.0004373086    1.499    0.333
        56  -8.9312     49.4503     77.0300   9.6680611055e+01   5.5947503262e+01    0.4282378    0.2239512   2.63  0.001667569    3.359    0.702
        57  -7.7387    105.5015     76.5341   7.7289383067e+01   4.7059217624e+01    0.1507879     0.140998  -8.76 0.0002631086    1.025    0.024
        58  -8.3715     74.6446     74.5729   8.6780897800e+01   5.3028992278e+01    0.3799228    0.2121221 -28.70  0.001030708    2.111    0.526
        59  -7.8361     23.2440     69.2377   1.0476151166e+02   6.0182647695e+01     0.225563    0.1720597 -61.43 0.0003903551    1.223    0.182
        60  -8.7468     23.6401     73.8993   1.0572539495e+02   5.9115930992e+01    0.3851603    0.1675393 -47.31  0.001751688    1.830    0.454
        61  -9.0098     28.9983     69.0093   1.0241656982e+02   5.9771261960e+01    0.5020136    0.2310553 -11.43  0.001890248    4.055    0.753
        62  -7.8271    109.4913     75.4975   7.5759110376e+01   4.6451140271e+01     0.149783    0.1435935 -12.58 0.0001506462    1.023    0.023
        63  -8.6359     49.0774     71.7137   9.5315507488e+01   5.7157365024e+01    0.3063446    0.2211544  35.89  0.001703391    1.598    0.374
        64  -7.4167     80.3032     70.7066   8.3572301143e+01   5.2906376158e+01     0.133153    0.1160777 -89.40 0.0002175073    1.575    0.365
        65  -8.0326    106.7554     67.4123   7.3918073437e+01   4.8568488882e+01    0.2815145     0.143693  48.85  0.001134975    2.063    0.515
        66  -8.7991     83.3057     64.6929   8.0529224526e+01   5.3583639912e+01    0.4834585    0.2964063  -2.17  0.001926222    2.692    0.629
        67  -8.2400     15.8881     64.4272   1.0654808648e+02   6.1754434248e+01    0.2716183    0.1051565 -46.83 0.0008802727    1.970    0.492
        68  -8.5283     19.9130     61.0175   1.0402535697e+02   6.2215066693e+01    0.2126064    0.1662432 -16.03 0.0004631812    1.302    0.232
        69  -7.3558    147.8302     63.3966   6.1841838816e+01   3.9942191191e+01    0.2132085    0.1342544  43.32 0.0003865027    1.616    0.381
        70  -7.5183    121.7873     61.8191   6.7752029766e+01   4.6322754467e+01    0.2520415     0.154798  12.96 0.0008412582    2.742    0.635
        71 -10.2008     61.6956     61.3331   8.7213536740e+01   5.7686208429e+01     0.686507    0.2826359  25.68 0.0004305803    3.157    0.683
        72  -8.8672     26.2454     60.2660   1.0117445197e+02   6.1886533395e+01    0.2618024    0.1597408 -28.85  0.001449776    1.582    0.368
        73  -8.3254     11.4801     60.7680   1.0748027409e+02   6.2819732646e+01    0.2291702    0.1401861 -56.83 0.0007253289    1.301    0.231
        74  -9.7098     37.0194     58.8986   9.6276970109e+01   6.1185298498e+01     0.382401     0.245098  -0.80  0.001575661    1.826    0.452
        75  -7.7359    111.0306     58.4780   6.9604009760e+01   4.9269404074e+01    0.2203059    0.1401632  43.84 0.0004536553    1.545    0.353
        76  -8.8891     99.8061     55.2239   7.1802051137e+01   5.2180056111e+01    0.3478795    0.2025533 -32.06  0.000921878    1.726    0.421
        77  -9.9831     74.9694     50.3184   7.8319613278e+01   5.7681369371e+01    0.4485553    0.2771071 -13.89 0.0003876644    2.023    0.506
        78  -9.1594     45.0738     49.2757   8.9693265401e+01   6.2213164430e+01    0.4735419    0.2249376 -28.40  0.001836077    2.424    0.587
        79  -7.8509    106.2213     48.9198   6.7591939346e+01   5.1881943256e+01    0.2916912    0.1736715  23.58  0.001224882    2.176    0.540
        80  -8.1444    118.5957     50.9881   6.4883077030e+01   4.8832093351e+01    0.2564588    0.1823695  39.83 0.0005533805    1.369    0.270
        81  -9.1341     55.3475     43.3173   8.3194169791e+01   6.1966663061e+01    0.8327746    0.2769532 -30.49  0.002480379    5.032    0.801
        82  -8.4553     58.6521     40.6916   8.0820361002e+01   6.1941245969e+01    0.2726202    0.1784229   7.54  0.001417721    1.726    0.421
        83  -8.9784     10.2688     47.5574   1.0455096580e+02   6.5661069961e+01    0.2617499    0.2018429 -39.32 0.0008036802    1.023    0.022
        84  -8.8867     13.5358     45.5424   1.0246640831e+02   6.5863202871e+01     0.227199    0.2081764 -19.30 0.0006124016    1.235    0.190
        85  -8.5208      3.5616     45.7403   1.0711539357e+02   6.6397323320e+01    0.2983981    0.1377853  29.66  0.001603331    2.699    0.630
        86  -8.6762     93.5691     43.2726   6.9315448888e+01   5.5389623558e+01    0.5976197     0.212799  34.70  0.001881683    3.934    0.746
        87 -11.0551     83.3149     40.0725   7.1422934121e+01   5.7877068294e+01    0.4436972    0.2976518  16.90 -0.000275831    1.655    0.396
        88  -7.7447    113.0141     42.4806   6.3330531318e+01   5.1375255429e+01    0.2214661    0.1038527  33.80 0.0008102174    2.677    0.626
        89  -7.2441    124.4729     39.4976   5.9322407260e+01   4.9172703304e+01     0.145356    0.1305603  28.65  1.46944e-05    1.065    0.061
        90  -8.7907     35.4975     37.9766   8.9701829221e+01   6.5398711551e+01    0.3033028    0.1693836 -41.64 0.0009201337    1.537    0.349
        91  -8.6986     38.5054     35.5224   8.7369035307e+01   6.5494820307e+01    0.2784405    0.1769375 -10.96   0.00154569    1.643    0.391
        92  -8.9622     67.5112     37.5159   7.6068398522e+01   6.1071514007e+01     0.307858    0.2332096 -26.55  0.001489789    1.229    0.186
        93  -9.4063     70.6730     35.6728   7.4123447825e+01   6.0826423420e+01    0.4572341    0.2239503  25.28  0.001911107    2.595    0.615
        94  -8.5402     55.7896     35.3806   7.9823250325e+01   6.3244433082e+01    0.2476372    0.1654062 -25.95 0.0006525582    1.360    0.265
        95  -8.1557    105.7576     36.6241   6.3138824767e+01   5.3807126368e+01    0.2864716    0.1889662  21.34  0.001369572    1.740    0.425
        96  -7.9330     91.8780     36.8936   6.7363467641e+01   5.6682350360e+01    0.2153864    0.1706506  15.73 0.0005250781    1.226    0.184
        97  -9.4635     20.0274     36.2272   9.6323512715e+01   6.7191529810e+01    0.3424636    0.2069961  31.98  0.002018382    2.019    0.505
        98  -9.0090     21.9839     32.0208   9.3805120912e+01   6.7796154814e+01    0.2378908    0.1529774 -23.76 0.0003200415    1.345    0.257
        99  -7.5510     18.7091     31.6487   9.5281681811e+01   6.8140689090e+01    0.1761215    0.1185753 -27.92 0.0005251309    1.199    0.166
       100  -7.0714     46.2844     35.3269   8.3828934289e+01   6.4570881500e+01    0.1320893   0.08468069 -13.60 0.0003756691    1.605    0.377
       101  -9.2389      5.4822     34.1718   1.0277700780e+02   6.8583507623e+01     0.287688     0.147695 -16.05  0.001390733    2.068    0.516
       102  -7.7100      2.9903     31.7831   1.0325566178e+02   6.9175541448e+01    0.1555195    0.1420218 -51.15 0.0002878511    1.346    0.257
       103  -9.1846      1.3929     28.7665   1.0307927240e+02   6.9827966340e+01    0.5264181   0.07996789 -45.12  0.002086238    3.393    0.705
       104  -8.6019     96.0660     32.9892   6.4530487683e+01   5.6370103018e+01    0.2108717    0.1818919  19.17 0.0003850303    1.051    0.048
       105  -8.1566    134.0028     30.7616   5.4097688105e+01   4.8034584009e+01    0.2689562     0.202971  -8.58 0.0008997878    1.506    0.336
       106  -9.0438     42.0057     27.1477   8.2263076758e+01   6.6457225781e+01    0.2990693    0.1993551 -30.98 0.0009433797    1.318    0.242
       107  -7.7847    162.4969     27.4846   4.7755248006e+01   4.1387781404e+01     0.138991     0.128377  79.37  3.68737e-05    1.026    0.025
       108  -8.1233    109.4876     26.0616   5.8091511378e+01   5.4337393430e+01    0.2951812     0.119406 -34.23 0.0009352699    2.557    0.609
       109  -9.1791     61.9598     26.7861   7.3650985632e+01   6.3597847432e+01     0.583401    0.2217732 -24.82  0.002170062    3.441    0.709
       110 -10.2487    190.3869    249.0497   9.4072212163e+01  -3.4032664183e+00    0.4177785     0.154162  35.86  0.001754342    2.244    0.554
       111  -9.8211     69.7034     25.9118   7.0324549940e+01   6.2406635637e+01      0.44371    0.3513273  70.04  0.002463094    2.086    0.521
       112  -8.6609    150.4965    249.4897   1.0175732466e+02   2.5786093017e+00     0.123221   0.09998266  37.00 5.080211e-06    1.015    0.015
       113  -7.3094    102.3172     25.2929   5.9685826080e+01   5.6017219086e+01     0.142649   0.09381735  25.26 0.0007010433    1.602    0.376
       114  -8.3511    144.5748     23.4227   4.9536268447e+01   4.6303617467e+01    0.2312169    0.2055608  54.84 0.0001699094    1.035    0.034
       115  -9.6840    244.6662    244.6443   8.3569658167e+01  -1.0431548414e+01    0.2064186    0.1621803  14.22  0.000615857    1.178    0.151
       116  -8.0091    129.1405     22.3227   5.2164039529e+01   5.0183512723e+01    0.2283304    0.1471266  42.75 0.0008914652    1.469    0.319
       117  -9.0852     92.5481     20.4924   6.0485458941e+01   5.8665624266e+01    0.2668502    0.1980744  24.16 0.0006126005    1.269    0.212
       118  -8.1625    140.1460     19.9784   4.9198779065e+01   4.7764966896e+01    0.2054663    0.1827124  52.51 0.0006239254    1.030    0.029
       119  -9.2868      8.2197     19.9628   9.6158275249e+01   7.0996542468e+01    0.3679955    0.2036201  23.56  0.002271828    2.019    0.505
       120  -8.5180     12.8701     18.1629   9.2860048786e+01   7.0951525640e+01    0.1852849    0.1272841 -21.99 0.0006004875    1.140    0.123
       121  -7.5662    146.9434     18.9897   4.7661944895e+01   4.6196125832e+01    0.1599102    0.1474182  60.67 0.0003646514    1.015    0.015
       122  -7.1724    151.6643     17.7157   4.6462201809e+01   4.5159989520e+01    0.1428273   0.09320664  39.62 0.0006852029    1.623    0.384
       123  -8.5424    127.4966     16.7219   5.0507274468e+01   5.1166922421e+01    0.2221736    0.1888865 -15.90 0.0004074437    1.280    0.219
       124  -7.8171    228.3587    245.8123   8.6612706520e+01  -8.4080757845e+00    0.1525181   0.09364569 -16.78  0.000313094    1.639    0.390
       125  -8.8999    105.0950    241.1821   1.0964620166e+02   1.0836138932e+01    0.2119473    0.1692153 -88.10  0.001230939    1.382    0.277
       126  -9.4700    188.2957    233.2072   9.2070020126e+01  -8.1291033622e-01    0.3744757    0.1649833 -40.67  0.001547912    2.561    0.609
       127  -7.6910    189.4764     15.5012   4.0624711422e+01   3.6037247811e+01    0.1319298    0.1183624  85.70 0.0001044816    1.036    0.035
       128  -8.5418    215.7859    234.0589   8.6991950403e+01  -5.1090900829e+00    0.1946537    0.1461747  22.42 0.0004003777    1.113    0.102
       129  -7.8460    215.1828    217.0001   8.4200999238e+01  -2.5980047490e+00    0.1726106    0.1605912   2.80  0.000441643    1.266    0.210
       130  -7.7646    121.6408     14.6947   5.0977002409e+01   5.2760610636e+01    0.1478015   0.08814883  34.85 0.0007039672    1.727    0.421
       131 -10.3133    234.0692    209.7781   7.9417041091e+01  -4.4272609388e+00     0.225796    0.1866696  -4.52 0.0003621068    1.072    0.068
       132  -8.3996     88.1928     12.9835   5.8566687902e+01   6.0385271081e+01     0.229786    0.1661803  42.12 0.0005041148    1.220    0.180
       133  -8.8130    202.3353    211.0250   8.5608925432e+01   3.6200440051e-01    0.2170042    0.1702079  34.53 0.0002488926    1.240    0.194
       134  -8.4429    215.1097    209.6234   8.2895904062e+01  -1.4793837067e+00    0.2258635    0.1671061 -20.50 0.0007028492    1.301    0.231
       135  -8.0218     11.6605    207.6567   1.2515745796e+02   2.9027396527e+01    0.1611953    0.1207638 -55.20  0.001109109    1.730    0.422
       136  -8.9429    203.7910    206.4324   8.4497471500e+01   8.5496612756e-01    0.2300655    0.1988443  -2.23 0.0002921215    1.065    0.061
       137  -7.6946    177.5142    205.4386   8.9621139324e+01   5.4779181494e+00    0.1369322     0.120104  19.36 6.310311e-05    1.018    0.018
       138  -7.8775    204.3184    201.9745   8.3575277198e+01   1.4887048950e+00    0.1824198    0.1551727 -16.36 0.0003788828    1.140    0.123
       139  -7.1449    230.9997    197.9711   7.7767240294e+01  -2.2198036973e+00    0.1530532    0.1266719   2.15 0.0009507792    1.019    0.018
       140 -10.2271    171.8857    196.6728   8.9238289494e+01   8.0468313726e+00    0.2523229    0.2441313  31.28 0.0003829029    1.127    0.113
       141  -7.1865    148.3163    195.6934   9.4190885915e+01   1.2446012492e+01    0.1396744    0.1079852  69.91 0.0004396487    1.629    0.386
       142  -8.7635    193.1078    181.5686   8.1896713901e+01   6.9748056276e+00    0.2688429    0.1920539 -36.32 0.0004361356    1.404    0.288
       143  -7.4662     40.0279    156.0193   1.1440717636e+02   3.7925929484e+01    0.1497037    0.1292257 -88.32            0    1.031    0.030
       144  -7.5085    133.4899    147.5729   8.8354119552e+01   2.5605322973e+01    0.1504158    0.1490125  19.17 0.0004183004    1.019    0.019
       145  -8.9386     67.1821    144.6163   1.0552923182e+02   3.7485767522e+01    0.3802546    0.2627257  64.13  0.001902884    1.629    0.386
       146  -7.8030    139.6948    138.7036   8.4785300893e+01   2.6377397493e+01    0.1551425    0.1235495  -5.06 0.0007000787    1.585    0.369
       147  -7.7178      4.3734    134.3062   1.2127407605e+02   4.6156028884e+01    0.1254352   0.07441129 -47.87 0.0007031473    1.766    0.434
       148  -8.5668    141.2808    128.2417   8.1877905000e+01   2.8401280678e+01    0.3337632    0.2500194  15.06  0.001144964    1.703    0.413
       149  -8.2383     67.0097    127.7664   1.0254477474e+02   4.1679424214e+01    0.2234056    0.1416598 -43.14  0.001054461    1.630    0.386
       150  -8.0186    197.2213    127.0145   6.8927810037e+01   1.6519692805e+01    0.2253231    0.1979532 -66.91 0.0005918189    1.313    0.238
       151  -8.1066    133.8001    123.8101   8.2699938696e+01   3.0965368820e+01     0.363448    0.2387981   1.47  0.001302288    2.825    0.646
       152  -9.0847     13.9827    119.0387   1.1689661426e+02   4.9172857394e+01    0.4978344    0.1458229 -43.32  0.001735732    4.346    0.770
       153  -7.5823    119.6988    118.6641   8.5188633103e+01   3.5017335973e+01    0.1596535    0.1228323 -12.95 0.0007035717    1.660    0.398
       154  -7.8340    100.2372    118.7889   9.0748843433e+01   3.8667696730e+01    0.2313119    0.1242314  26.58  0.000609148    2.428    0.588
       155  -7.3712    131.2972    113.3074   8.0655352591e+01   3.3849947006e+01    0.1576912    0.1247187  -5.60            0    1.590    0.371
       156  -9.1827      2.4183    109.2843   1.1910808562e+02   5.2204657223e+01    0.3755824    0.1532313 -50.57  0.001851016    2.113    0.527
