#   1 NUMBER                 Running object number                                     
#   2 MAG_AUTO               Kron-like elliptical aperture magnitude                    [mag]
#   3 X_IMAGE                Object position along x                                    [pixel]
#   4 Y_IMAGE                Object position along y                                    [pixel]
#   5 X_WORLD                Barycenter position along world x axis                     [deg]
#   6 Y_WORLD                Barycenter position along world y axis                     [deg]
#   7 A_WORLD                Profile RMS along major axis (world units)                 [deg]
#   8 B_WORLD                Profile RMS along minor axis (world units)                 [deg]
#   9 THETA_WORLD            Position angle (CCW/world-x)                               [deg]
#  10 FWHM_WORLD             FWHM assuming a gaussian core                              [deg]
#  11 ELONGATION             A_IMAGE/B_IMAGE                                           
#  12 ELLIPTICITY            1 - B_IMAGE/A_IMAGE                                       
         1 -11.1533    139.9554     30.1019   3.9447469064e+01   4.6166696210e+01    0.3214646    0.1506895  48.88  0.001258663    2.077    0.519
         2 -12.2816     83.8353     23.8138   5.0256019652e+01   6.0258693305e+01    0.3533023    0.2603831 -81.79  0.001745876    2.203    0.546
         3 -11.9118    210.4732      8.4120   2.5313001697e+01   3.1880110575e+01    0.3285643    0.1400695 -45.72  0.001673818    1.995    0.499
         4 -11.1436    144.4958      5.5022   3.0838412237e+01   4.7487914395e+01    0.2977127    0.1067879 -89.57 0.0008105155    5.926    0.831
         5 -10.8312     67.7667      1.7940   4.4909980237e+01   6.5989172710e+01    0.1599767    0.1496949  77.85 0.0007110272    1.327    0.246
         6 -10.5165     72.6570    247.0300   1.0394665063e+02   1.4290164011e+01    0.1396082     0.102063 -48.73 0.0005671763    1.719    0.418
         7 -11.3400     88.1653    250.7536   1.0101741442e+02   1.1730058827e+01    0.2829789   0.08963752  29.56   0.00104489    2.812    0.644
         8 -16.6504    107.9715    143.9499   8.0675998430e+01   3.1533405707e+01     2.644515     2.006944 -64.68   0.01267598    1.473    0.321
         9 -18.4523     72.6439    194.1279   9.8620531308e+01   2.5094250508e+01     6.477283     4.717877   5.63   0.03409204    1.734    0.423
        10 -10.3102    223.4847    220.4295   6.9275382438e+01  -1.5372063921e+00    0.1200527   0.09316691  -0.47 6.488289e-05    1.047    0.045
        11 -12.9029    173.5193    219.3533   7.8727901960e+01   5.3856567033e+00    0.2665702    0.2366659  -7.66 0.0008497929    1.162    0.140
        12 -12.0375    193.9776    219.3140   7.4601186148e+01   2.5089681711e+00    0.1855366    0.1399805  14.15 0.0008462993    1.114    0.102
        13 -11.3095    114.6567    218.6666   9.1578441372e+01   1.4099750897e+01    0.3792741    0.1846981  45.29  0.001728268    2.037    0.509
        14 -10.3317    138.8596    217.8233   8.5963461789e+01   1.0726793745e+01    0.1728426    0.1460116  47.11 0.0004822314    1.310    0.236
        15 -11.9878    149.8125    214.4648   8.3019939416e+01   9.7050138303e+00    0.4200103    0.2293207 -25.79  0.001322588    2.451    0.592
        16 -12.8174    158.1644    212.2802   8.0844167821e+01   8.8411132150e+00    0.3158818    0.2460307 -14.84  0.000746902    1.301    0.232
        17 -13.2038    155.3060    209.0245   8.0940648106e+01   9.8518846301e+00    0.4732965    0.3130397   0.05  0.001210118    1.811    0.448
        18 -11.0071    144.9016    216.3439   8.4395996764e+01   1.0099695115e+01    0.1956037      0.15538  20.76  0.001155283    1.099    0.090
        19 -14.8493     51.9646    194.8132   1.0392778205e+02   2.7472560808e+01     0.968161    0.4219405  31.61  0.004375861    2.111    0.526
        20 -12.3348    124.3014    213.2277   8.8600016262e+01   1.3743076421e+01    0.4131021     0.242341 -41.45  0.001693342    1.921    0.479
        21 -11.5501    124.6902    206.4731   8.7515643114e+01   1.5003503619e+01    0.3682402    0.2425835  58.41  0.001258946    1.997    0.499
        22 -13.6822    183.4495    212.7631   7.5604908243e+01   5.0235252508e+00    0.4277824       0.2818 -10.76  0.002334837    1.607    0.378
        23 -12.1325    174.9742    212.9494   7.7378154228e+01   6.2282082622e+00    0.1856648    0.1579256  54.07 0.0005927364    1.649    0.394
        24 -11.5378    143.1650    210.6697   8.3907678268e+01   1.1396551796e+01     0.382683    0.1732714 -40.73  0.001664806    2.454    0.592
        25 -10.4737    174.4973    243.5260   8.2204197403e+01   1.5152811546e+00    0.1230437   0.09683647  14.33 0.0002244997    1.024    0.024
        26 -11.0510    209.6562    211.3338   7.0246944040e+01   1.5648352903e+00     0.107855    0.1024049  59.76 0.0007050271    1.761    0.432
        27 -10.0133    198.2920    242.7092   7.7469521065e+01  -1.4278839785e+00    0.1019263   0.08754468  32.67 0.0002571121    1.548    0.354
        28 -10.4378    214.6331    210.1535   6.9119799533e+01   1.0679854628e+00    0.1682114   0.09804547 -23.62 0.0002823825    1.599    0.375
        29 -14.0351    167.8948    206.3117   7.7755979088e+01   8.4162926166e+00    0.5465523    0.3882434  -8.23  0.002989409    1.495    0.331
        30 -10.0912    239.2887    209.6985   6.4708904615e+01  -2.0310613521e+00   0.09891478   0.08989855 -22.56 0.0002598605    1.562    0.360
        31 -12.8218    194.1096    208.3039   7.2707327949e+01   4.2011860076e+00     0.267688    0.1561609 -27.84 0.0009905308    1.689    0.408
        32 -11.9510    228.3829    206.7483   6.6059778346e+01  -2.5140015251e-01    0.3834574    0.1896424  30.02  0.002055819    1.971    0.493
        33 -11.3629    220.3128    206.3549   6.7421378471e+01   8.6433119942e-01    0.2142096    0.1784348   0.92 0.0002813177    1.139    0.122
        34 -10.0568      6.0221    207.5938   1.1572588767e+02   2.9098443727e+01     0.145131    0.1021792  35.72 0.0003955025    1.381    0.276
        35 -12.1847    114.1047    205.1065   8.9824561046e+01   1.6868649965e+01    0.3420293    0.2261058 -17.02   0.00161829    2.143    0.533
        36 -10.8944     18.6663    205.5309   1.1278051971e+02   2.8464315892e+01    0.2251515     0.134526  53.83  0.001313168    1.450    0.310
        37 -10.1519     10.6440    206.4870   1.1464600184e+02   2.8954268100e+01    0.1142684   0.09655132  79.29 0.0002142663    1.086    0.080
        38 -13.1610    146.9149    202.9157   8.1812743443e+01   1.2269034426e+01    0.4725146    0.3415422  34.24  0.001186689    1.277    0.217
        39 -10.7488     14.4501    202.4118   1.1356058781e+02   2.9517311425e+01    0.2079118    0.1292727 -86.10 0.0005968704    1.490    0.329
        40 -10.8040    184.3142    242.2779   8.0088632762e+01   4.1322613066e-01    0.1227026   0.07767598   3.10 0.0001666383    1.567    0.362
        41 -11.5943    121.4647    200.4882   8.7370941456e+01   1.6696113996e+01     0.253675    0.2162504  -0.65  0.000174121    1.230    0.187
        42 -13.7044    123.9206    195.5148   8.5997909780e+01   1.7333915066e+01    0.4970545    0.3779307  13.00  0.001724556    1.377    0.274
        43 -11.8382    212.8699    200.4323   6.7724105364e+01   2.7640880611e+00    0.3182441    0.2267081  57.69  0.001641138    2.747    0.636
        44 -10.9498    107.6059    239.4803   9.5709056680e+01   1.1212903526e+01    0.4121285    0.1843737 -34.24  0.001502712    4.250    0.765
        45 -12.1330    225.0969    198.4180   6.5151097343e+01   1.3850551811e+00    0.3018668    0.2155867 -42.63  0.001818826    1.704    0.413
        46 -13.1279    192.5224    198.5226   7.1289635178e+01   6.0145553243e+00    0.3780679    0.2368555   4.03  0.001911632    1.817    0.450
        47 -14.5001    190.0983    195.3537   7.1199524107e+01   6.9070023800e+00    0.6724241    0.4365438  12.13  0.003532215    1.601    0.375
        48 -13.8045    139.0332    195.2617   8.2353539568e+01   1.4991791466e+01    0.7012451    0.3526325  48.34  0.002911452    2.376    0.579
        49 -12.4760    134.0206    198.2590   8.4030138649e+01   1.5191953307e+01    0.3135584     0.184385  28.80  0.000939023    1.598    0.374
        50 -11.1311     15.5932    197.6532   1.1301316625e+02   3.0472168203e+01    0.3549305    0.1737649  65.92  0.001801471    1.983    0.496
        51 -10.1301    108.6269    234.8630   9.4956692088e+01   1.1906431667e+01    0.2109384    0.1243567 -50.54  0.000784555    1.970    0.492
        52 -10.7896     89.0467    241.5819   9.9954839202e+01   1.3256116108e+01     0.165915    0.1584419  49.66 0.0008872622    1.153    0.133
        53 -13.6799    148.3209    193.1729   7.9835535319e+01   1.3909117019e+01    0.5999686    0.3302348  21.20  0.002617713    2.052    0.513
        54 -10.1827    238.5098    196.5256   6.2508192640e+01  -1.1162280688e-01    0.1232091   0.09447896  -9.23 7.616392e-05    1.001    0.001
        55 -14.8997    162.9083    192.8829   7.6492944978e+01   1.1611594961e+01     1.051046    0.4426117  44.53  0.004126188    2.693    0.629
        56 -11.7527    138.0453    199.0049   8.3208694260e+01   1.4411091105e+01    0.2834264    0.2331968  41.23 0.0004472242    1.232    0.188
        57 -10.3876    165.8531    239.8253   8.3412749615e+01   3.2202419750e+00    0.1550738    0.1344989  30.51   0.00102288    1.286    0.223
        58 -10.9753    116.5496    240.1217   9.3845131814e+01   9.8988758610e+00    0.1932094    0.1405831  37.67 0.0004509259    1.177    0.150
        59 -11.0215    206.0896    236.2243   7.5011654823e+01  -1.5208651151e+00    0.1829657    0.1656628 -67.34  0.001227254    2.135    0.532
        60 -13.2248    173.4336    188.9477   7.3481548534e+01   1.0637700288e+01    0.3184194    0.2739407  73.20  0.001775868    1.782    0.439
        61 -10.6816      8.3009    188.3475   1.1418738876e+02   3.3171810188e+01    0.3577592    0.1007319  41.79  0.001528546    2.820    0.645
        62 -12.4884    112.7826    228.6973   9.3292758266e+01   1.2468180285e+01    0.4496408    0.2922629 -83.64  0.002273883    2.480    0.597
        63 -10.9802    248.4731    185.8626   5.8947152520e+01   1.0958325224e-01    0.1998307    0.1369268  -0.11 0.0007537748    1.360    0.265
        64 -12.7460    186.8039    185.7944   7.0086978976e+01   9.0549201746e+00    0.3558258    0.1661972  37.47  0.001188039    2.112    0.527
        65 -11.2452    213.7570    184.5908   6.4626909622e+01   5.1048011491e+00    0.1607079     0.118991  38.36 0.0003251545    1.554    0.357
        66 -13.1222    177.5469    182.5794   7.1401938126e+01   1.1123267665e+01    0.4380133    0.2462096  15.62  0.001872814    2.312    0.567
        67 -11.0843     16.8067    183.2456   1.1177738857e+02   3.3657311652e+01    0.1921438    0.1449829  58.10   0.00119104    1.195    0.163
        68 -10.9198     93.8097    227.3995   9.7412973869e+01   1.5298175990e+01    0.3188129    0.1588594  33.43  0.001574677    1.704    0.413
        69 -11.1249    212.9807    194.5766   6.6637813558e+01   3.6491801609e+00     0.225475    0.1680627 -42.99 0.0006791899    1.605    0.377
        70 -10.3130     23.0130    181.5735   1.1008557393e+02   3.3511335677e+01    0.1683294    0.1167172  32.84            0    1.450    0.310
        71 -12.5505    191.5147    178.1142   6.7648897692e+01   9.6383408715e+00    0.3015342    0.2389066 -35.93 0.0008950073    1.281    0.219
        72 -11.9378    161.1954    231.3922   8.3148063110e+01   5.1824681318e+00    0.3530495    0.2228907 -13.55  0.001883258    1.905    0.475
        73 -11.4988     27.6131    176.7818   1.0849961368e+02   3.4230744829e+01    0.5057523    0.2151755 -67.24  0.001736055    2.139    0.532
        74 -11.1996     27.7093    171.2380   1.0798138587e+02   3.5557141783e+01    0.3003425    0.1841602  26.37  0.001589354    1.714    0.416
        75 -11.1671     17.2936    174.9972   1.1105315880e+02   3.5561551597e+01    0.2253379    0.1689743  13.07  0.000284971    1.602    0.376
        76 -10.9074     19.9585    172.0667   1.1012465352e+02   3.6040316377e+01     0.291197    0.1524253  89.07            0    1.903    0.475
        77 -13.1108    175.4076    173.3353   7.0050478506e+01   1.3183265563e+01    0.3014626    0.2529236  -0.68  0.001050885    1.117    0.105
        78 -11.5413     38.2472    163.7402   1.0431056178e+02   3.6378503998e+01    0.1906975    0.1626937 -75.53 0.0005760235    1.107    0.097
        79 -10.8224     37.7856    171.8596   1.0530765051e+02   3.4431728039e+01    0.1892265      0.17047 -55.01 0.0002880202    1.199    0.166
        80 -11.4409     40.4677    168.1789   1.0417736218e+02   3.5055559642e+01    0.3184054    0.2087158 -82.30  0.001655506    1.506    0.336
        81 -14.6623    154.0041    167.0126   7.3579683225e+01   1.8152523823e+01    0.8704984    0.5314059 -19.03  0.002664322    2.232    0.552
        82 -14.0781    157.4619    158.0485   7.0913793941e+01   1.9348560807e+01    0.6323421    0.3213615  30.50  0.002537898    2.152    0.535
        83 -11.1166    197.4612    170.4915   6.4954825082e+01   9.9950059122e+00    0.1383765    0.1184874  -8.47 0.0001086149    1.009    0.009
        84 -12.3691    160.3279    169.6784   7.2656118273e+01   1.6500118711e+01    0.2373406    0.2284276  52.91 0.0006511013    1.243    0.196
        85 -11.6902     32.9872    168.0568   1.0623729436e+02   3.5835715445e+01    0.2552313    0.1811826 -85.20  0.000774918    1.338    0.252
        86 -14.5480     34.0312    136.2377   1.0219876292e+02   4.3747646559e+01     1.510696    0.7830674 -39.34  0.006567935    2.255    0.557
        87 -11.5623     21.3486    159.9448   1.0869975336e+02   3.8880975450e+01    0.2386364     0.177506  29.39 0.0005599949    1.433    0.302
        88 -14.6820     22.4242    153.1989   1.0774673739e+02   4.0469191472e+01    0.9582139    0.7239046  25.30  0.004368457    1.450    0.310
        89 -12.7656     47.2853    157.7431   1.0098391235e+02   3.6914065278e+01     0.535818     0.316071  11.95   0.00244642    2.160    0.537
        90 -13.7487     46.3818    152.5738   1.0057068263e+02   3.8315405787e+01    0.6728565    0.4023286  50.59  0.002500022    1.756    0.430
        91 -10.7714     13.5936    157.7228   1.1068238872e+02   4.0043604409e+01    0.1801202    0.1077613  86.67 0.0008125812    1.588    0.370
        92 -11.4279    184.2956    156.8054   6.4763812063e+01   1.4711136894e+01    0.2188442    0.1778758 -52.83 0.0009121973    1.457    0.314
        93 -10.4125      2.8332    161.2391   1.1389420426e+02   3.9942077717e+01    0.1614767    0.1234833 -64.24  0.000346317    1.279    0.218
        94 -12.3138     37.8065    155.1851   1.0345270220e+02   3.8558912553e+01    0.3124339    0.2123416  66.62  0.001129839    1.558    0.358
        95 -12.0742    212.1941    154.2344   5.8849261867e+01   1.0336110017e+01     0.246081    0.2189138   0.76 0.0006945633    1.094    0.086
        96 -13.9513    141.3665    144.3094   7.1797837826e+01   2.5256700226e+01    0.5878829    0.4578068 -15.59 9.111893e-05    1.445    0.308
        97 -13.1631    150.1239    143.1195   6.9373456178e+01   2.3820466551e+01    0.5222487    0.4111263 -12.72  0.001375306    1.411    0.291
        98 -13.2457    149.3689    152.7811   7.1700131422e+01   2.1937180756e+01    0.4911224    0.2957866 -17.93  0.001385746    2.487    0.598
        99 -13.9625    145.3983    149.5380   7.1959080483e+01   2.3368858058e+01    0.6653026    0.3872279  34.68 0.0006566746    1.733    0.423
       100 -11.9357     57.7249    143.0051   9.5670414559e+01   3.9417859820e+01    0.4039557    0.2269125  48.25  0.001772499    1.929    0.482
       101 -11.8529     51.7777    148.9939   9.8434865091e+01   3.8611072693e+01    0.3789189    0.1913431 -59.36  0.001452583    1.832    0.454
       102 -12.0354     55.2860    145.6732   9.6854625813e+01   3.9038109133e+01    0.4722797    0.1969815  35.80  0.001866546    2.319    0.569
       103 -12.6733     49.0306    144.3869   9.8604118553e+01   4.0099078741e+01     0.458056    0.2777708 -43.98  0.002144012    1.758    0.431
       104 -12.6932     59.5329    150.6954   9.6331137369e+01   3.7242459496e+01    0.5250705    0.2609091 -58.89  0.002096732    1.888    0.470
       105 -10.8174     61.6980    145.2828   9.4805585630e+01   3.8336692305e+01    0.2176819     0.197827  72.70 0.0004756093    1.121    0.108
       106 -14.7008    128.4187    148.1087   7.5968083431e+01   2.6866632749e+01    0.7087184    0.5945576  76.80  0.002474724    1.528    0.346
       107 -11.0438    154.7670    230.6914   8.4395230927e+01   6.1987415210e+00    0.2942453    0.1823348 -15.53   0.00151679    2.042    0.510
       108 -12.2990    180.0486    150.3508   6.4252857543e+01   1.6690985441e+01    0.2638105    0.2258949  85.08  0.001102712    1.695    0.410
       109 -13.3998    170.7332    150.4267   6.6266310945e+01   1.8406296278e+01    0.4588504    0.2253347  45.09  0.001872027    2.170    0.539
       110 -11.3419     95.0378    231.0126   9.7537004845e+01   1.4443609462e+01    0.3080097    0.2622388 -85.22  0.002001366    1.380    0.275
       111 -10.8418    194.6618    231.3351   7.6410369738e+01   6.3285568611e-01    0.1093002   0.09529644  47.70 0.0007051629    1.750    0.428
       112 -14.0207    170.9534    160.1408   6.8310126321e+01   1.6475369683e+01    0.4513209    0.4288116 -42.30  0.002620516    1.204    0.169
       113 -13.0367    157.1015    145.0369   6.8150875854e+01   2.2074626104e+01    0.3680166    0.2744742  58.60  0.001212104    1.682    0.405
       114 -10.7137      9.8027    145.4002   1.1072243665e+02   4.3372748523e+01    0.1519047    0.1241604  -9.92 0.0001992206    1.504    0.335
       115 -10.7260      3.4488    154.3320   1.1325146589e+02   4.1581315056e+01    0.2298054    0.1214112  46.80  0.001187702    1.861    0.463
       116 -11.8058    151.4621    228.0786   8.4717345809e+01   7.1016206069e+00    0.3102175    0.1963479  -4.49  0.001577213    2.020    0.505
       117 -11.3653     17.4077    143.6372   1.0827937505e+02   4.3271288275e+01    0.4178563    0.1310359  17.70  0.001533202    3.757    0.734
       118 -11.6435    186.4887    139.0015   6.0404601310e+01   1.7614017517e+01    0.2529089    0.2086786  36.59 0.0001030768    1.269    0.212
       119 -13.0959     51.2326    137.0348   9.6764538396e+01   4.1725753897e+01    0.4452854    0.2741179 -68.03  0.001700008    1.568    0.362
       120 -13.9613    187.2785    224.9417   7.6838451585e+01   2.5730075397e+00    0.5674551     0.279135 -28.69  0.002797909    2.215    0.549
       121 -13.0765     64.3917    114.2028   8.7961372803e+01   4.5856745464e+01    0.5117006    0.2911826  53.68   0.00207562    2.296    0.564
       122 -12.6981     59.3735    135.6076   9.3893964695e+01   4.1096223905e+01    0.6073751    0.2494486 -56.72   0.00234816    2.207    0.547
       123 -14.5066     66.1817    135.0666   9.1600807305e+01   4.0335372781e+01     1.049421    0.3876752  32.69  0.003796143    2.653    0.623
       124 -13.5224     63.4416    129.7441   9.1488714872e+01   4.2058111930e+01    0.4929284    0.4785993 -34.93  0.001885337    1.043    0.041
       125 -12.1700     31.3566    123.0809   1.0120238122e+02   4.7376754923e+01    0.3198211    0.2011444 -31.64 0.0006620251    1.840    0.457
       126 -13.6476     31.1924    118.3853   1.0053442930e+02   4.8598311665e+01     1.033035    0.2474104  37.00  0.003373313    3.993    0.750
       127 -13.8020     56.8163    127.8204   9.3328636262e+01   4.3409151909e+01     0.740229    0.4435799  -5.55  0.002053061    2.596    0.615
       128 -14.5698     58.9554    122.2341   9.1532449723e+01   4.4560753902e+01     1.209284    0.6078184   8.75  0.004244898    3.301    0.697
       129 -13.0900     48.5877    122.2864   9.5112212498e+01   4.5815701368e+01    0.6829452    0.2846451  22.10  0.002433785    2.749    0.636
       130 -12.5960     45.0091    118.4884   9.5668524191e+01   4.7191487121e+01    0.6858051    0.3812446  -3.32  0.002725928    2.781    0.640
       131 -13.3027     50.8351    116.6928   9.3266770014e+01   4.6982851008e+01    0.9376835    0.3060774  35.68  0.002711843    3.002    0.667
       132 -11.6153     43.7663    138.4360   9.9383368101e+01   4.2202133820e+01    0.2999854    0.1342428  26.91   0.00123763    2.320    0.569
       133 -11.6068      3.4675    136.2564   1.1183620395e+02   4.6058350678e+01    0.2318548    0.2031107 -75.55 0.0006315416    1.056    0.053
       134 -12.1792     14.6019    135.2332   1.0828122516e+02   4.5602993755e+01    0.5678609    0.1430385  42.94  0.001919495    4.125    0.758
       135 -12.4919     18.6864    133.6905   1.0681455576e+02   4.5698757482e+01    0.3387268    0.1987521 -30.00  0.001629692    2.122    0.529
       136 -14.7043    144.9493    131.4202   6.7904622456e+01   2.7312860604e+01     1.141004    0.7153437 -11.10  0.002151654    2.664    0.625
       137 -14.5125    157.7661    127.9471   6.3994737883e+01   2.5433967071e+01    0.8737505    0.6856883  84.49  0.003947486    1.879    0.468
       138 -13.1977    154.0116    129.7582   6.5310956011e+01   2.5828180093e+01    0.4903243     0.355416  38.13  0.001532216    1.399    0.285
       139 -13.9983     75.8806    133.3529   8.8162776384e+01   3.9383725922e+01    0.6882929    0.3427544  38.93   0.00267637    2.014    0.504
       140 -13.1944     74.4971    129.6603   8.7857312343e+01   4.0516031578e+01    0.6263452    0.1958647  30.58  0.001979018    3.346    0.701
       141 -11.1595    185.1477    133.8701   5.9501430169e+01   1.8822870925e+01    0.1991364    0.1622518  -5.31  0.001047348    1.297    0.229
       142 -14.3164     86.7247    233.2301   9.9624558317e+01   1.5108647541e+01     1.800263    0.5235537  43.96  0.006969602    3.052    0.672
       143 -17.4976     56.1431    227.5706   1.0590300759e+02   1.9957602865e+01      2.96153      1.91371  44.90   0.01774246    1.301    0.231
       144 -12.9638     36.4185    126.7368   1.0003117843e+02   4.5961417814e+01    0.4154038     0.320358   4.55  0.001045395    1.508    0.337
       145 -13.0012    132.0818    131.9933   7.1331945618e+01   2.9755195232e+01    0.3800935    0.2736533  36.65 0.0006631783    1.391    0.281
       146 -12.1653    137.8916    130.9820   6.9578592262e+01   2.8822414285e+01    0.2903257    0.2203852  29.68 0.0006323585    1.358    0.264
       147 -12.8913     27.6312    160.4204   1.0697016933e+02   3.8218471239e+01    0.4464273    0.4358114  -9.32  0.002291458    1.191    0.160
       148 -11.6378     29.6912    129.0202   1.0262681091e+02   4.5998194854e+01    0.1959142    0.1620107 -68.13 0.0003731368    1.091    0.083
       149 -11.1067    134.0240    127.4814   6.9731328805e+01   3.0359411531e+01    0.2277803    0.2018446 -36.74  0.000308183    1.114    0.102
       150 -10.8383    145.2349    226.2419   8.5791657418e+01   8.3052494340e+00    0.3539137    0.1684401 -62.95  0.001367334    4.176    0.761
       151 -12.8635     19.5001    126.0059   1.0563299333e+02   4.7600770207e+01    0.2817157    0.2455536 -52.90  0.001722735    1.123    0.110
       152 -13.6763    120.4660    122.3285   7.2129946627e+01   3.4209706400e+01    0.5871426    0.3395248 -56.76  0.002342243    2.000    0.500
       153 -11.5913    186.9499    244.9390   7.9967648705e+01  -3.0107347278e-01    0.1886382    0.1443674  13.38 0.0005146606    1.038    0.037
       154 -11.1738      9.9996    122.9765   1.0845490132e+02   4.9019975600e+01    0.2099681    0.1747368 -76.18 0.0006562735    1.044    0.043
       155 -10.8549    231.9278    227.1530   6.8911686950e+01  -3.4624697243e+00     0.166801     0.137751  -1.57 0.0006583838    1.254    0.203
       156 -13.3998     71.0410    118.5108   8.6623284440e+01   4.3821716822e+01    0.5320566    0.3690724  88.52  0.001446216    2.053    0.513
       157 -12.4354    155.4903    117.3056   6.1879334026e+01   2.8054422080e+01    0.2705442    0.2515609  50.09 0.0006447913    1.142    0.124
       158 -13.0233     22.6876    115.4771   1.0310976670e+02   5.0055065316e+01    0.4355402    0.2588196  37.51  0.001338467    1.821    0.451
       159 -12.2113    105.6767    114.3666   7.4420720500e+01   3.8906921059e+01    0.3337963    0.2742561   5.56  0.000956278    1.380    0.275
       160 -11.2834     99.3955    114.4756   7.6379633991e+01   4.0062256448e+01     0.315346    0.1513236  38.20 0.0007551977    2.094    0.523
       161 -12.0403     82.3827    113.6321   8.1663560030e+01   4.3247838621e+01    0.3025081    0.2398614 -66.83  0.001006877    1.380    0.275
       162 -12.0929    114.9113    111.3589   7.0891739139e+01   3.7780372049e+01    0.4663382    0.2344711 -51.32  0.001602235    2.104    0.525
       163 -12.8090     88.1257    111.1003   7.9130899144e+01   4.2883854341e+01    0.5130996    0.3173892 -21.90   0.00140125    2.346    0.574
       164 -12.6150     73.8368    111.4260   8.4032340614e+01   4.5154491189e+01    0.4834297      0.27527  12.41  0.001837474    2.564    0.610
       165 -12.5410     54.2926    110.3432   9.0721377781e+01   4.8169391306e+01    0.4552743    0.3344963 -37.07  0.001974833    1.376    0.273
       166 -12.9661    142.5434    107.5249   6.2426860154e+01   3.2803151657e+01    0.4761794    0.3385079  -1.50  0.002022647    2.005    0.501
       167 -12.4665     59.8630    108.7688   8.8354765288e+01   4.7838248721e+01      0.41866    0.2116203  23.42  0.001320393    2.232    0.552
       168 -11.9854     14.8953    105.1365   1.0444529704e+02   5.3244730547e+01    0.3379808    0.1708789 -49.80  0.001426117    1.747    0.428
       169 -11.3790    174.8863    106.3607   5.4894998502e+01   2.6021645899e+01    0.2316432    0.1906103 -46.25 0.0003065631    1.202    0.168
       170 -11.4861    105.0275    103.9861   7.1852308007e+01   4.1396812141e+01     0.343758    0.2087697  39.23  0.001097376    1.655    0.396
       171 -10.5939    117.4464    103.4778   6.8018398541e+01   3.8996945488e+01    0.1551104    0.1488199  -7.28 0.0001482947    1.020    0.019
       172 -13.7189     75.5073     98.0647   8.0044263646e+01   4.8112860986e+01    0.9625628    0.4091389  48.93  0.003058955    3.224    0.690
       173 -12.7684     58.0515    100.0274   8.6967500178e+01   5.0247254363e+01    0.3902898    0.3244149 -70.66  0.001201349    1.296    0.229
       174 -12.8532     60.4025     94.7791   8.4754257378e+01   5.1198654574e+01    0.6152374    0.3042058 -58.60  0.001201021    2.052    0.513
       175 -11.3653     51.1643    107.0197   9.1151235202e+01   4.9393023672e+01    0.2220618    0.1784021 -33.60 0.0004024811    1.248    0.199
       176 -10.9875    237.9160     98.7321   4.2890339459e+01   1.4786995969e+01    0.1683951    0.1487021 -49.91 0.0003550411    1.126    0.112
       177 -10.9488    173.6567     98.6967   5.3167224101e+01   2.7679707649e+01    0.1502788    0.1146986  11.24 0.0007039949    1.682    0.406
       178 -11.6491     39.0018     95.9754   9.3407167177e+01   5.3531143873e+01    0.2354162    0.1530089 -29.61 0.0008086446    1.663    0.399
       179 -12.2447     33.7068     94.5231   9.5212162257e+01   5.4420882079e+01    0.3237067    0.1902994 -45.05  0.001554305    1.557    0.358
       180 -10.9065    196.5030     93.3782   4.7683428850e+01   2.3684954868e+01    0.3124542    0.1278448 -37.14  0.001228376    2.233    0.552
       181 -10.9144    214.0708     92.4879   4.4744088562e+01   2.0234711046e+01    0.1825572    0.1347674  56.32 0.0004521077    1.518    0.341
       182 -12.3674      2.1239     91.2833   1.0741703661e+02   5.7415873116e+01    0.2688669    0.1875287 -41.91  0.001564483    1.334    0.251
       183 -11.7121     21.4377     91.2692   9.9553112466e+01   5.6275334522e+01    0.2277218    0.1849703   9.65 0.0007447068    1.361    0.265
       184 -11.3163     12.0851     89.3695   1.0306725838e+02   5.7375239396e+01    0.3253203    0.1637449 -64.88  0.001563835    1.663    0.399
       185 -10.6873     78.6847     88.7484   7.6272376859e+01   4.9733133249e+01    0.2379023    0.1166638  46.25 0.0008988463    2.322    0.569
       186 -12.5446     30.8808     87.7817   9.4911678774e+01   5.6351260691e+01    0.3649937    0.2033576   8.35  0.001356312    2.142    0.533
       187 -13.8577     53.2746     84.1968   8.4718748409e+01   5.4694079246e+01    0.7434731    0.5571485  72.77  0.003589658    1.954    0.488
       188 -11.7063    206.6696     81.2377   4.3139707932e+01   2.3490548107e+01     0.339328    0.2522066   6.00  0.001404263    1.903    0.474
       189 -11.6252    152.1228     80.6372   5.2672918513e+01   3.5767571152e+01    0.3999004    0.2556959  29.59  0.001294556    2.023    0.506
       190 -11.8267    180.0586    244.3987   8.1231307468e+01   6.6245167433e-01    0.2176665    0.1724768 -18.80  0.000498113    1.286    0.222
       191 -11.1808     87.3796     79.4067   7.0315472064e+01   5.0188827172e+01    0.2832056    0.2383023 -28.40  0.001463549    1.176    0.150
       192 -10.7002    214.2769     78.9553   4.1531283563e+01   2.2268960875e+01    0.1905873    0.1531259 -41.65 0.0004456697    1.107    0.096
       193 -10.6085    189.7016     77.0606   4.4675382785e+01   2.7784934233e+01    0.2053954    0.1712303 -42.42  0.001146247    1.124    0.110
       194 -11.8401     75.4426     75.7349   7.3434796771e+01   5.3157089505e+01    0.2717801    0.2484671   5.03 0.0005235649    1.053    0.050
       195 -11.6348     23.0332     76.4719   9.5746616073e+01   5.9765752472e+01    0.1921822    0.1315349  12.70  0.001030744    1.589    0.371
       196 -10.8543     15.4774     76.0101   9.9058852491e+01   6.0428162251e+01    0.2011024    0.1157934 -63.72  0.000443912    1.533    0.348
       197 -10.3329    177.9436     74.9697   4.6080144742e+01   3.0755004665e+01    0.1681195    0.1635038 -86.50 0.0005743774    1.042    0.040
       198 -11.4351    115.9375     74.1536   5.9635892905e+01   4.5265636763e+01    0.3260885    0.2137414 -30.22  0.001453794    1.634    0.388
       199 -12.9172     31.9910     74.6786   9.1260605363e+01   5.9395918649e+01    0.4258968    0.2379773   0.61  0.001632737    2.261    0.558
       200 -10.2107    222.5370     82.4535   4.1251044820e+01   2.0095681433e+01    0.1313163    0.1138745 -45.78 9.403365e-05    1.020    0.019
       201 -10.6858    232.6964     73.4205   3.7971167551e+01   1.9434544056e+01    0.1523147    0.1191094  49.64 0.0007346837    1.517    0.341
       202 -10.7934    125.1273     73.2494   5.6855343756e+01   4.3347159848e+01    0.2292489    0.1994634  19.09 0.0005593307    1.221    0.181
       203 -10.5959    219.5270     72.4981   3.9335920913e+01   2.2152647176e+01    0.1312431    0.1140255 -49.29 0.0003192463    1.015    0.015
       204 -11.5213     99.7070     67.4940   6.2253875735e+01   5.0057930103e+01     0.330564    0.2540727  82.74  0.001520605    1.942    0.485
       205 -10.6249     87.2980     68.3247   6.6652905419e+01   5.2452118820e+01    0.1525226    0.1134976  -1.25 0.0005260801    1.628    0.386
       206 -10.8588    250.0199     66.3061   3.4615995483e+01   1.7201077120e+01    0.1542327    0.1333778 -58.02 0.0002528047    1.101    0.091
       207 -10.4319     74.0089     65.9815   7.0683160072e+01   5.5428290701e+01    0.1761113    0.1621658  -5.46 0.0003772509    1.006    0.006
       208 -13.7968     25.7587     64.0143   9.1264212896e+01   6.2442566888e+01    0.9268558    0.3127671  17.17  0.003417931    3.506    0.715
       209 -11.0255     95.9911     61.9533   6.1502805744e+01   5.1863875690e+01     0.213165    0.2031764  13.76  0.001192481    1.028    0.027
       210 -12.0822    124.5283    221.5596   8.9718683542e+01   1.2131784555e+01    0.4441927    0.3353967  51.63  0.001911762    1.451    0.311
       211 -10.8903    219.5262     61.5226   3.6784218244e+01   2.3696812968e+01    0.1291236    0.1119272 -53.04 -3.668702e-05    1.008    0.008
       212 -11.5756    157.5468    243.3667   8.5605311476e+01   3.7966844501e+00    0.3222649    0.2486826  42.48  0.001422728    1.454    0.312
       213 -11.3262    109.4817     60.1439   5.6769842376e+01   4.9217807987e+01     0.252962    0.2256169  -9.02  0.001038604    1.160    0.138
       214 -11.4334      2.4664     59.5192   1.0173300706e+02   6.5030820311e+01    0.2794922    0.1728386 -39.34  0.001239267    1.373    0.272
       215 -11.0721    153.3880     57.7135   4.5641755463e+01   3.9203947521e+01    0.2245656    0.2173244  89.97 0.0003729093    1.013    0.013
       216 -11.1851    114.3414     63.6616   5.6611027400e+01   4.7511273775e+01    0.3201745    0.2086104 -70.09 0.0008000731    2.649    0.623
       217 -10.6233    225.3225     56.6607   3.5023412970e+01   2.3176821589e+01    0.1363904    0.0819632 -60.35 0.0007050725    1.720    0.419
       218 -11.8501    117.5722    213.4806   9.0196504759e+01   1.4684579982e+01    0.2128419     0.172256 -75.99 0.0006269534    1.567    0.362
       219 -10.0192    109.0000    244.0164   9.5914052932e+01   1.0229415539e+01    0.1658318   0.07183351 -58.04 0.0007829958    2.809    0.644
       220 -11.4504     45.5390     61.0841   8.0961497928e+01   6.0900282836e+01    0.2325347    0.1805484 -14.01  0.001010281    1.268    0.211
       221 -11.9530     17.2454     51.2781   9.1841181204e+01   6.5985689345e+01    0.2703188    0.1864074 -44.51 0.0005108276    1.221    0.181
       222 -11.0954     94.7976     50.5414   5.7698574025e+01   5.4076505494e+01    0.2779982    0.1717332  -9.00  0.001143577    2.366    0.577
       223 -11.1483    106.5165    220.5851   9.3700893861e+01   1.4882201688e+01    0.2323732    0.2044597 -19.23 0.0009435533    1.286    0.223
       224 -10.7105     37.2121     49.8374   8.0956184873e+01   6.4290223077e+01    0.1931109    0.1417306 -14.80  0.001005129    1.325    0.245
       225 -10.3609     29.3341     50.3021   8.5138726549e+01   6.5089530568e+01    0.1418148   0.08775537 -22.39 0.0003524365    1.658    0.397
       226 -10.5345      1.4593     47.4610   9.9403559803e+01   6.7796292971e+01    0.1240444    0.1027521 -42.81 1.336469e-06    1.047    0.045
       227 -11.8164    195.7064     44.1070   3.5367355846e+01   3.1138021523e+01    0.3069181    0.1864488 -81.17   0.00118385    1.988    0.497
       228 -10.0238     90.2724     44.7109   5.6898634451e+01   5.5982242547e+01    0.1307673     0.114185 -77.95 0.0002029647    1.510    0.338
       229 -10.8161    104.5187     39.9340   5.0797308377e+01   5.3488691995e+01    0.2164856    0.1777344  47.52 0.0004495229    1.132    0.116
       230 -11.4499     36.3572     39.1776   7.7185812177e+01   6.6470401814e+01    0.2898814    0.1850089  -5.61  0.001280508    1.769    0.435
       231 -10.8605    145.8551     39.6024   4.1451748051e+01   4.3555872274e+01    0.1876675    0.1295353  76.93 0.0009216039    1.531    0.347
       232 -11.7040     60.0335     37.8733   6.5335795679e+01   6.3051447226e+01    0.2927091    0.2163726 -39.97 0.0006536989    1.460    0.315
       233 -10.4226    110.4484     37.4738   4.8307151139e+01   5.2434730375e+01     0.141419    0.1307346  40.98 0.0002181954    1.005    0.004
       234 -10.4704     80.6824     37.7094   5.7271601305e+01   5.9077895642e+01    0.1445805    0.1006778  18.08 0.0002788319    1.598    0.374
       235 -11.9455     11.0455     36.0395   9.0286354950e+01   6.9655251353e+01     0.375195    0.2539389 -50.74  0.002240767    1.351    0.260
       236 -10.8555    223.0000     33.5711   3.0022857184e+01   2.6538504104e+01    0.2616699   0.06256251 -30.81 0.0006729883    3.883    0.742
       237 -12.3941     30.6453     32.7801   7.7504464075e+01   6.8361445644e+01    0.4767704     0.244618  -7.71  0.001892195    3.232    0.691
       238 -11.3345    106.7457     32.4557   4.7348364059e+01   5.3959648521e+01    0.2466174    0.1899374 -27.73 0.0007044456    1.391    0.281
       239 -11.0422     47.7114     32.9694   6.8731556264e+01   6.5924757876e+01    0.1841385    0.1536563 -15.46 0.0001893957    1.104    0.094
       240 -11.3802     43.9360     33.9831   7.1041550646e+01   6.6337749988e+01    0.2048673     0.176156   1.24 0.0004549861    1.037    0.035
       241 -11.3931    169.6190     31.0994   3.5192784232e+01   3.8805712466e+01    0.2139807    0.1689647  87.95 0.0003111222    1.227    0.185
       242 -10.7083    238.3808    248.7273   7.1227417660e+01  -6.8467636031e+00    0.1863959   0.09124701 -35.41 0.0008292687    2.125    0.529
       243 -11.5052      3.5369    221.4849   1.1687281452e+02   2.6401524319e+01    0.1501409    0.1069907  11.31 0.0006186184    1.844    0.458
       244 -11.8167    101.6577     25.5941   4.5961531700e+01   5.5986109984e+01    0.2597548     0.234251  76.02 0.0008931604    1.211    0.174
       245 -11.0130    177.3672    249.2581   8.2451793111e+01   3.1965614017e-01    0.1654688    0.1191191  15.90 0.0007289423    1.095    0.087
       246 -10.5126     20.5177     23.0008   7.8939553529e+01   7.1261062035e+01    0.1847529    0.1077668 -40.06 0.0008530873    1.560    0.359
       247 -10.1124    185.3356     22.3096   3.0923089037e+01   3.6074616842e+01    0.1270593   0.09340291  40.31 0.0006290658    1.679    0.404
       248 -10.6207    172.4831     21.4989   3.2139447157e+01   3.9182808098e+01    0.1304876    0.1165265 -84.15 2.302588e-05    1.005    0.005
       249 -11.2055     30.5320     17.2340   6.9965946038e+01   7.0957726795e+01    0.2282827    0.1150615 -42.22  0.001138935    2.132    0.531
       250 -10.9453     10.7690     15.6303   8.1703769233e+01   7.3510439994e+01    0.1564294    0.1008948  26.08 0.0004772048    1.635    0.388
       251 -11.7177     92.8135    248.1284   9.9789862928e+01   1.1606212132e+01    0.2163601    0.1652388 -78.82 0.0007838055    1.630    0.386
       252 -11.9165     39.0452     29.1765   7.1309623892e+01   6.7863969969e+01    0.3054385    0.2147968  11.49 0.0009536468    1.368    0.269
       253  99.0000     85.0093    246.7023   1.0130813966e+02   1.2839458334e+01     0.397887    0.2097924  19.20   0.00198619    2.226    0.551
