#   1 NUMBER                 Running object number                                     
#   2 MAG_AUTO               Kron-like elliptical aperture magnitude                    [mag]
#   3 X_IMAGE                Object position along x                                    [pixel]
#   4 Y_IMAGE                Object position along y                                    [pixel]
#   5 X_WORLD                Barycenter position along world x axis                     [deg]
#   6 Y_WORLD                Barycenter position along world y axis                     [deg]
#   7 A_WORLD                Profile RMS along major axis (world units)                 [deg]
#   8 B_WORLD                Profile RMS along minor axis (world units)                 [deg]
#   9 THETA_WORLD            Position angle (CCW/world-x)                               [deg]
#  10 FWHM_WORLD             FWHM assuming a gaussian core                              [deg]
#  11 ELONGATION             A_IMAGE/B_IMAGE                                           
#  12 ELLIPTICITY            1 - B_IMAGE/A_IMAGE                                       
         1 -12.9810    122.4688     78.6134   2.5564378559e+01   4.2530641396e+01     1.953484     1.120087 -49.59  0.007965797    1.806    0.446
         2 -14.9739    104.7313    114.9288   4.0955407500e+01   3.8378279082e+01     5.024447     3.427548 -13.58   0.01946789    2.440    0.590
         3 -12.6273    100.8369     45.6430   1.9987163006e+01   5.3969591596e+01     1.350382    0.6760394 -37.93  0.005416003    2.070    0.517
         4 -13.4602     79.8797     58.9024   3.2326606343e+01   5.6407297434e+01     1.878214      1.25297  38.95  0.008487706    1.516    0.340
         5 -13.5526      8.8207     63.9068   6.9933271566e+01   6.5259991971e+01     1.756355    0.8203993 -64.94  0.007921916    1.833    0.455
         6 -13.0961     83.7282     42.7760   2.4315932705e+01   5.8606257955e+01     1.251392    0.6988111 -43.13  0.004373315    1.881    0.468
         7 -11.2899     46.9323     38.3145   3.8734691088e+01   6.7046260588e+01     1.701331     1.029921 -34.11  0.007896702    1.791    0.442
         8 -13.9415     65.5624     39.1763   2.9897889270e+01   6.3299687762e+01     2.229287      1.28443  33.66  0.009585436    1.922    0.480
         9  99.0000     26.7709     10.5614   3.5992608984e+01   7.5395153040e+01     0.645003     0.364177 -23.05  0.002712663    2.150    0.535
        10 -11.7728     32.8866     32.6553   4.4507714482e+01   7.0401993345e+01     1.957272      0.94968 -55.79  0.008421434    2.306    0.566
        11 -13.3812     10.8191     19.9675   5.5187762030e+01   7.5570311865e+01     2.283613     1.285183 -32.28   0.01174633    1.737    0.424
        12 -10.1980     27.1382     57.7061   5.7741243806e+01   6.5397031062e+01     4.823247      3.12351 -34.32    0.0235853    1.608    0.378
        13 -11.1724    129.1790      5.7470   3.5835688148e+02   5.1591077680e+01    0.4675898      0.25168  59.55  0.001302517    1.724    0.420
        14 -11.9690    137.7099      4.3246   3.5682081303e+02   4.9463338476e+01    0.5907474    0.3539542  73.28  0.001663722    1.482    0.325
        15 -11.5475    123.6541     10.1053   7.6989646540e-01   5.2652145502e+01    0.3955185    0.2717945  60.54 0.0005049692    1.362    0.266
        16 -13.4212    115.8893     10.5468   2.1670166655e+00   5.4679565062e+01     2.825538     1.519666  88.74   0.00903778    2.022    0.506
        17 -14.9364     83.0810     12.0939   9.9788998957e+00   6.3111626798e+01     2.121114     1.251536  37.58  0.009824209    1.845    0.458
        18 -13.2902     75.9297     13.4241   1.2814349767e+01   6.4747742490e+01     1.135347    0.7575463 -26.03  0.005775226    1.644    0.392
        19 -11.5465    247.0965     14.6528   3.5168789260e+02   2.3451920385e+01    0.4436892    0.2762572  69.80  0.002907586    1.899    0.474
        20  99.0000     63.6112     17.5282   1.9561858834e+01   6.7160855675e+01     0.788189    0.3304384  56.99   0.00217279    2.324    0.570
        21  -9.4537    178.5066      8.4799   3.5434047917e+02   3.8718628221e+01    0.1322425    0.1109463 -70.48 1.029114e-05    1.021    0.021
        22 -12.0181    185.2090     11.1334   3.5455992379e+02   3.6847428667e+01    0.6038167    0.3686519 -53.38  0.001954236    1.401    0.286
        23 -11.1436    175.0721     13.1029   3.5592976020e+02   3.9080247390e+01    0.2879521    0.2667582  75.30 0.0009294634    1.227    0.185
        24 -12.1386    242.3138      9.4815   3.5082797184e+02   2.4877477518e+01    0.3039655    0.2035935 -35.62 0.0007307872    1.328    0.247
        25  -9.8422    233.5716      9.4053   3.5121798073e+02   2.6561562641e+01    0.1903511    0.1516161  36.18 0.0009917789    1.939    0.484
        26 -10.1959    155.5752      9.1791   3.5655715092e+02   4.4362302580e+01    0.2322933    0.1715777 -56.43  0.001294565    1.238    0.192
        27 -10.7156    149.2655      8.2607   3.5690565317e+02   4.6077634459e+01    0.6896616    0.2633197  86.25  0.002553992    2.851    0.649
        28 -10.0505    167.8167      8.3801   3.5518116180e+02   4.1349140715e+01    0.2134651    0.1584722 -53.35 0.0006109051    1.204    0.169
        29  -9.7383    194.6296      7.0452   3.5282004380e+02   3.5070310084e+01     0.213419    0.1555048  66.13 0.0006318067    1.514    0.340
        30  -9.1777    172.5374      5.9961   3.5409801313e+02   4.0415543049e+01    0.1779705    0.1194937 -35.70 -1.419501e-07    1.451    0.311
        31 -10.6584     51.8199      5.1167   1.7021172695e+01   7.1330827435e+01    0.4518207    0.2651885  43.09  0.002278992    1.538    0.350
        32  -9.9326    187.8996      4.6959   3.5264011266e+02   3.6858792812e+01    0.1866282    0.1707273 -39.24 0.0004193528    1.260    0.207
        33  -9.4996    202.3465     11.1205   3.5335869486e+02   3.2913127470e+01    0.1972027    0.1537832  81.04 0.0006727481    1.314    0.239
        34  -9.8572    205.1155      2.6672   3.5110448884e+02   3.3149640992e+01     0.206834    0.1688603 -25.40 0.0007008638    1.422    0.297
        35 -10.3804    191.6101      1.7828   3.5164192170e+02   3.6276588893e+01    0.2412094     0.161334 -62.66 0.0006592672    1.235    0.190
        36 -10.4880    212.7469      1.6260   3.5046415098e+02   3.1598343837e+01    0.3742221    0.1265327 -85.01  0.001535661    3.316    0.698
        37  -9.4992    174.9277      1.6582   3.5268168747e+02   4.0241490229e+01    0.1815874     0.141566 -83.04 0.0005399474    1.114    0.103
        38  -9.2817    167.4781      2.0338   3.5333266664e+02   4.2036670328e+01    0.1906959    0.1222921 -31.51  0.001027862    1.579    0.367
        39  -9.2682    231.7508      1.3513   3.4954573963e+02   2.7725968829e+01    0.1433457   0.09632952  78.62 0.0005494923    1.605    0.377
        40  -9.3250    212.8677     76.1808   8.3307564973e+00   2.2356306816e+01    0.1647742    0.1491549  -7.40 0.0004591926    1.296    0.228
        41 -10.3387    250.2233     74.2580   3.9431005628e+00   1.5794408353e+01     0.196955     0.134903 -29.85 0.0006046435    1.292    0.226
        42  -9.4822    103.8709     75.1836   2.9815744301e+01   4.7618556874e+01    0.2123665     0.189483  11.08 0.0005792777    1.312    0.238
        43 -11.2791    234.9407     75.2744   5.6459165136e+00   1.8307215140e+01    0.3086498    0.2504561 -47.45 0.0008545803    1.056    0.053
        44 -10.0469    193.5482     72.9360   1.0059589465e+01   2.6856627883e+01    0.4166933    0.2506016 -81.99  0.001822251    2.461    0.594
        45  -9.6471    218.6492     72.7248   6.8388523528e+00   2.1717185967e+01    0.1962635    0.1757091 -61.53 0.0006876265    1.110    0.099
        46 -11.1544    172.5175     72.4724   1.3137852902e+01   3.1652632676e+01     0.556759    0.3765993 -53.07  0.002339516    1.447    0.309
        47 -10.4092    169.1934     71.4054   1.3400909060e+01   3.2603410954e+01    0.2861833    0.2665845  89.68 0.0007866914    1.075    0.070
        48  -9.8371    182.0746     71.5363   1.1366968032e+01   2.9614217654e+01    0.1994849    0.1733408 -50.12 0.0002948598    1.046    0.044
        49 -10.3419     95.5411     71.4349   3.1245646035e+01   5.0314633227e+01    0.4489798    0.2393807  42.46  0.001359108    1.896    0.472
        50  -9.6312    161.0631     69.9216   1.4405233875e+01   3.4778859218e+01    0.3879898    0.2038019  77.11  0.001425599    2.799    0.643
        51 -12.7764    114.9543     94.5914   3.2457911914e+01   4.0900097480e+01     1.166665    0.8510454 -26.09  0.003901456    1.704    0.413
        52  -9.6506    209.8047     66.1763   6.3098991418e+00   2.4424746645e+01    0.2599065    0.1761497  88.04  0.001399528    1.762    0.432
        53 -10.1756    250.5314     64.4262   1.8696947104e+00   1.7010641997e+01    0.2319332   0.09330773 -33.77 0.0006085265    1.964    0.491
        54 -10.3029    200.3848     64.7266   7.0873664692e+00   2.6612369578e+01    0.2224966    0.2035128 -85.15 0.0005283626    1.140    0.123
        55  -9.8523    104.3018     64.9288   2.6184465166e+01   4.9603823782e+01    0.3695951    0.2246601  66.67  0.001467036    2.009    0.502
        56 -10.4236    184.8899    122.8118   2.3585034747e+01   2.0280398600e+01     0.297743    0.1954221  32.17  0.001457412    1.763    0.433
        57 -10.5589    185.2069     62.5046   8.5086432203e+00   3.0297277033e+01    0.3899113    0.2974048   6.01  0.001976134    1.923    0.480
        58 -11.7560    214.9612     60.7371   4.4309848965e+00   2.4134075190e+01    0.4151508    0.2782364 -41.88 0.0009058044    1.249    0.199
        59  -9.3914    167.7409     58.0825   9.8648878485e+00   3.5070785675e+01    0.2012784    0.1669389 -48.38 0.0003072514    1.128    0.113
        60 -10.2865    170.1607     62.5261   1.0750471160e+01   3.3801443244e+01    0.2558574    0.2004872 -59.17 0.0004075609    1.223    0.182
        61 -10.4402    165.5772     62.2124   1.1403463196e+01   3.4949422463e+01     0.295164    0.2457914  54.48 0.0004395938    1.286    0.222
        62  -9.4991    159.6902    118.8974   2.7690622681e+01   2.6042469867e+01    0.2015032    0.1757194 -42.19 0.0002537206    1.116    0.104
        63 -10.7551     55.3410     61.1306   4.3792479050e+01   6.0693146332e+01    0.6392825     0.346346  22.51   0.00248332    2.386    0.581
        64  -9.6906     51.4699     59.5437   4.5114594090e+01   6.1701938900e+01    0.3204354    0.2324086 -29.68  0.001054408    1.541    0.351
        65 -10.3161    246.7309     60.4219   1.3490406064e+00   1.8175566775e+01    0.2419332    0.1165995  76.23  0.001247232    2.783    0.641
        66 -10.7306    240.9558     60.3446   1.8270179706e+00   1.9209469619e+01    0.3544199    0.1489766  55.04  0.001748578    2.917    0.657
        67  -9.0623    192.0021     60.5036   7.0717294860e+00   2.9062198775e+01    0.1977547    0.1333429  66.67  0.001028846    1.581    0.368
        68  -9.9526    221.8439     59.0466   3.3224488777e+00   2.2985841883e+01    0.2614466    0.1593885  43.39  0.001365414    2.275    0.560
        69 -10.6470    250.1308     56.5426   2.5649204029e-01   1.8072499736e+01    0.3845881   0.09058242 -40.05     0.001603    2.780    0.640
        70  -9.8286    203.4396     57.1811   4.8375878990e+00   2.7033653873e+01    0.2408732    0.2000699  34.91 0.0009690177    1.570    0.363
        71 -11.0944    209.5798     54.7857   3.5717635393e+00   2.6060770891e+01    0.3104517    0.2363095  52.14  0.001170611    1.581    0.367
        72 -11.0745    174.4711     56.0190   8.2602231727e+00   3.3768410587e+01    0.2419143    0.2111474  77.70 0.0003488157    1.159    0.137
        73 -10.5687    124.5440     56.7275   1.7830467069e+01   4.6104726681e+01    0.3367877    0.2265277  43.68 0.0009593068    1.604    0.377
        74  -9.2025    144.0401     56.5367   1.3551567897e+01   4.1188552519e+01    0.2199465    0.1445764  66.94  0.000450596    1.527    0.345
        75 -10.3729    245.9893     54.4922   1.5329981526e-01   1.9053494978e+01    0.1533958    0.1146312  80.38 0.0005130654    1.568    0.362
        76 -11.4014    195.8909     52.0931   4.4153399831e+00   2.9391565057e+01    0.2488657    0.2126189 -81.79 0.0003599487    1.149    0.130
        77  -9.5881    131.9947     53.2200   1.4936937541e+01   4.4793001179e+01    0.2287708    0.1920906  41.05 0.0005335796    1.320    0.242
        78  -9.2978    178.8882     51.6624   6.4255699773e+00   3.3357026155e+01    0.1889816    0.1646677 -75.29 0.0004784917    1.073    0.068
        79 -10.8264    212.3609     49.3806   1.9752772300e+00   2.6202070882e+01    0.5139885    0.2422135 -65.46   0.00219299    2.714    0.632
        80 -10.7086    145.0323     50.2452   1.1343910171e+01   4.1928389315e+01    0.3005882    0.2360651 -56.61 0.0005604155    1.246    0.197
        81 -10.0195    147.3486     46.9845   9.8755790143e+00   4.1829202364e+01    0.4673124    0.2273674  68.54  0.001833976    2.114    0.527
        82 -10.8150    247.9363     48.3108   3.5869607261e+02   1.9471011087e+01    0.2335781    0.1538402 -48.18 0.0009192079    1.178    0.151
        83  -8.8287    229.6509     48.3198   1.4640898676e-01   2.2858866548e+01    0.1349974     0.073928 -58.31 0.0007048538    1.738    0.425
        84  -9.1693    120.6120     45.8569   1.4901331794e+01   4.8901564601e+01    0.4319929    0.2032804 -19.98   0.00138828    3.638    0.725
        85  -9.7239    173.0129     39.3183   3.6999233533e+00   3.6474422441e+01    0.3268301    0.2031502  47.05  0.001473084    1.947    0.486
        86 -10.1400    175.8628     43.4390   4.5160079553e+00   3.5229396755e+01     0.389402    0.2249889 -54.67  0.001524827    1.672    0.402
        87 -10.0400    180.7405     41.5401   3.3783413424e+00   3.4318147243e+01    0.3577602    0.2392701  69.40  0.001474535    1.513    0.339
        88 -10.1526    203.5882     43.2404   1.3311782855e+00   2.8879776091e+01     0.274125    0.1903073  55.70 0.0007844788    1.682    0.405
        89 -11.5456    156.7777     42.9370   7.0457022191e+00   4.0015960045e+01    0.3297414    0.2435165  84.64 0.0005785078    1.350    0.259
        90 -10.6984    138.8414     42.3441   9.8772354630e+00   4.4701783690e+01    0.4303876    0.2980458 -49.68   0.00134611    1.430    0.301
        91 -10.7286    247.2284     42.2934   3.5747746368e+02   2.0322357873e+01    0.1784544    0.1595071 -37.49 0.0005650179    1.249    0.200
        92 -10.2772    241.3097     42.0325   3.5784223542e+02   2.1430353243e+01    0.1730582    0.1242906 -46.09 0.0005058931    1.074    0.069
        93 -12.1231    214.9225     38.4314   3.5910324086e+02   2.7065630383e+01    0.3844461    0.3159107  61.21 0.0008355264    1.453    0.312
        94 -10.1926    235.9147     41.2471   3.5806851307e+02   2.2534561321e+01    0.1864542    0.1609144  52.78   0.00056742    1.526    0.345
        95 -10.9972    225.8849     39.2101   3.5838283892e+02   2.4731745290e+01    0.2753204    0.2159821 -50.08 0.0006221058    1.025    0.024
        96 -10.4308    197.1537     40.3427   1.2413156840e+00   3.0679335059e+01    0.2493099    0.2179985 -69.45 0.0006362179    1.063    0.059
        97  -8.9618    148.6679     40.2498   7.4780321986e+00   4.2460257028e+01    0.1490415    0.1027469 -73.69 0.0002977674    1.553    0.356
        98 -10.6480    159.7317     36.1064   4.5011348203e+00   4.0198924619e+01    0.2336221    0.2060009  82.79 0.0004779511    1.096    0.088
        99  -9.3863    130.3878     37.5004   9.7961640359e+00   4.7598761675e+01    0.1483266    0.1335013 -76.35 0.0001599086    1.061    0.057
       100 -10.9328    248.7374     31.2396   3.5505704760e+02   2.1338125972e+01    0.3337912    0.2063464 -86.54  0.001576602    1.758    0.431
       101 -11.1763    240.0047     34.5772   3.5632156911e+02   2.2557608389e+01     0.263474    0.2283269  41.86  0.001058626    1.626    0.385
       102  -9.8267    232.9388     35.8009   3.5708063247e+02   2.3758152117e+01    0.2836465    0.1325509  72.56  0.001210398    2.385    0.581
       103  -8.9498    197.5124     35.4267   3.5993582961e+02   3.1221612123e+01    0.1322018    0.1119899 -61.73 7.709253e-05    1.015    0.015
       104 -10.4675    142.0893     34.3033   6.5901249856e+00   4.4973735918e+01    0.4527948    0.2021748  60.93  0.001827138    2.076    0.518
       105 -11.7153    151.1635     31.7031   4.3278211481e+00   4.2958334324e+01      0.46461    0.2514346  59.44  0.001192972    1.793    0.442
       106 -10.7724    175.8407     32.6741   1.4539058621e+00   3.6643130092e+01     0.289427    0.2009575 -73.29 0.0004763484    1.396    0.284
       107 -10.2993    103.7509     29.9982   1.2774462967e+01   5.5610522268e+01    0.3730672    0.2638859  33.77  0.001497235    1.659    0.397
       108 -10.6175    109.3111     27.5719   1.0433725068e+01   5.4484689098e+01    0.4804998     0.229795  64.70  0.001843361    1.949    0.487
       109  -9.6070    223.9780     29.7173   3.5634515174e+02   2.6248030785e+01    0.1671746    0.1378607 -65.60 0.0004799836    1.096    0.087
       110  -9.0520    186.4879     30.6610   3.5975578709e+02   3.4346951160e+01    0.1313342    0.1130061 -75.28 -3.918506e-05    1.061    0.057
       111 -11.0279    246.7846    146.1139   1.8715616633e+01   6.5256902904e+00    0.4245416       0.3245  85.70  0.002497054    2.850    0.649
       112  -9.7749    185.7868    112.2642   2.0979211198e+01   2.1962077497e+01    0.2637554    0.2185884 -78.19  0.001437032    1.502    0.334
       113 -11.5484    244.1167    105.3294   1.1009005787e+01   1.2581843054e+01    0.3759892     0.219886 -64.23  0.001864403    2.810    0.644
       114 -12.0339     16.3748    100.9196   7.1716082760e+01   5.4922738440e+01    0.5829585    0.3717512  88.01  0.002829573    1.554    0.357
       115 -10.0242     66.7894    102.2012   5.0921433296e+01   4.8594176415e+01    0.4220566    0.2138581  51.75  0.001447863    2.303    0.566
       116  -9.2922    208.5726    102.4455   1.5015899651e+01   1.9175424650e+01      0.13268    0.1153958 -35.08 5.528115e-05    1.016    0.016
       117  -9.6540    216.3416     28.0577   3.5651335707e+02   2.8014433544e+01    0.1955678    0.1585809  75.16  0.000672663    1.370    0.270
       118 -11.4770    168.7773     27.4425   7.3835900848e-01   3.9021679763e+01    0.3620937    0.2209479  59.15   0.00137603    1.697    0.411
       119  -9.2140    207.7799     26.7384   3.5684845857e+02   2.9995403504e+01    0.1753878    0.1166648 -57.91  0.000374725    1.273    0.215
       120 -12.3106    241.3555     22.1171   3.5355731286e+02   2.3716280679e+01    0.4825587    0.2684197 -58.51  0.002924792    1.493    0.330
       121 -11.6960    235.9794     20.6822   3.5355102933e+02   2.4896718019e+01    0.3863479    0.2263926  70.63  0.001550941    1.922    0.480
       122  -9.0078    184.7541     25.6618   3.5856200614e+02   3.5354180449e+01    0.1189455    0.1035472  20.87 0.0003049579    1.559    0.359
       123  -9.3927    159.9182     24.5227   8.9349137743e-01   4.1595682928e+01    0.1969613   0.09557094  49.04 0.0008059539    2.451    0.592
       124 -10.6678    150.9288     20.8032   8.2011137416e-01   4.4331688952e+01    0.5500278    0.2864229  73.15  0.002331063    1.793    0.442
       125  -9.2234    146.4667     17.4398   2.7361189291e-01   4.5864877857e+01    0.1408619     0.123555 -84.10 8.569905e-05    1.011    0.011
       126  -9.9768    201.5888     21.2621   3.5596240449e+02   3.1985539054e+01    0.2121449    0.1541914 -89.35 0.0008490251    1.321    0.243
       127  -9.3181    212.4485     20.4806   3.5498010206e+02   2.9700857442e+01    0.1803775     0.102936 -80.73 0.0005883294    1.752    0.429
       128 -10.2865    208.3084     18.3473   3.5474801543e+02   3.0828936801e+01    0.2468138    0.1909064 -54.75 0.0008897893    1.049    0.047
       129 -10.6507    250.2429     18.9687   3.5242744105e+02   2.2421064590e+01     0.217151    0.1063339 -37.67 0.0008323283    1.541    0.351
       130  -9.7185    236.6028     96.7409   1.0092138808e+01   1.5019229880e+01     0.183291   0.09226706 -41.90 0.0007254028    1.640    0.390
       131 -10.5285    188.5128     93.6452   1.6017227079e+01   2.4598295667e+01    0.5398226    0.3959698 -79.60  0.002725578    1.778    0.438
       132  -9.6714    213.7220     16.8445   3.5402358949e+02   2.9828507477e+01    0.1670309    0.1516279 -51.08 0.0005901822    1.211    0.174
       133 -10.6618    227.6180    178.9889   2.7552700263e+01   4.5446413675e+00     0.274962    0.2536527 -46.03   0.00147471    1.611    0.379
       134  -9.2767    187.3330     17.6761   3.5616171208e+02   3.5650926941e+01    0.1953143    0.1156888 -76.75 0.0006862117    1.631    0.387
       135 -10.2943     64.3517     26.3935   2.4088350489e+01   6.5715306983e+01    0.5738946    0.3214771  62.73  0.001721075    2.177    0.541
       136  -9.3598     40.0256     17.1952   3.1289516662e+01   7.2079664185e+01     0.207265    0.1584463  69.45  0.001078639    1.929    0.482
       137 -12.2399    191.3456    248.4473   4.4597041313e+01  -2.2303024443e-01    0.7327775    0.1822255  29.56  0.003144444    3.362    0.703
       138  -9.2382    143.0213     13.9421   3.5952445622e+02   4.7137714979e+01    0.1621699    0.1369492 -89.48  0.000921409    1.048    0.046
       139  -9.8252    214.6593    232.3187   3.8293624425e+01  -8.3823002622e-01   0.09349257   0.08230042  28.84 0.0004833815    1.713    0.416
       140 -11.5257      3.2487    139.4814   7.9912313676e+01   4.5435149071e+01    0.6870631    0.3146626 -82.26  0.003088843    1.974    0.493
       141 -13.6692      4.3340    117.3811   7.8176978289e+01   5.1227060275e+01     1.785698      1.03513  81.98  0.008704744    1.615    0.381
       142 -13.1863     13.2269    120.4272   7.5047613318e+01   4.9846150074e+01     1.151178    0.5390492  59.04  0.004816668    2.217    0.549
       143 -12.2262     13.6089    113.7768   7.4278376090e+01   5.1620921419e+01     1.001733      0.25647  37.42  0.003432573    3.335    0.700
       144  -9.6311    204.0032     93.6483   1.3639909104e+01   2.1449135710e+01    0.1799716    0.1766862 -81.65   0.00112883    1.134    0.118
       145 -10.3862    246.2588     93.4151   8.3140254890e+00   1.3884333275e+01      0.19344    0.1147007  51.30  0.001134542    2.097    0.523
       146  -9.3326    143.2296     92.2612   2.4458766292e+01   3.4916511732e+01     0.212592    0.1786118 -82.19  0.001048254    1.336    0.252
       147 -12.2715    249.2763     85.5133   6.3667047924e+00   1.4462227263e+01    0.6189582      0.29872 -47.40   0.00330615    1.840    0.456
       148 -11.8931    242.4062     85.6812   7.1057328077e+00   1.5580571116e+01    0.4980578    0.3237307  27.27  0.001949987    2.432    0.589
       149  -8.8334    152.6261     87.7461   2.1121063712e+01   3.3606317383e+01     0.150382    0.1171546  23.61 0.0004510469    1.645    0.392
       150 -10.1942    174.0881     80.7847   1.5123192415e+01   2.9908529517e+01     0.349028    0.2493133 -79.89  0.001384692    1.751    0.429
       151 -11.7593    154.8362     75.3480   1.7146719916e+01   3.5339194387e+01    0.7137438    0.6492193  60.84  0.003277645    1.130    0.115
       152 -11.2792    144.6292     75.3099   1.9237023874e+01   3.7806740265e+01      0.65429    0.4111071 -61.32  0.002668777    1.899    0.473
       153 -10.1315    198.1970     77.7399   1.0617971644e+01   2.5123959024e+01    0.3878075    0.2058167  35.71  0.001572479    3.078    0.675
