#   1 NUMBER                 Running object number                                     
#   2 MAG_AUTO               Kron-like elliptical aperture magnitude                    [mag]
#   3 X_IMAGE                Object position along x                                    [pixel]
#   4 Y_IMAGE                Object position along y                                    [pixel]
#   5 X_WORLD                Barycenter position along world x axis                     [deg]
#   6 Y_WORLD                Barycenter position along world y axis                     [deg]
#   7 A_WORLD                Profile RMS along major axis (world units)                 [deg]
#   8 B_WORLD                Profile RMS along minor axis (world units)                 [deg]
#   9 THETA_WORLD            Position angle (CCW/world-x)                               [deg]
#  10 FWHM_WORLD             FWHM assuming a gaussian core                              [deg]
#  11 ELONGATION             A_IMAGE/B_IMAGE                                           
#  12 ELLIPTICITY            1 - B_IMAGE/A_IMAGE                                       
         1 -11.1287     80.5362     23.0284   5.0491196558e+01   5.9522601509e+01    0.6530727    0.2297497  41.50 0.0008180352    2.496    0.599
         2  -9.3672     61.7824     26.8025   5.8339452781e+01   6.2586881554e+01     0.344243    0.2059777   4.69  0.001434456    2.072    0.517
         3  -8.9672     46.0995     20.5623   6.2016520954e+01   6.5925774413e+01    0.3511183    0.1830377 -30.69  0.001912295    1.997    0.499
         4  -9.4905     26.8519     22.6364   7.1866221260e+01   6.8289935360e+01    0.6924666     0.265893 -23.14  0.002658543    4.026    0.752
         5 -10.0313     77.5934     12.7680   4.7441364067e+01   6.1142369413e+01    0.6891248    0.2084302  48.38  0.002901174    2.523    0.604
         6  -8.8268     64.4501     13.6140   5.1989254979e+01   6.3577401077e+01    0.3050966    0.1602383  31.67 0.0007025367    1.734    0.423
         7  -9.8232     31.8418     10.7073   6.4051745477e+01   6.9177557477e+01    0.4184449    0.2553026  18.13 0.0003353004    1.392    0.282
         8  -9.0106     31.9934      5.8267   6.1666397221e+01   6.9699063189e+01    0.2425383    0.1485754  18.05 0.0002870579    1.373    0.272
         9  -9.0109    107.1686     11.5271   3.9520563728e+01   5.5031411124e+01    0.4165339    0.2398341  54.70  0.002305173    1.400    0.286
        10  -8.6367     97.2524     11.5298   4.1755402115e+01   5.7185205928e+01    0.2297323    0.1720527  32.45 0.0006894128    1.267    0.211
        11  -8.4313    155.9874     10.3380   3.0969251838e+01   4.4111796652e+01    0.3657075    0.1127306 -26.94  0.001488115    3.895    0.743
        12  -9.8912     20.3528      8.2544   6.8704639698e+01   7.0944526255e+01    0.3054341    0.2072151  14.09 0.0005623676    1.166    0.142
        13  -8.4453     13.9992     10.2284   7.3118446411e+01   7.1406353556e+01    0.2457994    0.1554661  36.74 0.0008522213    2.052    0.513
        14  -8.6974    142.8614      9.4260   3.2548681632e+01   4.7176957869e+01    0.2031944    0.1668177  51.42 0.0002184523    1.211    0.174
        15  -9.1805    125.3705      9.9417   3.5498770771e+01   5.1103831492e+01    0.2265391    0.1626318  64.63 0.0002763719    1.162    0.139
        16  -8.6017     88.3640     12.6490   4.4381934146e+01   5.8963098294e+01    0.2650266    0.1486483  40.78  0.001006905    1.522    0.343
        17  -8.8770      4.0125      6.5202   7.7195140751e+01   7.2858980598e+01    0.4096874    0.1781441  -5.83  0.001877303    3.243    0.692
        18 -10.3313     13.4635      4.1085   7.0469104168e+01   7.2233683527e+01    0.3283267    0.1912789  21.44 0.0002864458    1.437    0.304
        19  -9.0643    132.7202      5.2599   3.2914594590e+01   4.9835723696e+01    0.3537129    0.2636501 -17.68  0.002255863    1.687    0.407
        20  -9.4818     76.5968      6.4785   4.5272506518e+01   6.1897399583e+01    0.2740779     0.162169  38.90  0.001031547    1.393    0.282
        21  -8.8971     41.1236      5.2322   5.7262954560e+01   6.8392765463e+01    0.3115581    0.1827873   6.01  0.001602088    1.791    0.442
        22  -7.8991     45.3411      4.6737   5.5240084469e+01   6.7770000175e+01    0.1897904    0.1379916  54.32  0.001197581    1.819    0.450
        23  -9.9074     84.9400      5.0317   4.2445841762e+01   6.0321916799e+01    0.2488275    0.2077037  27.82 0.0004138185    1.144    0.126
        24  -8.7938     91.7894      5.2163   4.0812736056e+01   5.8875716125e+01    0.2878295    0.1365675  56.31  0.001485588    1.686    0.407
        25  -7.3564    179.5116      4.5664   2.6873955716e+01   3.9397067249e+01    0.1182798   0.09490657  85.36 4.886886e-05    1.022    0.021
        26  -9.0493    110.7659      2.8548   3.5956259690e+01   5.4947087573e+01    0.2874335     0.169761 -20.28  0.001443155    2.075    0.518
        27  -9.3491     57.6596      3.0800   4.9865560820e+01   6.5788409299e+01    0.2388031    0.1829122  18.22 0.0004667293    1.144    0.126
        28  -7.1538    164.5688      3.5147   2.8224687406e+01   4.2795866059e+01    0.1199286   0.09683134  87.19 9.477241e-05    1.048    0.046
        29  -8.1607    153.8628      3.1047   2.9392972119e+01   4.5232359583e+01    0.1585497    0.1187768  58.00  0.000325739    1.250    0.200
        30  -8.2922    125.7350      3.0237   3.3374476860e+01   5.1592125708e+01     0.205144    0.1458949  63.13 0.0005373053    1.135    0.119
        31  -8.1492    104.8998      1.9935   3.6819726068e+01   5.6301644141e+01    0.2070553    0.1137843  38.98  0.001127178    1.752    0.429
        32  -7.9720     94.8111    102.5219   7.1956215723e+01   4.3423679418e+01    0.4025168    0.1478619  29.75  0.001185214    3.736    0.732
        33  -8.9358    215.5659    250.1806   7.2954662131e+01  -8.1905702422e+00    0.2253861   0.07968431  32.75  0.001002674    2.665    0.625
        34 -10.8656    191.7357    247.9919   7.7358859552e+01  -4.8107191146e+00    0.4328768    0.2678622  33.64 0.0003584625    1.572    0.364
        35  -9.9874    169.0292    250.0313   8.2440659379e+01  -2.0432319094e+00    0.3183208    0.2532294  14.22  0.001480771    1.058    0.055
        36 -10.4953    158.4575    247.2265   8.4298327057e+01  -5.6155879784e-02    0.5506403     0.311217  47.28 0.0005006763    2.148    0.534
        37 -10.3736    159.8002    242.4986   8.3285902478e+01   5.9573769327e-01    0.3733959    0.2733348  31.48 0.0004402341    1.247    0.198
        38  -8.2667     64.9722    101.0160   8.1691134373e+01   4.8655781363e+01    0.2219399    0.1816204  65.99 0.0008281696    1.644    0.392
        39  -8.7883    241.7946     96.0117   3.9091087697e+01   1.4418428237e+01    0.1818615    0.1304875 -78.26   0.00105299    1.609    0.378
        40  -7.1497    129.6535     96.6957   6.0167234139e+01   3.7645393882e+01    0.1570028    0.1194584   8.05 0.0007041078    1.693    0.409
        41  -9.8194     12.9253     93.8295   9.9653056727e+01   5.5672982273e+01    0.5392753     0.303528   0.13  0.001534627    2.036    0.509
        42  -7.7411     83.8064     93.4163   7.3044005490e+01   4.7370067775e+01    0.2086247    0.1376609  20.47 0.0009354693    1.677    0.404
        43  -8.7124     43.3519     92.5438   8.7572647743e+01   5.3348436488e+01    0.4408618    0.2132782 -17.77  0.001550572    3.484    0.713
        44  -8.1429     56.0831     91.9680   8.2573962175e+01   5.1932583480e+01    0.2365761    0.1555341 -20.08  0.000604245    1.691    0.409
        45  -8.1084     96.9390     89.8932   6.7721961089e+01   4.5717735177e+01    0.3711542    0.1969105  18.78  0.001244593    3.263    0.694
        46  -7.9393    126.2818     83.4749   5.7354615751e+01   4.0928745673e+01    0.3665763    0.2029414  27.20  0.001360415    2.652    0.623
        47  -8.0301     65.9218     83.9091   7.6641403129e+01   5.2291609224e+01    0.2264167    0.1776649 -14.09 0.0005803311    1.267    0.211
        48 -10.0041     37.9053     80.5389   8.6621927352e+01   5.6609568397e+01    0.6539348    0.3317082  -8.75  0.002590234    2.955    0.662
        49  -8.5188     20.9867     84.0335   9.4399947532e+01   5.7366996063e+01    0.1971785    0.1618499 -36.10 -0.003769674    1.009    0.009
        50  -8.7999     88.4308     78.4791   6.7074510170e+01   4.9590964138e+01    0.4877184    0.2453524  23.55  0.001777389    2.819    0.645
        51  -9.7438      7.8789     77.4866   9.8351742346e+01   5.9690421069e+01    0.4991247     0.222498 -30.33  0.002111821    2.172    0.540
        52  -8.0178    184.2266     77.8691   4.3541036803e+01   2.8943033735e+01    0.2099329    0.1743104 -70.65 0.0005450843    1.206    0.170
        53  -8.5760     48.3816     77.3287   8.1486853206e+01   5.6089239352e+01     0.283062    0.1918755 -17.28    0.0010412    1.526    0.345
        54  -8.0488     52.0271     75.7655   7.9571576490e+01   5.5946460963e+01    0.1983684    0.1673584   6.00 0.0007485165    1.122    0.109
        55  -8.9935     24.1608     73.0119   9.0363263688e+01   5.9528939287e+01    0.4415097    0.1966911 -36.78  0.002012237    2.040    0.510
        56  -8.2468     23.3981     69.1551   8.9662463525e+01   6.0406466976e+01    0.2315743     0.201895 -63.06 0.0006633973    1.391    0.281
        57  -7.9045     74.9446     74.0475   7.0351805590e+01   5.2836501612e+01    0.2250549    0.1602117  -2.33 0.0005277628    1.614    0.381
        58  -8.9928     30.0337     68.0099   8.6450974996e+01   6.0045720803e+01    0.4162173    0.1932691  -3.03  0.001606416    3.327    0.699
        59  -7.8926    128.9713     68.9633   5.2471167148e+01   4.2883892002e+01    0.2385847    0.1724392  18.78  0.001131183    1.774    0.436
        60  -7.7384    106.7118     66.4703   5.7646437871e+01   4.8137760126e+01    0.2268716    0.2173019   7.87  0.001326478    1.060    0.057
        61  -8.8015     84.1133     63.4655   6.3738232123e+01   5.3139410377e+01    0.3851427    0.2466916  20.51 0.0008900936    1.759    0.431
        62  -8.9851     18.6757     61.7343   8.9710769492e+01   6.2314422577e+01    0.4636665    0.1791541 -27.61   0.00182842    3.111    0.679
        63 -10.2799     62.1906     60.9859   7.0858261626e+01   5.7335333625e+01    0.3730906    0.2414541  23.58 0.0003107967    1.499    0.333
        64  -7.6343    123.1691     60.6300   5.1428686659e+01   4.5516577327e+01    0.2163921    0.1179166  42.32 0.0007743498    1.786    0.440
        65  -9.4801     37.3457     58.6152   8.0373099730e+01   6.1131194476e+01    0.4405926    0.2292747  -4.62  0.001865831    2.734    0.634
        66  -8.8849     49.7731     58.6881   7.5075825526e+01   5.9563257971e+01    0.2434405     0.198576   2.43  0.000358163    1.081    0.075
        67  -7.9570    216.2363     56.7448   3.4205005039e+01   2.5354306452e+01    0.1510165    0.1453341  51.92 0.0005306679    1.338    0.252
        68  -9.3045     99.8199     54.7499   5.5891575617e+01   5.1458137928e+01      0.31984      0.22448 -26.18 0.0005567948    1.549    0.354
        69 -10.5116     75.2088     49.7462   6.2116543171e+01   5.7018890805e+01    0.3797902    0.2698412   0.71 0.0002735771    1.559    0.359
        70  -7.3558    163.3080     51.3391   4.0474210789e+01   3.7702300253e+01    0.1338201    0.1025448  28.72 0.0003991523    1.684    0.406
        71  -8.1562    118.8329     50.8936   4.9519842687e+01   4.7931237781e+01    0.2141193    0.1728008  29.38 0.0005455008    1.267    0.210
        72  -9.4237     45.1977     48.7629   7.3565277906e+01   6.1928461395e+01    0.3688577    0.2147248  -9.42  0.001388501    2.095    0.523
        73  -8.7895    106.1358     48.8392   5.2161934845e+01   5.0997792712e+01    0.4146763    0.2297906  19.25  0.001220023    3.148    0.682
        74  -9.2967     11.5469     45.9562   8.8377610986e+01   6.5913464432e+01    0.4365989    0.2342891 -15.86  0.001811395    1.824    0.452
        75  -8.7020     54.4058     43.9763   6.7927721752e+01   6.1390337766e+01    0.3313498    0.2136634 -34.67  0.001682772    1.566    0.361
        76  -8.5177      4.0879     45.3032   9.1908804936e+01   6.6526584342e+01    0.2382766     0.213157  25.39  0.001711028    1.494    0.331
        77  -6.9981     96.3618     45.2923   5.3740221328e+01   5.3555750478e+01    0.1445536   0.09518138  23.30  0.000702876    1.701    0.412
        78  -8.7739     94.0076     41.7846   5.3227778405e+01   5.4521317852e+01    0.6236131     0.293914  26.08  0.002225737    3.572    0.720
        79  -7.9404     99.0432     42.0000   5.1851046883e+01   5.3445118438e+01    0.4027613    0.1405292  49.89   0.00155461    2.524    0.604
        80 -10.3581     83.1189     39.7229   5.5852156202e+01   5.6981871532e+01    0.3546919    0.2585137  -0.59 0.0002607949    1.519    0.341
        81  -8.7220     87.6415     37.7158   5.3711048244e+01   5.6352788625e+01    0.2750909    0.1895932  30.45 0.0009093129    1.356    0.263
        82  -7.7703    113.8323     41.7157   4.7857349071e+01   5.0288659676e+01    0.2317025    0.1283743  24.64 0.0009480871    2.721    0.632
        83  -7.5006     58.4927     40.4572   6.4955713097e+01   6.1285260488e+01    0.1345826    0.1067042   8.40 0.0002565547    1.093    0.085
        84  -8.2357      4.0758     39.3662   9.0074357075e+01   6.7627905769e+01    0.2206555    0.1175365 -41.77  0.001031816    1.487    0.328
        85  -7.7850    123.9956     39.2805   4.4716476126e+01   4.8324093486e+01    0.1917971    0.1499898  49.70 0.0003289423    1.137    0.120
        86  -9.4610     19.4249     36.4363   8.1146669975e+01   6.6946533454e+01    0.3706516    0.2604622 -20.13  0.001512231    1.155    0.134
        87  -9.1758     22.0749     31.9105   7.8084341289e+01   6.7427354708e+01    0.3048697    0.1774785 -15.48 0.0002882153    1.642    0.391
        88  -7.8286     18.5395     31.9726   7.9918021519e+01   6.7766408395e+01    0.2052832    0.1186555 -22.27 0.0009479602    1.543    0.352
        89  -9.5646     69.4005     36.2541   5.9234575572e+01   6.0020690641e+01    0.5871967    0.3054097  22.15  0.002596813    2.412    0.585
        90 -10.1687    197.8899    246.7705   7.5906042225e+01  -5.4276122857e+00    0.3421928    0.2481054  31.49  0.001862827    1.420    0.296
        91  -8.8104     71.0034     30.2587   5.6373832180e+01   6.0507155427e+01    0.2406313    0.1874662 -18.09 0.0006615398    1.341    0.254
        92  -9.8121     70.0104     26.0512   5.5081844814e+01   6.1200051842e+01    0.3120599    0.2601458  40.51 0.0009626729    1.208    0.172
        93  -8.6897     35.5178     37.5053   7.3720195108e+01   6.5020409799e+01    0.2652228    0.1603737 -35.70  0.001239233    1.580    0.367
        94  -8.8006     38.6813     34.9982   7.1283386009e+01   6.5006049487e+01    0.2761512     0.149952  20.95 0.0009292989    1.758    0.431
        95  -8.5800    105.5101     36.5816   4.8280284604e+01   5.2760061720e+01    0.3284334     0.174176  38.78 0.0008547478    1.842    0.457
        96  -8.5494     33.4785     42.4708   7.6540764263e+01   6.4456458610e+01    0.3908069    0.1652153  22.99   0.00179055    2.383    0.580
        97  -8.7421     55.8818     34.8080   6.3816247053e+01   6.2519649955e+01    0.2769066    0.1702294 -33.49 0.0009849513    1.700    0.412
        98  -8.4804      3.2317     24.5559   8.5343568804e+01   7.0235855147e+01    0.2230552    0.1296693 -34.12 0.0006276687    1.376    0.273
        99  -9.4655      5.0456     33.6304   8.7646628123e+01   6.8584902666e+01    0.3365058    0.2661531  35.11  0.001639004    1.796    0.443
       100  -9.0933     96.3529     32.7645   4.9426545202e+01   5.5178865508e+01    0.2404636    0.1859177  31.35 0.0002071245    1.191    0.161
       101  -8.4478      1.0000     28.9314   8.8203740277e+01   6.9655576364e+01    0.2345185    0.1135907 -49.18   0.00101722    1.866    0.464
       102  -9.2608    206.1985    246.4622   7.4187122279e+01  -6.4537578949e+00    0.3502539    0.1372808 -44.48  0.001566008    2.780    0.640
       103  -8.5069    231.2096    241.4294   6.8539668755e+01  -8.7487341297e+00    0.1511005    0.1043554  29.31 0.0006498781    1.571    0.363
       104  -9.1195    171.0114    239.6149   8.0389385349e+01  -5.1241958751e-01    0.2047003    0.1501079  38.63 0.0005402089    1.433    0.302
       105  -7.2892    110.3123     25.6459   4.3484277473e+01   5.2967760134e+01    0.1270524   0.09827005 -76.42 0.0003316411    1.731    0.422
       106  -8.9653     42.6086     27.6890   6.6551178475e+01   6.5522443796e+01    0.3196995    0.1808642  13.22 0.0004737589    1.896    0.473
       107  -7.2867    137.4195     22.5022   3.7079600193e+01   4.7167282474e+01    0.1278173    0.1094902  59.35 6.188791e-05    1.053    0.051
       108  -9.1896    129.0903     21.9409   3.8416536945e+01   4.9129415790e+01    0.2166654    0.1674092  55.26  0.001317708    1.115    0.103
       109  -9.1929     92.2897     20.5249   4.6201997729e+01   5.7386381490e+01     0.268909     0.186833  36.98 0.0006209944    1.267    0.211
       110  -7.8401     16.4971     16.5708   7.4632140401e+01   7.0289950075e+01    0.1813449    0.1292686  19.98 0.0006247397    1.349    0.259
       111  -9.2111      8.7034     19.5690   8.0255041730e+01   7.0592535406e+01    0.3017765    0.1872529  -8.34  0.001021687    1.350    0.259
       112  -8.2702     12.6915     17.7020   7.7223432791e+01   7.0508170708e+01     0.191512    0.1240454 -10.14 0.0006906481    1.262    0.207
       113  -7.4122    146.7374     18.9711   3.4566980765e+01   4.5389721758e+01    0.1341538    0.1117458 -30.68 0.0002866664    1.416    0.294
       114  -8.0634    101.9921     18.3822   4.3001268928e+01   5.5529800088e+01    0.3984456    0.1999757  16.33  0.001565075    3.771    0.735
       115  -8.2864    127.6336     16.4540   3.7046310066e+01   5.0000462006e+01    0.1964254    0.1577339 -17.22  0.000505171    1.511    0.338
       116  -9.1579    185.1315    237.6908   7.7060127924e+01  -2.1867613573e+00    0.2089034    0.1735241 -38.46 0.0006896695    1.367    0.268
       117  -8.0466    147.0058     13.9952   3.3179107904e+01   4.5813128279e+01     0.192971    0.1539223  69.36 0.0006211872    1.052    0.049
       118  -9.9771    188.6149    234.9871   7.5879031022e+01  -2.2097140477e+00    0.3737185    0.2427194 -55.67  0.001401364    2.198    0.545
       119  -8.4285    165.0936    235.6925   8.1052015381e+01   1.0588458125e+00    0.2829784    0.1842674  -3.65  0.001395447    1.838    0.456
       120  -7.4737     80.3933    235.5144   1.0041173983e+02   1.3538221999e+01     0.128697    0.1187179  53.20 0.0001723037    1.037    0.035
       121 -10.2705    127.9321    229.9552   8.8608550738e+01   7.7925550085e+00    0.2667654    0.2349792 -37.61 0.0005538603    1.220    0.181
       122  -7.5993    150.7855     12.6096   3.2265645726e+01   4.5081922880e+01     0.164931    0.1026707  78.40  0.000240139    1.473    0.321
       123  -8.7137     79.4043    222.1541   9.9084388647e+01   1.6618624714e+01    0.2356461    0.2000715  34.60  0.000313935    1.142    0.125
       124  -8.1380    151.0396    217.3870   8.1211938766e+01   6.7617846566e+00    0.2017658    0.1817595 -26.60 8.199645e-05    1.131    0.116
       125 -10.2920    123.9979    206.0010   8.5795412474e+01   1.3566763828e+01    0.2057087    0.1944075  19.44  0.001161606    1.002    0.002
       126  -7.4087     78.5931    198.5140   9.6202836555e+01   2.2290662304e+01    0.1397689    0.1343495  81.30 0.0001108807    1.019    0.019
       127  -7.3702     14.5793    188.4943   1.1134582829e+02   3.2047278509e+01    0.1280799    0.1089628 -80.29 7.230921e-05    1.066    0.062
       128  -7.4722    166.9633    162.1987   6.6826482752e+01   1.5834667667e+01    0.1953199    0.1194271  39.04 0.0003125712    1.684    0.406
       129  -8.1676    145.4101    150.2366   6.9406372820e+01   2.2654542875e+01    0.2294321    0.1488864 -57.94 0.0009579039    1.743    0.426
       130  -8.9998     67.6294    144.2729   9.0439994721e+01   3.7611293496e+01    0.5336696    0.2898001  48.92  0.002157003    2.201    0.546
       131  -7.2920    125.3075    135.6735   7.1342717083e+01   2.9980663143e+01    0.1581411    0.1276458  83.98 0.0004590872    1.653    0.395
       132  -8.9796     67.5154    127.7711   8.7130919895e+01   4.1828888094e+01    0.2933899    0.2297163  84.44  0.001414378    1.656    0.396
       133  -8.2636     12.3478    121.1654   1.0444403290e+02   4.9093897483e+01    0.1879613    0.1516298 -41.78  0.001076699    1.165    0.142
       134  -8.3626    170.5119    118.9278   5.6140218595e+01   2.4336804659e+01    0.3296001    0.2472434 -10.57  0.000914887    1.767    0.434
       135  -7.8568    100.0170    118.6510   7.4546896822e+01   3.8792775130e+01    0.2591781    0.1314969  14.89 0.0007048403    4.500    0.778
       136  -8.7752    247.8428    110.9331   4.1248302028e+01   1.0919233860e+01    0.1925307    0.1621856 -27.69  0.001003741    1.291    0.226
       137  -7.3950     39.0047    109.9987   9.3184512863e+01   4.9678319552e+01    0.1718229    0.1490901 -43.57 0.0004169628    1.016    0.016
       138  -8.9991      1.4987    110.0005   1.0650065349e+02   5.2443327888e+01    0.4391374   0.09598174 -49.93  0.001620999    3.081    0.675
       139  -8.2128    133.8672    106.2008   6.1619829667e+01   3.4798409551e+01    0.3075311    0.2040739 -16.76  0.001240736    2.168    0.539
       140 -10.0114     75.2906    105.9460   7.9348966021e+01   4.5970287476e+01    0.2583127    0.2299433  17.54 0.0002576573    1.129    0.114
       141  -7.2960    124.4869    106.5083   6.4213672894e+01   3.6710956494e+01    0.1559048    0.1464513   0.32 0.0008094099    1.074    0.069
       142  -7.5247    109.2060    105.9872   6.8451765624e+01   3.9922843056e+01    0.2600696    0.1755811 -15.34  0.001068237    2.038    0.509
       143  -9.1816     14.1060    105.4605   1.0133377387e+02   5.2833141927e+01    0.3096714    0.1470909 -43.46  0.001457928    1.826    0.452
