#   1 NUMBER                 Running object number                                     
#   2 MAG_AUTO               Kron-like elliptical aperture magnitude                    [mag]
#   3 X_IMAGE                Object position along x                                    [pixel]
#   4 Y_IMAGE                Object position along y                                    [pixel]
#   5 X_WORLD                Barycenter position along world x axis                     [deg]
#   6 Y_WORLD                Barycenter position along world y axis                     [deg]
#   7 A_WORLD                Profile RMS along major axis (world units)                 [deg]
#   8 B_WORLD                Profile RMS along minor axis (world units)                 [deg]
#   9 THETA_WORLD            Position angle (CCW/world-x)                               [deg]
#  10 FWHM_WORLD             FWHM assuming a gaussian core                              [deg]
#  11 ELONGATION             A_IMAGE/B_IMAGE                                           
#  12 ELLIPTICITY            1 - B_IMAGE/A_IMAGE                                       
         1 -10.4792     16.3248     65.9884   1.2047577775e+02   5.9263718340e+01     1.336236     0.131948 -57.25  0.004598105    4.533    0.779
         2 -10.9335     36.6364      9.8397   9.5501018234e+01   6.7095324318e+01    0.8208199    0.4729519 -28.64  0.002536239    1.431    0.301
         3 -10.6136     19.5206      6.8740   1.0135260295e+02   6.9176735840e+01    0.7799487    0.6487105 -78.13  0.004947947    2.931    0.659
         4 -11.1251     24.0095     32.0315   1.0873692380e+02   6.4932742870e+01     1.287275    0.3718169 -39.71  0.003240121    2.833    0.647
         5 -10.7947     21.9580     53.5902   1.1570189189e+02   6.1251557885e+01    0.7297899    0.3991737 -78.76   0.00255015    3.904    0.744
         6 -10.2800     10.7605     18.6507   1.0953146310e+02   6.8095014884e+01     1.171546    0.4153244 -21.28  0.003830757    7.444    0.866
         7 -10.0688      4.9704     41.7824   1.1868814217e+02   6.4509983894e+01    0.6617771    0.2888637 -62.99  0.003683304    2.195    0.544
         8  -9.6483      2.3528     14.5046   1.1164319572e+02   6.9277908001e+01    0.4138851    0.1863847 -58.61  0.002286314    2.733    0.634
         9 -10.4279      5.0397      4.5677   1.0679709384e+02   7.0610416318e+01    0.4193253    0.3149015 -14.98  0.001653525    1.152    0.132
        10 -10.1095      7.2044     28.4453   1.1414487882e+02   6.6717873481e+01    0.2798687    0.2516248  40.87  0.001048828    1.659    0.397
        11  -8.9313    104.5188     14.9540   7.5254224021e+01   5.5834109946e+01    0.3700432    0.2004135   6.66  0.001535934    2.613    0.617
        12  -9.6087    101.0944     32.6877   8.2757147278e+01   5.4312616638e+01    0.6259707    0.3639393 -36.50  0.002542034    1.763    0.433
        13  -9.3536    102.8830     21.2050   7.8038620716e+01   5.5443103537e+01    0.4758577     0.244572 -37.19  0.001967505    2.116    0.527
        14 -10.5116     89.6596     38.2460   8.8101004469e+01   5.5599322555e+01    0.9285148    0.4131665  28.11  0.003603387    3.189    0.686
        15 -10.0315    139.1245     39.5963   7.5483204301e+01   4.5282868358e+01    0.7779154    0.3926919 -36.37  0.001637393    2.054    0.513
        16 -10.3594     69.7034     40.5031   9.5228195049e+01   5.8419344936e+01     1.500731    0.3515113 -39.50  0.005171252    3.923    0.745
        17 -10.1260     79.2278     24.1881   8.6123038016e+01   5.9350341344e+01    0.6990564    0.3014785  29.37  0.002390358    2.872    0.652
        18  -9.9736     63.8214      3.1339   8.2562811144e+01   6.4321387721e+01    0.5882009     0.325927 -34.17  0.003398333    1.930    0.482
        19 -10.2983     46.2770     29.7679   9.9573198881e+01   6.3134362934e+01    0.6885613    0.3022807 -49.69  0.002778038    2.705    0.630
        20 -10.6268     51.9707     13.6478   9.1218581103e+01   6.4753100787e+01     1.043184    0.5318297   7.88  0.004851172    3.030    0.670
        21 -10.0306     64.5961     13.4375   8.6655650504e+01   6.3017899529e+01    0.3937283    0.2966737   0.00 0.0001876359    1.130    0.115
        22  -9.5230     96.2678     14.7545   7.7398739628e+01   5.7471612599e+01    0.6877826    0.3013241 -15.65  0.002640626    2.883    0.653
        23  -9.2487    141.5373     12.2112   6.5875466531e+01   4.7977195591e+01    0.6569567    0.3770328 -77.70  0.002467319    3.698    0.730
        24  -9.6133    124.3226      5.3809   6.7033329738e+01   5.2586449221e+01    0.6620263    0.2393704  51.28   0.00279347    2.242    0.554
        25  -9.8244    131.5401     17.2187   6.9633658045e+01   4.9779973618e+01        0.435    0.3962158 -86.64  0.002016959    1.330    0.248
        26  -9.5976    132.0495      5.8532   6.5597841917e+01   5.0795912216e+01     0.495732    0.3598181  18.84  0.002329044    1.439    0.305
        27  -8.1780    136.2138      1.5926   6.3325798969e+01   5.0211822710e+01     0.237356    0.1316565  45.80 0.0006351036    1.562    0.360
        28  -9.8211    119.1702     20.2536   7.3529073192e+01   5.2190476224e+01    0.6915845    0.3204281 -15.40  0.001897967    2.742    0.635
        29  -8.8205    125.0562     13.0040   6.9582684510e+01   5.1684103673e+01    0.3024784    0.2502492  14.56  0.001108737    1.181    0.154
        30  -8.8729    126.9986      9.0393   6.7758323562e+01   5.1643607185e+01    0.3065979    0.1776106  39.33 0.0006468421    1.586    0.370
        31  -8.1889     72.3443      8.7396   8.2135057623e+01   6.2366082809e+01    0.2006032    0.1510696 -26.53 0.0005887568    1.376    0.273
        32  -8.4819     77.0060      6.6791   7.9804353638e+01   6.1819059895e+01    0.2627803    0.1634363 -18.85 0.0007735242    1.525    0.344
        33  -8.7972     78.8204      3.0986   7.7755364809e+01   6.1877503542e+01    0.2529036    0.2129567 -38.06 0.0008273604    1.569    0.363
        34  -9.3952     73.7487     19.5223   8.6060869192e+01   6.0845619841e+01    0.3399418    0.1924478 -36.46  0.001221914    1.809    0.447
        35  -9.1514     73.6921     13.1735   8.3528178596e+01   6.1637705460e+01    0.5016586    0.2373582 -10.54  0.002152046    3.047    0.672
        36 -10.0259    133.6763     12.7732   6.7649386274e+01   4.9754822707e+01    0.3886466    0.3312553   8.73  0.001746894    1.196    0.164
        37  -8.9725    115.2547      4.2280   6.8613094634e+01   5.4675192937e+01    0.3265585    0.2367379 -52.83  0.001096838    1.916    0.478
        38  -8.7999    112.1976     15.4711   7.3493568201e+01   5.4203699101e+01     0.277672    0.1881755 -35.25 0.0007807488    1.643    0.391
        39  -9.1157    114.1781      9.9350   7.0970666375e+01   5.4361623913e+01    0.3615356    0.2091944  38.05 0.0003226842    1.571    0.363
        40  -9.2276    110.6118      6.6914   7.0614381726e+01   5.5430147666e+01    0.5777926    0.2230445 -24.19  0.002504558    2.689    0.628
        41  -9.5967     85.2040     12.9271   7.9859772839e+01   5.9713944855e+01    0.3630839    0.2518979 -52.38  0.001387537    2.314    0.568
        42  -7.8767     80.6578     12.6513   8.1124153531e+01   6.0538117714e+01    0.2848981    0.1244397 -37.53 0.0008518993    2.539    0.606
        43  -9.1164    101.9946      8.0937   7.3291547065e+01   5.7056633391e+01    0.2552701    0.2179538 -43.36 0.0007748886    1.497    0.332
        44  -9.5415     96.4668      4.8562   7.3474293316e+01   5.8461943465e+01    0.4022926    0.3823898  81.26  0.002031537    1.435    0.303
        45  -8.2890     85.0435      6.2688   7.7219497132e+01   6.0459179292e+01    0.3464323    0.2058848  -1.38  0.001873096    1.818    0.450
        46  -8.9412     89.1144      3.0715   7.4758005691e+01   6.0030971571e+01    0.3390107    0.2558661 -16.19  0.001555093    1.320    0.243
        47  -8.4544    104.3638      2.2945   7.0458354395e+01   5.7128445891e+01    0.2705966    0.1637555  25.26 0.0009409733    1.629    0.386
        48  -9.7219     63.0652     21.2195   9.0317895850e+01   6.2231999240e+01     0.437513    0.2537386 -47.46  0.001631914    2.357    0.576
        49  -7.4989    151.2785      1.6681   6.0667306957e+01   4.6628958480e+01    0.1289791   0.09867573 -65.18 0.0006999347    1.604    0.377
        50  -9.6176    141.5932    111.7035   9.6018153245e+01   3.1907700600e+01    0.6414064    0.3231373  33.53  0.002334701    2.604    0.616
        51 -10.2579    210.9256    249.6029   1.0828594173e+02  -5.8237212724e+00    0.5821175   0.09162378  44.18  0.001823596    4.975    0.799
        52 -11.3207    192.7296    247.5218   1.1111644875e+02  -2.5086215012e+00    0.8261638    0.3233582  43.67  0.004023987    1.989    0.497
        53  -8.8566    159.0257    249.9680   1.1725724069e+02   2.8931503490e+00     0.181463    0.1327693  24.48  0.001141734    1.697    0.411
        54  -7.9343    104.4041    249.2180   1.2638737997e+02   1.1835083453e+01    0.1836392    0.1037106 -60.42  0.001138299    2.093    0.522
        55 -10.0568     92.0347    113.2822   1.0894434563e+02   4.0897127702e+01    0.5689771    0.4076073 -82.81  0.001829928    1.773    0.436
        56  -9.0599    152.8355    115.2290   9.4240672102e+01   2.8733800703e+01    0.3068454    0.2332598 -87.65  0.000906322    1.772    0.436
        57  -8.7350    149.9955    110.4431   9.3699652139e+01   3.0333060245e+01     0.323395    0.1883836 -43.28  0.000451268    1.729    0.422
        58 -10.2810     78.0757    112.9666   1.1254960565e+02   4.3066748169e+01    0.5437591    0.3150304 -74.54  0.001706254    2.277    0.561
        59  -9.5170     81.0538    101.2580   1.0917351526e+02   4.5169227348e+01    0.6345698    0.3436927 -41.50  0.002039389    1.861    0.463
        60  -8.8638    129.4298    124.3086   1.0199692708e+02   3.1782117777e+01    0.2835206    0.1399871 -43.73  0.001129812    2.069    0.517
        61  -8.3061      1.4567    115.6626   1.3244696520e+02   5.0058883994e+01    0.2201434   0.07972958 -69.96  0.001160818    2.016    0.504
        62  -8.0705    167.5018    113.9937   9.0594827980e+01   2.5655764822e+01    0.2334576     0.152408 -42.48 0.0005727602    1.556    0.357
        63  -8.8659     55.6474    113.0698   1.1848228533e+02   4.5920105940e+01    0.3842887    0.2065319 -78.24  0.001768716    2.403    0.584
        64  -8.4642    158.9459    112.2093   9.2072349457e+01   2.7969592196e+01    0.2719872    0.2095056 -68.59 0.0004785138    1.569    0.363
        65  -9.1459     64.6161     86.3563   1.1032078797e+02   5.0545385830e+01    0.6400536    0.4091248 -41.61  0.003284499    1.438    0.304
        66  -9.1002     67.5346    103.6748   1.1342513595e+02   4.6510084944e+01    0.5793895    0.3385775 -27.55  0.002642831    2.579    0.612
        67 -10.3452     65.8162    111.0462   1.1540755273e+02   4.5132495511e+01    0.7424552    0.5087744  73.40  0.003134177    1.941    0.485
        68  -9.3000     59.2064    109.2668   1.1681970755e+02   4.6331143632e+01    0.2412553    0.1630842 -72.76  0.000626823    1.492    0.330
        69  -9.8799     14.3826    111.3939   1.2879460961e+02   5.0089810456e+01    0.4289539    0.2248931  83.63  0.001699246    2.467    0.595
        70  -8.5042     14.0252    105.4719   1.2806226077e+02   5.1357717975e+01    0.2003409    0.1181681 -59.79 0.0005577027    1.315    0.240
        71  -8.8259     35.9698    111.4484   1.2332958871e+02   4.8310650973e+01    0.1886067    0.1787691  73.05  0.001242381    1.222    0.182
        72  -8.9684     32.2512    109.2190   1.2393163379e+02   4.9125533898e+01     0.369378    0.1689807 -58.54  0.001967381    1.712    0.416
        73  -7.0164    201.3389    111.6904   8.2938532745e+01   1.8109319426e+01    0.1566253    0.1216629 -79.72  0.000535745    1.687    0.407
        74  -8.0480    191.1542    110.1297   8.4577749829e+01   2.0822287009e+01    0.2271314    0.2049598  18.12 0.0002970956    1.186    0.157
        75 -10.8876     44.7108    102.4126   1.1942366966e+02   4.9403243067e+01    0.7795323    0.4356522  79.22  0.002921858    3.495    0.714
        76  -8.9273     40.2233    107.1858   1.2149642439e+02   4.8823560242e+01     0.216969    0.1656054 -88.88   0.00044872    1.386    0.278
        77  -9.6540      6.1886    104.3376   1.2989623170e+02   5.2111483087e+01    0.4075793    0.3032077  76.15  0.001955581    1.463    0.316
        78 -10.3044     31.8668     64.9178   1.1522127645e+02   5.8301032540e+01      1.05296    0.4150655 -34.80  0.003350315    3.041    0.671
        79  -9.0688     38.9007     58.7967   1.1132916401e+02   5.8847238747e+01    0.2783752    0.2159557 -59.47   0.00185708    1.341    0.255
        80 -10.8539     21.3931    102.0835   1.2563961284e+02   5.1532610721e+01    0.9740509    0.4826116  84.97  0.002823262    3.587    0.721
        81  -9.9493     20.4769     83.5801   1.2272738398e+02   5.5447765489e+01    0.9535216    0.1885706 -60.83  0.003668377    3.489    0.713
        82 -10.5500     25.6497     78.0352   1.2010922631e+02   5.6191809880e+01    0.6725509    0.4128586  89.96  0.002941618    2.498    0.600
        83 -10.1096    139.6000    103.2926   9.4347037914e+01   3.4052386488e+01    0.8597077    0.4161281 -42.56  0.001755532    2.066    0.516
        84  -9.8684    138.8219     91.6857   9.1421020725e+01   3.6531018053e+01    0.6924822    0.3730877 -38.62  0.001584494    1.883    0.469
        85  -9.8086    140.5062     82.0788   8.8301157851e+01   3.7996887685e+01    0.9457856     0.361448 -34.55  0.003160763    2.948    0.661
        86  -9.1756    139.9723     75.5222   8.6522111083e+01   3.9322297177e+01    0.5340263    0.3008619 -36.08  0.001697042    1.803    0.445
        87  -7.9967    249.5005    105.0016   7.2863914598e+01   8.1640092886e+00    0.2146341    0.1061726 -52.98 0.0008106956    2.626    0.619
        88  -9.1500    166.0454    103.9576   8.8339133625e+01   2.7954200882e+01    0.3899019    0.2343706 -50.15 0.0004915083    1.802    0.445
        89  -9.5992    149.4718    103.3579   9.1991805213e+01   3.1872114253e+01    0.4767636    0.2971631 -54.80 0.0009348016    1.821    0.451
        90  -9.4388    148.4457     96.8954   9.0514218126e+01   3.3378828475e+01    0.6204325    0.2216253  48.29  0.002059058    2.776    0.640
        91  -8.6576     91.7017    103.7519   1.0685476083e+02   4.3005692613e+01    0.3226273     0.315987 -37.76  0.001491861    1.070    0.065
        92  -7.7889     96.9790    102.0015   1.0501139027e+02   4.2516473107e+01    0.3095627    0.1843141  26.99  0.001072607    2.170    0.539
        93  -8.1493     73.9124    102.3830   1.1139275085e+02   4.5939981015e+01    0.3112326    0.1584511 -62.09 0.0008023647    2.035    0.509
        94  -9.0378    158.9630    101.1855   8.9208931459e+01   3.0140628055e+01    0.3081882    0.2343753 -61.98 0.0005261293    1.527    0.345
        95  -9.3680     94.3888     97.2987   1.0455721676e+02   4.3938040110e+01    0.3139411       0.2413 -65.77 0.0006264672    1.413    0.292
        96  -8.6880     96.0621     90.9229   1.0246717282e+02   4.4985828858e+01    0.5220112    0.3154998 -14.31  0.002000379    3.223    0.690
        97  -9.3083    239.6217     96.0342   7.2285471763e+01   1.1815218122e+01    0.3732422    0.2269575  -8.26  0.000792591    2.665    0.625
        98  -9.3672    164.5115     94.7022   8.6214323807e+01   3.0086273391e+01    0.3137266    0.2932355  86.58 0.0007552364    1.140    0.123
        99 -10.1505    169.1030    248.1915   1.1529594750e+02   1.4319595701e+00    0.2848409    0.2401659  62.51  0.002019979    1.223    0.182
       100 -12.0441    243.2794    240.9381   1.0145641372e+02  -1.0097021174e+01    0.2256364    0.1916042  25.03 0.0003558864    1.187    0.157
       101  -7.3340     22.7009    243.7100   1.3864680199e+02   2.3401719326e+01   0.08127242   0.06897042 -84.70 0.0002693279    1.560    0.359
       102  -8.9475      8.1620    236.1530   1.4033681432e+02   2.6171412756e+01    0.1660155    0.1293412  75.67 0.0005126874    1.285    0.222
       103 -10.0346    188.0879    233.5784   1.0992057773e+02   1.5756700851e-01    0.3406891    0.2310157 -61.60  0.001943429    2.198    0.545
       104  -8.1291      6.9698    222.5059   1.3980270600e+02   2.8644267726e+01    0.1323716    0.0820717  50.02  0.001022954    1.565    0.361
       105 -10.2194     12.4338     45.7384   1.1701671831e+02   6.3353889826e+01    0.7523573    0.3672911  -0.71  0.003478352    2.918    0.657
       106 -10.1102    155.8557    218.7720   1.1364663147e+02   8.1990734239e+00     0.214454    0.2038705  76.96 0.0004181835    1.169    0.144
       107  -8.0176     29.1914    214.9242   1.3587037757e+02   2.7746847304e+01    0.1668893    0.1046097  73.76 0.0005071862    1.226    0.184
       108 -10.1252      9.7887    207.5031   1.3850681019e+02   3.1079521868e+01    0.3544831    0.2507598  31.45  0.002412311    2.094    0.522
       109  -9.7264      6.7991     32.6702   1.1554562015e+02   6.6019100208e+01    0.2544065    0.1723325 -22.42  0.000770068    1.368    0.269
       110  -7.5000    157.5050    204.3887   1.1115777246e+02   1.0325617551e+01    0.1341017     0.112904  50.04 0.0001095339    1.028    0.028
       111  -8.3913     42.5083     76.9261   1.1472330204e+02   5.4944857874e+01    0.2575597    0.1649513 -48.20 0.0009540958    1.278    0.218
       112 -10.0959     34.5103     90.7053   1.2003455879e+02   5.2847860765e+01    0.5010005    0.2441625 -75.73  0.001659887    2.685    0.628
       113  -9.8386     36.8273     81.1378   1.1739478794e+02   5.4621614742e+01    0.5261003      0.28413 -22.64  0.002483368    2.809    0.644
       114  -7.6897     82.8261     93.4006   1.0680340847e+02   4.6570240077e+01    0.1836242    0.1293533  19.51 0.0009469138    1.783    0.439
       115  -9.3608    150.3745     89.4840   8.8025526834e+01   3.4371229931e+01    0.5038539    0.2774196 -32.17  0.001557433    2.010    0.503
       116  -8.0961    250.5172     90.9893   6.9414943368e+01   1.0165681075e+01    0.2152915    0.1321906 -35.06 0.0006389221    1.535    0.349
       117  -9.3993    110.0171     90.4819   9.8529269822e+01   4.2608620695e+01    0.6270476    0.2762887  36.80     0.002407    2.592    0.614
       118  -9.3923    113.3862     88.7743   9.7159543389e+01   4.2318330721e+01    0.4244053    0.3655629 -80.96  0.002123736    1.397    0.284
       119  -9.3071     49.1000     77.2939   1.1278702005e+02   5.4199189234e+01    0.6040816    0.3557821 -25.12  0.003135916    2.164    0.538
       120  -7.7696     78.2793     89.5053   1.0712877542e+02   4.8049441780e+01    0.2455085    0.1078867 -51.21 0.0008263905    2.057    0.514
       121  -7.8358    174.5943     88.7621   8.2396962311e+01   2.8765223069e+01    0.2189758    0.1428765 -48.09 0.0007482797    1.626    0.385
       122 -10.1505     85.4247     86.6486   1.0434995970e+02   4.7573675458e+01    0.4096841    0.3235286 -80.86 0.0009516106    1.650    0.394
       123  -9.5081     87.4519     78.8074   1.0165064902e+02   4.8835444365e+01    0.5776944     0.343965  15.04  0.001940817    2.675    0.626
       124  -9.1054    163.4903     86.7150   8.4246912291e+01   3.1818135941e+01     0.392546    0.1843362 -37.07  0.001351385    2.180    0.541
       125 -10.3050     48.0551     84.4999   1.1478208332e+02   5.2835456076e+01    0.7613323    0.3810131 -64.49  0.003732845    2.071    0.517
       126 -10.4546    103.9278     82.6735   9.8045242219e+01   4.5283535665e+01    0.5395955    0.3712682 -61.86 0.0007874806    1.776    0.437
       127  -9.7640    104.9038     72.1363   9.4722823360e+01   4.7134602647e+01    0.8717393    0.4035605 -31.37  0.003016067    2.599    0.615
       128  -9.7595    109.7945     63.7830   9.0802730014e+01   4.7734518960e+01    0.6515164    0.2782911 -44.29  0.002579232    2.388    0.581
       129  -9.1169    110.6062     58.3875   8.8866934532e+01   4.8512171716e+01    0.4313768    0.2713946  20.03  0.001382968    2.090    0.521
       130  -7.4702     80.2500     85.6330   1.0557593765e+02   4.8560725071e+01      0.13041    0.1013696 -76.41 0.0003651674    1.623    0.384
       131  -8.3631    170.2155     83.8510   8.1976490553e+01   3.0717307473e+01    0.2776581    0.2077629 -31.66 0.0009583061    1.393    0.282
       132  -8.9155    156.7389     69.3148   8.0759487227e+01   3.6519680414e+01    0.3859072    0.2050715 -28.55  0.001526628    2.123    0.529
       133  -9.0938    157.7791     83.6511   8.4672377348e+01   3.3736896510e+01    0.3668657    0.2279493 -36.51 0.0008618908    1.643    0.391
       134  -9.4725    157.0399     76.0315   8.2658075941e+01   3.5283098631e+01      0.64271    0.2945752 -45.06  0.001981518    2.334    0.572
       135  -9.2744    157.6817     91.7575   8.6955751616e+01   3.2249665405e+01    0.5086231    0.2445791 -33.14  0.001750281    2.324    0.570
       136 -10.0178    232.4682     78.0738   6.9011307753e+01   1.6367910543e+01    0.3870549    0.2653447 -34.29 0.0003133434    1.436    0.304
       137  -9.8541    237.0338     73.8579   6.7282974187e+01   1.5942975261e+01    0.4279072    0.2693472  34.11  0.001139114    2.094    0.522
       138  -8.4360    119.8238     76.1512   9.1844055361e+01   4.3503805893e+01    0.3053887     0.221128 -21.35 0.0006859556    1.554    0.356
       139  -9.2092    150.0400     79.8840   8.5384478079e+01   3.6235815256e+01    0.5086995     0.222904 -35.77  0.001144127    2.377    0.579
       140  -9.2460     74.3162     78.9412   1.0556093641e+02   5.0768360690e+01    0.6743598    0.2495931 -46.86  0.002022742    2.379    0.580
       141 -10.4849     62.9672     95.7431   1.1297196930e+02   4.8782383357e+01    0.6663488    0.3820715 -75.17  0.001508518    2.476    0.596
       142  -8.1968    184.1684     78.1960   7.7518370717e+01   2.8269094746e+01    0.2538637    0.2123726 -14.19 0.0006128068    1.343    0.255
       143  -8.6401    166.1889     78.7369   8.1407210802e+01   3.2605843799e+01    0.2639522    0.2034169 -49.38 0.0007069918    1.375    0.273
       144  -9.3592    138.0474     65.3681   8.3937383348e+01   4.1540240979e+01     0.580049    0.3665225 -24.63  0.001505505    1.780    0.438
       145  -9.5534    127.3826     75.1790   8.9579942330e+01   4.2124351255e+01    0.4282407    0.2818497 -54.75 0.0008203842    1.797    0.443
       146  -9.3198    130.1904     66.6330   8.6279659489e+01   4.3056138874e+01     0.667667    0.3711567 -24.01  0.002716418    2.233    0.552
       147  -8.9445    118.9797     80.4998   9.3337333133e+01   4.2849367076e+01    0.3178852    0.2390707 -60.66 0.0006864873    1.576    0.365
       148  -8.5825    194.9921    199.9921   1.0318061163e+02   3.8888219495e+00    0.3258981    0.2193051 -79.01  0.001418962    3.067    0.674
       149  -8.8600    191.2515    192.6527   1.0258032086e+02   5.8052605708e+00    0.4429197    0.2768866 -72.01  0.001788443    3.342    0.701
       150  -7.4435     32.5519    173.4773   1.3188134031e+02   3.5459524313e+01    0.1131655   0.08828518 -87.15 7.123607e-05    1.054    0.052
       151  -9.3495     88.0954     56.4676   9.4762768364e+01   5.2904403669e+01    0.8409602    0.3249723 -32.79  0.003079101    2.970    0.663
       152  -7.9877    230.5644    168.8588   9.0443327534e+01   1.8164284372e+00     0.391886    0.1978471 -54.86  0.001412881    3.689    0.729
       153 -10.2317     73.4751     56.9436   9.9448201828e+01   5.5079125624e+01     1.053457    0.3295851 -38.49  0.002975861    3.183    0.686
       154 -10.1945     85.1262     48.0206   9.2884408067e+01   5.4825392260e+01    0.3750862    0.2965707 -64.94 0.0009544078    1.849    0.459
       155  -9.2087     80.0916     46.6776   9.3999753654e+01   5.5853328894e+01    0.3806986    0.2235692 -27.58 0.0005378304    1.688    0.408
       156  -9.8876     81.6989     72.5933   1.0159815009e+02   5.0943302878e+01    0.4161298    0.3010358 -71.46  0.001031632    1.972    0.493
       157  -8.8735    169.0736     72.1199   7.8896215723e+01   3.3046813229e+01    0.4163646    0.2276856 -22.22  0.001446152    2.397    0.583
       158  -9.4310    115.1719     72.4067   9.1975114793e+01   4.5127917960e+01    0.5561532     0.303407 -34.25  0.001845534    1.880    0.468
       159  -8.2716    162.7630     72.8391   8.0459970528e+01   3.4464908737e+01    0.2884955    0.1990499 -47.38 0.0008459653    1.546    0.353
       160  -9.4034     49.6205     62.1913   1.0871522685e+02   5.7113279672e+01    0.1773055    0.1594449 -51.51 0.0005692487    1.198    0.165
       161 -10.5977     55.0467     70.8198   1.0930668600e+02   5.4835918123e+01     0.542757    0.3849272  66.43  0.001202503    2.288    0.563
       162 -10.2207     61.9216     60.7840   1.0431617295e+02   5.5935387234e+01    0.6039247    0.2873519  30.45 0.0007043396    2.403    0.584
       163  -9.3165    146.9850     69.2872   8.2986652423e+01   3.8825127600e+01     0.391798    0.2701418 -61.56 0.0009032124    1.915    0.478
       164  -9.8029     94.8072     68.1489   9.6412110289e+01   4.9670955535e+01    0.4560852    0.2505326 -48.13  0.000920666    1.845    0.458
       165  -9.3628     97.3084     58.3004   9.2613848028e+01   5.1006961730e+01    0.7735828    0.4567019 -30.82  0.003739152    1.697    0.411
       166  -7.7521     23.2829     69.0549   1.1893310026e+02   5.8170637354e+01    0.1594635    0.1155713 -56.18  0.000339225    1.121    0.108
       167  -9.7507    234.1947     67.6248   6.6163473457e+01   1.7575775624e+01    0.3867899    0.2808292  68.37  0.001692432    1.420    0.296
       168  -9.2398    121.1172     65.9202   8.8406955045e+01   4.5098681859e+01    0.4271844    0.2694454 -53.13  0.000786675    1.915    0.478
       169  -8.3216    122.0238     61.4695   8.6777378027e+01   4.5681370376e+01    0.2678957    0.2015592  23.13 0.0008920287    1.451    0.311
       170  -9.1550     83.6119     64.7720   9.8718163225e+01   5.2130572607e+01    0.5240806    0.3368099  -3.14  0.002441855    2.320    0.569
       171  -9.6350     55.5364     63.1251   1.0705352051e+02   5.6269283538e+01    0.3852979    0.2497557  19.13  0.001529479    1.820    0.451
       172  -8.6059    170.7982     65.0967   7.6504766357e+01   3.3787946988e+01    0.2306619    0.2062834 -71.56 0.0004835096    1.229    0.186
       173  -8.5312    157.5684     63.3764   7.8808251403e+01   3.7311401724e+01    0.2802954    0.2494625  88.65 0.0007836208    1.271    0.213
       174  -9.5651    153.2917     41.1296   7.2882035055e+01   4.1709818072e+01     0.409811    0.2661789 -43.77  0.001298943    1.695    0.410
       175  -8.4207    147.6375     63.5244   8.1093713818e+01   3.9649213045e+01    0.4112665    0.2461978  -8.57  0.001546738    2.740    0.635
       176  -9.7923    149.7931     47.9018   7.5765134937e+01   4.1587534647e+01     0.546404    0.2654534 -27.33  0.001164702    2.278    0.561
       177  -8.4272    146.5145     59.0103   7.9969036057e+01   4.0650932773e+01    0.2542041    0.2201643 -60.46 0.0005867796    1.321    0.243
       178  -8.9039    147.7149     54.3913   7.8261219921e+01   4.1099938851e+01    0.4230564     0.234989 -25.69  0.001777127    2.024    0.506
       179  -8.3758    164.4465     60.6927   7.6529372123e+01   3.6067382175e+01     0.270098    0.1418891 -38.83 0.0003562258    1.946    0.486
       180  -8.2952      9.7650     59.6451   1.2122745438e+02   6.0905731306e+01    0.2188363    0.1586881 -84.83  0.001000677    1.738    0.425
       181  -7.2696    152.6690     60.3488   7.8980560131e+01   3.8979796669e+01    0.1546492    0.1174332 -73.31 0.0007048686    1.767    0.434
       182  -8.9490    129.9822     57.9561   8.3621546911e+01   4.4569005802e+01    0.2668486    0.2110415 -49.63 0.0004481532    1.413    0.292
       183  -8.7100    130.4869     54.0080   8.2234289142e+01   4.5095682704e+01    0.3272607    0.2257808   3.48  0.001100882    1.914    0.477
       184  -9.0571    138.9854     57.0737   8.1134766973e+01   4.2702163305e+01    0.3343993    0.2207413 -44.41 0.0006858786    1.629    0.386
       185  -9.4065    118.2753     55.0420   8.5709453735e+01   4.7531274285e+01    0.4388997    0.2724045 -44.87  0.001435293    1.739    0.425
       186  -9.0041    121.0553     46.9655   8.2321697290e+01   4.8225781372e+01    0.3116385    0.2128548 -32.96  0.000608224    1.473    0.321
       187  -8.4108    122.2520     41.5267   8.0187442481e+01   4.8776950939e+01    0.5148273    0.2754307  16.83  0.001804243    3.567    0.720
       188 -10.0980     49.9434     54.4756   1.0639665490e+02   5.8520065151e+01    0.5408527    0.3049625 -58.83  0.002494361    2.092    0.522
       189  -9.7981     55.7381     43.8362   1.0108225730e+02   5.9726345928e+01    0.7719867    0.3971325 -10.23  0.002997846    4.065    0.754
       190  -9.2766     53.5719     39.2532   1.0029285299e+02   6.0756757568e+01    0.4978848    0.1830736 -36.94  0.002225115    2.477    0.596
       191  -9.0941     44.0657     53.7740   1.0817857095e+02   5.9275720513e+01    0.3064417    0.1698816 -38.39 0.0008882434    1.535    0.349
       192  -9.5037    162.8155     53.3090   7.4656668857e+01   3.7616421452e+01    0.4088775     0.276587 -17.19  0.001433953    1.750    0.429
       193  -8.6694    105.3575     49.3329   8.7355968469e+01   5.1019741037e+01    0.3595071    0.2986028 -31.75  0.002073035    1.192    0.161
       194  -8.2107    152.0908     53.5268   7.7014679788e+01   4.0192352720e+01    0.2280353    0.1424923  57.03  0.001021644    1.585    0.369
       195  -8.1078    139.2664     51.9889   7.9458400677e+01   4.3438498629e+01    0.2780939    0.2491364  66.38  0.001533306    1.216    0.178
       196  -8.6835    142.0247     48.5225   7.7708638832e+01   4.3327529486e+01    0.3215378    0.2173832 -33.63 0.0004032376    1.523    0.344
       197  -9.3052    142.4792     44.5208   7.6320844300e+01   4.3808193612e+01     0.707929     0.217804  40.63  0.002025307    4.295    0.767
       198  -8.9850    157.9942     49.5944   7.4530074383e+01   3.9355560318e+01    0.3300241    0.1960162 -48.70  0.001014997    1.960    0.490
       199  -8.3691     40.2970     50.1074   1.0839785742e+02   6.0323647534e+01    0.1952861    0.1138729 -36.48 0.0006412228    1.456    0.313
       200  -9.0035    105.2706     53.1877   8.8662992193e+01   5.0410342243e+01    0.4684687    0.2336672 -45.58  0.002021934    2.199    0.545
       201  -8.0757    174.1679    168.8187   1.0147562769e+02   1.3473919097e+01    0.1930768     0.168029   5.53 0.0004586776    1.337    0.252
       202  -9.1480    130.1319     48.1493   8.0421574019e+01   4.6082844441e+01    0.2908914    0.2453264 -22.44 0.0005217132    1.198    0.165
       203  -8.7137    130.6257     43.5487   7.8785679016e+01   4.6655077029e+01    0.5832263    0.3292864   7.22  0.001938453    3.399    0.706
       204  -9.1159    132.9427     35.9920   7.5714413577e+01   4.7189531157e+01      0.31975    0.2367878 -30.81 0.0004702527    1.405    0.288
       205 -10.6935    134.0203     31.0268   7.3796470811e+01   4.7592755615e+01    0.3819455    0.2704781   1.56            0    1.650    0.394
       206  -9.1955    112.0524     45.6905   8.4276579728e+01   5.0276443278e+01    0.6093394    0.3129926 -18.03  0.001168997    2.721    0.632
       207  -8.0041    162.1875     46.2023   7.2625418066e+01   3.8817961367e+01    0.1956766    0.1704129 -71.87 0.0005265754    1.310    0.236
       208  -8.6912     40.5146     34.9924   1.0352561301e+02   6.2921081038e+01    0.3058158    0.1774676  22.23  0.001406426    1.909    0.476
       209 -10.0839     37.8161     42.0020   1.0680151494e+02   6.2004296259e+01    0.3822846    0.2788191 -72.87  0.001661113    2.268    0.559
       210 -10.2539     35.8924     37.9650   1.0620975430e+02   6.2882976624e+01    0.3874296    0.1955964 -33.01 0.0003745375    1.760    0.432
       211  -7.6946    227.3209     45.6915   6.1662052893e+01   2.2442546683e+01     0.149385    0.1015728 -68.24 0.0006105948    1.643    0.391
       212  -9.4006    248.3396    163.0761   8.6066362119e+01  -7.6773536240e-01    0.2841455    0.2470051  53.09            0    1.344    0.256
       213 -10.1071     76.2378     31.9638   9.0015729093e+01   5.8745713990e+01     0.520373    0.3813371  71.19  0.001184355    2.764    0.638
       214  -9.1723    249.1637    158.1906   8.4888933061e+01  -1.8740951642e-01    0.2207122    0.2113584  -4.20  0.001371011    1.137    0.121
       215  -8.8659     84.8064     21.7893   8.3463161945e+01   5.8720203256e+01    0.2462758    0.2034013 -24.00 0.0006697561    1.237    0.192
       216  -8.1671    110.3660     26.7753   7.8092955865e+01   5.3258192469e+01    0.2976879    0.1561503 -26.77  0.001000713    1.946    0.486
       217  -8.4145    111.5765     21.6496   7.5917001041e+01   5.3634059055e+01    0.3401455    0.2000462 -33.30  0.001693988    1.788    0.441
       218  -9.1645    110.3287     33.1349   8.0382217802e+01   5.2434708663e+01    0.4223296    0.2539079 -33.67  0.001158585    1.690    0.408
       219  -9.0744    104.9300     40.9458   8.4608091062e+01   5.2394745440e+01    0.3462836    0.2438917 -48.80 0.0009307491    1.731    0.422
       220  -8.4201    106.3374     36.3208   8.2594250647e+01   5.2790273251e+01    0.2953163    0.2140014  12.21  0.001453478    1.482    0.325
       221  -8.1161    160.2587     39.9529   7.1091252043e+01   4.0165683434e+01    0.1987161    0.1832736 -19.83 0.0005844506    1.147    0.128
       222  -9.5014    144.5490     36.8183   7.3369406573e+01   4.4389600403e+01    0.4049698    0.2664943 -65.02 0.0009973152    2.318    0.569
       223  -8.8649    118.8650     34.4912   7.8634378643e+01   5.0481590017e+01    0.3222552    0.1820843 -32.66 0.0007428431    1.802    0.445
       224  -8.3486    153.5387     34.5617   7.0754929194e+01   4.2527761535e+01    0.2689334    0.1409798 -29.42 0.0007233796    2.017    0.504
       225  -9.0286    104.4833    160.8865   1.1510369513e+02   2.8472973457e+01    0.2187618      0.19522  52.73  0.000352719    1.161    0.138
       226  -9.5517     60.2596     33.7075   9.6010270101e+01   6.0797970811e+01    0.4217435    0.2361185 -46.23   0.00154788    1.930    0.482
       227  -8.8820     62.9961     26.6709   9.2452408467e+01   6.1478259823e+01    0.4166874    0.2189772  25.79  0.001541598    2.085    0.520
       228  -8.7590     42.1530     27.8943   1.0042106517e+02   6.3884610643e+01     0.200208    0.1367429 -29.20 0.0003658411    1.189    0.159
       229  -8.1905    170.8607    156.4628   9.9653639036e+01   1.6523139580e+01    0.2029501    0.1961532  44.13 0.0005450467    1.030    0.029
       230  -8.6341    249.0154    153.1307   8.3828985380e+01   6.1584303634e-01    0.2173667    0.1846558 -21.06 0.0002663778    1.123    0.109
       231 -10.3498    217.1712    151.5829   8.9245178678e+01   7.4168572812e+00    0.2669819    0.2583299  11.13 0.0003784735    1.052    0.049
       232 -10.3977      5.0959     87.0700   1.2769538931e+02   5.5727072623e+01     1.277015    0.3138042 -62.56  0.004157187    2.645    0.622
       233  -9.2602    226.4198     29.6023   5.7768663853e+01   2.4788589758e+01    0.3461603    0.2443164 -28.75  0.001514048    1.543    0.352
       234 -10.3547    151.8363     28.2150   6.9074738069e+01   4.3736996980e+01    0.5559807    0.4379733 -58.46  0.002958247    1.525    0.344
       235  -8.9349    143.9860     26.5869   7.0145021035e+01   4.5817637343e+01    0.3683036    0.2102016 -16.89  0.001350898    2.055    0.513
       236  -8.3792    133.7814    146.5275   1.0578706301e+02   2.6197806868e+01    0.5211866    0.1883491 -56.79  0.001672128    3.533    0.717
       237  -9.2302     91.3699     26.3419   8.3226997691e+01   5.6971623752e+01    0.3307074    0.2251776 -44.47 0.0008536422    1.802    0.445
       238  -8.8018     92.0606     21.4332   8.1163945822e+01   5.7472317473e+01     0.331599    0.1940177  12.88  0.001430808    2.140    0.533
       239  -9.4943    238.7803    145.7719   8.3999394681e+01   3.8366972459e+00    0.3542623    0.1708005  34.71  0.001404699    2.436    0.589
       240  -9.3678     67.2063    144.5117   1.2093559822e+02   3.7606901323e+01     0.410138     0.261411  71.45  0.002180736    1.820    0.451
       241  -8.8231    128.5761     25.1704   7.3044223216e+01   4.9546988349e+01    0.4489033    0.2678827 -14.30  0.001581546    1.926    0.481
       242  -8.5901    103.0391    145.7067   1.1276499559e+02   3.1994252673e+01    0.2098364    0.1772714 -69.21 0.0003735686    1.123    0.110
       243  -7.1756    146.6666    138.7472   1.0118537922e+02   2.5216285562e+01     0.144227      0.11733  14.49 0.0002268284    1.561    0.359
       244  -8.5812    112.5655    134.1366   1.0823483899e+02   3.2860178218e+01    0.3566951    0.2353631  75.51  0.001363622    2.118    0.528
       245  -9.2258    236.1760    133.5984   8.1718543018e+01   6.3754848460e+00    0.2510741    0.2297493 -18.49 0.0003193305    1.053    0.050
       246 -10.1038    128.7065    100.3833   9.6290246560e+01   3.6934848494e+01     1.002389    0.4841066 -35.42  0.001997495    2.380    0.580
       247 -10.6816    124.0416     90.2273   9.4752996703e+01   3.9932209341e+01     1.091135    0.6328268 -29.82  0.001928584    2.053    0.513
       248  -7.5140    199.4529     23.0247   5.9580222832e+01   3.2365774646e+01    0.1863414    0.1399588 -28.36 4.448634e-06    1.464    0.317
       249  -9.2509     40.9641     20.9871   9.8286141083e+01   6.5058303537e+01    0.2906388    0.1412403 -38.73 0.0004786121    1.773    0.436
       250  -7.3496    140.2812     22.6691   6.9621134751e+01   4.7150951541e+01    0.1334151    0.1063944 -64.98 0.0003941617    1.607    0.378
       251  -9.8794    117.1070    125.4283   1.0526257877e+02   3.3917980886e+01    0.6634759    0.4704922  67.29    0.0018771    1.696    0.410
       252 -11.0258    120.9491    110.5792   1.0084118774e+02   3.6364434006e+01     1.746092    0.6969754 -43.88    0.0064013    2.502    0.600
       253 -10.4602    108.7329     99.8871   1.0133960095e+02   4.0910518378e+01    0.8498906    0.5545679  69.22   0.00348527    2.330    0.571
       254 -10.0041    108.4634    114.3154   1.0491695415e+02   3.7895696114e+01    0.6331589    0.4143574 -85.72  0.001624641    2.519    0.603
       255  -9.4099    111.0419    106.6979   1.0243372332e+02   3.9055863802e+01    0.6439623    0.3369935  33.79  0.002663499    2.278    0.561
       256 -10.6404    131.4049    119.3583   1.0035984111e+02   3.2435045987e+01    0.8844391    0.5652455  83.66  0.002544697    2.930    0.659
       257  -9.5787    134.7850    131.7525   1.0239997153e+02   2.9126801926e+01    0.5575153    0.4748299 -39.63   0.00246974    1.239    0.193
       258  -7.8370    221.8882    132.3347   8.4002163732e+01   9.7045503664e+00    0.2049287    0.1858072  40.34 0.0008372833    1.095    0.086
       259  -9.6689     98.6330    128.7196   1.1053624275e+02   3.6449971774e+01    0.5798943    0.3541318  78.75   0.00228819    2.775    0.640
       260  -7.6969     82.3840    130.5959   1.1492917976e+02   3.8570792048e+01    0.2712491     0.118167 -70.39 0.0009581535    3.395    0.705
       261 -10.7577    133.4500    109.3294   9.7405251199e+01   3.4115408212e+01    0.8514512     0.455543 -45.65  0.002415319    1.854    0.461
       262 -10.2642     70.2097    126.1811   1.1714595179e+02   4.1243988095e+01    0.5438538    0.5188615 -16.07  0.001711041    1.272    0.214
       263  -7.7135    154.6735     14.6770   6.4215999307e+01   4.4566176480e+01    0.1482305   0.09326923  34.04 0.0007048516    1.689    0.408
       264 -10.0793     58.2795    124.6494   1.1986146065e+02   4.3080735923e+01    0.6511132    0.3569667  77.52  0.002448636    3.165    0.684
       265  -7.0501    169.0294    129.1911   9.3971453944e+01   2.2297534859e+01    0.1959787    0.1160157  47.51            0    1.643    0.392
       266  -9.8113     27.4888    123.1224   1.2719363084e+02   4.6564838781e+01    0.4791538    0.2453232  74.71  0.002214897    2.873    0.652
       267  -9.5212     41.4281    121.8907   1.2360827831e+02   4.5528716219e+01    0.4542855    0.2030105 -75.76  0.001992828    2.507    0.601
       268  -8.5073    158.0271    122.0084   9.4712763946e+01   2.6204915231e+01    0.2445659    0.1901072 -89.14  0.001058155    1.671    0.402
       269 -10.0268    140.7325    118.4778   9.7895569135e+01   3.0689321672e+01    0.4775016     0.339498 -74.14  0.001368135    1.882    0.469
