#   1 NUMBER                 Running object number                                     
#   2 MAG_AUTO               Kron-like elliptical aperture magnitude                    [mag]
#   3 X_IMAGE                Object position along x                                    [pixel]
#   4 Y_IMAGE                Object position along y                                    [pixel]
#   5 X_WORLD                Barycenter position along world x axis                     [deg]
#   6 Y_WORLD                Barycenter position along world y axis                     [deg]
#   7 A_WORLD                Profile RMS along major axis (world units)                 [deg]
#   8 B_WORLD                Profile RMS along minor axis (world units)                 [deg]
#   9 THETA_WORLD            Position angle (CCW/world-x)                               [deg]
#  10 FWHM_WORLD             FWHM assuming a gaussian core                              [deg]
#  11 ELONGATION             A_IMAGE/B_IMAGE                                           
#  12 ELLIPTICITY            1 - B_IMAGE/A_IMAGE                                       
         1 -14.8986    161.4768     40.9715   2.9021025177e+02   6.3351323520e+00   0.06487128   0.04218296 -52.08  0.004197381    1.501    0.334
         2 -14.5311    174.3360      8.0316   2.8985734518e+02   6.6361160542e+00   0.04847436   0.04535497 -35.14  0.003779623    1.072    0.068
         3 -12.4335    133.7935    247.3513   2.9180410387e+02   4.1263932289e+00   0.01190351   0.01009297 -59.12 0.0004753384    1.169    0.144
         4 -19.5233     85.7134    234.9104   2.9228254482e+02   4.5575475957e+00    0.4215207     0.393809  53.56   0.04777469    1.103    0.094
         5 -12.3056    168.8134    202.6081   2.9112454402e+02   4.4314801296e+00   0.01320174   0.01068128  71.72 0.0001535305    1.419    0.295
         6  99.0000     13.8402    239.6750   2.9314168521e+02   4.9319888111e+00   0.01893721  0.005242945 -62.27  0.001258111    3.624    0.724
         7 -11.9018    139.8471    199.5386   2.9143995389e+02   4.6406233235e+00   0.02137817   0.01129983  35.91  0.001999221    1.848    0.459
         8 -11.0047    135.5288    196.4372   2.9147070121e+02   4.7022305908e+00   0.01207075  0.009929914  65.87 0.0006389378    1.360    0.265
         9 -14.1630    167.2240    191.1721   2.9107237547e+02   4.5726623739e+00    0.0340575    0.0241083  70.35   0.00348885    1.787    0.440
        10 -13.0100    180.2137    192.5955   2.9093125753e+02   4.4782771734e+00   0.02076324   0.01609043 -81.22  0.001251166    1.443    0.307
        11 -13.9889    174.9383    193.6061   2.9099836143e+02   4.4983255720e+00   0.03400911   0.02061344 -76.12  0.002445237    1.979    0.495
        12 -13.9779    176.6006    188.2889   2.9094638208e+02   4.5495448511e+00    0.0402609   0.02136004 -83.12  0.003192922    2.999    0.667
        13 -14.4381    207.0470    179.5531   2.9054120630e+02   4.4671282630e+00    0.0404106   0.03857596 -53.73    0.0043047    1.039    0.037
        14 -13.6704    196.7160    172.4523   2.9061653892e+02   4.6109387811e+00   0.03769385   0.02051968 -72.16  0.002805202    2.160    0.537
        15 -13.1277     11.7677    205.9485   2.9295887834e+02   5.3329399310e+00   0.03068439   0.01873815  12.07  0.002929559    1.961    0.490
        16 -18.5932     71.4174    103.1791   2.9163672135e+02   6.1601655580e+00    0.8362702   0.02545936 -61.92   0.01946373   30.168    0.967
        17 -10.7057    123.8994    185.1513   2.9153545999e+02   4.9019145478e+00   0.01042209  0.008732063  59.12 0.0007623318    1.293    0.226
        18 -10.6568     25.4747    185.3966   2.9267430053e+02   5.4879444875e+00   0.01016212  0.006401808 -59.46 0.0001324837    1.557    0.358
        19 -10.4272     25.5012    181.5578   2.9265041405e+02   5.5320119746e+00   0.01136534   0.00776894 -49.36 4.853958e-05    1.443    0.307
        20 -11.4073     28.3228    179.3411   2.9260417483e+02   5.5407059319e+00   0.01434295   0.01111668 -25.14  0.001013045    1.441    0.306
        21 -11.8417    139.4715    249.5218   2.9175194621e+02   4.0673787137e+00   0.02025162   0.01434599 -71.77  0.001586053    1.515    0.340
        22 -13.3757    177.4018    169.8001   2.9082304593e+02   4.7575295541e+00   0.02093085   0.01596982 -29.62  0.002298277    1.442    0.307
        23 -13.3742    138.9367    172.5875   2.9128434802e+02   4.9563860429e+00   0.02800153   0.01955224  79.27  0.002124343    1.876    0.467
        24 -12.0818    168.0837    245.3391   2.9139618586e+02   3.9439816465e+00   0.01239144  0.009520975 -70.09 0.0006602952    1.358    0.263
        25 -12.8436    148.0158    173.0017   2.9118205502e+02   4.8971357069e+00   0.01910064   0.01210873  51.62  0.001503673    1.784    0.440
        26 -13.7872    144.4841    168.7365   2.9119653141e+02   4.9674323655e+00   0.02848835   0.01821249  39.16  0.002854462    1.566    0.361
        27 -11.0464     25.9176    173.7410   2.9259757009e+02   5.6195791323e+00   0.01248999   0.01067726  38.63            0    1.178    0.151
        28 -10.7753     11.8938    173.9233   2.9276084232e+02   5.7011614082e+00    0.0098704  0.008252773 -28.24  0.000277283    1.270    0.213
        29 -10.6750     34.0009    169.4759   2.9247789149e+02   5.6204476770e+00   0.01063489  0.008904518 -62.03  0.001045518    1.191    0.160
        30 -12.1185    168.2104    175.4832   2.9096421237e+02   4.7473283582e+00   0.01121092   0.01006959  -3.47 0.0006972884    1.169    0.145
        31 -11.8193    202.0711    165.8759   2.9051414108e+02   4.6544161196e+00   0.01449223  0.009830219  85.74  0.001414013    1.965    0.491
        32 -12.3155    123.2758    166.3283   2.9142664968e+02   5.1223897166e+00   0.01926621   0.01134988  55.51  0.001611527    2.106    0.525
        33 -11.0643    150.8847    245.7357   2.9159699851e+02   4.0425545061e+00    0.0102168  0.008930413 -57.57 0.0003707645    1.132    0.117
        34 -11.4656    223.8665    163.7638   2.9024969245e+02   4.5476239635e+00   0.01215822  0.009742926 -76.04 0.0004578521    1.337    0.252
        35 -11.0068     25.3171    224.9688   2.9291899375e+02   5.0329633524e+00   0.01201444  0.007673265 -47.82 0.0008383789    1.558    0.358
        36 -10.5759     14.0516    159.3286   2.9264621458e+02   5.8564207388e+00  0.009307525  0.008526932  27.00  0.000394301    1.096    0.088
        37 -10.5414     19.3020    158.2927   2.9257911997e+02   5.8370247513e+00    0.0108013  0.009007995 -25.01 0.0004791029    1.288    0.224
        38 -11.4622     16.6744    156.3161   2.9259735998e+02   5.8754733523e+00   0.01704012  0.009684731 -42.95   0.00160908    1.857    0.462
        39 -10.9309     22.9571    156.1411   2.9252361628e+02   5.8399940159e+00  0.009848422  0.009725942   8.52 0.0004865201    1.016    0.015
        40 -14.0978    134.1737    145.9372   2.9117496197e+02   5.2917712034e+00   0.05760483   0.01864925 -69.51  0.003453968    4.807    0.792
        41 -10.1310      6.4926    155.5793   2.9271060379e+02   5.9446997615e+00   0.00657978  0.006336004 -20.03 7.552195e-05    1.045    0.043
        42  -9.9350      6.5932    150.7081   2.9267950078e+02   6.0002117647e+00  0.007191828  0.004913899 -21.50 0.0004215259    1.819    0.450
        43 -10.5418    219.3759    224.2214   2.9067469848e+02   3.8790829284e+00  0.009028821  0.006368814 -76.63 0.0002914213    1.596    0.373
        44 -12.1285    174.4481    148.6879   2.9072678260e+02   5.0182470087e+00   0.01561583   0.01241419  67.27  0.001200953    1.443    0.307
        45 -14.6774    143.4802    143.3635   2.9105155457e+02   5.2655367992e+00   0.05112113    0.0300794  84.99  0.004287523    2.781    0.640
        46 -13.8751    135.7280    125.1140   2.9102844158e+02   5.5221231264e+00   0.05906083   0.01442357 -65.37  0.003285401    5.396    0.815
        47 -11.6634     27.4338    145.5116   2.9240645330e+02   5.9357027205e+00   0.01200629   0.01166334 -11.52 0.0009150375    1.034    0.033
        48 -11.3577    175.7852    142.3783   2.9067236735e+02   5.0828181521e+00  0.009178748  0.006394083  13.18 0.0005661747    1.599    0.375
        49 -12.1147      8.3771    137.7989   2.9257948736e+02   6.1382641074e+00   0.01825572   0.01403214  -2.81  0.001289268    1.502    0.334
        50 -13.4896    149.1132    133.0651   2.9092288665e+02   5.3502433586e+00   0.02433114   0.01812438  80.21  0.002393943    1.656    0.396
        51  -9.8911     22.4139    221.4190   2.9293076090e+02   5.0911851958e+00  0.006807337  0.005989687 -28.05 0.0007927953    1.182    0.154
        52 -12.4978    160.5803    128.3096   2.9076103920e+02   5.3360859191e+00   0.01657557   0.01447074 -81.20   0.00196512    1.217    0.178
        53 -12.2699     28.4467    127.0440   2.9228106908e+02   6.1423438462e+00   0.02041191   0.01184782   7.74  0.001822555    2.293    0.564
        54 -12.5693    114.4247    118.1564   2.9123172750e+02   5.7300381734e+00   0.01742291   0.01076589  28.04 0.0006235418    1.619    0.382
        55 -12.6291     52.9251    116.9920   2.9193588949e+02   6.1118007075e+00   0.01634559   0.01003428  16.23  0.001078498    1.838    0.456
        56 -11.0402     22.0978    245.2558   2.9308052204e+02   4.8184383089e+00  0.008491255  0.008272864  61.40  0.000454203    1.051    0.049
        57 -13.2178    152.4148    145.3367   2.9096052838e+02   5.1891792029e+00   0.01704515   0.01646719 -22.24   0.00213781    1.039    0.037
        58 -10.7776    205.5066    110.1838   2.9013018812e+02   5.2743995169e+00    0.0121137  0.009429039  24.10  0.000700888    1.304    0.233
        59 -11.9894    153.1625    194.1731   2.9125317782e+02   4.6225160543e+00   0.01154124  0.009628544  43.87 0.0004143291    1.224    0.183
        60 -14.0796    162.6600    201.4010   2.9118811192e+02   4.4823108767e+00   0.06376298    0.0269115 -78.69  0.003788586    5.270    0.810
        61 -13.5695    153.7543    189.1475   2.9121536450e+02   4.6768210683e+00   0.02879412    0.0149037 -50.80  0.001919435    1.878    0.467
        62 -11.1042    157.2297    106.0324   2.9066205386e+02   5.6125422514e+00   0.01254118  0.009104177  41.46 0.0006387997    1.397    0.284
        63 -13.3602    157.4320    201.5112   2.9124912641e+02   4.5124173038e+00   0.03539299     0.017229 -80.20   0.00260767    3.427    0.708
        64 -10.8341    120.0271    205.5669   2.9170591098e+02   4.6900340760e+00   0.01133211   0.00852406 -43.07 6.975942e-05    1.350    0.259
        65 -11.1701     12.7314    100.8238   2.9230149077e+02   6.5380662122e+00    0.0186488  0.005706456  37.13  0.001353322    3.040    0.671
        66 -10.4998     41.7057     91.9638   2.9191141675e+02   6.4670067950e+00  0.009155975  0.008551805 -56.51 0.0004794972    1.062    0.058
        67 -12.1448    125.1156    244.0026   2.9188364066e+02   4.2169432963e+00   0.01960704  0.008841652 -62.25  0.001487043    2.219    0.549
        68 -10.5706    123.6980     69.0184   2.9082079634e+02   6.2397625878e+00  0.009074062  0.008715654 -64.86 0.0005877205    1.046    0.044
        69 -14.3382    150.3335     55.8004   2.9043094706e+02   6.2317092947e+00   0.04670699   0.03724148 -22.23 0.0009916637    1.395    0.283
        70 -10.1163     22.3065    205.3443   2.9283338761e+02   5.2770321179e+00  0.007104577  0.004878491 -29.53 0.0007042688    1.692    0.409
        71 -12.8667    165.2742     32.7168   2.9011518967e+02   6.4071349418e+00   0.01907755   0.01658505 -43.76 0.0008567204    1.149    0.130
        72 -11.2204     13.5215     59.9503   2.9204034339e+02   7.0037657342e+00   0.01229838  0.008796588  46.31 0.0005566516    1.464    0.317
        73 -10.6521    146.8012     34.7779   2.9034158067e+02   6.4945901407e+00  0.009336445  0.007547625  56.10 0.0005294824    1.341    0.254
