#   1 NUMBER                 Running object number                                     
#   2 MAG_AUTO               Kron-like elliptical aperture magnitude                    [mag]
#   3 X_IMAGE                Object position along x                                    [pixel]
#   4 Y_IMAGE                Object position along y                                    [pixel]
#   5 X_WORLD                Barycenter position along world x axis                     [deg]
#   6 Y_WORLD                Barycenter position along world y axis                     [deg]
#   7 A_WORLD                Profile RMS along major axis (world units)                 [deg]
#   8 B_WORLD                Profile RMS along minor axis (world units)                 [deg]
#   9 THETA_WORLD            Position angle (CCW/world-x)                               [deg]
#  10 FWHM_WORLD             FWHM assuming a gaussian core                              [deg]
#  11 ELONGATION             A_IMAGE/B_IMAGE                                           
#  12 ELLIPTICITY            1 - B_IMAGE/A_IMAGE                                       
         1 -13.8291    170.6158     52.1041   6.6593101641e+01   3.5227391982e+01     1.681467     1.168212  28.36  0.006113986    2.064    0.516
         2 -14.2193    184.9844     37.3522   6.0657967797e+01   3.3720478816e+01    0.9798859    0.8736751 -48.39  0.003738344    1.121    0.108
         3 -13.6719    189.2734     31.2123   5.8568826481e+01   3.3451002143e+01    0.6071895    0.5427561 -53.18  0.001423328    1.109    0.098
         4 -14.6452    206.7765      6.3814   5.0944367149e+01   3.2118729990e+01     1.476397      1.28879  -3.07  0.005895035    1.552    0.356
         5 -13.3663    189.7658     14.9813   5.4262785941e+01   3.5122182890e+01    0.5721949    0.4687899 -63.18  0.001913396    1.041    0.039
         6 -12.3498     59.1941      3.1894   7.2048531266e+01   6.9346651963e+01    0.4902852    0.2057022  49.02  0.002154302    1.983    0.496
         7 -10.0788    109.6479      2.3191   5.9102067298e+01   5.6731283238e+01    0.1469458    0.0933287 -67.14 0.0007047385    1.744    0.427
         8 -12.2162    153.4329    199.9167   1.0415412521e+02   1.2327348086e+01    0.4742166    0.2163884 -49.28  0.002130142    2.589    0.614
         9 -13.4459    246.9135    244.1199   9.3806655177e+01  -5.3292310882e+00    0.8570596    0.4088618 -26.20  0.005757586    1.841    0.457
        10 -18.1390     48.1647    242.2870   1.3305035989e+02   1.8769307892e+01     8.570903     7.235679  17.09   0.05705704    1.354    0.261
        11 -12.7856    149.4751    187.4139   1.0296923662e+02   1.5168147150e+01    0.4238905    0.3881531  89.02  0.001577993    1.478    0.323
        12 -11.7243    154.9812    187.4305   1.0174167915e+02   1.4280069422e+01    0.3481885    0.2856011 -79.38  0.001924765    1.888    0.470
        13 -12.3813     66.0103    198.1992   1.2528491874e+02   2.5504216665e+01    0.4619882    0.2875265 -47.62  0.001643418    1.973    0.493
        14 -10.6568     82.1748    195.3723   1.2074951864e+02   2.3949468392e+01    0.3502108    0.3172482  -8.12   0.00212392    1.288    0.223
        15 -10.6100    207.4761    192.9816   9.2258234092e+01   5.4918702010e+00    0.1766702    0.1075704 -32.12 0.0006863053    1.561    0.359
        16 -12.3179     72.3220    211.3122   1.2498372546e+02   2.1919834032e+01    0.3302457    0.2258837  21.10 0.0005011238    1.468    0.319
        17 -13.3158     75.6284    184.5507   1.2118226633e+02   2.7251100604e+01    0.9052094    0.7940041 -16.21  0.004308772    1.373    0.272
        18 -11.2856     76.4285    206.7660   1.2349798640e+02   2.2321727157e+01    0.3352651    0.2422206 -62.94  0.001124803    1.601    0.375
        19 -11.5852     99.3606    180.8923   1.1426995432e+02   2.4555247563e+01    0.2988767    0.2608021  10.04 0.0005401541    1.217    0.178
        20  -9.6880     52.6644    181.9448   1.2724929656e+02   3.0849259271e+01    0.3047545    0.2023195   4.21  0.001472267    2.019    0.505
        21 -11.1994    149.2307    180.2789   1.0178570443e+02   1.6526319392e+01    0.2396743    0.2279851 -80.98  0.000728884    1.337    0.252
        22 -10.9601    204.6254    176.6250   8.9847222976e+01   8.3092237958e+00    0.3516367    0.2568966 -43.96  0.001557008    1.596    0.373
        23 -19.0000     25.4759    101.4939   1.2653602123e+02   5.4350161939e+01     17.66556     1.254471 -70.93   0.02905162   13.206    0.924
        24 -10.7031    164.0906    170.1950   9.6625862246e+01   1.5880020934e+01    0.2455441    0.1919569 -44.20 0.0004142443    1.395    0.283
        25 -10.0570     58.9957    188.4630   1.2616294682e+02   2.8564322981e+01     0.317389    0.1346055 -49.81  0.001279196    2.907    0.656
        26 -11.0740    230.4032    166.6833   8.3702444764e+01   6.0254374712e+00    0.2290694   0.09897871 -38.07  0.001038303    2.112    0.527
        27  -8.9973     40.3159    167.2688   1.2936252034e+02   3.5803096718e+01    0.1290298    0.1048034 -27.15  0.000238465    1.554    0.356
        28 -10.6190    192.5669    164.9204   8.9846736731e+01   1.2027615698e+01    0.2673249    0.2132538 -23.76 0.0006435426    1.165    0.142
        29 -10.0391    185.1233    169.6540   9.2188794373e+01   1.2460585342e+01    0.2226402    0.1752836 -40.62 0.0008085129    1.367    0.268
        30 -10.5123      6.1992    161.2001   1.3907110034e+02   4.0411714851e+01    0.1999084    0.1636189  31.23 0.0004777354    1.251    0.201
        31 -12.6599     99.5230    152.6188   1.0953113388e+02   3.0941351974e+01    0.6637458    0.5061051 -18.73  0.003167212    1.683    0.406
        32 -11.1004    188.8851    154.7971   8.8537148790e+01   1.4320610523e+01     0.449218    0.2699902  40.50  0.002276895    1.698    0.411
        33 -11.7231    134.0000    144.9596   9.8599704668e+01   2.6323878927e+01     1.114748    0.3132483 -54.24  0.002801597    5.665    0.823
        34 -10.4975    113.4895    151.4709   1.0537035280e+02   2.8736631346e+01    0.3346229    0.2233415  74.62  0.001362262    2.379    0.580
        35 -10.6234    174.5024    148.9803   9.0181336259e+01   1.7879466863e+01    0.2539017    0.2350055  53.85  0.000669702    1.260    0.206
        36 -10.3388    160.5322    147.9049   9.2930792896e+01   2.0667613677e+01    0.2888029    0.2041957 -76.14  0.001255477    2.485    0.598
        37 -10.8891    143.8130    146.8976   9.6582099578e+01   2.4040114826e+01    0.3988347    0.2125537 -55.30  0.001604356    2.304    0.566
        38 -11.8476    109.4503    138.8767   1.0394409511e+02   3.2355051536e+01    0.6566926     0.365241 -32.89  0.002481097    2.489    0.598
        39 -12.6395     98.3580    138.2640   1.0708227089e+02   3.4540653551e+01    0.3183186    0.2832367  40.93 0.0004185551    1.067    0.063
        40 -11.5099    105.9925    130.8077   1.0320332769e+02   3.4885476596e+01     0.392556    0.3520293 -78.27  0.001140528    1.218    0.179
        41 -11.3929    104.0724    125.4775   1.0257217556e+02   3.6504036668e+01    0.3087643    0.2664832   9.71 0.0005979481    1.306    0.234
        42 -10.6857    135.6969    127.7355   9.4308248448e+01   2.9634014421e+01    0.5554348    0.1387229 -48.62  0.001490586    4.442    0.775
        43 -10.7796    116.3238    129.4039   9.9894423455e+01   3.3195282911e+01    0.3076746    0.2715907  -3.64 0.0006959203    1.275    0.216
        44 -10.0775    160.8903    127.7794   8.8378449615e+01   2.4450633115e+01    0.3396728    0.1879278 -51.84  0.001269135    2.071    0.517
        45  -9.8414    120.4868    123.9700   9.7454864334e+01   3.3576134505e+01    0.2305938    0.1533292 -45.24 0.0007169353    1.556    0.357
        46  -9.8512    135.0000    119.9647   9.2614090623e+01   3.1417562710e+01    0.2505537   0.08752269 -45.05 0.0007996406    2.923    0.658
        47 -10.0714    111.1252    118.7515   9.8867556678e+01   3.6663613928e+01     0.225875    0.2025708  61.17  0.000464367    1.146    0.127
        48 -10.2092    168.0046    112.9680   8.3338389730e+01   2.5752221054e+01    0.3299789    0.2293731 -78.29  0.001367463    2.319    0.569
        49 -10.8308    118.7417    110.3065   9.4530864506e+01   3.6966400516e+01    0.6014041    0.2913907  59.58  0.001918612    3.184    0.686
        50 -10.4941    205.5473    110.1501   7.5988370518e+01   1.8644942189e+01    0.2671973    0.1928263  39.59 0.0009095843    1.545    0.353
        51  -9.7329    134.6618    105.5245   8.9001224630e+01   3.4495524516e+01    0.2781329    0.1441827 -43.46   0.00108664    1.959    0.489
        52  -9.3203     74.4036    103.5064   1.0719326639e+02   4.7337055818e+01    0.1515092    0.1479328  79.65 0.0001423157    1.028    0.027
        53  -9.3884     63.3162     99.6410   1.1046156898e+02   5.0148646024e+01    0.1614995    0.1159183  70.52 4.936328e-05    1.754    0.430
        54  -9.5301    128.7523     95.5287   8.7779247281e+01   3.7875553609e+01    0.2142287    0.1478549  61.72 0.0004976739    1.599    0.374
        55  -9.6932     74.0343     73.7159   9.8704765501e+01   5.4456211726e+01    0.2110396    0.1895685  39.65 0.0004244826    1.087    0.080
        56 -11.8091    167.5251     67.4960   7.1430414749e+01   3.3686869274e+01     1.254028    0.5717816 -64.27  0.003532902    5.067    0.803
        57 -11.5962    157.9332    235.8503   1.0845703253e+02   5.9626417749e+00    0.3509596    0.2322901  14.21  0.001158948    1.338    0.253
        58  -9.4721    167.5354    233.5001   1.0620955909e+02   5.0462947873e+00    0.3129561    0.1471258  49.90  0.001218003    4.335    0.769
        59 -11.3722     71.8730    230.5193   1.2683656627e+02   1.8202078620e+01    0.2989198    0.1963919  37.37  0.001445685    1.190    0.160
        60 -12.1357    195.5318    196.9270   9.5112235499e+01   6.5843941949e+00     1.047525    0.8713904  77.64  0.006108729    2.437    0.590
        61 -10.6853     87.6902    202.7712   1.2021239543e+02   2.1617927602e+01    0.3876034    0.2836848 -61.16  0.002185107    1.581    0.368
        62 -11.3064    159.8298    197.2225   1.0233125236e+02   1.1811851314e+01    0.2617539    0.1997863  23.89 0.0002607891    1.139    0.122
