#   1 NUMBER                 Running object number                                     
#   2 MAG_AUTO               Kron-like elliptical aperture magnitude                    [mag]
#   3 X_IMAGE                Object position along x                                    [pixel]
#   4 Y_IMAGE                Object position along y                                    [pixel]
#   5 X_WORLD                Barycenter position along world x axis                     [deg]
#   6 Y_WORLD                Barycenter position along world y axis                     [deg]
#   7 A_WORLD                Profile RMS along major axis (world units)                 [deg]
#   8 B_WORLD                Profile RMS along minor axis (world units)                 [deg]
#   9 THETA_WORLD            Position angle (CCW/world-x)                               [deg]
#  10 FWHM_WORLD             FWHM assuming a gaussian core                              [deg]
#  11 ELONGATION             A_IMAGE/B_IMAGE                                           
#  12 ELLIPTICITY            1 - B_IMAGE/A_IMAGE                                       
         1 -13.3735    230.4645      6.9452   3.1899373422e+01   2.7516574705e+01      1.47288    0.8636276  56.96  0.005379536    1.989    0.497
         2 -13.2547    197.1381     42.1542   4.3325860782e+01   3.0834853312e+01     1.075498     0.948117 -75.10  0.003309827    1.015    0.015
         3 -13.6915    205.8122     33.4741   4.0130340230e+01   2.9933871690e+01     1.107641    0.9539515  -4.10  0.001351987    1.565    0.361
         4 -11.5510    223.3328     30.1595   3.7540653436e+01   2.6391346901e+01    0.5039943    0.3630339  23.54  0.002690563    2.396    0.583
         5 -12.0687     41.4697      7.9334   6.8143177735e+01   6.9088227093e+01    0.3963534    0.2278807  33.24  0.002343128    1.553    0.356
         6 -11.7579     32.0318      5.4670   7.1209228025e+01   7.0740621851e+01    0.4247395    0.2410021 -21.69  0.002556781    1.640    0.390
         7 -10.8762     60.1420      2.2788   5.7984585220e+01   6.6510508367e+01    0.4134871   0.09672188  53.18  0.001486427    4.039    0.752
         8  -9.7400     48.9897      2.0000   6.1966348944e+01   6.8498137160e+01    0.1899666   0.05901005  48.20 0.0008047792    2.959    0.662
         9  -9.6779     89.5977    211.6509   1.0552944489e+02   1.8542803175e+01    0.2534859    0.2054594  84.30 0.0009165617    1.235    0.190
        10 -10.8226    140.3241    249.9944   9.9660096963e+01   3.4212034214e+00    0.4491976    0.1898342  37.92  0.002129316    1.951    0.488
        11 -10.7793    139.4261    242.9310   9.8921797210e+01   4.7445987312e+00    0.4999492    0.1935213 -58.52  0.002040841    3.687    0.729
        12 -15.9587     57.9435    184.9090   1.0961253331e+02   2.9068490241e+01     18.78663     8.440154  84.17   0.03993889    4.227    0.763
        13 -16.8088      4.7863    216.4294   1.2384567590e+02   2.7793065977e+01     14.19931   0.05357242 -74.31   0.02517014    9.157    0.891
        14 -11.1850    121.4902    197.1166   9.6139242102e+01   1.6553045537e+01    0.4952471    0.2833247 -71.38  0.001157053    2.424    0.587
        15 -11.3132     61.5951    198.9556   1.1038332678e+02   2.5325812888e+01    0.3382245    0.2376502 -63.59 0.0006646313    1.432    0.302
        16 -17.6387     10.4914    245.4972   1.2427836690e+02   2.1434022847e+01     6.162381     4.960351  51.90   0.02274713    1.302    0.232
        17 -10.2470    204.4036    198.2170   7.8377484804e+01   1.8779946980e+00    0.2994129    0.1862798 -62.39  0.000891088    3.093    0.677
        18 -11.0205    192.8651    194.6465   7.9996214219e+01   4.4536331162e+00    0.8954307    0.4676656 -62.90  0.002712263    5.685    0.824
        19  -9.0927     82.2500    194.9764   1.0507001268e+02   2.3338344060e+01    0.2454425    0.1899641  41.37 0.0009287677    1.264    0.209
        20 -10.4441    147.6661    187.2484   8.8369942207e+01   1.4010198854e+01     0.505116     0.338003 -56.54  0.002053337    1.665    0.399
        21 -10.4539    185.1047    205.6444   8.3616258006e+01   3.8214283872e+00    0.2865794    0.1631444  23.91  0.001314852    1.947    0.487
        22  -9.6706    120.1869    186.2115   9.4638260759e+01   1.9171223058e+01    0.1963486    0.1640692  73.23 0.0002738688    1.300    0.231
        23 -10.3497    115.1718    200.0151   9.8063029403e+01   1.6995384726e+01    0.3399494    0.1962772  72.64  0.001304798    3.005    0.667
        24 -11.6247    111.8915    197.1293   9.8382735221e+01   1.8170270822e+01      1.19208    0.6452631   9.71  0.002993359    7.615    0.869
        25  -9.7124     99.3874    180.8896   9.8829209095e+01   2.3923299816e+01    0.2547984    0.2051198  34.26 0.0005616843    1.284    0.221
        26  -8.5619     90.4668    181.4737   1.0113689824e+02   2.5219982111e+01     0.142602    0.1305845  75.53 3.089464e-05    1.016    0.015
        27  -8.6371     93.4102    179.2666   1.0005784906e+02   2.5273612779e+01    0.1926516    0.1341204 -76.48  0.000384984    1.557    0.358
        28  -9.7359     40.1230    177.5879   1.1310056784e+02   3.2965238917e+01    0.2732525    0.1807771  62.93 0.0007738856    1.467    0.318
        29 -10.2708    187.1487    175.6001   7.7413012331e+01   9.0176837244e+00    0.3446688    0.3159315 -56.11  0.001013652    1.255    0.203
        30 -13.7482     43.8821    111.3755   1.0217658288e+02   4.8930708478e+01     2.704766      1.54621  62.29   0.01161178    2.624    0.619
        31 -13.1082     72.3935    153.5902   1.0135565413e+02   3.4748957939e+01     0.730662    0.5184221 -58.20 0.0009181393    1.329    0.248
        32 -14.5739     68.7122    144.0446   1.0072414596e+02   3.7661670459e+01     4.991794     2.178387  61.13  0.003577649    5.118    0.805
        33 -11.7599     71.9597    171.2396   1.0427444245e+02   3.0455784328e+01    0.4873546    0.3436902 -38.02  0.001310584    1.775    0.436
        34 -11.3245     75.9359    166.9935   1.0259303733e+02   3.0918091647e+01    0.3675142    0.3112366 -57.45 0.0009766497    1.191    0.161
        35 -11.2352    111.3507    203.8114   9.9517391681e+01   1.6810570008e+01    0.4322904     0.282632  84.16  0.001274907    2.173    0.540
        36  -9.1883    146.0117    171.0309   8.5634934878e+01   1.7792162894e+01    0.2376216    0.1856589  78.56 0.0007569252    1.687    0.407
        37  -8.3898    193.4561    170.4921   7.5059252066e+01   8.8204315208e+00    0.1441735    0.1322087  -8.77 9.507043e-05    1.013    0.013
        38  -9.8582    240.2235    169.3710   6.6138864585e+01   8.4020294262e-01    0.1638787    0.1252808  48.64 0.0003813551    1.635    0.388
        39  -8.9584    148.1248    174.8654   8.5900632979e+01   1.6557403574e+01    0.2211182    0.2001911  73.66  0.000543504    1.234    0.190
        40 -11.0080    107.5076    203.5343   1.0036071560e+02   1.7496572582e+01    0.4076064    0.2586499  71.33  0.001876062    2.072    0.517
        41  -9.9035     33.2389    204.5951   1.1724908627e+02   2.7483897710e+01    0.4308124    0.2296119  54.50  0.002332356    1.684    0.406
        42 -11.5807     90.8465    151.6677   9.5925768090e+01   3.2374272249e+01    0.7188184    0.5351852 -20.78  0.003363556    1.840    0.456
        43 -12.2576     83.6889    159.2055   9.9244766325e+01   3.1660727728e+01     1.147295    0.7692561  78.74  0.005190513    1.897    0.473
        44 -10.8616    133.9068    145.5043   8.3180109593e+01   2.5917811308e+01     1.235647    0.3360601 -54.43  0.003014627    5.144    0.806
        45  -9.0546    111.3578    149.6358   8.9959165335e+01   2.9291735370e+01    0.3859359    0.2206313  69.38  0.001292284    3.271    0.694
        46 -10.9258     40.3587    147.3003   1.0928979993e+02   4.0371112472e+01    0.4199449    0.2636233 -55.81  0.001648919    1.477    0.323
        47 -10.4825    103.9246    137.9234   8.9476622376e+01   3.3479594406e+01    0.5948514    0.3645373 -24.19  0.002222015    2.665    0.625
        48 -10.1864    106.0883    130.9022   8.7282719244e+01   3.4776788472e+01    0.3728164    0.3386066 -61.18  0.001234263    1.080    0.074
        49 -11.5926     91.4434    137.6313   9.2942140404e+01   3.5737246248e+01    0.2923835    0.2718663 -32.88   0.00143371    1.143    0.125
        50  -9.7536     43.9657    138.4745   1.0695189826e+02   4.2184077331e+01     0.264797    0.1763199 -85.52 0.0006038658    1.554    0.357
        51 -11.3864     46.1718    134.8898   1.0572735457e+02   4.2834726020e+01    0.4695502    0.2729519  42.86  0.002278833    1.853    0.460
        52 -11.4535     44.2843    129.7167   1.0542991996e+02   4.4341527769e+01    0.3754145    0.2710943 -71.06   0.00148018    1.255    0.203
        53 -12.3200     41.0469    125.4901   1.0570121801e+02   4.5747806494e+01    0.7466785    0.4791402 -72.80  0.003807826    1.462    0.316
        54  -9.5849    174.5702    149.2855   7.4434616355e+01   1.6750577910e+01    0.2695836    0.2450414  23.58 0.0006603759    1.123    0.109
        55 -10.2279    112.7650    129.1471   8.5002344459e+01   3.3928900062e+01    0.3447837    0.2809207  10.98 0.0009054195    1.492    0.330
        56  -9.3592    161.3862    128.1872   7.2406069101e+01   2.3984503485e+01    0.2303545    0.1432769 -52.61 0.0009545097    1.701    0.412
        57 -10.3146     99.8541    124.9351   8.7667055580e+01   3.7357903106e+01    0.3177818    0.2687593   0.64  0.001234867    1.416    0.294
        58 -10.9565    119.4039    122.6962   8.1596446437e+01   3.4129727572e+01    0.5345564     0.356235  -3.12  0.001973526    2.741    0.635
        59  -9.3458    108.5315    118.1838   8.3508059724e+01   3.7330322967e+01    0.2492098    0.2160385  41.53 0.0004096416    1.188    0.158
        60  -9.8783    231.3590    113.7492   5.5648096148e+01   1.1933134886e+01    0.2497202    0.2361246 -32.11 0.0008064827    1.086    0.079
        61  -8.6116    167.7800    112.5546   6.7030511760e+01   2.5813665299e+01    0.2123549    0.1502771  64.56 0.0009351363    1.654    0.396
        62  -8.8477    133.6971    100.2437   7.1803283775e+01   3.6064986857e+01    0.4386033    0.2524011 -71.00   0.00135352    3.782    0.736
        63  -9.7980    134.8685    106.4472   7.3214955060e+01   3.4491205270e+01    0.5810267   0.09684505 -44.62  0.001269205    5.914    0.831
        64 -11.4658    116.2049    109.0335   7.8942849540e+01   3.7899806500e+01    0.6141015    0.5327349   5.71  0.003078304    1.315    0.240
        65 -12.8959     54.5103    147.1129   1.0528564466e+02   3.8775884498e+01      1.50892    0.9621298 -40.15  0.007288149    1.833    0.454
        66  -9.3402    205.6495    110.1173   5.9004835757e+01   1.7868652803e+01    0.2576862    0.2147663  43.38 0.0005784843    1.313    0.238
        67  -8.8693    129.0110     96.3450   7.1922727741e+01   3.7917121781e+01     0.222815    0.1954252  49.05 0.0006973565    1.157    0.136
        68 -11.4061     53.3210     93.9434   9.5016669156e+01   5.1993378126e+01    0.5505823     0.420734  74.81   0.00284873    1.798    0.444
        69  -8.8283    157.0360     89.0573   6.3068077552e+01   3.2926407264e+01    0.2551374    0.1871652 -76.74  0.001124647    1.796    0.443
        70  -9.7837     40.5244     88.5366   9.8306903759e+01   5.4734354405e+01    0.2401572    0.1262205 -70.16 0.0007046626    2.313    0.568
        71  -9.7934    164.5213    211.9862   8.9022016250e+01   6.1682199956e+00    0.2001964    0.1346226 -44.68   0.00103971    1.613    0.380
        72  -8.3242    157.5458     82.5378   6.1116674529e+01   3.4018353701e+01    0.1500082    0.1466621 -76.25 0.0001159971    1.003    0.003
        73  -9.8410    160.6357    212.5878   8.9949333013e+01   6.7163575403e+00    0.2730788    0.1175821  26.07 0.0009526249    3.298    0.697
        74  -8.2618    184.3947     77.2871   5.4436730568e+01   2.8535377514e+01    0.1507245    0.1133496  25.93 0.0007001715    1.772    0.436
        75  -9.3973     60.0712     68.0186   8.5097087096e+01   5.6748144738e+01    0.2040441    0.1833576 -24.93 0.0003105912    1.033    0.032
        76 -10.2161    143.0398    208.9206   9.3163755698e+01   1.0419683903e+01    0.2463229    0.2040914 -82.26  0.001367591    1.510    0.338
        77 -12.9200    185.5172     51.2375   4.7305715227e+01   3.2349588737e+01     0.917284    0.8382518  -8.65 0.0009508051    1.316    0.240
        78  -8.6125    157.7009    235.3263   9.4128939869e+01   3.1698395376e+00    0.1237983   0.09641108  63.22 0.0007027721    1.634    0.388
        79  -8.6249    168.7759    233.8043   9.1648767555e+01   1.6721112926e+00    0.1601335    0.1423111  52.56 0.0003395934    1.312    0.238
        80 -10.9860    157.4917    220.5986   9.1920288274e+01   5.7780917974e+00    0.4144453     0.231002 -65.51  0.001503553    3.109    0.678
        81  -8.6016     73.9974     54.9898   7.5450910350e+01   5.6990938982e+01    0.1666372    0.1497581  -2.91 0.0003898045    1.004    0.004
        82 -10.5552    184.2257    211.4492   8.4828410359e+01   2.9531846833e+00    0.2650161    0.1209137  33.71  0.001145534    2.101    0.524
        83  -9.1585    189.6831     15.0352   3.7332787821e+01   3.5856036708e+01    0.1755628    0.1564634 -64.88 0.0006081063    1.117    0.104
        84 -10.0356    150.5028    220.4777   9.3382240222e+01   6.9589370186e+00    0.2483414    0.1197904  27.96 0.0009069291    2.328    0.570
        85  -8.5987     37.9637    215.9039   1.1717276724e+02   2.4480290713e+01    0.1842528     0.109985  63.96 0.0004506979    1.485    0.327
        86 -10.9779    104.4274    210.0568   1.0198385281e+02   1.6594530646e+01    0.5733994     0.127116 -57.64  0.001763875    4.680    0.786
