#   1 NUMBER                 Running object number                                     
#   2 MAG_AUTO               Kron-like elliptical aperture magnitude                    [mag]
#   3 X_IMAGE                Object position along x                                    [pixel]
#   4 Y_IMAGE                Object position along y                                    [pixel]
#   5 X_WORLD                Barycenter position along world x axis                     [deg]
#   6 Y_WORLD                Barycenter position along world y axis                     [deg]
#   7 A_WORLD                Profile RMS along major axis (world units)                 [deg]
#   8 B_WORLD                Profile RMS along minor axis (world units)                 [deg]
#   9 THETA_WORLD            Position angle (CCW/world-x)                               [deg]
#  10 FWHM_WORLD             FWHM assuming a gaussian core                              [deg]
#  11 ELONGATION             A_IMAGE/B_IMAGE                                           
#  12 ELLIPTICITY            1 - B_IMAGE/A_IMAGE                                       
         1 -14.9036    188.1992     77.1241   7.4464502636e+01   2.7485228916e+01      6.76856     2.365981 -40.67   0.01488822    2.703    0.630
         2 -13.2132    205.8865      9.5530   5.4881536406e+01   3.2378124373e+01     1.981636     1.051589  -6.80  0.008142899    3.974    0.748
         3 -15.6146    212.1256     68.5557   6.8516205197e+01   2.3143248952e+01     11.57774     3.379634 -51.25   0.02721758    4.801    0.792
         4 -14.6225    220.1053     54.9331   6.4178121008e+01   2.3342458544e+01     3.101236     1.045826  51.87    0.0112815    3.411    0.707
         5 -13.1768    215.7996     11.4689   5.4468302039e+01   2.9852585257e+01     1.172997    0.4706108 -26.33    0.0023859    3.036    0.671
         6 -14.9816    240.9147     82.1695   6.7873959726e+01   1.4648265483e+01      3.72207     1.477413 -39.45   0.01566497    2.165    0.538
         7 -14.7654    171.3175     68.2739   7.5099623006e+01   3.3159592643e+01     5.001329     2.572219 -57.80   0.01314809    2.572    0.611
         8 -14.0481    249.4883      3.1258   5.0309541303e+01   2.3371108618e+01    0.7272583    0.5278581 -17.80  0.003513073    2.038    0.509
         9 -14.9306    231.8796      8.4659   5.2554642393e+01   2.6548299219e+01     1.458249     1.176883 -35.58  0.007579475    1.436    0.303
        10 -11.7746    133.8130     18.6646   6.6818798722e+01   4.9386784468e+01    0.6626697    0.5697193  29.09  0.003495516    1.261    0.207
        11 -11.4483    119.2719      9.7150   6.6467811671e+01   5.3810885749e+01    0.6519659    0.3581823  43.50  0.002896093    1.710    0.415
        12 -10.6844    188.9458      7.4906   5.5970650773e+01   3.6670417862e+01    0.3312926    0.1985528 -36.84 0.0006866021    1.735    0.424
        13 -10.0257    183.0452      4.3926   5.5767462218e+01   3.8416869952e+01    0.5310333    0.2475812  69.18  0.002544364    1.811    0.448
        14 -16.1977    243.6175     25.5533   5.5259888505e+01   2.2031630725e+01     6.516553     1.093095  61.26   0.02186622    5.087    0.803
        15 -10.3680    159.6779     14.0549   6.1215686513e+01   4.3330556136e+01    0.3519682    0.2112037 -31.40  0.001151341    1.837    0.456
        16  -9.8200    172.0894      3.1811   5.6596912015e+01   4.1239410477e+01    0.4022554    0.1552558 -31.30  0.001772111    2.683    0.627
        17  -9.1113    135.3353      3.3114   6.1436953850e+01   5.0409896061e+01    0.2171046    0.1580685   8.04  0.000853339    1.741    0.425
        18  -9.2780    195.2664     10.7233   5.6157503647e+01   3.4803459679e+01    0.2621793    0.1397212 -54.84  0.001303315    1.828    0.453
        19 -11.5220     25.2101    167.1690   1.3707367560e+02   3.7634491416e+01    0.3900014    0.2848781 -57.39  0.002342979    1.441    0.306
        20 -10.9302    230.6414    167.2777   8.8090962729e+01   2.3510394184e+00    0.3392752    0.2179754 -41.51  0.001755139    1.529    0.346
        21 -10.9333    213.5669    167.3375   9.1238020001e+01   5.4083910368e+00    0.6193997    0.3526053  64.02  0.002295222    3.595    0.722
        22 -11.9290    238.4035    244.9860   1.0097614960e+02  -1.0162263596e+01    0.2218493    0.1823132   8.69 0.0003606703    1.188    0.159
        23 -10.1426    150.7050    222.1973   1.1448826761e+02   6.8182973457e+00     0.239174    0.2065496  41.18 0.0002444579    1.059    0.056
        24 -10.0529     36.9980    214.4889   1.3841593749e+02   2.5577394771e+01     0.180974    0.1078191  38.89 0.0006987876    1.607    0.378
        25  -8.9498    166.0683    160.1130   9.9637997289e+01   1.6211690132e+01    0.2269523    0.1977464   3.44  0.001159372    1.257    0.204
        26  -8.9577    159.4609    158.4173   1.0080079959e+02   1.7939775840e+01    0.2764534    0.1465563 -57.47  0.001027218    2.393    0.582
        27 -10.0525    212.9987    155.7651   8.8886824579e+01   7.5889692407e+00    0.2388797    0.2105989 -40.01 0.0003838958    1.151    0.131
        28  -9.3782    203.7886    152.7267   8.9995010488e+01   9.9542458736e+00    0.2511064    0.2091455 -32.01 0.0008326977    1.152    0.132
        29 -10.6508    192.0578    151.9688   9.2186122598e+01   1.2477869885e+01    0.5087992    0.2940593 -61.65  0.001915575    2.760    0.638
        30  -9.7760    152.0850    149.6401   1.0062404355e+02   2.1392123662e+01    0.2491722    0.2145639 -64.50 0.0005530589    1.263    0.208
        31 -10.1159    134.0000    147.0740   1.0456879842e+02   2.5763123149e+01    0.7321138     0.221213 -51.24  0.002132034    3.531    0.717
        32  -9.6176    133.0000    141.0169   1.0346135728e+02   2.7366403562e+01      0.54839    0.1864521 -54.78  0.001569472    3.657    0.727
        33  -8.6440    219.2451    149.2187   8.6309240130e+01   7.5641619829e+00    0.1797971    0.1638743 -72.74 0.0003811845    1.338    0.252
        34 -12.6031     43.1264    167.5678   1.3255404357e+02   3.5642980738e+01    0.5706957    0.4779316 -86.69  0.001392671    1.047    0.045
        35 -11.5944    179.3928    145.8493   9.3485827345e+01   1.6354940296e+01    0.6707084    0.4447702  58.36  0.002946088    1.763    0.433
        36  -8.7528    222.8733    145.4633   8.4838364098e+01   7.5347211253e+00    0.1967317    0.1396443  46.65   0.00100637    1.528    0.346
        37 -10.1021    199.0214    144.7052   8.9145665060e+01   1.2442796716e+01    0.2763214    0.2117686 -65.68  0.001331002    1.659    0.397
        38  -9.7201    192.1410    144.0710   9.0388883483e+01   1.4002625066e+01    0.2458917    0.2118727  49.10   0.00046767    1.210    0.173
        39 -11.1728    157.7635    140.9234   9.7263162493e+01   2.2074795260e+01    0.8773998    0.5400687  81.05  0.002678931    3.856    0.741
        40 -10.1692    191.5571    192.4431   1.0066168114e+02   4.9636636898e+00     0.585187    0.3504884 -70.62  0.001864329    5.299    0.811
        41 -11.4861    188.7338    138.6403   8.9838054018e+01   1.5797064715e+01    0.4246514    0.3861763  52.93  0.001326608    1.150    0.131
        42 -10.7256    174.2812    137.7721   9.2727919342e+01   1.9120048748e+01    0.2947014    0.2397367 -75.22  0.001403136    1.517    0.341
        43 -10.0463    166.6727    136.5525   9.4150688552e+01   2.1052637407e+01    0.4985049    0.2457524 -46.12  0.001258712    2.052    0.513
        44 -11.2926    211.7188    136.4334   8.4838638491e+01   1.1379660583e+01    0.3657377    0.3218809  15.84  0.001349706    1.217    0.178
        45 -10.4755    177.7784    132.6083   9.0731674195e+01   1.9407787647e+01    0.2724451    0.2044807 -77.68  0.001200606    1.834    0.455
        46  -9.4087    145.5180    136.0101   9.9089688742e+01   2.5828421378e+01    0.2277023    0.1398767 -70.25 0.0008102669    2.567    0.611
        47  -9.8868    160.0494    137.0696   9.5812119239e+01   2.2405750273e+01    0.2488084    0.1963323 -88.43 0.0006336056    1.665    0.399
        48 -11.3773    189.8312    131.6050   8.7957048636e+01   1.6947298373e+01    0.5015504    0.2458441  53.63  0.001917429    2.258    0.557
        49 -12.4134    140.8553    121.1009   9.6591135616e+01   3.0179728805e+01    0.8224874    0.5876748  74.48  0.002850392    1.888    0.470
        50 -10.7253    126.9369    111.7917   9.7848673108e+01   3.5338715315e+01    0.4983717    0.3123202 -63.13  0.001245479    2.028    0.507
        51 -12.8213    123.2430    101.8017   9.6137872302e+01   3.8351234356e+01     2.089045     1.397697  66.76  0.008597868    1.960    0.490
        52 -11.0854    134.1700     97.2368   9.1882447486e+01   3.6850733958e+01    0.6110222    0.4243398  59.58  0.001471285    1.564    0.361
        53 -12.0792    135.2442    107.3131   9.4409629857e+01   3.4466324011e+01      1.59452     0.638238 -39.46   0.00523559    2.705    0.630
        54 -11.6470    141.5285    104.6357   9.2051526035e+01   3.3593240984e+01    0.6347138    0.5346231 -72.66  0.002076213    1.342    0.255
        55 -11.8290    147.8185    100.6866   8.9393627211e+01   3.2938257692e+01    0.9840918    0.7790438 -76.56  0.002416425    1.539    0.350
        56 -10.8022    160.4842    128.2710   9.3576496812e+01   2.4194465307e+01    0.3889086    0.3027839 -51.00  0.001828869    1.314    0.239
        57 -10.1843    222.9596    128.4981   8.1047608256e+01   1.0530939324e+01    0.3897824    0.2054907  60.70  0.001606181    2.535    0.606
        58  -9.0237    217.0927    124.9199   8.1240591233e+01   1.2371717685e+01    0.2217757    0.1878098 -63.22 0.0005373612    1.296    0.228
        59 -10.3560    141.1286     90.5191   8.8163067949e+01   3.6581831662e+01    0.5600774    0.3073219 -41.15 0.0006199671    1.851    0.460
        60  -8.8233    210.8298    123.4250   8.1999961535e+01   1.3959920761e+01    0.2025727    0.1363385  37.04 0.0009428746    1.686    0.407
        61 -11.2649    167.3828    114.0411   8.8397236040e+01   2.5580921924e+01    0.4912218    0.4682515  31.06 0.0008031093    1.090    0.082
        62  -9.7643    225.4894    122.1392   7.9182643332e+01   1.1142955185e+01    0.3237426     0.244415 -87.54  0.001040123    1.852    0.460
        63  -9.4556    174.6653    114.7597   8.6986176489e+01   2.3735533487e+01    0.2976847    0.2379835 -85.64 0.0009004466    1.548    0.354
        64 -10.7362    157.0307    113.1136   9.0532288436e+01   2.8193597681e+01    0.5039788    0.3219709 -69.74  0.001199483    2.369    0.578
        65 -11.2349    120.8950    111.6270   9.9481574804e+01   3.6684822537e+01    0.4783466    0.3227284  68.49  0.001943188    2.014    0.503
        66 -12.4738    133.9751    122.5481   9.8750658216e+01   3.1380277482e+01     1.549477    0.6687358 -58.66  0.004609353    3.513    0.715
        67 -10.1632    206.7570    103.2648   7.7896532987e+01   1.8523086912e+01    0.3570948    0.2426848 -81.83  0.001503092    2.129    0.530
        68 -13.5259     12.1298    187.0649   1.4178975498e+02   3.4220885906e+01    0.9388308    0.6962782  78.17  0.003771836    1.072    0.067
        69  -9.3180    205.4474    190.4728   9.7478486314e+01   2.8325168011e+00    0.2454821    0.1240463  50.23  0.001028383    2.455    0.593
        70 -10.6925    157.4116     94.4873   8.5403807859e+01   3.1877990405e+01    0.5274056    0.3451028  28.67  0.002135235    2.048    0.512
        71 -10.9482      3.7652     95.0069   1.3490697488e+02   5.6621802180e+01    0.2567698    0.1822433 -43.10  0.001616035    1.338    0.253
        72  -9.0860    172.9872     90.9920   8.1076008377e+01   2.8748709180e+01    0.2258606    0.2164367  76.82 0.0003364783    1.028    0.027
        73 -11.5516    196.2511     96.4121   7.8040852589e+01   2.2172739328e+01    0.5626906    0.4542389 -42.54  0.001557435    1.193    0.162
        74 -12.0718    156.2291     83.9552   8.2690466325e+01   3.4176406161e+01    0.8202617    0.4449868  46.66  0.001222515    1.853    0.460
        75 -11.2814    125.9568     76.2665   8.7793071805e+01   4.2927543648e+01    0.7428477    0.4358249  46.41  0.003148556    1.656    0.396
        76 -11.5361    117.8038     74.8599   8.9591849657e+01   4.5069622136e+01    0.9763489     0.363348  49.84  0.002614917    2.663    0.625
        77  -9.4844    107.9280     76.4874   9.2995312358e+01   4.6939734942e+01    0.2343354     0.146466  45.32  0.000762138    1.574    0.365
        78 -13.7047    249.7184     47.4095   5.9331234958e+01   1.7923922015e+01     0.743045     0.602284 -89.97  0.002802886    1.209    0.173
        79  -9.5254    151.5398     72.0067   8.0231429179e+01   3.7491318377e+01    0.3698813    0.2306449 -52.78  0.001152434    1.791    0.442
        80 -10.4759     83.9215     71.4287   9.9117861251e+01   5.2743569874e+01    0.4324252    0.2427488  56.46  0.001733087    2.526    0.604
        81 -10.3592      8.6030     69.1793   1.2846853514e+02   6.2241803889e+01    0.1897413   0.08305765 -54.27 0.0009584765    1.720    0.419
        82 -11.4319    118.7379     64.7816   8.6049885305e+01   4.6690071875e+01    0.5348039    0.3076528 -47.89  0.001290857    1.942    0.485
        83 -11.1554    105.9943     58.7609   8.7644642618e+01   5.0606280542e+01    0.4791309    0.2657604  26.72  0.001836501    2.556    0.609
        84 -11.9412     35.5423    183.0983   1.3607165908e+02   3.2789745041e+01    0.6863502    0.3490996  76.94  0.003224981    2.133    0.531
        85  -8.8409     72.5590     58.1198   9.8627291912e+01   5.7316424956e+01     0.200388    0.1309665 -41.32 0.0007686208    1.513    0.339
        86 -11.4833    100.4307     64.0194   9.1161538101e+01   5.0882932545e+01    0.4486227    0.3180776  22.52  0.002122359    1.627    0.385
        87 -11.4732    226.5100    172.9583   8.9992966402e+01   2.1187602988e+00    0.4890381    0.3622621  -1.17  0.002668351    1.449    0.310
        88  -8.6347     99.9425    163.2579   1.1682963659e+02   2.8445930731e+01    0.1906583    0.1788943  57.34 0.0002263013    1.049    0.047
        89 -10.8967    122.8786     38.4530   7.5959817053e+01   4.9762799923e+01    0.3092049    0.2960734  12.10  0.001177054    1.101    0.092
        90  -9.9272    200.9818    173.8295   9.5046286067e+01   6.5902559887e+00    0.3942285    0.2335925 -22.98  0.001725762    2.048    0.512
        91 -10.8448    125.3482     33.2594   7.3571121392e+01   4.9830264318e+01    0.5258698    0.2970896 -58.84  0.001899461    2.646    0.622
        92 -10.7589    145.3121     28.3348   6.7892534608e+01   4.5440472617e+01    0.3150635    0.3070633  19.66  0.001659444    1.153    0.133
        93  -9.8369    144.6778     24.6395   6.6822745742e+01   4.6021123188e+01    0.3009656    0.2259843  15.80  0.001578004    1.702    0.412
        94 -10.3880    158.9366     26.3649   6.4989771972e+01   4.2203703231e+01     0.476776    0.2780965 -37.08  0.002306661    1.810    0.448
        95  -8.8292    101.0095    175.9870   1.1875083523e+02   2.5230052747e+01    0.1970402    0.1831356  64.17            0    1.020    0.020
        96 -11.9131     28.6894    173.3298   1.3679995451e+02   3.5820618728e+01    0.4424778    0.2420625 -65.50  0.002329637    1.660    0.398
        97 -13.6949    248.4642     38.9949   5.7671916172e+01   1.9308347037e+01    0.5610871     0.422307 -44.40  0.001557307    1.240    0.194
        98  -9.2571    250.2408    174.1840   8.6144716133e+01  -1.9940527615e+00     0.196333    0.1507203  -7.96 0.0006004761    1.216    0.177
        99 -10.6217    235.2299    173.8757   8.8626247005e+01   4.8217290724e-01     0.303117    0.2275733  36.43 0.0009973911    1.405    0.288
       100  -9.9007    244.5802    172.2645   8.6701751320e+01  -7.9602704065e-01    0.2292718    0.1492734  15.42 0.0008225287    1.803    0.445
       101 -12.1046     68.2793    146.3291   1.2262437313e+02   3.7676612231e+01     1.625639     1.053435 -50.01  0.006098855    1.567    0.362
       102 -12.7007     49.7912    163.2737   1.3028272877e+02   3.5902956353e+01    0.9067661     0.682451  84.93  0.002874392    1.252    0.201
       103 -12.4442     55.4875    158.9903   1.2817698596e+02   3.6248726942e+01    0.7833433    0.5305743 -89.68  0.001713057    1.506    0.336
