#   1 NUMBER                 Running object number                                     
#   2 MAG_AUTO               Kron-like elliptical aperture magnitude                    [mag]
#   3 X_IMAGE                Object position along x                                    [pixel]
#   4 Y_IMAGE                Object position along y                                    [pixel]
#   5 X_WORLD                Barycenter position along world x axis                     [deg]
#   6 Y_WORLD                Barycenter position along world y axis                     [deg]
#   7 A_WORLD                Profile RMS along major axis (world units)                 [deg]
#   8 B_WORLD                Profile RMS along minor axis (world units)                 [deg]
#   9 THETA_WORLD            Position angle (CCW/world-x)                               [deg]
#  10 FWHM_WORLD             FWHM assuming a gaussian core                              [deg]
#  11 ELONGATION             A_IMAGE/B_IMAGE                                           
#  12 ELLIPTICITY            1 - B_IMAGE/A_IMAGE                                       
         1  -7.0852     24.5724     39.0030   8.4629128986e+01   6.6687500592e+01     1.316887    0.9199342  67.46  0.005809107    4.367    0.771
         2 -12.6566     43.0150     45.7139   7.8482645610e+01   6.3345785583e+01     1.030961    0.8702191  71.52 0.0008170042    2.102    0.524
         3 -12.3496    125.2406     27.8479   4.5642710859e+01   4.9776256210e+01    0.6463288    0.4567192  55.42  0.002284092    1.242    0.195
         4 -12.7457    117.8538     44.0499   5.2554881767e+01   4.9493329927e+01     1.460598    0.8451036  64.98  0.006722964    1.899    0.473
         5 -12.5903    119.4687     37.3202   4.9960563035e+01   4.9996496775e+01    0.8529482    0.5458309 -57.41  0.002248968    2.086    0.521
         6 -12.3007    106.1170     33.0188   5.1681082922e+01   5.3530074343e+01    0.7790009    0.4725584  18.36  0.002620543    2.283    0.562
         7 -11.6694    165.5575     17.5232   3.6189168348e+01   4.1446083002e+01    0.9421274    0.5001984  25.80  0.003748317    4.104    0.756
         8 -11.5359    157.4026     42.9012   4.4243692316e+01   4.0422542454e+01    0.9750684    0.8330734  59.08  0.004788567    1.125    0.112
         9 -11.4393    105.9738     20.4453   4.7280138749e+01   5.4944571176e+01    0.5496672    0.4338591 -55.47  0.002559109    1.573    0.364
        10 -11.2668     79.3641     34.0315   5.9737848097e+01   5.9023293636e+01    0.8682683    0.5013211 -29.83  0.003134561    1.839    0.456
        11 -11.4751    182.8368     26.2067   3.6275392978e+01   3.6552894629e+01    0.5099997    0.4179858  30.19   0.00284756    1.641    0.390
        12 -10.1597    125.4324     20.9438   4.3390087590e+01   5.0459195802e+01    0.8604274    0.4482772 -82.64  0.003080637    4.205    0.762
        13 -10.9319    145.8477     23.8107   4.0716481453e+01   4.5394014532e+01     0.888315    0.3106702  46.32  0.003364039    3.184    0.686
        14 -11.1118    139.4787     30.1997   4.3677584160e+01   4.6189056785e+01    0.6048589    0.3027708 -14.85  0.001236366    3.070    0.674
        15 -11.7562    136.0280     22.9621   4.2099247086e+01   4.7784892164e+01      1.29932    0.9219818 -75.58  0.007147013    1.672    0.402
        16 -10.6051    147.9290     16.4541   3.8287630346e+01   4.5653486351e+01     0.529218    0.2620802  35.16  0.002285669    2.978    0.664
        17 -12.1882    134.1182     15.2447   4.0074533408e+01   4.8993483271e+01     1.773819    0.6907572  78.16  0.006282197    3.752    0.733
        18 -10.7361     59.8487     23.5704   6.2313689925e+01   6.3970265012e+01     0.375212    0.2042035 -21.60   0.00173623    1.982    0.495
        19 -10.3792     47.1376     19.2082   6.5488452480e+01   6.6634970890e+01    0.3017168    0.2143584 -11.43   0.00134716    1.340    0.254
        20 -11.7610     27.1931     27.9591   7.8803122589e+01   6.8205456620e+01     0.540057    0.3996972  -8.60   0.00237155    1.112    0.101
        21 -12.1114     36.1832     17.6157   6.9673196269e+01   6.8489934642e+01    0.7288337    0.4284533 -27.06  0.002779101    1.651    0.394
        22 -11.8937     48.6664     12.9026   6.1915596186e+01   6.7110880598e+01    0.6027572    0.2937707  44.83  0.002356679    1.911    0.477
        23 -11.9464     20.1346     22.0875   7.9908381243e+01   6.9887538696e+01    0.6815688     0.242399 -38.08  0.002288464    2.554    0.608
        24 -12.7693     17.0005     12.7087   7.7221872424e+01   7.1566968292e+01    0.7732291    0.4866338 -10.16  0.003486926    1.400    0.286
        25 -12.1557     23.2103     11.3296   7.3132435072e+01   7.1019343219e+01     0.493823    0.2898467  17.49  0.002105146    1.516    0.340
        26  -8.7628     86.6714      7.3827   4.7066454713e+01   6.0341586969e+01     0.884635    0.2831281  61.51  0.003480683    3.041    0.671
        27 -11.1402     90.8857     20.8681   5.1195733905e+01   5.8193099084e+01    0.5709755    0.3346721 -26.08  0.002516212    1.891    0.471
        28 -11.6048     85.8418     14.5520   5.0112536529e+01   5.9882057579e+01    0.5176568    0.3170172  -5.73  0.002136159    1.973    0.493
        29  -9.8770     78.1019      7.2553   4.9306116171e+01   6.2137072975e+01    0.2626586    0.1851664  74.80 0.0009076184    1.842    0.457
        30 -11.0110     74.7269      3.2717   4.8590277133e+01   6.3149178757e+01    0.5160381    0.2533361  50.04  0.002756133    1.622    0.383
        31 -10.9400    178.7183     21.0599   3.5494867611e+01   3.8056636207e+01    0.4900563    0.2342575  47.28   0.00181607    2.529    0.605
        32 -11.8944     68.1815     18.2241   5.7011760134e+01   6.3052419123e+01    0.5174046    0.4406294  49.01  0.003392592    1.290    0.225
        33 -11.0839    242.1163      3.5391   2.6441297287e+01   2.6611180767e+01    0.3696722    0.2006869  61.91  0.002317921    2.098    0.523
        34 -10.2314    232.8105      7.4384   2.7750815642e+01   2.7994991674e+01    0.2556973    0.1699165 -81.42  0.001069956    1.250    0.200
        35 -11.0538    235.1780      4.1108   2.6970023600e+01   2.7879749462e+01    0.4847603    0.2036998 -76.71  0.002466213    2.517    0.603
        36 -11.8360    237.1318     15.9251   2.9072405338e+01   2.6236382013e+01    0.4810661    0.2988702  68.34  0.003135305    1.662    0.398
        37 -11.9451    246.8281      6.9857   2.6784744236e+01   2.5365424242e+01    0.8521661    0.4605414 -18.90  0.004381193    3.624    0.724
        38 -10.9852    177.0025      5.8476   3.1965724343e+01   3.9963488275e+01    0.3668164    0.1789066  81.94 0.0008700812    1.915    0.478
        39 -10.5323    183.8151      5.5570   3.1232509387e+01   3.8466853559e+01    0.3506442    0.2297101 -58.98   0.00149257    1.452    0.311
        40  -9.8523    191.6797     16.5873   3.3029323216e+01   3.5624159961e+01    0.3838831    0.2318137 -52.34  0.002141581    1.568    0.362
        41 -11.4658    192.0738      8.2589   3.1087654378e+01   3.6384472383e+01    0.5962883    0.4926653   1.14  0.003974293    1.787    0.441
        42  -9.5556    211.3652     16.9217   3.1278934665e+01   3.1337438068e+01     0.272155    0.1210507 -36.67  0.001405362    2.169    0.539
        43  -9.8823    187.3163      2.9759   3.0314310336e+01   3.7932184999e+01    0.4281206    0.1795215 -67.68  0.001892691    2.921    0.658
        44 -11.6081    227.7702     15.6884   2.9707799149e+01   2.8105436937e+01    0.4223675    0.2556808 -87.21  0.001241983    1.495    0.331
        45 -12.3379    105.1339     12.9415   4.4806082381e+01   5.5843021375e+01    0.4913877    0.4105441 -14.30  0.001584602    1.369    0.270
        46 -11.1285    113.6304      2.2133   3.9421765861e+01   5.4805351096e+01    0.7736126    0.2165608  65.51  0.003001169    2.974    0.664
        47 -10.8812    105.1372      1.8250   4.0870169742e+01   5.6745248381e+01    0.4437338     0.194852  69.78  0.001823945    2.216    0.549
        48 -10.2060      5.3839     12.5090   8.3951743460e+01   7.2738966171e+01    0.2912475    0.1650569  18.70  0.001845169    1.640    0.390
        49  -9.5767      5.4550      9.4558   8.2432224910e+01   7.3173667385e+01    0.1985768    0.1229277 -24.71  0.000752255    1.314    0.239
        50 -11.5109    211.5746     10.0937   2.9824670586e+01   3.2018676766e+01    0.4389128    0.3252641   6.21  0.002659638    2.424    0.588
        51  -9.8057     98.5286     11.3566   4.5710815492e+01   5.7445679671e+01    0.2893794     0.187249  21.64  0.001598198    1.762    0.432
        52  -9.8089    168.1303     10.1047   3.3970160705e+01   4.1580462662e+01    0.3294553    0.1287618  58.16  0.001525825    2.252    0.556
        53  -9.6148    163.3730      9.8029   3.4444730554e+01   4.2700325377e+01    0.2454452    0.1893559   2.81  0.001503526    1.821    0.451
        54  -9.5516    163.0125      6.2798   3.3572917159e+01   4.3103848285e+01    0.1758871    0.1475683  62.02 0.0002860311    1.191    0.161
        55 -10.2002     65.9384     10.4523   5.4395041658e+01   6.4261318770e+01    0.2773096     0.176872  46.50  0.001634907    1.355    0.262
        56  -9.0865    145.1951      9.7777   3.6778564074e+01   4.6912372378e+01     0.173936    0.1248215  48.99 0.0006119181    1.383    0.277
        57  -9.5734      1.1317      7.4929   8.4183410135e+01   7.3823927324e+01    0.2276967   0.07565452 -44.49 0.0006088978    2.836    0.647
        58 -11.1448      2.5901      1.9852   8.0408854063e+01   7.4454215207e+01    0.3365985     0.162916  11.55  0.001930227    1.987    0.497
        59  -9.4718    157.7824      6.9083   3.4351643690e+01   4.4250517090e+01    0.1588827    0.1475875  75.97 0.0004259649    1.140    0.123
        60 -10.3417    157.8659      1.9971   3.3043018878e+01   4.4653621809e+01    0.3195512    0.2733886 -60.08  0.001720012    1.226    0.184
        61  -9.2566    153.5542      7.1024   3.4924458969e+01   4.5209656802e+01    0.2127523    0.1422283  57.10  0.001047268    1.375    0.273
        62  -9.6305     62.7960      6.9201   5.3873378069e+01   6.5182418941e+01    0.1992055    0.1354113  24.37  0.001221605    1.317    0.241
        63 -10.4700    218.7447      3.2148   2.7884498423e+01   3.1236047754e+01    0.2624369    0.2466166 -71.61  0.001066136    1.327    0.246
        64 -10.0212    228.2405      2.9972   2.7201910638e+01   2.9351241136e+01    0.2649483    0.1741263 -18.58  0.001645419    2.328    0.570
        65 -10.8094    224.0026      2.1962   2.7325490335e+01   3.0275326701e+01    0.2684004    0.1788776  86.60 0.0007467593    1.287    0.223
        66 -11.6883    134.3640      2.9549   3.6329314914e+01   4.9995997222e+01    0.5399061    0.2722985  76.06  0.002570308    1.856    0.461
        67 -10.1553     41.4641      4.0647   6.0633653167e+01   6.9203879693e+01    0.3254305    0.1810734   9.09  0.001779454    2.011    0.503
        68 -11.0524    205.5874      2.3711   2.8673149134e+01   3.4047520371e+01    0.4323825    0.2033358  88.65  0.001937954    2.022    0.506
        69  -9.2456     33.6153      1.6969   6.2929112624e+01   7.0668330264e+01    0.1801425     0.105963  11.76  0.001064234    1.652    0.395
        70  -9.7490     12.7172      1.8200   7.4045177387e+01   7.3438119410e+01    0.3421705    0.1352699  27.57  0.001807594    2.294    0.564
        71  -9.2164    152.2536      1.3484   3.3524011597e+01   4.5995956290e+01    0.1755015   0.09849935  81.69 0.0006326395    1.634    0.388
        72 -10.3542    142.9608      3.7746   3.5372433396e+01   4.7942669964e+01    0.4677303    0.2118904  78.70  0.002173862    2.200    0.546
        73 -10.4886     82.1618      1.3234   4.5792181931e+01   6.1765678573e+01    0.1929393   0.09301261  56.44 0.0003258917    1.698    0.411
        74 -10.4491      3.4872    147.4647   1.1552695143e+02   4.3377522973e+01     0.249249    0.1811387 -66.63 0.0007411682    1.160    0.138
        75 -10.1604    143.0904    249.8780   9.3572951460e+01   2.3533511798e+00    0.2004315     0.161818  42.15  0.001236501    1.243    0.196
        76 -12.1248      2.3666    142.3825   1.1533803465e+02   4.4718586094e+01    0.6907073    0.4136115  58.72 0.0007448805    1.856    0.461
        77 -10.8035     63.4734    150.3788   9.8219500247e+01   3.6808437333e+01    0.5007775    0.2937683  12.69  0.001895577    2.310    0.567
        78  -9.3680    234.1881    150.6202   5.7095257673e+01   6.2707432299e+00    0.1769918    0.1229735  26.92  0.000954324    1.741    0.425
        79 -10.9049     41.4488    149.0648   1.0462975243e+02   3.9775253422e+01    0.3426552    0.2406074  28.07 0.0003321702    1.566    0.361
        80 -10.4755     49.7430    146.0106   1.0163917113e+02   3.9645316357e+01    0.2580724     0.224187 -68.53            0    1.058    0.055
        81 -10.8143     46.5515    145.7186   1.0256664403e+02   4.0084773091e+01    0.6684168    0.2669932 -63.76  0.002594174    2.229    0.551
        82  -9.3283     33.2114    154.5999   1.0783735335e+02   3.9184038393e+01    0.2693108    0.2285571  17.01  0.001075851    1.372    0.271
        83 -10.8107    249.2985    142.4554   5.3112093404e+01   5.2815456165e+00    0.4665502    0.2141854 -32.57   0.00213306    2.062    0.515
        84  -9.9836    239.6614    146.8531   5.5455394896e+01   6.0486125378e+00    0.2017296    0.1740723   0.65 0.0007348223    1.270    0.213
        85 -10.9321     33.4993    144.4506   1.0635094563e+02   4.1769873424e+01    0.4371488    0.2864769  50.20  0.001672055    1.695    0.410
        86  -9.6328    234.2656    144.0553   5.5736412947e+01   7.4171340140e+00    0.2915774    0.1464428 -57.11  0.001154819    2.991    0.666
        87  -9.3048     59.0014    142.6871   9.8216508549e+01   3.9377926735e+01    0.1915272    0.1852188  45.30 0.0005389877    1.108    0.098
        88  -8.6434    104.7095    142.3093   8.4337276783e+01   3.2413920129e+01    0.1543595    0.1237686  79.69 0.0002977169    1.581    0.368
        89  -9.3883    132.7175    140.0635   7.6077625710e+01   2.7656403160e+01    0.2351158    0.2058836 -44.17  0.001162413    1.117    0.104
        90  -9.8056     32.2535    137.4332   1.0569686601e+02   4.3694688930e+01    0.3039893    0.2414624  37.78  0.001505792    1.393    0.282
        91 -11.4101     23.0686    135.7888   1.0832854878e+02   4.4922069146e+01    0.6351033    0.5258932  54.42  0.003769068    1.337    0.252
        92 -11.5928     30.0729    133.0052   1.0570867239e+02   4.5031524425e+01    0.4639314    0.3672805 -78.89 0.0004469803    1.208    0.172
        93 -10.4219    217.0878    138.5382   5.7426413678e+01   1.1383598774e+01    0.2955617    0.2317551 -50.14 0.0005822624    1.250    0.200
        94  -8.9646     53.7763    139.6264   9.9296449121e+01   4.0818492329e+01    0.2094474    0.1267647  40.65   0.00095465    1.771    0.435
        95 -10.3913     46.5794    135.4156   1.0083053812e+02   4.2743625004e+01    0.5563176    0.3590913 -89.68  0.002161419    1.930    0.482
        96  -9.8388     80.1744    137.1218   9.0551107184e+01   3.7815492860e+01    0.4925305    0.2857586 -22.54  0.001787799    2.801    0.643
        97  -9.9764     40.0471    137.9068   1.0332271573e+02   4.2804876641e+01    0.3347915    0.1773057  40.37  0.001502111    2.052    0.513
        98 -10.5904     92.9809    129.4693   8.4899530883e+01   3.7638512835e+01    0.3990297    0.2309479 -64.24  0.001573982    2.047    0.511
        99  -9.4697    245.2992    134.6703   5.2134242505e+01   7.2381679538e+00    0.1286529   0.09208102 -60.77 0.0002976318    1.642    0.391
       100  -9.6411     38.6670    133.2596   1.0299651467e+02   4.4142583675e+01    0.2401004    0.2014445  75.64 0.0007606508    1.309    0.236
       101 -10.3196     74.3344    132.4783   9.1392094945e+01   3.9878036668e+01    0.3493089    0.2326476 -21.08  0.001498697    1.982    0.495
       102 -10.0750     61.4725    132.3854   9.5482148035e+01   4.1706861492e+01      0.43193     0.290271   8.71  0.001847812    1.871    0.466
       103  -9.3610    103.8088    130.8881   8.1975653414e+01   3.5372798481e+01    0.2323254    0.2055779 -16.36  0.000370924    1.197    0.164
       104 -10.6912      9.3391    128.5340   1.1166228777e+02   4.7763004620e+01    0.4243359     0.275003 -58.51  0.002357926    1.288    0.223
       105 -10.1717     78.9609    128.6789   8.9094648418e+01   4.0131670306e+01    0.3418245    0.2190038 -32.30 0.0009823984    1.793    0.442
       106 -10.5833     22.8414    127.0394   1.0712722536e+02   4.7169701023e+01    0.1981832    0.1849985 -52.78 0.0003223215    1.097    0.089
       107  -8.7899    224.2634    126.6698   5.3678609687e+01   1.2249076279e+01    0.1354154   0.09768433 -61.07  0.000278869    1.572    0.364
       108  -9.4561     53.4218    125.2727   9.6694988531e+01   4.4541583718e+01    0.3147476    0.1352907 -60.96  0.001214242    2.155    0.536
       109 -10.2830     49.6783    123.0723   9.7507628568e+01   4.5546195054e+01     0.333519    0.2548401  13.66 0.0009159649    1.474    0.321
       110 -10.4631     48.7411    112.4280   9.5616905928e+01   4.8323234453e+01    0.5103838    0.3021242 -38.11  0.002344737    1.698    0.411
       111 -10.2950     45.0207    120.0191   9.8480037858e+01   4.6846909309e+01     0.335224    0.2591533  66.24 0.0008739911    1.588    0.370
       112 -10.1149     43.5094    116.4897   9.8295143643e+01   4.7899631324e+01    0.3206285    0.2575921  17.33  0.001176123    1.373    0.272
       113  -9.5347      2.0458    126.0517   1.1364884283e+02   4.8817449212e+01    0.2063993    0.1359067  71.83  0.001123999    1.703    0.413
       114 -12.9949    103.8420    122.4383   7.9908572038e+01   3.7397684725e+01    0.4219556    0.3774123  -9.05 0.0005264523    1.180    0.153
       115  -9.6696     19.0404    122.7611   1.0772728259e+02   4.8546655955e+01    0.2914275    0.1585946 -66.07 0.0008936452    1.548    0.354
       116  -9.0563     77.9426    123.4599   8.8233947780e+01   4.1590881306e+01    0.2271523    0.1497438  33.08  0.001026472    1.585    0.369
       117  -8.6761    143.3410    122.2832   6.9004145193e+01   2.9505024881e+01    0.1579788    0.1234689   2.39 0.0007013751    1.633    0.387
       118  -9.5521     56.6822    122.0685   9.4946364114e+01   4.4947007042e+01    0.2149976    0.1765538 -49.69 0.0009707861    1.110    0.099
       119  -9.3024     71.3114    120.9027   8.9810588147e+01   4.3231117026e+01    0.2136655    0.1823948 -45.76 0.0004938116    1.094    0.086
       120  -9.0520    221.4491    120.4956   5.2792673785e+01   1.3871467729e+01    0.1386418    0.1197155 -44.76 0.0001674251    1.027    0.026
       121  -9.1263     57.9824    118.0339   9.3640124823e+01   4.5792394768e+01    0.1811559    0.1674706 -42.53 9.772047e-05    1.013    0.013
       122  -9.4043    113.7307    116.0712   7.5373364124e+01   3.6985258193e+01    0.3051975    0.1910892 -42.48    0.0012974    1.575    0.365
       123 -12.5512      2.2538    111.6130   1.1174876601e+02   5.2378926444e+01    0.5530342    0.3889987  75.24 0.0006317347    1.639    0.390
       124 -11.1427      4.2055    104.8645   1.1010325529e+02   5.3926438826e+01    0.3927897    0.3150353  38.93  0.002143387    1.504    0.335
       125  -9.5702     79.1044    114.5582   8.5724603297e+01   4.3587649767e+01     0.311864    0.2077034 -44.62   0.00143082    1.426    0.299
       126  -9.5897     67.0473    114.5157   8.9752366845e+01   4.5427526472e+01    0.3264758    0.2195993  54.73  0.001474257    1.896    0.472
       127 -10.1981     66.0476    110.6839   8.9177859510e+01   4.6505166496e+01    0.4209906    0.3346074 -15.54  0.001768499    1.370    0.270
       128 -10.4942     16.1034    109.5707   1.0663844785e+02   5.2050953273e+01    0.3707609    0.2121021  51.69 0.0007835786    2.286    0.563
       129 -11.9925      7.2173     89.0885   1.0633629411e+02   5.7538423573e+01    0.5625629    0.4040298  14.73  0.001382127    1.605    0.377
       130 -11.9317      9.4763     97.2378   1.0694237039e+02   5.5476360361e+01    0.5173593    0.4473107  -2.72 0.0004786794    1.303    0.233
       131 -10.2828     18.4475    105.9563   1.0518005074e+02   5.2775067627e+01    0.2551001    0.2275504  19.84   0.00160728    1.298    0.230
       132 -11.7561     42.0776     85.6969   9.1695093831e+01   5.5437072390e+01     1.047503    0.5587694  15.80  0.004632917    2.166    0.538
       133 -12.0901     35.1351     93.8585   9.6445218047e+01   5.4279702206e+01     1.192191    0.6884608 -61.71  0.004428386    1.660    0.398
       134 -11.2860     26.6227     86.1364   9.7985780518e+01   5.6864347708e+01    0.8660885    0.5499036  10.84  0.004592361    1.742    0.426
       135 -11.7405     17.2650    100.7011   1.0466178632e+02   5.4139937097e+01    0.4158267    0.2643653 -46.06 0.0006454049    1.343    0.255
       136 -12.6595     24.6286    106.7680   1.0309322550e+02   5.2103088204e+01    0.9681905    0.9301995 -55.58  0.005545674    1.127    0.113
       137 -11.4375     22.8668     94.8426   1.0139414108e+02   5.5131400658e+01    0.4290619    0.2971987  -9.51 0.0008596056    1.600    0.375
       138 -11.5062     18.2557     90.4658   1.0227624141e+02   5.6514453880e+01    0.4811781    0.2964698 -59.54  0.001390638    1.391    0.281
       139 -11.4276     21.9583    114.1844   1.0536380135e+02   5.0477078054e+01     0.487082    0.2905715  -1.54  0.002162075    2.118    0.528
       140 -11.3586     28.1599    113.1936   1.0302325701e+02   5.0216866383e+01    0.4693799    0.2873713   0.09  0.002286995    2.045    0.511
       141  -9.0431    126.5355    113.5332   7.1120294053e+01   3.4954779943e+01    0.1555989    0.1502664 -15.28 0.0003368333    1.023    0.022
       142 -10.4387    108.0599    112.2727   7.6034305825e+01   3.8965219371e+01    0.4445021    0.3613481 -85.52  0.002094672    1.617    0.381
       143 -11.0264    102.7249    109.8108   7.6982515019e+01   4.0553496002e+01    0.6810288    0.5558501 -23.28  0.003351955    1.303    0.232
       144 -10.0223     94.3483    112.2660   8.0225077086e+01   4.1537712029e+01    0.3109408    0.2742196 -33.04  0.001255728    1.102    0.092
       145 -10.3269    170.4719    110.7033   5.9832578613e+01   2.6087423362e+01    0.3700514    0.2829442 -39.23  0.001492738    1.264    0.209
       146 -10.6107    133.4975    110.9849   6.8592707159e+01   3.4044784538e+01    0.3369881    0.2802158  15.97  0.001640445    1.365    0.267
       147  -9.3573     59.8147    110.2882   9.1246174294e+01   4.7463410444e+01    0.3374297    0.1978602  54.90  0.001384047    2.442    0.591
       148 -10.2094    121.0541    108.9811   7.1412142136e+01   3.7092535559e+01    0.4514703    0.2824343  29.93  0.001547478    1.837    0.456
       149 -11.7329     79.3242    108.0928   8.4014453912e+01   4.5096850296e+01    0.6836022    0.3499728  29.41    0.0014247    2.131    0.531
       150 -11.6227     88.5560    104.7478   8.0080623819e+01   4.4311729497e+01    0.4997147    0.3344454  28.61 -2.730797e-05    1.585    0.369
       151 -10.0462    175.7764    107.2825   5.7888383721e+01   2.5605518064e+01    0.3235264    0.2059538 -31.48  0.001440268    1.686    0.407
       152 -10.3052    143.1441    105.8783   6.4790157277e+01   3.3038564205e+01    0.3199182    0.2892315  77.69  0.001163941    1.226    0.184
       153 -11.1178    145.5190    100.3457   6.2728957192e+01   3.3639788256e+01    0.4792952    0.3236651 -29.67 0.0006702791    1.644    0.392
       154 -10.3583     42.9040     94.7655   9.3683446912e+01   5.3253679600e+01    0.3800344    0.3144206   6.09  0.001366333    1.271    0.213
       155 -10.9456     49.0827     91.0194   9.0373815359e+01   5.3404638697e+01    0.6289659    0.4497493  78.43  0.002921461    2.341    0.573
       156  -9.7165     52.2701     87.6415   8.8245148748e+01   5.3773065542e+01    0.2624952    0.1341867 -57.46 0.0005900036    2.025    0.506
       157  -9.1990     45.5515    105.5401   9.5231971033e+01   5.0380152423e+01    0.2409743    0.1756202 -45.42 0.0004857476    1.222    0.182
       158 -10.8571     49.5056    102.2981   9.3037899851e+01   5.0703983155e+01    0.7701751    0.3771894 -32.04  0.003011562    2.517    0.603
       159  -9.5339    181.4253    104.2026   5.6014417141e+01   2.4969335949e+01    0.2127799    0.1303488 -50.65 0.0006115677    1.636    0.389
       160 -10.3564     57.4649    102.5862   9.0216039195e+01   4.9632906613e+01    0.2993643    0.2326108 -53.70 0.0007457887    1.224    0.183
       161  -9.1028    120.5216    101.4842   6.9504663163e+01   3.8820503108e+01    0.1542718    0.1479383  -5.38 0.0003757238    1.035    0.034
       162 -11.8856     76.5720     80.1696   7.7023212874e+01   5.1745899887e+01    0.9725927    0.7567747  88.06  0.002281808    2.121    0.529
       163 -11.4116     89.5695     89.7953   7.5510768523e+01   4.7434503121e+01    0.6339799    0.3577053 -31.55  0.002178149    2.024    0.506
       164 -10.8169     79.7740     97.7257   8.1077272248e+01   4.7417617089e+01    0.4941559    0.3430539  56.79  0.002178461    1.898    0.473
       165 -11.2169     80.2212     92.9921   7.9585221462e+01   4.8397022981e+01    0.8309074    0.3467485  39.19   0.00311824    2.449    0.592
       166  -9.7614    210.1412     98.0542   4.9573579451e+01   2.0038402585e+01    0.2596464    0.1952099  38.42 0.0007595476    1.623    0.384
       167 -11.4687     68.1335     96.0609   8.4679896336e+01   4.9647468890e+01     0.635066    0.4810082  -9.11   0.00284703    1.482    0.325
       168  -8.8341     98.3285     97.6443   7.4981150801e+01   4.4106372606e+01     0.154567    0.1235949  87.18 0.0007045249    1.779    0.438
       169  -9.3739    141.9421     95.7644   6.2339622398e+01   3.5343471393e+01    0.3250287    0.1767306  29.81  0.001166068    2.699    0.630
       170  -9.6300    117.0022     94.2819   6.8451202982e+01   4.1063798688e+01    0.4134103     0.252037 -22.73  0.001626416    2.252    0.556
       171 -11.3427    124.8596     93.9256   6.6184346862e+01   3.9462324702e+01    0.6990565     0.381931  47.48  0.002382375    1.843    0.458
       172 -11.0001    120.9967     89.0205   6.5814887136e+01   4.1274834322e+01    0.3541006    0.2841201  -3.94  0.001515266    1.492    0.330
       173 -10.6047    152.9944     92.0681   5.8760240680e+01   3.3575855496e+01    0.4593277    0.2623657  48.75  0.001102431    1.761    0.432
       174 -11.4271     98.4888     91.0731   7.3025177835e+01   4.5480083401e+01    0.2989969    0.2683608  21.06 -0.0001466204    1.104    0.094
       175 -10.8648    104.3934     87.4757   7.0136212281e+01   4.5053391540e+01    0.4316418    0.2821875 -21.87  0.001856485    1.917    0.478
       176 -11.8513    112.3483     82.9364   6.6424797155e+01   4.4308983354e+01    0.7511495    0.4665669  58.15  0.003220752    1.935    0.483
       177 -10.0757     66.4230     88.7788   8.3258884292e+01   5.1540894635e+01    0.3782686    0.2542293  -5.92  0.001303517    1.897    0.473
       178 -10.3491     67.0454     82.1700   8.1084912256e+01   5.2876872820e+01    0.3933342    0.3186179 -28.40  0.001896242    1.161    0.139
       179 -10.2799    183.6275     85.9948   5.1085542492e+01   2.7779019462e+01    0.6144246    0.2344562 -44.42  0.002292116    2.496    0.599
       180 -10.0075    165.6583     83.8004   5.3877666814e+01   3.2207540212e+01    0.3080585    0.2461802 -56.46 0.0009920778    1.273    0.214
       181 -10.8728    142.7995     84.4360   5.8972263617e+01   3.7309028054e+01    0.4024009    0.3002981  42.81 0.0008533445    1.358    0.264
       182  -9.9101     47.0171     74.8606   8.6652134429e+01   5.7228404340e+01    0.4063755    0.1833584 -42.75 0.0008487412    2.007    0.502
       183 -10.7937     60.6018     83.6211   8.3925869130e+01   5.3527398866e+01    0.3043901    0.2501107 -49.50 0.0002794407    1.239    0.193
       184 -11.7013     53.2581     76.2669   8.4572298874e+01   5.6122360611e+01     0.627863     0.426895 -51.24  0.002924607    1.481    0.325
       185 -10.9133     58.3669     77.5790   8.2972104869e+01   5.5137627955e+01    0.3303553    0.2690844 -43.21 0.0007231331    1.200    0.167
       186  -9.3407    127.5137     83.0458   6.2327694712e+01   4.1001548065e+01    0.2422516     0.197457  48.16 0.0007766091    1.212    0.175
       187  -9.6128    103.0000     79.9729   6.8270749417e+01   4.6820807265e+01    0.3137367    0.1621655 -44.86 0.0008381308    1.994    0.498
       188 -10.7689    103.5782     75.1018   6.6570396005e+01   4.7625829322e+01    0.4666266     0.357722 -66.15  0.002262515    1.745    0.427
       189 -11.6726      2.0990     71.5057   1.0493531858e+02   6.1815888676e+01    0.7365022    0.1685671 -62.83  0.002748578    3.269    0.694
       190 -13.0808      4.3631     61.8581   1.0169947477e+02   6.3795187212e+01    0.3746375    0.2760929 -50.23 0.0007128948    1.145    0.127
       191 -12.0428     10.2764     62.4412   9.9121413514e+01   6.3323938276e+01    0.5320845    0.2830007 -43.75 0.0005581907    1.488    0.328
       192 -10.0694    233.0158     77.7646   4.1967402124e+01   1.8816389987e+01    0.2815247    0.1985167 -45.70  0.001656938    1.218    0.179
       193 -11.6659     13.8928     74.2486   1.0046370266e+02   6.0528153910e+01    0.5433002    0.4037003 -71.59  0.002603588    1.495    0.331
       194  -9.9802     13.9192     67.6785   9.8829853228e+01   6.1964584292e+01    0.4598049    0.2234518  10.44  0.002268191    2.289    0.563
       195  -9.9798     94.1688     75.2816   6.9541292610e+01   4.9484445432e+01    0.6423011    0.5534038 -65.32  0.003430587    1.437    0.304
       196 -11.7571     85.2793     73.1461   7.1772623551e+01   5.1588095951e+01    0.6377882    0.5105967  45.27  0.002185676    1.328    0.247
       197 -11.3387     78.1473     67.0110   7.2203866428e+01   5.4042508064e+01    0.6930903    0.5267845 -85.19  0.003151584    2.406    0.584
       198 -12.8235     74.5438     52.5922   6.8426617054e+01   5.7208919539e+01    0.9755526     0.759907 -42.80  0.001938299    1.441    0.306
       199 -11.8034     91.5524     62.8426   6.6280532035e+01   5.2257339989e+01     1.239312    0.4226877  47.88  0.004117083    3.022    0.669
       200 -10.5562     87.6685     56.6506   6.5398768686e+01   5.4065860466e+01    0.8530323    0.3391638 -37.56  0.003338879    2.602    0.616
       201 -10.9723     91.8937     57.1704   6.4225860565e+01   5.3141448835e+01    0.5368336    0.3426567 -25.93   0.00259663    1.708    0.414
       202  -9.2279    134.7995     77.5957   5.8902804357e+01   4.0364005772e+01    0.2142424    0.1400723  63.27 0.0009483467    1.736    0.424
       203 -10.1362    126.9662     76.9357   6.0653321485e+01   4.2246212262e+01      0.22033    0.2124476  33.14 0.0003123037    1.011    0.011
       204 -12.0654    186.1851     70.2092   4.6716584352e+01   2.9819297482e+01     1.022981    0.5322407 -43.26  0.004278985    1.822    0.451
       205 -11.2606     21.2869     64.9355   9.4784591911e+01   6.1991903027e+01     0.280656    0.2695704 -53.85 0.0004857238    1.294    0.227
       206  -8.7893     24.8905     74.4957   9.5808427999e+01   5.9633922069e+01    0.4902219    0.2474267 -36.50  0.002359675    1.813    0.448
       207 -11.4564     40.8501     71.5353   8.8199766264e+01   5.8668751309e+01    0.4937798    0.3057429 -56.16  0.001626647    1.694    0.410
       208 -11.5221     35.0947     71.9472   9.0750832868e+01   5.9214204625e+01    0.7500637    0.2478466  28.12   0.00294315    3.080    0.675
       209 -10.2978    153.8642     72.4925   5.3183050828e+01   3.6860313278e+01    0.3457356    0.2331817  42.45  0.001317436    1.574    0.365
       210 -11.8283    123.0489     69.2906   5.9330138956e+01   4.4462264408e+01    0.5141296    0.4731629   5.09  0.001731198    1.135    0.119
       211  -9.2950    161.9930     70.9753   5.1150818365e+01   3.5226625561e+01    0.2301837    0.1690208 -76.76 0.0008171862    1.653    0.395
       212  -8.7681     19.6203     71.7257   9.7359435592e+01   6.0670226690e+01    0.1395209   0.07979459 -27.61 0.0007000524    1.702    0.412
       213  -9.5841    172.0298     68.7127   4.8703227888e+01   3.3273651730e+01    0.2684977    0.2021133 -42.63 0.0009250499    1.314    0.239
       214 -10.1682    170.0206     63.5887   4.7703762289e+01   3.4536703401e+01    0.4693396    0.2866235 -89.83  0.002006719    2.364    0.577
       215 -11.2738    219.7842     66.7759   4.1208457530e+01   2.3115364356e+01    0.4997165    0.2762988  65.12  0.002156144    1.919    0.479
       216  -8.8948     69.6751     67.1530   7.5318885086e+01   5.5477509448e+01    0.1990727    0.1180175 -32.55 0.0003349059    1.709    0.415
       217 -10.6422     59.1200     63.3050   7.8063656596e+01   5.7881859214e+01    0.5314938    0.3373838 -37.20  0.002391215    1.498    0.332
       218  -9.6054     64.9077     61.3906   7.5148245759e+01   5.7333401192e+01    0.3537744    0.1675228 -47.98  0.001296623    2.320    0.569
       219  -9.5692    192.4691     65.8647   4.4681422321e+01   2.9090937396e+01    0.2430464    0.1787859 -88.93 0.0007445479    1.471    0.320
       220 -11.5749    234.8511     61.1838   3.8296186080e+01   2.0924533864e+01    0.4380493    0.3344108 -70.67  0.002165124    1.192    0.161
       221 -11.8003     60.2409     46.8505   7.1666886543e+01   6.0602260590e+01     0.957326    0.5815108 -40.15  0.004966134    1.711    0.415
       222 -11.2278     12.8130     47.8300   9.3649639828e+01   6.6109229316e+01    0.6672832    0.1931646 -35.38  0.002493164    3.539    0.717
       223  -9.8638     55.1855     51.0231   7.5278192126e+01   6.0698597771e+01    0.2006122    0.1537291  -2.31 0.0005756594    1.242    0.195
       224  -9.5614    216.5437    249.5332   7.8640717432e+01  -7.5764725261e+00    0.1205311   0.09492631   1.06  0.000105516    1.049    0.047
       225 -11.8222     25.7005     58.1648   9.0749822944e+01   6.2992535189e+01    0.9605831    0.6596653 -11.63  0.005453461    1.406    0.289
       226 -10.7357     51.7055     48.4143   7.5746632779e+01   6.1664806244e+01    0.3932495    0.2852019 -35.85  0.001520035    1.360    0.264
       227  -9.8344    174.8577    246.9315   8.6465398864e+01  -1.6761009101e+00    0.2420058    0.1666329  24.10  0.001415432    1.253    0.202
       228 -11.3116     52.0424     61.8195   8.0415285543e+01   5.9194192089e+01    0.3888999     0.306402  46.05  0.002190409    1.601    0.376
       229 -12.0559     43.5445     62.2575   8.4131557983e+01   6.0232787627e+01    0.2852466     0.237505 -24.41 0.0003860113    1.052    0.049
       230 -11.2739     46.5910     58.7829   8.1658388271e+01   6.0512657436e+01    0.3168295    0.2527827 -44.36 0.0006857569    1.324    0.245
       231 -10.1751    199.8539     63.7760   4.3122384553e+01   2.7781479095e+01    0.4627816    0.2497345  84.22  0.001968613    2.621    0.618
       232 -10.1633    159.0005     62.5279   4.9405492365e+01   3.7261304515e+01    0.5254184    0.2037566  48.05  0.001960112    2.659    0.624
       233  -9.1446    205.9185     61.7488   4.1832934007e+01   2.6769822497e+01    0.1783089    0.1544055 -81.71 0.0005100251    1.075    0.070
       234 -12.2101    119.5477     57.2892   5.6443847452e+01   4.7198114092e+01     1.581528     1.001169 -84.19  0.005941666    3.373    0.704
       235  -9.3367    163.7754    243.7998   8.8301685960e+01   4.2150006166e-01    0.1643552    0.1474181  43.35 0.0005033059    1.326    0.246
       236 -10.6509    113.9620     37.9779   5.1463884032e+01   5.1165683635e+01    0.2570976    0.2168204  62.00 0.0003589114    1.166    0.142
       237 -11.3787    127.8323    241.7703   9.5772079210e+01   6.0511781454e+00     0.529765     0.331006  29.66  0.002809022    1.439    0.305
       238  -9.8030     68.0104    240.5026   1.0877631425e+02   1.4669788205e+01    0.1913316    0.1122433  34.60 0.0006558318    1.558    0.358
       239  -8.8495    221.6614    239.6750   7.6070180894e+01  -6.7768320731e+00    0.1306421    0.0781985  -4.81 0.0007051334    1.724    0.420
       240 -12.1958    115.0235     24.9746   4.6827141484e+01   5.2435261147e+01    0.6642787    0.2553214  55.99  0.002038607    2.171    0.539
       241  -9.6383    150.8834     61.2037   5.0602926462e+01   3.9361762971e+01    0.2467789    0.1989365  60.93 0.0006238746    1.191    0.161
       242  -9.2174    146.9880     60.7766   5.1266422340e+01   4.0338049146e+01    0.2052458    0.1917257  47.90 0.0005623098    1.078    0.072
       243  -9.6405    113.5684     60.2663   5.8958755588e+01   4.8061478406e+01    0.3345968     0.142735 -33.42  0.001282983    2.558    0.609
       244 -11.0889    106.1752     58.3650   6.0366818155e+01   4.9974582627e+01    0.4183792    0.3010861  70.11  0.001310878    1.821    0.451
       245  -9.6592    138.8130     49.3507   4.9572762086e+01   4.3924981600e+01    0.3268327    0.1668941  38.45 0.0007998682    2.389    0.581
       246 -10.0365    135.1540     50.8434   5.0792456145e+01   4.4569554260e+01    0.2556201    0.2124667 -28.66  0.001429912    1.306    0.234
       247 -10.2487    136.4884     56.8427   5.2325008463e+01   4.3383562146e+01    0.6967257    0.4460367   2.14  0.002884537    2.727    0.633
       248 -11.3436    145.7227     46.8808   4.7471259348e+01   4.2642768576e+01     0.994855    0.4108009 -27.47   0.00363767    2.985    0.665
       249 -10.3375    135.0432     46.0000   4.9334879030e+01   4.5266237730e+01    0.4843265    0.1899164  60.96  0.001312747    2.531    0.605
       250  -9.8828    139.4750     43.5260   4.7686501917e+01   4.4558343493e+01    0.3027835    0.1977784  41.67  0.001137534    1.601    0.375
       251 -11.1837    148.2133    237.7718   9.0736735526e+01   3.7711047021e+00    0.5131088    0.2696676  34.91  0.002074009    1.683    0.406
       252 -11.1464    156.5065     52.9430   4.7201954692e+01   3.9265053883e+01    0.8667208    0.4641783 -44.91  0.003963832    1.930    0.482
       253 -10.2389    167.6778    237.5398   8.6513565510e+01   9.3465303578e-01    0.2172513    0.1188454 -44.88  0.001079976    1.984    0.496
       254 -12.0331    153.0678     35.9580   4.3019158838e+01   4.2315422156e+01    0.3918206    0.3133571  17.52 0.0003209234    1.617    0.381
       255 -11.6719    159.7255     29.6562   4.0225755921e+01   4.1495047175e+01    0.3404393      0.32581  21.17  0.001554358    1.245    0.197
       256 -11.7483    163.9917     27.6493   3.9069437620e+01   4.0726318299e+01    0.3354805    0.3049059  34.48   0.00076224    1.307    0.235
       257  -9.4505    238.1778     55.8403   3.6858951207e+01   2.1034100932e+01    0.1802689    0.1351523 -61.37 0.0002673454    1.115    0.103
       258 -10.1350     66.8059     54.1991   7.1863502693e+01   5.8293036925e+01    0.3947749    0.2114863 -47.72  0.001793742    2.186    0.542
       259 -11.6768     26.4820     47.6162   8.6862167115e+01   6.4948596381e+01    0.3815905    0.2202993 -20.54 0.0001158513    1.745    0.427
       260  -8.8005    188.3371     55.2871   4.2696515030e+01   3.1578641413e+01    0.1288512    0.1024941  33.76 0.0007017851    1.632    0.387
       261 -11.2440     20.8278     45.8035   8.8982813379e+01   6.5828853831e+01    0.4981717    0.3348171 -55.09   0.00145532    1.684    0.406
       262  -9.6013    211.9183     53.1872   3.9143304517e+01   2.6717305888e+01    0.2099291    0.1526318 -68.61  0.001227835    1.295    0.228
       263  -9.6528    201.4754     53.0240   4.0384339188e+01   2.8984876495e+01     0.268214    0.1840018 -35.28   0.00106335    1.512    0.339
       264 -10.2310    201.4190     48.7964   3.9408422219e+01   2.9580698940e+01    0.4855605    0.3096528 -11.35  0.002275073    2.753    0.637
       265 -10.3905    201.0011     45.5090   3.8697130613e+01   3.0114576773e+01    0.4899429    0.2311284  84.00  0.002028707    2.894    0.654
       266 -10.3431    240.4240     50.6781   3.5600734490e+01   2.1310757109e+01    0.2412537    0.2061376 -34.37  0.001018396    1.386    0.278
       267  -9.7860    106.3205     63.9444   6.2169449554e+01   4.9028155793e+01     0.302506    0.2039928  38.37  0.001468868    1.442    0.307
       268 -10.2768    245.0857     51.1782   3.5265064109e+01   2.0358792699e+01    0.1690154    0.1540154 -60.80 0.0009002357    1.226    0.184
       269 -10.9747    174.7489     48.0976   4.2877031432e+01   3.5683447772e+01    0.5457251    0.3077945  70.95  0.001814942    1.794    0.442
       270  -9.0827    199.3150    235.2945   7.9643253725e+01  -3.1816253695e+00    0.2592352    0.1446273 -29.75 0.0009217419    1.777    0.437
       271  -9.5698     91.2536     48.3883   6.1327121979e+01   5.4642887846e+01    0.2945273    0.2082386 -58.20  0.001453094    2.030    0.507
       272  -9.7107      2.2624     48.8640   9.9253920605e+01   6.6585725000e+01    0.2313895    0.2172056  64.75  0.001668854    1.531    0.347
       273  -9.5219    235.4805     46.1260   3.5152023779e+01   2.2877213020e+01    0.3017806    0.1099652 -61.77  0.001092614    4.092    0.756
       274 -10.6608     93.4587     41.1629   5.8049176238e+01   5.5218808729e+01    0.6299695    0.2421235  48.39  0.002541262    2.334    0.572
       275  -9.5912      5.9715     42.9945   9.5582048174e+01   6.7512447588e+01     0.350748    0.1658165 -32.32  0.001855701    1.805    0.446
       276  -9.4420      6.1845     31.0563   9.1324224938e+01   6.9683072593e+01    0.7192447    0.3103119   4.39  0.003327332    2.664    0.625
       277  -9.5424      3.6716     39.2994   9.5591924711e+01   6.8355975085e+01    0.1902373    0.1478218  30.58 0.0005439379    1.667    0.400
       278 -10.3924      5.9463     36.4652   9.3411517556e+01   6.8733062891e+01    0.3427429    0.2077957  15.05  0.001741475    1.671    0.402
       279  -9.3516    176.6130     43.3688   4.1384855325e+01   3.5884039665e+01     0.207316    0.1414736 -72.61  0.001086206    1.593    0.372
       280 -10.6509    197.5745    232.2131   7.9474673582e+01  -2.4430111399e+00    0.3903098    0.2346489   6.83  0.001990463    1.862    0.463
       281 -10.0532     81.0000     30.0014   5.7635240691e+01   5.9206313952e+01    0.2592708     0.175412 -31.81 0.0008476879    1.613    0.380
       282 -10.3075    188.8956     40.1316   3.8920168120e+01   3.3503981993e+01    0.2921615    0.1828045 -29.35  0.000371511    1.821    0.451
       283  -9.6833    231.5344     39.0130   3.4075552608e+01   2.4580470371e+01    0.2755035    0.1391139 -45.59  0.001507359    1.681    0.405
       284  -9.4042    217.3400     39.4842   3.5541705410e+01   2.7409539430e+01    0.2101126    0.1047549 -37.60  0.001075226    1.914    0.477
       285 -11.1012     61.0498     36.0444   6.7087682109e+01   6.2115901786e+01     0.419364    0.2838668 -17.44  0.001214524    1.506    0.336
       286  -9.7977     67.6447     31.8599   6.2904137196e+01   6.1526474041e+01    0.4580567     0.406761  84.10  0.002811289    1.727    0.421
       287  -8.5814    193.6968     38.6998   3.7983119889e+01   3.2611384010e+01    0.1191078   0.09726942  38.15  0.000168137    1.588    0.370
       288  -9.6132    183.6731     38.1135   3.9097262128e+01   3.4941145437e+01    0.2086723    0.1573654 -87.75 0.0008226904    1.270    0.213
       289 -10.9450    189.2799     27.6499   3.5877470011e+01   3.4936208321e+01    0.3292158    0.2946448  31.12  0.001860465    1.470    0.320
       290 -10.9753    176.7994     36.3087   3.9557652626e+01   3.6737766466e+01    0.3760837    0.2653924 -46.20  0.002144042    1.411    0.291
       291 -10.7328    175.6731     30.8033   3.8309314983e+01   3.7658732179e+01    0.7218718    0.1992741  50.69  0.002453585    4.113    0.757
       292  -9.5156     15.2397    233.7264   1.1930446075e+02   2.2082198157e+01    0.2228678    0.1375233 -71.03  0.001098056    1.592    0.372
       293 -10.3954    247.4595    232.0779   7.0159487742e+01  -8.7640012458e+00    0.1965018    0.1563265 -35.45  0.001138322    1.536    0.349
       294 -10.0057    133.3051     36.9289   4.6895013266e+01   4.6841634514e+01    0.4405797    0.2727247  84.80  0.002025477    2.165    0.538
       295 -11.1175    152.9691     25.4913   4.0087417923e+01   4.3542773542e+01    0.6115699    0.3451422  49.64  0.003103554    1.752    0.429
       296 -10.2822    157.4931     20.3220   3.8001598701e+01   4.3032275637e+01    0.3596968    0.2106946  65.01  0.001798786    1.487    0.328
       297 -10.0736    242.6249    231.9262   7.0971891270e+01  -8.1834329824e+00    0.2541605    0.2156592 -40.38  0.001755184    1.672    0.402
       298  -9.8818    205.2158    234.1548   7.8289193369e+01  -3.8010574276e+00     0.159355    0.1419404  19.14  0.001054593    1.307    0.235
       299  -9.5141     23.7202    231.6196   1.1744582926e+02   2.1683635889e+01      0.16761   0.09077254  44.54   0.00074036    1.596    0.374
       300  -8.7628    209.2874    223.7164   7.5705259775e+01  -2.6774809740e+00    0.1069075    0.1038388  43.73 0.0001907376    1.527    0.345
       301  -9.6655     10.0001    218.0140   1.1943148446e+02   2.5975446944e+01    0.1489069    0.1174876  79.47 0.0005374252    1.035    0.034
       302 -10.1506    127.0183     16.5260   4.1691673881e+01   5.0522993456e+01    0.2504111    0.1899725  51.69 0.0007888161    1.181    0.153
       303  -9.2531    206.4973     37.0844   3.6149813502e+01   3.0011558806e+01    0.1759051    0.1151591 -39.29 0.0006776818    1.512    0.339
       304  -9.5669     12.4551     36.5560   8.9959269946e+01   6.8232977121e+01    0.1994997    0.1412807 -70.80 0.0009077664    2.392    0.582
       305  -9.3826     94.0921     35.8446   5.5920013696e+01   5.5786548469e+01    0.1939306    0.1756303  74.17 0.0007239877    1.322    0.243
       306  -9.5762    148.4584     32.5026   4.2800748837e+01   4.3812088279e+01     0.182807     0.132283 -14.37 3.242723e-05    1.751    0.429
       307 -10.2617    239.9452     32.9189   3.2135614328e+01   2.3699479184e+01    0.2835444    0.2011836  80.95  0.001272378    1.373    0.272
       308 -10.2559    240.9397     26.9568   3.0903482992e+01   2.4230887915e+01    0.2876595    0.1865414 -46.09  0.001512226    1.354    0.262
       309 -10.1305    164.6504    212.1342   8.2960387658e+01   6.0790607350e+00    0.2547014    0.1912407  23.63 0.0006829662    1.254    0.203
       310 -12.2608     58.3251     29.8272   6.5578530902e+01   6.3437993773e+01    0.3633185    0.2504418   6.53 0.0008356753    1.481    0.325
       311 -11.7915     49.5407     30.3481   6.9397485818e+01   6.4798177840e+01    0.6739615    0.2546557  36.41  0.002400421    2.468    0.595
       312 -10.6784    198.7392     29.1819   3.5193516603e+01   3.2661000557e+01    0.3587793    0.3391687  44.95  0.002038217    1.358    0.263
       313 -10.1594     86.4395     30.6090   5.6196571776e+01   5.8030365529e+01    0.3451715    0.2368855   2.92  0.001508702    1.714    0.416
       314 -11.2607     40.7710     56.9417   8.3542965287e+01   6.1602225608e+01    0.5378299     0.258368  29.17  0.001105165    2.099    0.524
       315 -10.1077     13.9108     23.4402   8.3924167506e+01   7.0308944910e+01    0.2726572    0.2271524  12.05 0.0004205829    1.333    0.250
       316  -8.8326    199.4739    210.5182   7.5292458055e+01   9.7049979470e-01    0.1369799    0.1137459  -5.99 6.505798e-05    1.041    0.039
       317  -9.9161    153.2691    207.6311   8.4735191872e+01   8.8169575506e+00    0.2882431     0.234918  70.42 0.0009140905    1.696    0.410
       318  -9.3636     61.1564    206.6356   1.0681289503e+02   2.3036104334e+01    0.1855604    0.1651246  43.22 0.0009030199    1.134    0.118
       319  -9.8054    123.9904    205.9682   9.1347127300e+01   1.3956384573e+01    0.2031696    0.1896582   7.63 -0.003769674    1.071    0.067
       320  -9.4553    238.5475    204.7584   6.6878136424e+01  -3.5635736966e+00    0.2490684    0.1027241 -35.36   0.00115195    2.101    0.524
       321 -10.3855     17.1429    203.4948   1.1688387303e+02   2.8618852395e+01    0.3232237    0.1710827 -68.00  0.001713564    1.718    0.418
       322 -11.4186      5.4483    200.5261   1.1930362747e+02   3.0335655134e+01    0.7546265    0.1025329 -69.05  0.002490415    4.545    0.780
       323  -9.5586     97.0798     26.2062   5.1549307350e+01   5.6293870356e+01    0.2078884    0.1692066 -48.78 0.0008327778    1.510    0.338
       324 -10.4268    214.5909     23.0667   3.2298372034e+01   2.9974132830e+01    0.3503273    0.2967933  13.36  0.002313741    1.854    0.461
       325  -9.5539     85.9140     23.8698   5.3746723139e+01   5.8916268989e+01    0.1902512    0.1541243  34.91 -0.0009232552    1.060    0.057
       326 -12.2242      4.9526    184.8759   1.1833027797e+02   3.4065179024e+01    0.8165128    0.4740728  83.86  0.004468148    1.563    0.360
       327  -9.1444    196.3295    204.7003   7.4858937525e+01   2.4869887244e+00     0.122573    0.1114537  74.26 0.0006068771    1.643    0.391
       328  -8.8624     78.3517    203.7445   1.0224274693e+02   2.1419940618e+01    0.1453184   0.09610771  58.78  0.000350503    1.602    0.376
       329 -10.5643    245.8205    200.8736   6.4915406920e+01  -3.8944138136e+00    0.1975283    0.1418012 -13.17 0.0006945794    1.209    0.173
       330  -8.7249    195.2980    199.6651   7.4125956465e+01   3.5685473934e+00    0.1249811    0.1129093 -85.22 0.0004594793    1.651    0.394
       331  -9.3554    169.2684     23.7698   3.7339085441e+01   3.9931039809e+01    0.2643489    0.1470332  60.54  0.001375977    1.627    0.385
       332  -9.1259     27.3168    199.3239   1.1419158974e+02   2.8620956292e+01     0.125899   0.09171806 -44.44 0.0003646204    1.668    0.401
       333 -10.2654    233.9783    196.9832   6.6240043637e+01  -1.6876670937e+00    0.2973364     0.213057 -32.25 0.0009373817    1.217    0.178
       334  -9.5335     74.3508     19.4955   5.5513026637e+01   6.1724112931e+01    0.2621759    0.1798631  57.21  0.000940967    1.562    0.360
       335  -9.5176     82.6610    196.2448   1.0013690540e+02   2.2588795258e+01    0.3552445     0.214496  14.82  0.001529112    2.253    0.556
       336 -10.6414    246.7830    193.6652   6.3421218074e+01  -2.8746904411e+00    0.2578443    0.1504036 -42.29  0.001415399    1.637    0.389
       337  -9.8410    169.8742    191.3820   7.7981284514e+01   9.3515566968e+00    0.3810458    0.2144298  20.98  0.001584866    2.178    0.541
       338  -9.0683     16.4871    191.4940   1.1609969521e+02   3.1514825892e+01    0.1272688    0.1076559  88.41 8.696794e-05    1.028    0.027
       339  -8.6749    120.2905     20.6879   4.4303927466e+01   5.1671888877e+01    0.1253325   0.09619907 -73.78  0.000222379    1.587    0.370
       340 -10.0490    239.7383    184.5953   6.2895540952e+01  -4.3242133844e-01    0.2255661    0.1921965 -22.41 0.0005948593    1.103    0.093
       341  -9.9206    214.4862    184.9993   6.7505476819e+01   3.2424428720e+00     0.185134    0.1152767 -59.58 0.0008103441    2.583    0.613
       342  -8.2789    173.3039    184.3066   7.5833575790e+01   1.0206121614e+01    0.1493134    0.1084597  -8.13 0.0005531004    1.602    0.376
       343 -10.1594    250.4096    178.5813   5.9988542673e+01  -9.1933124086e-01    0.4440124   0.09695879 -36.53  0.001409089    4.307    0.768
       344 -10.4904     52.1284    173.5700   1.0504773355e+02   3.2269993619e+01    0.5457401    0.2869513 -87.63  0.002199318    2.450    0.592
       345  -9.6243      5.6597     21.1678   8.7674818630e+01   7.1383010620e+01    0.1929113    0.1154292  -7.04 0.0005447172    1.502    0.334
       346  -9.7685     28.0266    175.9449   1.1178015936e+02   3.4260642255e+01    0.2064035    0.1824025 -89.49 0.0007055869    1.022    0.021
       347  -9.4608    230.2878    175.4645   6.2749247351e+01   2.5072078635e+00    0.2084291    0.1270611  31.05 0.0004338817    1.834    0.455
       348  -9.8903    247.6833    173.9565   5.9540714289e+01   2.2110302368e-01    0.3926102    0.1717041  23.84  0.001487139    4.196    0.762
       349 -10.0926    186.5358     15.3083   3.3252535448e+01   3.6900522682e+01    0.2323002    0.1879379  85.11 0.0006936666    1.067    0.063
       350  -9.2456    223.8785     21.9172   3.1263420466e+01   2.8190550019e+01    0.1665703    0.1427515  84.01 0.0006330406    1.219    0.180
       351 -10.3782     38.3597    173.1813   1.0873133730e+02   3.3916510381e+01    0.6343734    0.2263089  48.08  0.002341378    3.120    0.679
       352 -10.1586     35.4880    169.4721   1.0906538460e+02   3.5154425228e+01    0.2943481    0.2475742  -1.07  0.001432577    1.481    0.325
       353  -8.9210    170.6149    171.7999   7.3889381203e+01   1.3284827113e+01    0.1991378    0.1385328 -51.59 0.0006596233    1.526    0.345
       354 -11.7407      9.7497    166.8941   1.1566610562e+02   3.8089604706e+01    0.4985969    0.3987382 -85.94  0.002349658    1.055    0.052
       355  -9.2025    198.2484    167.9952   6.7224656448e+01   9.1144306073e+00    0.2054327     0.173538 -28.70 0.0007099159    1.068    0.064
       356  -9.2797    187.4052    167.7787   6.9399890184e+01   1.1075027826e+01    0.2126102    0.1278175 -32.61 0.0008521577    1.659    0.397
       357  -9.1971    156.4835    166.1407   7.5960902948e+01   1.7118693183e+01    0.2252845    0.1464695 -45.46  0.000570601    1.506    0.336
       358  -8.8999    152.4348    166.5400   7.7012118853e+01   1.7788239882e+01    0.1515418    0.1441786 -15.93 0.0001387849    1.006    0.006
       359 -10.2213     18.8268    165.0079   1.1307844511e+02   3.7834658603e+01    0.3240822    0.2486652 -42.26  0.001565901    1.456    0.313
       360 -11.1975     13.6691    158.5906   1.1381804439e+02   3.9866787686e+01    0.6047097    0.2056096 -60.41   0.00251365    2.357    0.576
       361 -10.1981     39.3242    162.0132   1.0706553466e+02   3.6661588800e+01    0.4989564    0.2568604  58.18  0.002107771    2.379    0.580
       362 -10.6881     28.0969    162.2985   1.1024653185e+02   3.7699832100e+01    0.4088085    0.2374485 -60.52  0.002050757    1.524    0.344
       363 -10.0011    205.0613    162.9834   6.4838600280e+01   8.8973774595e+00    0.2446843     0.202769  17.03 0.0005933497    1.277    0.217
       364  -9.6952    208.4534    160.4984   6.3669766616e+01   8.7831877807e+00    0.2516361     0.122988 -40.86  0.001000782    1.840    0.456
       365  -8.9292    188.6490    163.6681   6.8270651587e+01   1.1678485807e+01    0.1551095    0.1098402  -6.16 0.0007047349    1.776    0.437
       366  -9.2791     79.1158    160.4404   9.5400231185e+01   3.2022324926e+01    0.2462211    0.1815947 -70.72  0.000921674    1.393    0.282
       367  -9.8290    247.0486    159.0163   5.6732546902e+01   2.8198522967e+00    0.1956491    0.1474147 -58.59 0.0009049657    1.675    0.403
       368  -9.3461    224.3509    157.7326   6.0210153641e+01   6.6070215889e+00    0.3263602    0.1554136 -50.93  0.001354619    2.404    0.584
       369  -9.3663     53.6140    156.5117   1.0215944226e+02   3.6469014740e+01    0.2760829     0.165122  80.11  0.001145402    2.289    0.563
       370 -10.3570      9.3974    155.4005   1.1466828522e+02   4.0987639029e+01      0.25624    0.1986791  87.17 0.0009995258    1.171    0.146
       371 -10.5978    104.9888    154.1310   8.6794285043e+01   2.9438835070e+01    0.4234924    0.3507366 -19.14  0.002075824    1.368    0.269
       372 -10.5159     31.1560    151.8327   1.0806997557e+02   4.0092236471e+01    0.2957034    0.2451145  -4.30  0.001197451    1.468    0.319
       373 -11.5524     12.9895    138.9308   1.1182687905e+02   4.4891383123e+01    0.7442208    0.4691498 -85.15  0.003925283    1.513    0.339
       374  -9.9481    230.3220     27.6070   3.1878743893e+01   2.6229240533e+01    0.2926229    0.1550055 -42.58  0.001684128    1.671    0.402
       375 -12.3154     22.6677    149.1089   1.1020264023e+02   4.1548636684e+01    0.7290211    0.3804714 -33.31  0.001618685    2.512    0.602
       376 -10.7486     16.0112    148.0216   1.1200872866e+02   4.2361116920e+01    0.3497357    0.2801464 -65.42 0.0007947241    1.092    0.085
       377  -9.4988     74.5278    154.0462   9.5584360362e+01   3.4331911867e+01    0.2806629    0.2052168  52.46 0.0007296776    1.488    0.328
       378 -10.2275     73.4214    147.7833   9.4751419519e+01   3.6101069363e+01    0.7325243     0.217689 -46.11  0.002166879    3.652    0.726
       379 -10.6243      3.4260    152.8799   1.1606414210e+02   4.2028219162e+01    0.3935108    0.2373295  69.67  0.002089815    1.739    0.425
