#   1 NUMBER                 Running object number                                     
#   2 MAG_AUTO               Kron-like elliptical aperture magnitude                    [mag]
#   3 X_IMAGE                Object position along x                                    [pixel]
#   4 Y_IMAGE                Object position along y                                    [pixel]
#   5 X_WORLD                Barycenter position along world x axis                     [deg]
#   6 Y_WORLD                Barycenter position along world y axis                     [deg]
#   7 A_WORLD                Profile RMS along major axis (world units)                 [deg]
#   8 B_WORLD                Profile RMS along minor axis (world units)                 [deg]
#   9 THETA_WORLD            Position angle (CCW/world-x)                               [deg]
#  10 FWHM_WORLD             FWHM assuming a gaussian core                              [deg]
#  11 ELONGATION             A_IMAGE/B_IMAGE                                           
#  12 ELLIPTICITY            1 - B_IMAGE/A_IMAGE                                       
         1 -10.5621     46.7424     26.2259   7.2060035917e+01   6.5980964114e+01    0.2495255    0.2011795 -30.17  0.001595073    1.376    0.273
         2 -11.1248      2.0451     21.3773   9.3430230674e+01   7.1549342931e+01    0.3629559    0.2395763 -13.17  0.002063563    1.257    0.204
         3 -10.9752     14.1701      9.1717   8.0625159972e+01   7.2447344805e+01    0.2973511    0.1857376 -11.60 0.0004936269    1.348    0.258
         4 -11.8831     12.4396     15.9290   8.4931861878e+01   7.1627717327e+01    0.4246337    0.2400722  10.01  0.001084827    1.658    0.397
         5  -7.6541     20.4625     17.6902   8.1206946083e+01   7.0573886247e+01    0.3807855    0.1637927 -31.42  0.001333938    2.120    0.528
         6 -11.5086     75.8275     21.3554   5.8587995888e+01   6.1531412454e+01    0.4769458    0.4089126 -42.72  0.002360533    1.508    0.337
         7 -11.7733    234.9194     15.0684   3.0530067445e+01   2.6125040296e+01    0.2445349    0.1762216 -67.15 0.0003291587    1.118    0.105
         8 -11.9764     83.7058     15.0338   5.3465402936e+01   6.0607947187e+01    0.4778943    0.2531483  24.81 0.0006006317    2.200    0.546
         9 -10.2274     89.5202     13.4644   5.1177439218e+01   5.9532959665e+01     0.375541    0.1957349 -29.34  0.001897477    2.122    0.529
        10 -10.2495     66.1843     15.3290   5.9280702933e+01   6.4044680254e+01    0.3078113    0.1417972 -47.06    0.0011785    4.364    0.771
        11  -9.7640     22.4966      9.4614   7.6028219560e+01   7.1494602262e+01    0.3829732    0.1817323  11.74   0.00185606    2.585    0.613
        12 -11.5757     34.8371     12.4456   7.1121076693e+01   6.9524985692e+01    0.3681189     0.265018   4.84  0.001495962    1.135    0.119
        13 -11.9286     30.4792      7.4915   7.0770914479e+01   7.0727245855e+01    0.4822032    0.2712746  28.47  0.002535556    1.557    0.358
        14 -10.0361     28.0000      1.9863   6.9104793070e+01   7.1696363987e+01    0.2077967    0.1372537 -18.68 0.0007305702    1.396    0.284
        15 -10.3722     40.5561      7.5630   6.5931778653e+01   6.9260906012e+01    0.2024288    0.1322745  26.33 5.620613e-05    1.276    0.216
        16 -10.2891     37.5391      6.0640   6.6561743684e+01   6.9882917442e+01    0.2309051    0.1807672 -41.66  0.001131181    1.932    0.482
        17 -11.0439    208.1232     13.1446   3.2298943726e+01   3.2014949085e+01    0.1718666    0.1525019  84.10 0.0004205951    1.180    0.153
        18 -11.8167    133.4469     11.2200   4.0923332916e+01   4.9687280377e+01    0.9115232    0.3526218  80.57  0.002910452    4.542    0.780
        19 -10.9802    125.9089     10.9277   4.2140065328e+01   5.1501812039e+01    0.2946386     0.217078 -70.90  0.001267086    1.643    0.391
        20 -10.1315     44.9126     10.5689   6.5485483292e+01   6.8247387347e+01    0.3338399    0.1748272  13.36   0.00163231    2.315    0.568
        21 -10.7449    117.1962      9.0451   4.3132936473e+01   5.3709377707e+01    0.4454547    0.2709332  87.00  0.002188972    2.119    0.528
        22 -10.8563     57.2598      7.9280   5.9133137723e+01   6.6438668580e+01    0.4702288    0.2559429 -28.23  0.001802832    1.973    0.493
        23 -10.6649     57.8161      2.0320   5.6082744735e+01   6.6884109394e+01     0.242588    0.1809905  25.33 0.0003105459    1.073    0.068
        24  -9.7474      3.7521     10.4548   8.7598653727e+01   7.3191255974e+01    0.1552857    0.1202551 -20.26 0.0002963905    1.159    0.138
        25 -10.0606      2.2693      6.7925   8.6757795510e+01   7.3854076065e+01    0.2146057    0.1304748   2.87  0.001122621    1.425    0.298
        26  -9.9623    204.6915      9.3031   3.1744345154e+01   3.3175544388e+01    0.1281578   0.07534272 -67.29  0.000322216    1.605    0.377
        27 -11.7017    218.4648      7.4609   3.0215205603e+01   3.0374137256e+01    0.2408874    0.1779565 -79.09  0.000517445    1.111    0.100
        28 -10.7940    188.1789      7.1408   3.2766512314e+01   3.7114806452e+01    0.2235797    0.1466141  12.21  0.001134212    2.722    0.633
        29 -10.9049    172.0045     11.9417   3.5703555151e+01   4.0413614339e+01    0.1895984    0.1610548 -89.70 0.0003286407    1.032    0.031
        30  -9.3488    165.3464      7.3152   3.5268376198e+01   4.2427234419e+01    0.1306676   0.08429819  45.25 0.0007047706    1.719    0.418
        31 -11.1799    150.7874      5.4282   3.6577197395e+01   4.6055967297e+01    0.2716137    0.1897761 -42.18 0.0006107037    1.568    0.362
        32 -10.2801    235.4933      4.9943   2.8501109446e+01   2.7103800428e+01    0.1654528   0.09898333 -40.30  0.001034266    1.594    0.373
        33 -10.2068    119.6062      4.0278   4.0963157696e+01   5.3557722084e+01    0.2928214     0.169223  44.25  0.001516229    1.596    0.373
        34 -10.0507    104.2266      3.4823   4.3763833348e+01   5.7138483864e+01    0.2496033    0.1656535 -22.46  0.001349295    1.738    0.425
        35  -9.7002     74.9298      3.7809   5.1256934531e+01   6.3428630560e+01    0.1982684    0.1325236  34.09 0.0006689522    1.261    0.207
        36  -9.6899    176.5962      2.7977   3.2857321496e+01   4.0195707271e+01     0.163314    0.1035452 -46.52 0.0005232972    1.600    0.375
        37 -10.7057     20.9970      2.0880   7.2932656358e+01   7.2592982948e+01    0.2981435    0.1468222  24.80  0.001707602    1.813    0.449
        38 -10.1974    162.4953      2.5028   3.4312557548e+01   4.3527664911e+01    0.1260636    0.1054638  81.33  0.000810674    1.001    0.001
        39  -9.3984     90.8280      2.1620   4.6289717352e+01   6.0212594229e+01    0.1699794    0.1210592  30.12 0.0005018987    1.313    0.239
        40 -11.3536     80.3299      1.6194   4.8774740466e+01   6.2490291594e+01    0.2585559     0.133668  52.11  0.001371205    1.570    0.363
        41  -9.2185      1.0000      1.9913   8.5129535684e+01   7.4644783707e+01    0.1645713   0.05205278 -43.25 0.0007375046    2.861    0.651
        42  -9.4214     11.0993      1.3135   7.8310192969e+01   7.3808142572e+01    0.1407073   0.08612014  30.17 0.0004097425    1.756    0.431
        43  -9.0196      8.6870    175.7110   1.1906013090e+02   3.5762394271e+01    0.1205756   0.08476029 -50.35 0.0003000349    1.586    0.369
        44 -11.0320     28.4287    250.5144   1.1995456443e+02   1.7379170498e+01     0.354689   0.09356832  33.08  0.001513891    3.366    0.703
        45 -11.9216     18.0851    248.7157   1.2177760770e+02   1.8819070313e+01    0.2944033    0.2349131 -36.42  0.002038384    2.036    0.509
        46 -11.1964      9.1763    237.6231   1.2286039326e+02   2.1904618151e+01    0.1946149     0.161411  18.58  0.001060323    1.693    0.409
        47 -12.5650     10.2849    246.2263   1.2308068187e+02   2.0085795470e+01    0.5578268    0.2942393  60.97  0.002464091    1.507    0.336
        48 -11.2773      3.1359    240.2931   1.2410544119e+02   2.1937902773e+01    0.2562482    0.2259096  64.19  0.002029886    1.274    0.215
        49 -10.2710      4.6099    167.2107   1.1938093326e+02   3.8129024634e+01    0.1866308   0.09196747 -67.08 0.0009512305    1.685    0.406
        50  -9.6278    226.4415    164.0461   6.3815625390e+01   4.2242612866e+00    0.2110179    0.1197675 -36.41 0.0006248476    1.549    0.354
        51  -9.7419     14.3297    164.3084   1.1667662890e+02   3.8099491093e+01    0.1297961   0.08572561 -47.12 0.0003229222    1.662    0.398
        52  -9.5057     21.7984    160.4366   1.1433226443e+02   3.8442295677e+01    0.1589435    0.1287104  -8.14 0.0008573899    1.621    0.383
        53 -11.0538      8.6929    153.0199   1.1709139932e+02   4.1327113678e+01    0.2005109      0.17776 -19.09 0.0004382525    1.420    0.296
        54  -9.6765     27.4178    147.3089   1.1125360969e+02   4.1274202683e+01    0.2449531    0.1100928 -66.19 0.0005707766    1.851    0.460
        55 -10.6344     22.5548    146.9666   1.1260527296e+02   4.1780821900e+01    0.2387414    0.1823444 -15.79  0.001159629    1.677    0.404
        56  -9.4767    236.4812    139.0141   5.6819658147e+01   6.9798152711e+00    0.1886092     0.108115 -19.32 0.0007966993    2.329    0.571
        57  -9.3984     24.5170    138.9836   1.1102813870e+02   4.3648918576e+01    0.2008397   0.07802746 -49.91 0.0008082158    2.392    0.582
        58 -10.8727      3.5214    134.1912   1.1664589912e+02   4.6352629992e+01    0.3336148    0.1848157  82.19  0.001129296    1.900    0.474
        59 -10.1157    212.5201    133.9558   5.9807335655e+01   1.2282598190e+01    0.2396506      0.20553  75.58 0.0005912486    1.477    0.323
        60  -9.3985     95.9728    134.0198   8.8151078882e+01   3.5727865883e+01    0.1882312    0.1803585 -46.65 0.0004775875    1.007    0.007
        61 -10.8712     12.0765    129.3762   1.1354817547e+02   4.7019482025e+01    0.2497049    0.1974593 -73.98  0.001523494    1.063    0.059
        62 -10.4876     28.4511    128.2003   1.0828965134e+02   4.6066113976e+01    0.2042427     0.191911   7.06  0.000309341    1.239    0.193
        63 -11.2369     24.1705    122.0957   1.0872840916e+02   4.7972813613e+01     0.230275     0.209815 -36.36 0.0002714085    1.170    0.145
        64 -10.1045      1.8291    122.4145   1.1585440262e+02   4.9371193545e+01    0.2579031   0.08277574 -76.15  0.000997034    2.731    0.634
        65 -10.6700     17.9257    121.9532   1.1072500266e+02   4.8482568301e+01    0.1957392    0.1783255 -49.79            0    1.130    0.115
        66 -10.6310     69.0281    117.0344   9.2801747713e+01   4.4278528835e+01    0.2222326    0.2041652 -45.81            0    1.008    0.008
        67 -11.0933     10.1686    120.8605   1.1305368405e+02   4.9276652409e+01    0.3914762    0.2011639 -89.43  0.001794611    2.173    0.540
        68 -10.5729      1.9829    113.8733   1.1477670348e+02   5.1470633147e+01    0.2577737    0.1427608 -63.64  0.000732769    1.402    0.286
        69 -10.4221      2.2353    108.9995   1.1406290426e+02   5.2653425233e+01    0.2473841    0.1488507 -79.73  0.000823129    1.506    0.336
        70 -10.3276     45.0264    110.8877   9.9652894903e+01   4.8845160553e+01    0.2104071    0.1951187 -48.87 0.0005519604    1.050    0.048
        71 -10.5519     64.9710    109.7572   9.2472062935e+01   4.6656144967e+01    0.2502657    0.2017722 -54.74 0.0005112577    1.168    0.144
        72 -10.6594     13.6103    109.0535   1.1023113212e+02   5.1995643948e+01    0.1892243    0.1798316  62.69 0.0004519863    1.237    0.191
        73 -11.3697     57.5182    107.8613   9.4612571994e+01   4.8118553664e+01    0.3842146    0.2564803  12.98  0.001515508    1.769    0.435
        74 -10.4098     55.1744    104.8543   9.4735474835e+01   4.9153013271e+01    0.2002053    0.1549604 -28.46 0.0002677244    1.306    0.234
        75 -10.4304      1.4653    104.5274   1.1371621705e+02   5.3781265967e+01    0.2628102     0.101056 -69.57 0.0007205846    2.051    0.512
        76  -9.5814    246.6635    101.6872   4.7373678537e+01   1.1559641334e+01    0.1253475   0.09996124  -3.94 0.0004198138    1.689    0.408
        77  -9.6010     91.8621     99.8840   8.0818174028e+01   4.4690772963e+01     0.190237    0.1774653 -83.98 0.0009978005    1.249    0.199
        78 -12.0721    125.3364     93.3868   6.8831980444e+01   3.9348930762e+01     0.318895    0.2878427  76.07 0.0001411998    1.266    0.210
        79 -10.7941      2.9324     95.4650   1.1187237824e+02   5.5898645769e+01    0.3014076    0.1797505 -56.09   0.00169707    1.304    0.233
        80 -12.1135     20.3269     92.8433   1.0495476402e+02   5.5494911178e+01    0.3954377    0.2733579 -39.82 0.0004611589    1.290    0.225
        81 -11.5975      7.7060     91.3384   1.0943468108e+02   5.6643319337e+01    0.3639197    0.2191592  32.59 0.0004458887    2.004    0.501
        82 -10.4460     66.2841     91.6369   8.7331961348e+01   5.0786504289e+01    0.2904134    0.2340808 -84.17 0.0009584816    1.694    0.410
        83 -11.3444     58.1187     91.5898   9.0322113063e+01   5.1938819659e+01    0.3377275    0.2371805 -22.32 0.0006676337    1.538    0.350
        84 -10.7931     43.1880     89.1223   9.5335650549e+01   5.4320986479e+01    0.3410453    0.2342015 -76.00 0.0003696198    1.865    0.464
        85 -10.0140     28.9243     91.9826   1.0149913929e+02   5.5026611296e+01    0.2164818    0.1858617   5.72 0.0006888944    1.285    0.222
        86 -10.2539     24.1153     88.0016   1.0248819148e+02   5.6362801032e+01    0.3791516    0.1662749 -57.79  0.001718332    1.849    0.459
        87 -11.3316     11.5188     87.1018   1.0720715049e+02   5.7433364288e+01    0.3616724    0.2213268  75.24  0.001753223    2.487    0.598
        88 -10.3947      6.9997     85.1592   1.0859507623e+02   5.8139714892e+01    0.2975112    0.1775815 -55.18 0.0009010775    1.302    0.232
        89  -9.2776     89.0174     87.5664   7.8173209555e+01   4.7944005158e+01    0.2074416     0.145833  35.51 8.789414e-05    1.443    0.307
        90  -9.6495    124.4791     86.4857   6.7026997723e+01   4.0936536699e+01    0.1531955    0.1487121   7.73 9.111947e-05    1.005    0.005
        91 -10.3593     55.1623     85.6110   8.9798654172e+01   5.3699698544e+01    0.2291397    0.2062657 -74.27  0.000339788    1.339    0.253
        92  -9.3809     76.7036     82.9684   8.1035522736e+01   5.1084553031e+01    0.2037021    0.1764786 -30.61 0.0004442754    1.081    0.075
        93  -9.6959     69.3157     83.5121   8.3876637784e+01   5.2152485294e+01    0.1924743    0.1379705  14.66 0.0009371235    1.524    0.344
        94 -10.4450      3.0921     82.1643   1.0957342384e+02   5.9030003646e+01    0.3934802    0.1342474 -65.24  0.001707101    2.286    0.563
        95 -10.0277     89.2128     80.2996   7.5864089048e+01   4.9438853218e+01     0.381745    0.2618838  78.18  0.001269645    3.050    0.672
        96  -9.6948     80.6107     79.7288   7.8645611869e+01   5.1106275858e+01    0.1919395    0.1377618 -52.58 0.0002512934    1.516    0.340
        97  -9.3228    141.6949     79.7223   6.0580731127e+01   3.8306190493e+01    0.1504128    0.1183396  16.78  0.000216903    1.549    0.354
        98  -8.9391    124.4781     79.4238   6.4884251257e+01   4.2308057894e+01     0.149646    0.1464846  46.81 0.0001513859    1.054    0.051
        99 -10.2294     47.9973     79.0354   9.0736705016e+01   5.6071106623e+01    0.2079367    0.1726813 -28.60 0.0003228306    1.064    0.060
       100 -10.9919      7.3392     76.8493   1.0684068629e+02   6.0044860939e+01    0.3703168     0.177083  46.49  0.001654791    3.229    0.690
       101  -9.9124    176.8135     76.8968   5.2356890560e+01   3.0525696820e+01     0.222245    0.2063705  14.38  0.001229947    1.240    0.193
       102 -11.8017     54.8960     75.2392   8.6873653768e+01   5.6024334226e+01    0.3759622    0.2629848 -16.46   0.00191488    1.525    0.344
       103 -10.2372     22.0343     76.5365   1.0069132856e+02   5.9174775439e+01    0.2094574    0.1472315 -55.02 0.0006393135    1.236    0.191
       104 -11.2037     15.6598     75.4829   1.0309898035e+02   5.9864957614e+01    0.3165069    0.2322892   0.72  0.001604341    1.483    0.326
       105 -10.0184     42.1829     74.6540   9.1830219527e+01   5.7709805143e+01    0.2636141    0.2183641  29.22  0.001545701    1.363    0.266
       106 -10.9784     35.1183     73.1745   9.4340616438e+01   5.8779351183e+01    0.5225447    0.3361073  20.43  0.002797841    1.667    0.400
       107  -9.2313    217.0000     71.9880   4.4758819148e+01   2.2259891609e+01    0.2087982   0.07096412 -37.04 0.0003413634    2.718    0.632
       108 -12.6540    105.8419     70.8687   6.7496782425e+01   4.7972712704e+01    0.3029509    0.2960679 -82.94 0.0005188626    1.176    0.149
       109  -9.6763     93.1944     72.0263   7.1866106972e+01   5.0325797054e+01    0.3372553    0.1595761  57.45  0.001073835    3.804    0.737
       110  -9.2869     70.1851     75.4098   8.1051271787e+01   5.3745041501e+01    0.1784066    0.1346252  41.53  0.000149179    1.467    0.318
       111 -10.6659     81.5103     69.1186   7.4875453366e+01   5.3081437098e+01    0.4316263     0.310113 -60.77  0.002056399    1.891    0.471
       112  -9.8029     77.3963     67.7941   7.5897064702e+01   5.4067438235e+01    0.2369384    0.1834075 -13.83 0.0005991925    1.322    0.243
       113 -10.5924     45.6361     69.4670   8.8854519182e+01   5.8425987769e+01    0.2577405    0.2233946 -12.66 0.0009318031    1.066    0.062
       114 -10.1758     10.1490     70.1997   1.0421753707e+02   6.1391313553e+01    0.1928478     0.140022 -39.42 0.0004903377    1.127    0.112
       115 -10.5715      3.3329     67.2879   1.0650553965e+02   6.2393494435e+01     0.398231    0.1446154  35.10  0.001702895    3.662    0.727
       116 -10.1607     51.4385     66.2201   8.5424121039e+01   5.8370483343e+01    0.2684882     0.173285 -18.80 0.0007452754    1.678    0.404
       117 -11.2529     15.2328     63.5216   1.0034058587e+02   6.2538341320e+01    0.4172773    0.3113108 -26.80   0.00190964    1.180    0.152
       118 -12.8013     20.8764     57.7894   9.6164816992e+01   6.3336049619e+01    0.3791883    0.2780328 -28.41 0.0007686593    1.145    0.127
       119 -10.5161     62.6646     62.0839   7.9500782266e+01   5.7587749087e+01    0.3115829    0.1738542 -42.19  0.001462569    1.715    0.417
       120  -9.2134     92.7084     61.2942   6.8385263539e+01   5.2395023245e+01    0.1332903    0.1175813 -87.07 0.0002311124    1.554    0.356
       121 -10.2750     39.7578     60.1459   8.8393079426e+01   6.1033679937e+01    0.4446993     0.200908 -22.70  0.001610824    3.502    0.714
       122 -10.2612     10.4702     59.2153   1.0136834675e+02   6.3763400702e+01    0.2520239    0.1453229 -32.80 0.0009202815    1.490    0.329
       123  -9.6061     85.2857     59.3075   7.0168583695e+01   5.4191950999e+01    0.2163114    0.1529472   3.57 0.0005220329    1.683    0.406
       124 -11.8906     86.6699     54.4694   6.7963103178e+01   5.4754582737e+01    0.5656878    0.3592264  13.65  0.001647532    2.047    0.511
       125  -9.1500     48.3203     58.3054   8.4072741368e+01   6.0354690292e+01    0.1415231   0.09240165 -14.95 0.0003289042    1.635    0.388
       126 -10.4744      5.6582     57.0051   1.0302058773e+02   6.4503453465e+01    0.3376884    0.1628925 -21.04  0.001299569    2.159    0.537
       127 -10.0269     71.6834     56.8483   7.4167269218e+01   5.7092171957e+01     0.191325    0.1555711 -34.08 0.0005623491    1.236    0.191
       128 -10.3080     32.6706     56.0601   9.0209916268e+01   6.2616829566e+01    0.2537521    0.1481079 -27.51 0.0007814899    1.631    0.387
       129 -10.4489     96.2409     55.9757   6.5386885289e+01   5.2584497642e+01    0.2484318    0.1963021  38.41 0.0005043491    1.199    0.166
       130 -10.8495    114.3660     53.6625   5.9295001472e+01   4.9035154201e+01    0.2898541    0.2411464   2.24  0.000753711    1.310    0.237
       131 -11.9876     66.8949     52.6369   7.4446328582e+01   5.8643731912e+01    0.4431941    0.2182261  31.90  0.001137109    2.051    0.512
       132  -9.9155    149.3176     52.0928   5.0639410728e+01   4.1045909948e+01    0.2511982    0.1798188  50.17 0.0006509295    1.341    0.254
       133 -11.3154    105.9926     50.4705   6.0517490685e+01   5.1384628507e+01    0.3041899    0.2021837 -28.26 0.0005691268    1.597    0.374
       134 -10.9470     37.2202     49.5087   8.5872047120e+01   6.3391878742e+01    0.4086269    0.2476239 -17.87  0.002118689    1.716    0.417
       135 -11.6003     97.0993     63.9338   6.7883302032e+01   5.1043258429e+01    0.3655546     0.236577  30.64            0    1.605    0.377
       136  -9.8977    121.7494     51.0046   5.6479997134e+01   4.7753304940e+01    0.2056135    0.1523097 -33.89 0.0004827681    1.428    0.300
       137 -10.1750    119.4621     48.4990   5.6216252931e+01   4.8649672086e+01    0.2639085    0.1383172 -36.71 0.0008750043    2.011    0.503
       138  -9.4053     15.1972     51.2106   9.6861389248e+01   6.5110081784e+01    0.2330193    0.0863546 -31.16 0.0009546178    2.850    0.649
       139 -10.2301      4.1853     50.8330   1.0208471952e+02   6.5867103651e+01    0.1831146    0.1051701 -37.91  0.000599976    1.365    0.267
       140  -9.3480     76.4328     49.4922   6.9695307257e+01   5.7510788772e+01    0.1373732    0.1241305   5.52 0.0006721743    1.057    0.053
       141  -9.0362     78.3516     52.2853   7.0049694430e+01   5.6696270950e+01    0.1461587    0.1008522   9.03 0.0004191744    1.661    0.398
       142  -9.7432     52.8683     48.2321   7.8477034109e+01   6.1594174243e+01    0.2661121    0.1540693  27.96  0.001339994    1.702    0.412
       143 -10.3823      9.6305     47.9271   9.8581141794e+01   6.6144679792e+01    0.2572743    0.1902194   2.25  0.001231654    1.380    0.275
       144  -9.7559    154.6303     47.2567   4.8181057275e+01   4.0448753932e+01    0.2075219    0.1877277 -81.74 0.0006566415    1.117    0.105
       145  -9.6145    152.3989     44.5932   4.7810469958e+01   4.1354461856e+01    0.1821873    0.1637193  81.28 8.156675e-05    1.081    0.075
       146 -10.1800    136.6209     46.9257   5.1689326443e+01   4.4837749764e+01    0.2752711    0.2015776  66.74 0.0009772738    1.375    0.273
       147 -11.0847     18.4864     44.5288   9.3088743996e+01   6.6172772915e+01    0.3893389    0.2202052  20.22  0.002185138    1.843    0.457
       148  -9.2159     79.2957     45.6975   6.7234174340e+01   5.7584616835e+01     0.123784    0.1126894 -85.72 0.0002043005    1.578    0.366
       149  -9.1298     36.5198     45.4626   8.4711061417e+01   6.4219419203e+01    0.1317991    0.1053276 -15.13 0.0001133759    1.031    0.030
       150 -10.4414     25.5447     43.4563   8.9221659807e+01   6.5749792746e+01    0.3123999     0.206323 -67.10  0.001199177    2.462    0.594
       151 -10.4878     22.0360     38.3345   8.9082722625e+01   6.7017602760e+01    0.2088943    0.1837555 -35.16 0.0006973225    1.305    0.234
       152 -10.1162      3.3714     43.2150   1.0030655567e+02   6.7445386920e+01    0.3329768    0.1013164 -42.38  0.001510003    2.358    0.576
       153  -9.1207    100.3198     43.6729   5.9724241592e+01   5.3620554556e+01    0.1346947    0.1123873 -79.19 0.0002880462    1.683    0.406
       154  -9.6596     69.2471     41.9989   6.9455670124e+01   5.9992388364e+01    0.1821737    0.1589155  -4.80            0    1.073    0.068
       155 -10.1234     59.2594     41.6707   7.3250025460e+01   6.1722760371e+01    0.2507255     0.150833  44.79  0.000907763    1.899    0.474
       156 -10.0369     35.8185     41.5654   8.3557366641e+01   6.4998113786e+01    0.2190073    0.1628064  -0.09  0.001092177    1.216    0.177
       157  -9.1510    183.0000     40.9382   4.1841442264e+01   3.4484067380e+01    0.2100217   0.07541296 -32.45 0.0007957276    2.896    0.655
       158 -10.1055    170.4726     40.1210   4.3469045349e+01   3.7577659023e+01    0.3677241    0.2255932 -87.30  0.001476914    2.020    0.505
       159 -10.4414    139.4303     40.6642   4.9130120318e+01   4.5011052610e+01    0.2465663    0.2134393 -86.59 0.0006673869    1.246    0.198
       160 -10.9730    128.2094     38.8945   5.0938516352e+01   4.7921412264e+01    0.3290935    0.2096925 -45.35 0.0009732022    1.772    0.436
       161  -9.2367     99.4410     40.4518   5.8799814014e+01   5.4262350733e+01    0.1386499    0.1245265  28.39 0.0001604053    1.009    0.009
       162 -10.1401     10.9709     39.7594   9.5283333770e+01   6.7648389561e+01    0.2982309    0.1368531  27.35  0.001548599    2.419    0.587
       163  -9.7469    151.9148     39.1110   4.6273859680e+01   4.2194400122e+01    0.2098811    0.1793547 -81.98 0.0005450706    1.215    0.177
       164 -11.7425    121.2062     37.1804   5.1957742373e+01   4.9788566159e+01    0.4067329    0.3848585 -21.76  0.001591245    1.150    0.130
       165  -9.1831    239.4467     37.4623   3.4696733906e+01   2.2507029568e+01    0.1221942   0.09865782 -65.46 0.0002192138    1.008    0.008
       166 -12.0663     39.7678     32.5316   7.8020318622e+01   6.6016893432e+01    0.3877949    0.2378885 -22.00 0.0005435745    1.539    0.350
       167  -9.2667    184.5363     36.2155   4.0413833254e+01   3.4728780104e+01    0.1676114    0.1325206 -16.16 0.0008022645    1.605    0.377
       168 -10.4330     89.2443     30.4468   5.8026954918e+01   5.7735432468e+01    0.2856485    0.1917525  80.43 0.0007888742    2.782    0.641
       169 -10.1858     90.4754     35.5168   5.9621380076e+01   5.6828472158e+01    0.1961433    0.1290132 -12.33 2.102865e-05    1.741    0.425
       170 -11.1119     48.6943     33.0478   7.4171377353e+01   6.4692120499e+01    0.4157113    0.2287977  36.65  0.001798483    1.801    0.445
       171 -11.4059     27.4894     34.3424   8.4764636258e+01   6.7177818441e+01    0.2858073    0.1769999 -13.96 0.0007118296    1.549    0.354
       172 -10.0480      7.4181     34.3684   9.5293850313e+01   6.8896604958e+01    0.2045765    0.1784094 -27.28 0.0008261409    1.231    0.187
       173 -10.4378      3.6807     35.6881   9.7759632055e+01   6.8881037444e+01    0.1768074    0.1064799  -1.23 0.0007039837    1.634    0.388
       174  -9.6883    133.6259     34.7052   4.8420141046e+01   4.7158478537e+01    0.1484087   0.09541281  34.85 0.0007025445    1.738    0.425
       175 -10.4175     72.9168     31.8635   6.3998061753e+01   6.0789269861e+01    0.2403935    0.1915457 -14.11 0.0008707466    1.235    0.190
       176 -10.4715     70.3818     28.7757   6.3623474147e+01   6.1669055753e+01    0.3837754    0.2130868 -44.83  0.001824453    2.420    0.587
       177 -10.3203     55.1982     33.1083   7.1400639752e+01   6.3687089630e+01    0.1919617    0.1456878   0.10 0.0003246735    1.191    0.161
       178 -10.0154     17.5823     32.4549   8.9135881493e+01   6.8462369062e+01    0.2947585    0.1458937   4.35  0.001044874    2.296    0.564
       179  -8.7642    123.2804     32.2897   4.9828602807e+01   4.9906285292e+01    0.1370643   0.09691908  30.85 0.0003563668    1.525    0.344
       180  -9.5276    162.7610     31.3231   4.2218886602e+01   4.0529313466e+01    0.1837767     0.145387  39.15  0.001031868    1.427    0.299
       181  -9.9258    144.0246     31.0429   4.5264484347e+01   4.5095037734e+01    0.2331307    0.1779458 -43.03 0.0004383176    1.415    0.294
       182  -9.1421    140.1714     27.3673   4.4828531470e+01   4.6446304540e+01    0.3713189    0.2146897 -77.03  0.001548729    2.749    0.636
       183 -11.4652     10.3788     29.8447   9.2011332619e+01   6.9504931884e+01    0.3081996    0.1879942  29.26   0.00186124    1.944    0.486
       184  -9.6262    151.0908     29.6408   4.3608869014e+01   4.3549080462e+01    0.1869069    0.1529008  62.98 0.0006024954    1.103    0.093
       185 -10.1422    126.7692     30.3666   4.8428402505e+01   4.9309654570e+01     0.190734    0.1115339  51.39 0.0002940348    1.512    0.338
       186  -9.3779    135.5146     29.5067   4.6377861287e+01   4.7323091477e+01    0.1372207    0.1219055  54.98 -1.662986e-06    1.032    0.031
       187  -9.7852    147.4054     28.3967   4.3863580038e+01   4.4583598386e+01    0.3036649    0.1143081 -35.23  0.001228237    2.717    0.632
       188 -10.0299    114.0225     26.5297   4.9941386333e+01   5.2729186380e+01     0.230795    0.1779508 -44.45 0.0007166583    1.508    0.337
       189  -9.9139    229.8358    247.8887   7.8830733648e+01  -9.6304206153e+00    0.1772003    0.1263481  -2.17 0.0004757346    1.116    0.104
       190 -10.3054    225.1137    247.3642   7.9617590046e+01  -8.9735658428e+00    0.2197808    0.1552575 -27.47  0.001432824    1.403    0.287
       191  -9.5435    170.7933    247.1633   9.0288084781e+01  -1.5069603342e+00    0.1777953    0.1325911   3.00 0.0007370416    1.333    0.250
       192  -9.4854    116.1202    246.7941   1.0178378997e+02   6.6818420277e+00    0.1643711    0.1439269   5.16  0.001046641    1.293    0.227
       193  -9.5628      7.5620     14.3761   8.7100930925e+01   7.2287151702e+01    0.1711106    0.1097691 -20.83 1.634474e-05    1.216    0.177
       194  -9.7574     59.6688     25.6021   6.6325184874e+01   6.3992674791e+01    0.1987257    0.1518658 -45.32  0.000613747    1.782    0.439
       195  -9.4334     52.8006     25.8842   6.9270168499e+01   6.5092279814e+01    0.1535682    0.1392601  17.40 0.0003868022    1.275    0.216
       196 -10.8320     14.9467     21.7708   8.6139898515e+01   7.0486896142e+01    0.5642936    0.2762136  32.89  0.003066136    2.377    0.579
       197  -9.8697     33.5310    247.4391   1.1879797160e+02   1.7421004858e+01    0.1164251   0.09101868  63.97 6.541447e-05    1.012    0.012
       198 -11.0667      1.9045    247.4130   1.2464098202e+02   2.0654436869e+01    0.3923608      0.13513 -84.64  0.001981608    2.698    0.629
       199  -9.8308     97.1519     22.0529   5.2498860526e+01   5.7014570360e+01    0.1931951    0.1510075  30.37  0.001130114    1.180    0.153
       200  -9.3684    100.8717     21.1716   5.1189917124e+01   5.6288093041e+01     0.251136    0.1313082  40.51  0.001033233    1.768    0.435
       201 -10.8938     54.6733     21.9989   6.6739122198e+01   6.5298198503e+01    0.2214532    0.1572108  29.32 0.0004995043    1.237    0.191
       202 -10.2015    181.2067     21.0187   3.6952098399e+01   3.7302166626e+01    0.1965701    0.1428631  27.77  0.001073704    1.954    0.488
       203  -9.4463    164.9892     21.0117   3.9028904343e+01   4.1155533384e+01    0.1544322    0.1413592 -87.49 0.0004067096    1.064    0.060
       204  -9.5900    132.0280     20.7108   4.4215933110e+01   4.9114164761e+01    0.1883996    0.1551724  59.91 0.0004510442    1.063    0.060
       205  -9.2655     92.6354     21.1784   5.3391489928e+01   5.8087586171e+01    0.1702463    0.1186122  -2.79  0.000125149    1.619    0.382
       206  -9.4201     84.3241     21.2907   5.5857155845e+01   5.9826759647e+01    0.1378724    0.0862378  26.53 0.0003245591    1.612    0.380
       207 -10.1277      2.5740     26.5304   9.5127024919e+01   7.0620988643e+01    0.2303391     0.121863   2.38 0.0007941237    1.880    0.468
       208 -10.3865     30.4243     20.9718   7.7458347970e+01   6.8953227280e+01    0.2760131     0.172891   9.93  0.001430585    1.490    0.329
       209 -10.9167     38.2586     18.9958   7.2652144683e+01   6.8200093173e+01    0.2856759    0.1841404  41.13  0.001254903    1.815    0.449
       210  -9.5291    119.8349     19.4060   4.6177510639e+01   5.2131959633e+01    0.2032688    0.1021499  51.40  0.000954438    1.691    0.409
       211  -9.2794     58.7325     19.3731   6.3908561637e+01   6.4932392568e+01    0.1910712    0.1130745  48.11 0.0004876326    1.792    0.442
       212  -9.3114     61.5733     18.5182   6.2420995672e+01   6.4532215003e+01    0.1282623    0.1037118  16.38 6.827632e-05    1.017    0.017
       213 -11.2777    209.0181     18.0423   3.3310059574e+01   3.1283631681e+01    0.1925023    0.1555548 -75.72 0.0005389013    1.034    0.033
       214  -9.0630    141.3028     18.2894   4.1819841962e+01   4.7136421300e+01    0.1335066    0.0899644  40.29 0.0003633428    1.566    0.361
       215 -11.0874    228.2753     21.7173   3.2409472759e+01   2.6731116234e+01    0.3764185    0.1958219  65.52  0.001566718    1.907    0.476
       216  -8.9083     86.3547    245.2766   1.0793429124e+02   1.1231217953e+01    0.1174971   0.09621933   1.33 0.0007007627    1.649    0.394
       217  -9.8069    145.7110     17.0529   4.0729850782e+01   4.6199441927e+01    0.1668358    0.1626793  63.39 0.0003217651    1.131    0.116
       218  -9.2264    202.3341    240.3134   8.2828514242e+01  -4.9489618747e+00    0.1327928   0.08356284   0.18 0.0005658197    1.684    0.406
       219  -9.7539     35.9954    240.3045   1.1784710573e+02   1.8572422924e+01     0.169667    0.1293014  53.70 0.0005683338    1.119    0.107
       220 -11.0903    202.8327     16.1819   3.3471119430e+01   3.2862343563e+01    0.2592017    0.1488847 -88.47  0.001087061    1.703    0.413
       221 -11.2868      6.8380    241.0573   1.2346293544e+02   2.1438578931e+01    0.2300657    0.1743375  84.72  0.001072456    1.156    0.135
       222  -9.6820     26.9600     16.5751   7.7170286737e+01   7.0000071181e+01    0.1695058     0.100906  25.06 0.0006449851    1.550    0.355
       223  -9.8013     91.0623    237.1623   1.0606284831e+02   1.2172552162e+01    0.1795489    0.1692061  -5.68 0.0005946908    1.294    0.227
       224 -11.2283     25.2803    236.0795   1.1968367587e+02   2.0601163536e+01    0.2176213    0.1543967  37.29 0.0007507131    1.437    0.304
       225 -12.0103      3.9989    232.8607   1.2359658194e+02   2.3358396146e+01     0.287244    0.1959967  68.04  0.001990911    1.131    0.116
       226  -9.6636    249.3388    233.8780   7.2982324436e+01  -1.0090792426e+01    0.1647074    0.1171727 -12.67 0.0005166279    1.096    0.087
       227 -11.6318      2.0178    225.4934   1.2361258111e+02   2.5062438230e+01    0.5256166     0.126679  48.68  0.002327593    3.046    0.672
       228 -10.4738      9.6922    231.3390   1.2243774914e+02   2.3140298418e+01    0.1771007   0.09754346  41.24   0.00065797    1.633    0.388
       229 -10.9848    222.0650     13.7306   3.1248645895e+01   2.8939890741e+01    0.1686562    0.1348871 -83.44 0.0005031606    1.069    0.065
       230  -9.3031     99.4396     14.4468   4.8992336036e+01   5.7276150265e+01    0.1314034    0.1098573  41.16 0.0001267998    1.021    0.021
       231 -12.0495      9.6896    227.4533   1.2222975656e+02   2.3949761363e+01    0.2852435    0.2637414  83.68  0.001435135    1.299    0.230
       232  -9.8194     47.4418    229.7544   1.1471485169e+02   1.9440182197e+01    0.2245856    0.1169001  46.75 0.0001651145    1.641    0.391
       233  -9.1385    243.0145    230.4597   7.3504967610e+01  -8.8591400326e+00    0.1705291    0.1028747  24.24  0.000693953    1.555    0.357
       234  -9.8555    209.6876    229.4461   7.9556335855e+01  -4.3108079236e+00    0.1729275    0.1064551  19.10 0.0009369692    1.511    0.338
       235 -10.8931    140.3382    228.2541   9.3984657496e+01   6.4637773425e+00    0.2830414    0.2282328 -74.53  0.001572437    1.632    0.387
       236  -9.9294    223.2640    226.9621   7.6513637019e+01  -5.8036671712e+00    0.1782639    0.1361341 -11.63 0.0003918647    1.101    0.091
       237  -9.0086    167.3338    221.6926   8.6993498994e+01   3.3923064746e+00    0.1308624    0.1058395  60.41 0.0007040882    1.669    0.401
       238  -8.8841    114.3214    221.3599   9.8874594692e+01   1.1935371649e+01    0.1387107    0.1050771 -12.79 0.0007043374    1.771    0.435
       239 -10.8517      2.4634    220.1756   1.2325733217e+02   2.6146658061e+01    0.2822405    0.1316352  84.61  0.001524758    1.908    0.476
       240 -10.6212      8.4692    218.0902   1.2194999412e+02   2.6056415633e+01    0.2227027    0.1914294  40.52  0.001200261    1.358    0.264
       241  -9.2278    233.3161    218.7156   7.3179714577e+01  -5.9095814450e+00    0.1035971    0.1012199   9.67  0.000286272    1.583    0.368
       242  -9.3782    137.6403    215.6794   9.2655922251e+01   9.3683379244e+00    0.1458444    0.1058007  -3.76 0.0007043582    1.768    0.434
       243  -9.7857     15.7897    213.1765   1.2014728100e+02   2.6448156108e+01    0.1893566    0.1316552  67.10 0.0007867193    1.205    0.170
       244  -9.6992    205.5752    212.2989   7.7327615193e+01  -9.3134983434e-01     0.178249    0.1142612 -26.05  0.000717826    1.502    0.334
       245  -8.9918    249.3340    211.3180   6.8989018101e+01  -6.8937025922e+00     0.130393   0.07870169  -6.37 0.0005127908    1.695    0.410
       246  -9.4797     20.5647    209.8049   1.1890583875e+02   2.6738311050e+01    0.1688428   0.09636969  83.31 0.0003944853    1.608    0.378
       247 -10.4875      3.1890    206.6585   1.2237469226e+02   2.9028001677e+01    0.1760099    0.1247108  82.43  0.001153833    1.127    0.113
       248  -9.7573    124.0115    205.9785   9.4303140133e+01   1.3642212355e+01    0.1984921    0.1841246  24.51            0    1.048    0.046
       249  -9.4461    193.5145    202.4713   7.7965927159e+01   2.6796101257e+00    0.1395326    0.1217117  -0.70 0.0002131906    1.012    0.012
       250 -10.5675      3.4363    201.7669   1.2203627000e+02   3.0102343034e+01    0.1664322   0.09079918 -68.92 0.0009364884    1.666    0.400
       251  -9.5305     24.4846    195.9790   1.1698051918e+02   2.9529592749e+01    0.1914942    0.1093309 -78.82 0.0008488182    1.554    0.357
       252  -9.7295     13.9142    192.5211   1.1912241202e+02   3.1326753609e+01    0.1645606    0.1119911  40.68 0.0005480623    1.494    0.331
       253  -9.9629      5.9113    192.0638   1.2088695558e+02   3.2116530830e+01    0.1980397    0.1343696  72.44  0.001220109    1.266    0.210
       254  -9.7879      1.2565    191.3632   1.2187056187e+02   3.2652213802e+01    0.1994616   0.08686071 -82.06 0.0006049534    1.935    0.483
       255  -9.2864     22.3253    179.7434   1.1609013898e+02   3.3618133159e+01    0.1311178    0.0823867  62.91 0.0002626134    1.551    0.355
