#   1 NUMBER                 Running object number                                     
#   2 MAG_AUTO               Kron-like elliptical aperture magnitude                    [mag]
#   3 X_IMAGE                Object position along x                                    [pixel]
#   4 Y_IMAGE                Object position along y                                    [pixel]
#   5 X_WORLD                Barycenter position along world x axis                     [deg]
#   6 Y_WORLD                Barycenter position along world y axis                     [deg]
#   7 A_WORLD                Profile RMS along major axis (world units)                 [deg]
#   8 B_WORLD                Profile RMS along minor axis (world units)                 [deg]
#   9 THETA_WORLD            Position angle (CCW/world-x)                               [deg]
#  10 FWHM_WORLD             FWHM assuming a gaussian core                              [deg]
#  11 ELONGATION             A_IMAGE/B_IMAGE                                           
#  12 ELLIPTICITY            1 - B_IMAGE/A_IMAGE                                       
         1  -8.5434    163.5448     11.6038   3.4893141239e+01   4.2491734259e+01    0.2056861    0.1730262  79.78 0.0002369623    1.024    0.024
         2  -7.6977    216.9780    243.1060   7.7515823467e+01  -6.6972359269e+00    0.2217927     0.171986 -67.07  0.001222303    2.858    0.650
         3  -7.3235    214.6647    250.2915   7.9116262871e+01  -7.4538648641e+00    0.1045408   0.09203836  36.23 0.0004442056    1.638    0.389
         4  -9.1164    185.6743    240.5314   8.3245402800e+01  -2.1432540521e+00    0.3145187    0.2646459  74.49  0.001541902    2.109    0.526
         5 -10.3707    206.2721    235.0444   7.8232097864e+01  -4.0833048553e+00    0.2258523    0.1885846 -12.91 0.0001980981    1.130    0.115
         6  -7.5110    249.4854    234.9857   7.0305053394e+01  -9.4003920282e+00    0.1414001   0.09744253 -51.43  0.000809986    2.504    0.601
         7  -9.0737    173.4942    234.5571   8.4810714284e+01   6.0242449639e-01     0.320973    0.2125558  37.23 0.0009780317    1.480    0.324
         8  -9.0381    175.0509    230.0874   8.3755244404e+01   1.1543078917e+00    0.2333598    0.2033477   0.50 0.0002996605    1.043    0.041
         9  -8.2576    245.0000    228.4191   6.9957766749e+01  -7.9572968951e+00    0.2565424   0.05755411 -39.38 0.0009402319    3.979    0.749
        10  -7.3101     64.5641    228.4553   1.0835251516e+02   1.7663402948e+01    0.1266018     0.114538  61.76 5.734701e-05    1.047    0.045
        11  -7.2802    185.8923    226.3921   8.0868479611e+01   2.0315578711e-01    0.1772523    0.1114321  17.82 0.0002500355    1.574    0.365
        12  -8.4104    176.0920    225.4235   8.2759156136e+01   1.8266056458e+00    0.2112091    0.1816363 -30.31 0.0002820935    1.217    0.178
        13  -7.7759     95.8254    226.2590   1.0096162184e+02   1.3869702508e+01    0.1716722    0.1537254 -23.58    0.0010291    1.308    0.235
        14  -7.7918    203.3494    223.0764   7.6758841980e+01  -1.7441955329e+00    0.1781229    0.1446981 -18.58 0.0004875119    1.119    0.106
        15 -10.1611    142.9498    218.8216   8.8977634099e+01   8.2159892047e+00     0.259342    0.2266103 -36.61 0.0005085692    1.205    0.170
        16  -8.6442     94.8450    213.2474   9.9485451580e+01   1.6859735022e+01    0.2236345    0.2070948 -40.20  0.000203483    1.189    0.159
        17  -6.8843     54.0000    212.0168   1.0910444598e+02   2.2672504158e+01    0.2051647   0.07132899 -68.62 0.0005632095    2.846    0.649
        18  -7.1377     32.4883    210.9742   1.1399199076e+02   2.5361327543e+01    0.1729508   0.08678802 -50.36 0.0007986641    2.372    0.578
        19  -8.7038    165.9467    205.0683   8.1414978819e+01   7.2559638275e+00    0.2128223    0.1891438 -21.33  0.001223425    1.094    0.086
        20  -8.3322     15.2009    203.6226   1.1733251972e+02   2.8767733793e+01    0.2171961    0.1743106 -39.57 0.0009190493    1.617    0.382
        21  -7.7682    151.3078    201.9481   8.4181287404e+01   1.0310922670e+01    0.3061251    0.1741528 -55.18  0.001108598    2.024    0.506
        22  -6.8780     35.3008    200.3294   1.1238601436e+02   2.7557917867e+01     0.127558   0.09399358 -43.67 0.0005747416    1.645    0.392
        23  -9.5402     26.8148    198.4360   1.1423294757e+02   2.8882041097e+01    0.3029478    0.2085817 -68.77 0.0004145172    1.357    0.263
        24  -6.8745     41.3260    194.3343   1.1032639018e+02   2.8344895782e+01    0.1341318   0.09659901 -39.62 0.0007051409    1.716    0.417
        25  -7.0481    244.0182    191.7685   6.3530191825e+01  -2.2012487972e+00    0.1432602    0.1009568  28.15 0.0004217406    1.556    0.357
        26  -7.5746     93.3108    190.0058   9.6468835587e+01   2.2505259728e+01    0.1972907    0.1812615 -61.44 0.0005373179    1.101    0.092
        27  -7.6698     74.8201    189.8577   1.0124945791e+02   2.5248502011e+01    0.2114254    0.1852167 -24.03 0.0006230299    1.344    0.256
        28  -7.9366     98.9343    186.6447   9.4466414981e+01   2.2441127527e+01    0.2001235    0.1808792  45.20  0.000668654    1.086    0.080
        29  -9.1042     29.6160    183.1485   1.1211228242e+02   3.2315094906e+01    0.2142471    0.2027226  85.03  0.000162598    1.120    0.107
        30  -7.3605    187.5206    183.4161   7.2582796947e+01   7.9394262232e+00    0.1428489    0.1282578  -9.10 9.185039e-05    1.014    0.013
        31  -6.7562    134.4521    177.5255   8.3677183900e+01   1.8590146642e+01    0.1501018    0.1448454  -4.20  6.54614e-05    1.006    0.006
        32  -7.3160    125.8956    173.1162   8.4989899061e+01   2.1141102221e+01    0.1983479    0.1726653  -9.50            0    1.246    0.198
        33  -7.9681     53.4034    157.6899   1.0240315818e+02   3.6189952052e+01    0.4286703    0.1434356 -47.00  0.001419308    3.248    0.692
        34  -9.5859    173.6870    152.2779   6.8994182789e+01   1.6833965325e+01    0.2902216    0.2466611 -36.00 0.0002541242    1.111    0.100
        35  -7.9623    178.8929    149.7484   6.7296411087e+01   1.6357552849e+01    0.2260188    0.1972367 -11.00 0.0006339611    1.177    0.150
        36  -8.8443    117.0265    148.1715   8.2161670750e+01   2.8738230689e+01    0.2424857    0.2166761 -43.84 0.0002609289    1.095    0.087
        37  -7.9475     80.0399    138.4869   9.0879961488e+01   3.7489994488e+01    0.3474383     0.188524 -41.71  0.001148398    1.934    0.483
        38  -7.3093    103.6726    133.3062   8.2585884347e+01   3.4809241876e+01    0.1577339    0.1243916  76.51 0.0003585243    1.652    0.395
        39  -7.2363    164.6114    132.2858   6.6405822662e+01   2.2894348803e+01    0.1557314    0.1225995  86.82 0.0007007024    1.752    0.429
        40  -7.1098    110.4949    131.5027   8.0170129639e+01   3.3986038768e+01    0.1557242    0.1519055 -76.59 0.0008093855    1.081    0.075
        41  -7.3225    230.1665    123.8522   5.2154077393e+01   1.1687800481e+01    0.3179372   0.09219763  47.54  0.001123782    3.991    0.749
        42  -7.6600    123.3099    122.9410   7.4436806794e+01   3.3498301190e+01     0.219416    0.1896836 -42.93 0.0002841876    1.132    0.116
        43  -8.8050     66.2570    115.4811   9.0247348614e+01   4.5303046434e+01    0.3523926    0.2798768  78.69  0.001295199    1.645    0.392
        44  -8.9552    180.6269    105.8595   5.6577008892e+01   2.4828565274e+01     0.371878    0.2556746 -28.80  0.001471235    1.594    0.372
        45  -8.3907    101.5045    105.5904   7.6214291908e+01   4.1742001732e+01    0.4226499    0.2501652  21.66  0.001641949    2.263    0.558
        46 -10.4255     85.1145     97.9685   7.9345554375e+01   4.6450800249e+01    0.2517933    0.2359658  -8.31            0    1.026    0.025
        47  -7.5227     96.8400     97.8610   7.5510806299e+01   4.4341831554e+01    0.2219696      0.19621  -6.22 0.0003822335    1.163    0.140
        48  -7.2451    157.1674     93.2326   5.8155385052e+01   3.2414534333e+01    0.1950598    0.1661933 -66.54  0.000345086    1.260    0.206
        49  -6.7528     50.4577     88.4469   8.9161009076e+01   5.3821164763e+01    0.1393653    0.1271006 -30.90 8.682955e-05    1.051    0.048
        50  -7.9238    134.0227     77.9766   5.9202990226e+01   4.0472006064e+01    0.2119051    0.2068814  39.20  0.001191269    1.008    0.008
        51  -6.9487    118.5158     54.5486   5.5821109034e+01   4.7847611546e+01    0.1415626     0.130353  37.77 0.0001510835    1.025    0.024
        52  -7.4928    157.2476     51.8045   4.6750803339e+01   3.9252446553e+01    0.1758315    0.1539536  31.98 0.0002205285    1.302    0.232
        53  -8.4464    149.9890     50.0227   4.7575406921e+01   4.1207814937e+01    0.2000271    0.1871872  82.75  0.001199333    1.029    0.028
        54  -7.9215    120.7605     49.3824   5.3598049046e+01   4.8095013245e+01    0.3580283    0.2072753  14.38  0.001323497    3.385    0.705
        55  -9.1031    118.6680     42.4604   5.1838004997e+01   4.9520311747e+01    0.2789416    0.2255458 -11.47 0.0001802696    1.406    0.289
        56  -8.4703    223.4070     41.4788   3.5358384061e+01   2.5900659036e+01    0.2005198    0.1909892  86.70 0.0002712664    1.275    0.216
        57  -7.1762    240.8289     38.3840   3.3129982174e+01   2.2845801795e+01    0.1442659    0.1007993  65.67 0.0005955735    1.578    0.366
        58  -7.6891    235.9201     36.8706   3.3253443356e+01   2.3988017067e+01     0.156391    0.1423882 -82.16 0.0002728568    1.232    0.188
        59  -7.6978    113.0224     27.3643   4.8080954102e+01   5.2631152000e+01    0.1891891    0.1454148  52.64 0.0004098105    1.140    0.123
        60  -7.2977    186.2111     24.8760   3.5563002978e+01   3.5941264086e+01      0.15563    0.1378285  53.57 0.0003839674    1.313    0.238
        61  -7.5033    207.8424     22.2064   3.2728950541e+01   3.1497475748e+01    0.1491963    0.1313279  70.67 0.0003835612    1.274    0.215
        62  -7.3561    109.2130     16.7678   4.5268929964e+01   5.4576398453e+01    0.1814834    0.1031007  -5.49 0.0006382002    2.436    0.589
        63  -7.7240    248.0165     13.0000   2.7800030604e+01   2.4493234650e+01    0.1694022   0.05481147  74.81 0.0008110399    3.002    0.667
