#   1 NUMBER                 Running object number                                     
#   2 MAG_AUTO               Kron-like elliptical aperture magnitude                    [mag]
#   3 X_IMAGE                Object position along x                                    [pixel]
#   4 Y_IMAGE                Object position along y                                    [pixel]
#   5 X_WORLD                Barycenter position along world x axis                     [deg]
#   6 Y_WORLD                Barycenter position along world y axis                     [deg]
#   7 A_WORLD                Profile RMS along major axis (world units)                 [deg]
#   8 B_WORLD                Profile RMS along minor axis (world units)                 [deg]
#   9 THETA_WORLD            Position angle (CCW/world-x)                               [deg]
#  10 FWHM_WORLD             FWHM assuming a gaussian core                              [deg]
#  11 ELONGATION             A_IMAGE/B_IMAGE                                           
#  12 ELLIPTICITY            1 - B_IMAGE/A_IMAGE                                       
         1 -14.9146    170.6238     43.1151   6.9071993236e+01   3.6958456544e+01     1.452709      1.10763   0.60  0.004026072    1.416    0.294
         2 -15.1334    192.1380      9.5889   5.4736878721e+01   3.4953669464e+01     3.001348      1.20701  63.57  0.008822483    2.249    0.555
         3  -9.8177    133.7104    246.2026   1.1755770958e+02   1.2853896128e+01   0.09586995   0.09267892 -70.34 0.0003072474    1.441    0.306
         4 -14.0981    191.4877    249.0469   1.0894239313e+02   4.1252750186e+00    0.9910577    0.3697422  48.94  0.005350614    2.322    0.569
         5 -19.6008     60.3890    160.3601   1.2197666027e+02   3.6163803844e+01      14.6086     4.856526 -70.12   0.06599092    3.164    0.684
         6 -10.5870    121.0018    197.1137   1.1445638239e+02   2.1403478004e+01    0.1647115    0.1321401  52.28 0.0002954869    1.022    0.021
         7 -10.5174     13.7114    197.3235   1.3341166642e+02   3.4401462911e+01    0.1007703   0.04925446  66.50 0.0002519917    1.606    0.377
         8 -12.0013    170.0201    195.3282   1.0537238260e+02   1.3658412481e+01    0.2155458    0.1786357  29.25 0.0008709434    1.144    0.126
         9 -12.0488    159.0132    195.3027   1.0733171769e+02   1.5531316127e+01     0.284612    0.2138989  33.98    0.0010706    1.221    0.181
        10  99.0000      9.1769    193.4450   1.3397843279e+02   3.5439864151e+01    0.3230852    0.1244913  65.31  0.002025615    2.178    0.541
        11 -11.7043    180.6636    193.3130   1.0318588248e+02   1.2089075037e+01    0.2418919    0.1872878  68.25  0.001283017    1.695    0.410
        12 -11.9795    125.0707    243.7530   1.1867692446e+02   1.4361411997e+01     0.258749    0.1353765 -53.83  0.001370591    2.579    0.612
        13 -11.7362    175.4329    186.4744   1.0303967745e+02   1.3910218020e+01    0.2815587    0.2108303 -87.75   0.00158849    2.289    0.563
        14 -11.8335    164.3526    186.9960   1.0512901103e+02   1.5780597175e+01    0.2822916    0.1526342  55.02  0.001451105    1.926    0.481
        15 -10.0788    150.8568    243.6596   1.1462922271e+02   1.0688950805e+01    0.1427959   0.09658325  45.51 0.0004533202    1.063    0.059
        16 -11.3551    168.0126    242.3039   1.1179378943e+02   8.3046600494e+00    0.1735924    0.1562329 -37.94  0.000861439    1.541    0.351
        17 -10.1476    242.4430    184.5540   9.1333119144e+01   2.3539577219e+00    0.1221145   0.09320193  21.81 9.757706e-05    1.003    0.003
        18 -12.0163    170.3959    178.7633   1.0270709568e+02   1.5880019842e+01    0.4713225    0.2528815  65.73    0.0018705    3.724    0.731
        19 -11.9619    189.1227    176.7526   9.8953183353e+01   1.2755104314e+01    0.5343363    0.3296049 -57.43  0.002658393    2.747    0.636
        20 -11.2389    185.1108    169.7330   9.8438925474e+01   1.4452826848e+01    0.3435438    0.2332211 -50.94  0.001198855    1.958    0.489
        21 -11.7381    196.4680    175.4806   9.7417650220e+01   1.1573803778e+01    0.3386678    0.2578875  49.45  0.002076754    1.306    0.234
        22 -10.5311    108.9138    240.5875   1.2092823647e+02   1.6975327170e+01    0.1469848    0.1332692  -2.31  0.001253133    1.776    0.437
        23 -11.9817    230.6173    168.0585   9.0183389872e+01   6.1978946315e+00    0.3104539    0.1781372 -46.61  0.001512111    2.788    0.641
        24 -12.0554    204.3709    175.1081   9.5959566207e+01   1.0168391180e+01    0.3578034    0.3207585  56.63  0.001596344    1.372    0.271
        25 -11.4866    162.8710    167.7490   1.0226273110e+02   1.8872543226e+01    0.2657912    0.1407192  47.09  0.001268508    1.657    0.396
        26 -11.6648    192.3006    164.3830   9.6140165530e+01   1.3835050194e+01    0.3972277     0.255904 -48.41  0.001441682    2.046    0.511
        27 -10.8025    138.9875    248.1376   1.1692329394e+02   1.1880443791e+01     0.326507    0.1777417 -59.88  0.002229731    2.667    0.625
        28 -10.2611     13.1586    158.0373   1.3129498805e+02   4.1350529201e+01    0.1390037    0.1128314 -78.51 0.0003175892    1.280    0.219
        29 -12.1844    189.2201    154.8922   9.4883873411e+01   1.5761289474e+01    0.5090137     0.406512  34.05  0.002178462    1.092    0.085
        30 -11.6247    125.9584    140.0061   1.0484078553e+02   3.0293649228e+01     0.319632    0.1816425  41.34 0.0006998046    1.691    0.409
        31 -14.4571    133.8138    145.6366   1.0418705277e+02   2.7862801146e+01     1.675303    0.4698479 -53.93  0.005137323    5.221    0.808
        32 -12.1142    134.5649    109.2812   9.6379979772e+01   3.4403428835e+01     1.059116    0.1785727 -43.99  0.002641066    6.052    0.835
        33 -13.8815    135.7758    127.8976   1.0027329405e+02   3.0710589551e+01     2.101973    0.4100249 -49.94  0.005096066    7.256    0.862
        34 -12.9863    151.9285    151.5397   1.0151230866e+02   2.3494672479e+01    0.5355589    0.3472654 -83.44  0.002178726    3.165    0.684
        35 -14.4510    144.0747    144.9141   1.0188403621e+02   2.6097278580e+01     1.025372    0.6265782 -68.81   0.00460587    2.629    0.620
        36 -12.1911    164.5596    152.9273   9.9241119596e+01   2.0862551281e+01    0.3346879    0.2696358  52.10  0.001801499    1.196    0.164
        37 -11.1787    174.4536    148.8583   9.6504122538e+01   1.9569400483e+01    0.2783674    0.2304872  58.46  0.000746045    1.296    0.228
        38 -12.2843    160.5520    127.6631   9.4864371405e+01   2.5821400676e+01    0.4153624    0.3389527 -68.44  0.001371845    1.550    0.355
        39 -11.5504    168.3509    113.3723   8.9913791506e+01   2.6579433049e+01    0.3866104    0.3027688 -81.23  0.001030055    1.846    0.458
        40 -13.5120    118.6345    110.3702   1.0042370558e+02   3.7261450791e+01    0.6385859    0.3658554  55.79   0.00291015    1.972    0.493
        41 -14.2450    100.4893    244.5261   1.2256037930e+02   1.7579270639e+01    0.6466096    0.5147473  57.10   0.00565095    1.140    0.123
        42 -10.8419    205.5196    110.2471   8.1926889590e+01   1.8804556286e+01    0.3154115    0.2129853  39.98 0.0009195026    1.396    0.284
        43 -10.7387    131.1192    236.5224   1.1703355284e+02   1.4406249551e+01    0.1314768    0.1147347  63.32 6.334978e-05    1.223    0.183
        44 -12.5441    186.0864    220.7149   1.0623226563e+02   7.8844810646e+00    0.2403425    0.1639364  35.27  0.001571257    1.150    0.131
        45 -10.6867    112.5510    214.7110   1.1791322763e+02   2.0025855865e+01    0.1282589    0.0944162  86.02 0.0005180921    1.534    0.348
        46  -9.9328    134.1575    208.2476   1.1344937845e+02   1.7731861604e+01    0.1447228    0.1137236  74.30 0.0005396275    1.401    0.286
        47 -10.5628    147.7679     81.6696   8.6001102368e+01   3.6601896440e+01    0.2358029    0.1814865  30.76 0.0006884376    1.361    0.265
        48 -10.8612     92.1835     79.0255   9.9567818063e+01   4.8183407338e+01    0.2075609    0.1945564  35.57 0.0003766585    1.139    0.122
        49  -9.8700    113.6967    208.5963   1.1707197080e+02   2.0758149793e+01    0.1470282   0.08203173  51.99 0.0003065865    1.463    0.316
        50 -10.1653    141.9717     71.6763   8.4367243553e+01   3.9637597103e+01    0.2078349     0.186797  48.74 0.0004535805    1.135    0.119
        51 -14.4439    157.9044     57.7951   7.6410924863e+01   3.8099657066e+01     1.350121     1.222423  32.78 0.0009927056    1.068    0.064
        52 -10.1646     30.8830    204.9473   1.3097819373e+02   3.1540433525e+01    0.1212188    0.1000541  54.66 0.0006254586    1.336    0.251
        53 -12.8398    175.0510     35.8854   6.5883662629e+01   3.6720101737e+01    0.4473309    0.3500161  10.75  0.001000199    1.361    0.265
        54 -10.7941     13.5437     59.7195   1.2003699303e+02   6.1350562431e+01    0.1974554     0.158833 -73.61 0.0004121559    1.118    0.105
