#   1 NUMBER                 Running object number                                     
#   2 MAG_AUTO               Kron-like elliptical aperture magnitude                    [mag]
#   3 X_IMAGE                Object position along x                                    [pixel]
#   4 Y_IMAGE                Object position along y                                    [pixel]
#   5 X_WORLD                Barycenter position along world x axis                     [deg]
#   6 Y_WORLD                Barycenter position along world y axis                     [deg]
#   7 A_WORLD                Profile RMS along major axis (world units)                 [deg]
#   8 B_WORLD                Profile RMS along minor axis (world units)                 [deg]
#   9 THETA_WORLD            Position angle (CCW/world-x)                               [deg]
#  10 FWHM_WORLD             FWHM assuming a gaussian core                              [deg]
#  11 ELONGATION             A_IMAGE/B_IMAGE                                           
#  12 ELLIPTICITY            1 - B_IMAGE/A_IMAGE                                       
         1 -12.4758      4.4415     49.3315   8.9609869346e+01   6.9782764605e+01     1.345481    0.5270462 -66.42  0.005609354    2.135    0.532
         2 -12.5119     57.2223     35.4030   5.0964851729e+01   6.5984409892e+01    0.9142764    0.4955977 -32.76  0.003807873    2.164    0.538
         3 -11.5317    112.5278     26.1041   2.8954699385e+01   5.4077535105e+01    0.5488956    0.2952559 -17.59   0.00221559    2.477    0.596
         4 -10.0464    123.5848     26.1220   2.6916237605e+01   5.1202319100e+01     0.387738    0.1973229 -56.07  0.001590611    2.119    0.528
         5 -12.5610      3.1793     14.6914   7.9449413748e+01   7.8264954437e+01    0.5296093      0.33135 -64.77  0.001135934    1.583    0.368
         6 -10.6079    130.3902     13.6455   2.1116861480e+01   5.0904987367e+01    0.3298279    0.2203074 -32.88 0.0008874938    1.490    0.329
         7 -12.5561    132.9750     18.9400   2.2750412534e+01   4.9645602171e+01    0.3902586    0.2849125  67.53 0.0004069986    1.348    0.258
         8 -10.5387     32.4773     14.0836   5.2357730867e+01   7.4571240021e+01    0.5250847    0.3426769  50.25  0.002723415    1.634    0.388
         9 -10.9178     19.6876     16.6465   6.4214525810e+01   7.6127096120e+01     0.385489    0.3443374  52.70  0.002393491    1.316    0.240
        10 -10.8814     11.0883     14.7946   7.1134731932e+01   7.7540667135e+01    0.4717193     0.234225 -26.78  0.001999945    2.711    0.631
        11 -10.2593     15.0483     13.3507   6.6280810557e+01   7.7379386206e+01    0.2344963    0.1753389 -50.22 0.0004265938    1.337    0.252
        12 -11.6130    248.8602     20.5001   1.3918166533e+01   2.3970156480e+01    0.2692508    0.1460595 -36.57 0.0004239648    1.359    0.264
        13 -11.3781     76.6177     15.4585   3.2655355445e+01   6.4636690752e+01    0.8040665    0.2688372  57.52  0.002098954    2.613    0.617
        14 -10.8212     72.8558     10.8123   3.1180887154e+01   6.6123506758e+01    0.4766421    0.2548859  28.18  0.001884787    2.818    0.645
        15 -11.0743     77.3545      9.9070   2.9377630536e+01   6.5098189270e+01    0.4842015    0.2820382  49.15  0.001039029    1.678    0.404
        16 -11.7319    229.9183      3.3879   1.0965571114e+01   2.9182662137e+01    0.4764985    0.1862123 -42.57  0.002580281    1.721    0.419
        17 -13.0742    237.9569     17.6531   1.3814670405e+01   2.6213007256e+01    0.3715871    0.2311794 -54.90 0.0007372611    1.244    0.196
        18 -12.0899    234.4385     10.2610   1.2329988863e+01   2.7638684856e+01    0.3155954    0.2934264  46.30  0.001281444    1.570    0.363
        19 -10.3656    169.2197     16.1469   1.7850097986e+01   4.0905179157e+01    0.3210216    0.1415674 -36.12  0.001458333    1.912    0.477
        20 -10.1554     50.1819     16.8606   4.3793205573e+01   7.0625672217e+01    0.3794852    0.2408111 -50.15  0.001276913    1.823    0.451
        21 -10.7074     60.3331     13.9561   3.7416214753e+01   6.8759658432e+01    0.4224009    0.2308861 -42.52  0.001356767    1.951    0.487
        22 -10.6364     99.1637     12.3971   2.5588877969e+01   5.9212100835e+01    0.3356412     0.315341  48.83  0.001213502    1.152    0.132
        23 -10.0869    155.9625     13.2848   1.8154157529e+01   4.4442968919e+01     0.278225    0.1870316  12.38  0.001332889    2.352    0.575
        24 -10.0425    159.8483      8.8018   1.6369319374e+01   4.3951797000e+01     0.189761    0.1693114 -77.99 0.0004628781    1.109    0.098
        25 -10.6701    155.0618      8.2001   1.6580359367e+01   4.5192330499e+01    0.3628847    0.2826616 -83.02   0.00141186    1.161    0.139
        26 -10.5883    176.4214     11.0903   1.5777325872e+01   3.9746464877e+01    0.3651648    0.1966949 -68.37  0.001819345    1.744    0.427
        27 -11.7331    119.4541     11.6803   2.1844547319e+01   5.3966064623e+01     0.285904    0.2577168  69.10 0.0003028474    1.143    0.125
        28 -10.7851     16.8872      2.8327   5.6135550495e+01   7.9034957485e+01    0.5462646    0.4244029 -77.70  0.003028363    2.137    0.532
        29 -10.9511      9.4690      8.2964   6.8477768307e+01   7.9032233077e+01    0.3156237     0.277456  37.40  0.001186569    1.281    0.219
        30 -11.2280     11.4402      2.2207   6.1301191770e+01   7.9922481707e+01     0.297988    0.2191679 -27.96 0.0006940404    1.330    0.248
        31 -11.5170     26.8837      2.4231   4.7089083870e+01   7.7393215308e+01    0.3769556    0.2308555  42.35  0.001780957    1.549    0.355
        32 -10.7302     22.5000      2.1120   5.0331685397e+01   7.8226781980e+01    0.5458813    0.2401421 -29.68  0.002341473    2.682    0.627
        33 -10.9054     36.3192      7.7025   4.5017523217e+01   7.4831411190e+01    0.4069635    0.2428308  52.81   0.00120654    1.680    0.405
        34  -9.7881     65.0144      8.5021   3.2298266756e+01   6.8310601383e+01     0.208305    0.1287975  64.11 0.0004637869    1.534    0.348
        35 -10.5815    215.0435      7.1792   1.2478253584e+01   3.1720161980e+01    0.2421739    0.1268387 -63.35  0.001360121    1.632    0.387
        36 -11.0879    145.7811      6.4402   1.6819663582e+01   4.7690521759e+01    0.4268105    0.2242594 -35.24  0.002056376    1.738    0.425
        37  -9.6710    101.4563      7.2117   2.2746408633e+01   5.9142452705e+01    0.2030938    0.1155745 -41.53 0.0009460821    1.734    0.423
        38  -9.3739     91.7874      7.0795   2.4486628967e+01   6.1683971824e+01     0.189668     0.148265  48.75 0.0005541092    1.312    0.238
        39 -10.6694    223.0121      5.5049   1.1727273568e+01   3.0303501589e+01    0.2138644    0.1405231 -37.42 0.0004043737    1.254    0.203
        40 -11.0944    126.4289      3.1266   1.7554053946e+01   5.2972266945e+01    0.4176811     0.326677  13.21  0.001981524    1.668    0.400
        41  -9.3932     61.1504      5.7309   3.1860068523e+01   6.9549024188e+01    0.2115738    0.1646968 -88.10  0.001095686    1.456    0.313
        42 -10.6661    164.6946      4.8919   1.4769520557e+01   4.3159916995e+01    0.2448695    0.1768819 -56.65 0.0004277101    1.159    0.137
        43 -10.8190    168.1237      1.9528   1.3636838803e+01   4.2616562791e+01    0.2043129    0.1603601 -73.06 0.0003299017    1.098    0.089
        44  -9.4943     68.1098      5.3349   2.9349829651e+01   6.7891276852e+01    0.2053131    0.1224052  78.56 0.0009502301    1.823    0.451
        45  -9.7165     35.2841      1.4003   4.0487362450e+01   7.5873437731e+01     0.390277    0.1254941  56.57  0.001435364    3.187    0.686
        46 -12.2821    241.8245      3.0030   1.0454143686e+01   2.7016752026e+01    0.5576218     0.235583  89.06  0.002844715    2.590    0.614
        47 -10.7309    178.9842      3.8434   1.3514894784e+01   3.9881983714e+01    0.2108538    0.1564478 -45.30 0.0002558147    1.158    0.136
        48  -8.9821    136.6850      3.2982   1.6565230382e+01   5.0304929442e+01    0.1473028   0.08539362 -60.43  0.000701597    1.608    0.378
        49  -9.5593     97.8133      3.5763   2.1652506561e+01   6.0437068910e+01    0.1811073    0.1233033  89.77 0.0003856653    1.429    0.300
        50 -10.9472     90.9809      2.1136   2.2134536584e+01   6.2353088384e+01    0.1988194    0.1919079 -59.19 0.0002821976    1.100    0.091
        51 -12.3510     28.1215     19.6101   5.9287992152e+01   7.4315813056e+01    0.4666048    0.3107126  32.11  0.002456473    1.508    0.337
        52 -10.9469     73.8350      1.9893   2.5752218787e+01   6.6778591657e+01    0.3496849    0.2295266 -81.63   0.00142808    1.745    0.427
        53  -9.1723    145.2688    190.3429   6.5091914564e+01   1.5178176927e+01    0.1294877   0.09171128 -13.12   0.00044371    1.608    0.378
        54 -11.4590    247.4062    249.8790   5.5978641208e+01  -4.0632404590e+00    0.2874938    0.1592159  -9.42  0.002168835    1.394    0.283
        55  -9.9453    109.9769    250.2974   7.9953215064e+01   9.5060527899e+00    0.1671537    0.1179366  26.29 0.0006092896    1.099    0.090
        56 -11.1682     90.1771    249.4058   8.3968989261e+01   1.1814171311e+01    0.2758859    0.2000225  27.99  0.000957092    1.084    0.077
        57 -12.1022     21.6609    248.5209   9.8476230764e+01   1.8856826220e+01    0.5830184    0.1347264  37.18  0.002749109    2.398    0.583
        58 -11.5137     14.4824    244.9430   9.9890767012e+01   2.0132363193e+01    0.2557084    0.1455188  61.95 0.0009873913    1.513    0.339
        59 -10.3748     12.7008    250.2387   1.0040147190e+02   1.9332532646e+01    0.2055639     0.134713  17.45   0.00136961    1.604    0.377
        60 -10.2774    244.6841    188.0537   4.7316140391e+01   3.0249239680e+00    0.1532913    0.1061244 -19.79 0.0004835664    1.082    0.076
        61  -9.9226     61.8486    184.3852   8.4811717293e+01   2.7892044036e+01    0.2370439    0.1772888  85.39  0.001302719    1.417    0.294
        62 -12.7351     18.6439    181.3738   9.6519490278e+01   3.3196636462e+01    0.7553506    0.3807164  18.13  0.003126862    2.125    0.529
        63 -10.1711      2.1009    180.1324   1.0103136362e+02   3.4838789723e+01    0.2683237     0.150128  32.59  0.001106235    1.565    0.361
        64 -10.0122    244.4583    178.5119   4.5772638370e+01   4.2388914359e+00    0.2073753   0.07839331 -27.01   0.00103261    2.485    0.598
        65 -10.0982    249.6888    180.6856   4.5427356058e+01   3.4021062309e+00    0.1095653   0.06480028  -9.20 0.0007031396    1.634    0.388
        66  -9.9261    172.4796    175.4764   5.7041418617e+01   1.3892198482e+01    0.1254605    0.1122698  -6.78 0.0001067451    1.045    0.043
        67 -11.2134     17.8404    172.3597   9.6275925901e+01   3.5470179778e+01    0.4295977    0.1647964  45.41  0.001841277    2.106    0.525
        68  -9.6197    176.7208    168.6751   5.5008193741e+01   1.4430075452e+01    0.1297752   0.09021503 -10.69 0.0002681233    1.591    0.371
        69 -11.2575      5.2159    167.9884   9.9745055964e+01   3.7578565165e+01    0.2324561      0.18087  38.46 0.0008620309    1.206    0.171
        70 -10.0487     67.5898    165.7502   8.1081155667e+01   3.1612637269e+01    0.1941871      0.13382 -88.16 0.0005562066    1.600    0.375
        71  -9.3098     33.3308    166.2647   9.1298683757e+01   3.5537229350e+01     0.143987    0.1209211  58.00 0.0001844223    1.033    0.032
        72  -9.7176     36.4934    165.5353   9.0288314031e+01   3.5394364327e+01    0.2279452    0.1944325  55.32 0.0007688794    1.033    0.032
        73  -9.9675    186.6763    165.3339   5.2545953431e+01   1.3528209894e+01    0.1157414    0.1016837 -77.10 0.0007050747    1.709    0.415
        74 -11.2178     51.3344    161.9256   8.5451601098e+01   3.4636837366e+01    0.5017244    0.2798491 -74.76  0.001064204    1.832    0.454
        75  -9.2340     66.2203    161.9535   8.0996444393e+01   3.2734822679e+01    0.1792038    0.1167212 -71.78 0.0006381553    1.593    0.372
        76  -9.6099    132.5625    161.2487   6.3043713667e+01   2.2743031207e+01    0.1926556    0.1274267 -38.00 0.0007195895    1.587    0.370
        77 -10.2794      9.2925    163.0554   9.8331841781e+01   3.8513483604e+01    0.2895047    0.1921026  -8.73  0.001466129    2.072    0.517
        78 -10.4897     67.0488    157.7794   8.0196762040e+01   3.3668345117e+01    0.2225731    0.1980563  88.73 0.0002870092    1.113    0.102
        79 -11.0156     20.2680    156.8985   9.4613676685e+01   3.9192696954e+01    0.3859716    0.2746521  81.41  0.001553951    1.288    0.224
        80 -10.5586    247.3870    157.2541   4.1709249796e+01   6.6407410255e+00    0.1602433   0.08213846 -38.84 0.0009539466    1.679    0.404
        81  -9.0760      7.6269    157.2761   9.8574112043e+01   4.0121540798e+01    0.1521645   0.07704255  51.91 0.0004724537    1.690    0.408
        82  -9.6943      1.5370    157.5523   1.0045923121e+02   4.0483540793e+01    0.1347231    0.1134205  66.43 0.0001303152    1.022    0.021
        83  -9.1350    147.3457    155.6742   5.8605757563e+01   2.1438525280e+01    0.1368612    0.1106743  79.17 0.0007050265    1.745    0.427
        84  -9.8720    216.4856    154.4855   4.5547193753e+01   1.0989960498e+01    0.1212282   0.09789202 -21.06 -1.612929e-05    1.002    0.002
        85 -10.6158     10.9764    153.1556   9.7319370094e+01   4.0939556208e+01    0.3614243    0.2101308  34.78  0.001027574    1.573    0.364
        86  -9.4805    235.6980    153.6904   4.2622144397e+01   8.5576355356e+00    0.1155175   0.07478529  -9.79 0.0003727014    1.605    0.377
        87  -9.4052    158.9581    153.3594   5.5652888488e+01   1.9963318995e+01    0.2237091    0.1096352  18.57 0.0007043603    4.493    0.777
        88  -9.6038     40.8800    153.1552   8.7761441930e+01   3.8118528893e+01    0.1887981    0.1533337 -62.42 0.0006002417    1.303    0.233
        89  -9.3458    222.6931    151.3755   4.4033762651e+01   1.0597914590e+01    0.1142706   0.08633199 -54.53 0.0007029817    1.774    0.436
        90  -9.5821    176.9508    150.0105   5.1405636638e+01   1.7637557857e+01    0.1909001    0.1638815 -79.53 0.0007116784    1.637    0.389
        91 -10.9997     13.9202    148.0305   9.6073779413e+01   4.2060946954e+01    0.2462052    0.1912449  48.67 0.0003149735    1.167    0.143
        92  -9.5894    144.0226    148.0299   5.7845054749e+01   2.3535323672e+01    0.1715989    0.1570401 -34.57  0.000857386    1.063    0.060
        93 -10.7483      8.4300    145.2263   9.7717482734e+01   4.3225052417e+01    0.3934968    0.2415099  10.94  0.001934317    1.903    0.475
        94 -10.6012    216.7525    145.3763   4.3766720983e+01   1.2316087679e+01    0.1924304    0.1458975  18.09 0.0006406537    1.459    0.314
        95 -10.1771    187.7387    144.0485   4.8229979187e+01   1.6937502058e+01     0.205228    0.1807743  21.94 0.0004979607    1.206    0.171
        96 -10.8597     24.9528    142.9041   9.2017670900e+01   4.2485125679e+01    0.2138233    0.1880811  73.58 0.0003813238    1.015    0.014
        97  -9.1354     39.2937    141.3211   8.6992430806e+01   4.1450465578e+01    0.1452334    0.1076206 -40.79 0.0004237898    1.612    0.379
        98  -9.7057     32.8290    141.6305   8.9222841706e+01   4.2058948554e+01     0.215531     0.114698  38.43 0.0009465666    1.718    0.418
        99 -10.0738     13.8469    140.1499   9.5587195863e+01   4.4180053704e+01    0.1855523    0.1584491 -56.31 0.0003420582    1.306    0.234
       100  -9.6692    155.5004    144.4846   5.4595675635e+01   2.2255819344e+01    0.1374187     0.129694 -22.70 -3.524573e-05    1.017    0.017
       101  -9.6185     65.4671    139.0033   7.7928741392e+01   3.8733067647e+01    0.2180642    0.1447958 -67.71 0.0004078436    1.499    0.333
       102 -10.2567    236.4643    137.9810   3.9576178387e+01   1.0643160107e+01    0.1636326    0.1432278  -2.83 0.0007428328    1.213    0.176
       103 -10.3923      9.1698    137.3177   9.7016046878e+01   4.5297099974e+01    0.3339984    0.1128865 -64.72   0.00124339    2.739    0.635
       104  -9.7552    144.1738    136.8462   5.5482386328e+01   2.5800648827e+01    0.1975708    0.1648091 -13.88 0.0004308733    1.332    0.249
       105  -9.8459     44.0085    136.9549   8.4848080539e+01   4.2093670771e+01    0.1861981     0.160614 -88.93 0.0009960352    1.095    0.086
       106 -10.6231      2.8671    134.5730   9.9057505623e+01   4.6463022080e+01    0.3141575    0.1636586  87.18  0.001385484    1.730    0.422
       107 -11.3114     53.7485    131.9578   8.0769417349e+01   4.2232850703e+01    0.6181621    0.3160534  55.48  0.002058311    2.148    0.534
       108 -10.5546     59.0002    131.4899   7.8881734308e+01   4.1647447644e+01    0.3073503    0.2446641 -20.63 0.0004820676    1.613    0.380
       109 -10.3833     20.6514    134.7353   9.2800987370e+01   4.5095024794e+01    0.2651076     0.164449  84.01  0.001067042    1.527    0.345
       110 -10.7910    241.2105    134.0670   3.8217438353e+01   1.0547150890e+01    0.1765601    0.1526521 -16.88 0.0005515826    1.157    0.135
       111 -11.6154     37.1367    129.7330   8.6354932894e+01   4.4856365968e+01    0.6634016    0.3246596 -48.69  0.001990143    2.301    0.565
       112 -10.7183     73.7659    128.9697   7.3455951372e+01   4.0127847945e+01    0.3489071    0.2982151  60.10   0.00113319    1.144    0.126
       113 -10.6022      4.3018    130.1806   9.8321080963e+01   4.7566822776e+01    0.2131434    0.1920377   0.12 0.0005462101    1.328    0.247
       114 -10.4383     56.5967    126.3226   7.8866417308e+01   4.3378169589e+01    0.3900729    0.2116908 -35.96  0.001443939    2.675    0.626
       115 -10.3451    229.6997    124.8521   3.7885487669e+01   1.3475179634e+01    0.2543162   0.09110291 -31.13  0.001085464    2.576    0.612
       116 -10.9449     15.6671    125.2660   9.3805537979e+01   4.8119593385e+01    0.3992944    0.1811538  31.46  0.001688247    2.071    0.517
       117 -12.1399     10.1286    121.0608   9.5565191957e+01   4.9695845874e+01    0.6282703    0.3127213  73.03  0.002670553    1.978    0.495
       118  -9.2758     54.2515    123.6691   7.9258615946e+01   4.4422470063e+01    0.1563801    0.1085043  71.20 0.0002026163    1.554    0.356
       119 -10.5741    243.5132    122.0492   3.5605841324e+01   1.1891234225e+01    0.1839448   0.09022062 -34.44 0.0007955958    1.557    0.358
       120 -10.6760     19.9391    121.2873   9.1817577592e+01   4.8880819098e+01    0.3064692    0.1884554 -67.34 0.0008868666    1.526    0.345
       121  -9.5779     82.8165    124.4022   6.9590860660e+01   3.9836408600e+01    0.2026846    0.1507049  22.72 0.0003354871    1.550    0.355
       122 -10.0055     71.4693    121.0145   7.2685913342e+01   4.2590950309e+01    0.2277304    0.1488673 -63.60 0.0003990413    1.504    0.335
       123 -10.8793     24.6557    119.3543   8.9788388333e+01   4.9006913211e+01     0.431663      0.24278 -82.44  0.001906543    1.686    0.407
       124 -10.4884      1.3963    118.5256   9.8754284166e+01   5.0940953071e+01    0.2560012    0.1208629 -83.40 7.223532e-05    1.880    0.468
       125 -10.3143    249.5226    117.5199   3.4025360603e+01   1.1675684651e+01    0.1170348   0.08738984 -32.43 3.685728e-05    1.027    0.026
       126 -11.4058    182.0541    114.5731   4.2845972990e+01   2.3051099831e+01    0.3878385    0.2748952  32.40 0.0005103145    1.691    0.409
       127  -9.8411     86.0211    116.2159   6.6774419967e+01   4.1378962945e+01    0.2115561    0.1989292  65.81 0.0002101486    1.042    0.040
       128 -10.0199     52.5487    116.1322   7.8572394656e+01   4.6721333971e+01    0.2367391    0.2108272 -21.36 0.0006002016    1.331    0.248
       129 -10.6586      9.7652    111.4106   9.4933055992e+01   5.2413943143e+01    0.3301648     0.165763 -41.44  0.001365362    2.373    0.579
       130 -11.8558     25.3260    106.4418   8.7909913402e+01   5.2576532275e+01     0.900911    0.4288493  -8.16  0.002980338    3.872    0.742
       131 -11.8075     23.5041     99.4796   8.7720837640e+01   5.4705536455e+01    0.7080015    0.4230878  51.17  0.003208506    1.701    0.412
       132 -11.4501     15.9444    115.1723   9.2780287654e+01   5.0915550846e+01    0.3183597    0.2537318  39.82 0.0004284444    1.259    0.206
       133 -12.2550     14.8665    110.5058   9.2756041637e+01   5.2307906399e+01    0.7134908    0.3711884  85.94  0.003039201    1.896    0.473
       134 -10.4602    105.4091    114.6542   6.0404093185e+01   3.8140789059e+01    0.2952221    0.2425815 -63.02  0.001096351    1.216    0.177
       135 -10.3358     72.1022    115.2680   7.1277419281e+01   4.4011463115e+01    0.2407525    0.2016072   8.32 0.0006958969    1.458    0.314
       136 -10.6896    249.5427    111.9794   3.2936112288e+01   1.2420296285e+01    0.1647958    0.1388633 -31.26 0.0006532368    1.132    0.117
       137 -10.8967     93.0611    111.5176   6.3406104258e+01   4.1273046349e+01    0.4632232    0.2608041  55.90  0.001056829    2.092    0.522
       138 -12.2838     36.3957    109.1578   8.3717840851e+01   5.0675229757e+01     0.885653    0.3868261  30.87  0.002790879    2.222    0.550
       139 -10.9416     55.1605    109.6459   7.6346729059e+01   4.8136842757e+01     0.287669    0.2542505 -70.57 0.0006057562    1.090    0.083
       140 -10.6541      2.8244    106.0845   9.7394368111e+01   5.4319304764e+01    0.3579715    0.2392598  86.29  0.001161479    1.337    0.252
       141 -10.2435    111.6402    105.9585   5.6419753780e+01   3.8948535542e+01    0.3169574    0.2045697  44.03            0    1.588    0.370
       142 -10.4509     52.7575    105.0706   7.6360932890e+01   4.9733135987e+01     0.368384    0.1924973  46.58  0.001463336    1.957    0.489
       143 -10.3489    119.6708    101.6689   5.3072570797e+01   3.8253319118e+01    0.2435028    0.1395101 -27.09 0.0004708363    2.792    0.642
       144 -11.4571     37.7573    102.7489   8.2073349051e+01   5.2314491397e+01    0.6211224    0.3267539  65.72  0.002356599    2.393    0.582
       145 -10.5900     32.7094     96.8774   8.3216736497e+01   5.4524371848e+01    0.4221719     0.240299  60.52  0.001033766    1.986    0.496
       146 -11.9657     61.7932     99.2768   7.1503008715e+01   4.9945113445e+01    0.5751979    0.3374209 -52.41  0.001895161    1.675    0.403
       147 -10.2338     66.7927     97.6588   6.9166360154e+01   4.9556572329e+01    0.2601232    0.2198772  20.33 0.0002173625    1.355    0.262
       148  -9.0601     48.1143    100.8492   7.7373662354e+01   5.1537446027e+01    0.2449225    0.1948989  77.34 0.0006754159    1.295    0.228
       149 -10.7362     75.3961     99.1085   6.6312884913e+01   4.7683614755e+01    0.3998461    0.2656473 -36.96   0.00169028    1.817    0.450
       150  -9.4693    144.5254     99.0633   4.6331868548e+01   3.3501586782e+01    0.2317244     0.139765 -44.57 0.0007947244    1.554    0.356
       151  -9.9451     40.5915     99.2184   8.0214327178e+01   5.2960662960e+01    0.2246407    0.1278933 -57.32 0.0008024899    1.662    0.398
       152  -9.7249      9.7937     99.1118   9.3778464047e+01   5.5864632376e+01    0.2104307    0.1662093  70.53 0.0003158451    1.194    0.162
       153  -9.4964    106.6953     98.3524   5.5807462934e+01   4.1738215235e+01    0.1638953    0.1220466 -88.44 0.0007041065    1.708    0.414
       154  -9.3992     94.6431     97.8370   5.9374268907e+01   4.4332729862e+01    0.2158269    0.1437884 -64.81 0.0009111609    1.622    0.384
       155 -10.6822     15.7354     97.1483   9.0887285983e+01   5.6003900231e+01    0.2996988    0.2413308 -13.32 0.0009718225    1.470    0.320
       156 -10.0760     57.5289     96.6553   7.2582277724e+01   5.1317123446e+01    0.2176868    0.1475309 -77.51 0.0009484199    1.578    0.366
       157  -9.8265    231.6091     91.7375   3.0741338402e+01   1.7951436658e+01    0.1846315    0.0878522 -41.52 0.0009509272    1.650    0.394
       158 -11.6991    158.0998     90.3933   4.1212778663e+01   3.2261435265e+01    0.4748931    0.3850384  55.11  0.002529724    1.337    0.252
       159 -10.6154    156.8271     84.7234   3.9914657573e+01   3.3586918642e+01    0.4266956    0.3280537 -56.04  0.002194967    1.251    0.201
       160 -11.0531     55.9574     91.0461   7.1862930202e+01   5.3064864923e+01    0.4191932    0.2598172 -35.00  0.001580827    2.077    0.518
       161  -9.8131    249.9664     91.2594   2.8731895025e+01   1.5136226945e+01    0.1161763    0.1037072  70.50 0.0004156179    1.497    0.332
       162  -9.7682     73.6130     90.5499   6.4688519220e+01   5.0203157955e+01    0.3652695    0.1413639 -52.74  0.001231197    2.472    0.595
       163 -10.6177     10.4079     90.8347   9.2594139132e+01   5.8148594449e+01    0.2601402    0.2005197   1.89 0.0009467902    1.505    0.336
       164 -10.8621     21.5143     86.5019   8.6626261031e+01   5.8523472223e+01    0.2809179    0.2027689  74.92  0.001385628    1.424    0.298
       165 -11.4770     21.6714     83.3385   8.6004113361e+01   5.9390542878e+01    0.3494669    0.2211679 -65.15  0.001033518    1.432    0.302
       166 -10.5322     96.0618     88.9710   5.6394944407e+01   4.6160111873e+01    0.4654105    0.2067125  51.03  0.001624955    2.444    0.591
       167 -10.6287     84.3973     88.7825   6.0254668327e+01   4.8586274650e+01    0.3895887    0.2534694  43.81  0.001278112    1.559    0.359
       168 -11.4376     66.5900     85.6132   6.6032720342e+01   5.2727860870e+01     0.605186    0.4629804 -19.63  0.002742463    1.761    0.432
       169 -12.1554    107.3393     84.7272   5.1663767210e+01   4.4701116751e+01    0.3698446    0.2924699  81.91  0.000294169    1.458    0.314
       170  -9.9802     38.9785     85.9867   7.8169035920e+01   5.6814375521e+01    0.2370217    0.1692081 -35.62 0.0005020995    1.608    0.378
       171  -9.9318      9.5165     86.1258   9.2461150212e+01   5.9521850610e+01    0.2899245    0.1292091  53.07  0.001137489    2.422    0.587
       172  -9.7791     34.3312     84.8631   8.0113535476e+01   5.7680202900e+01    0.2125402    0.1797254 -72.10 0.0008920069    1.107    0.097
       173 -11.3126     30.5992     81.7238   8.1250837216e+01   5.8960452791e+01    0.4787577     0.294668 -59.81  0.001380262    1.496    0.332
       174 -10.3444    167.4999     83.1070   3.7537967502e+01   3.1547308296e+01    0.4102847    0.2409908  73.72  0.001764819    2.323    0.570
       175  -9.3010    243.6672     83.6658   2.7771641366e+01   1.7120997569e+01    0.1139335   0.08439228  -6.05 0.0004740978    1.733    0.423
       176  -9.4655    117.0375     83.5430   4.8589746537e+01   4.2791686289e+01    0.2279276    0.1531318  52.62  0.001007995    1.530    0.347
       177 -11.3145     76.7393     82.4343   6.1140700348e+01   5.1645224892e+01    0.3510289    0.2677863  55.39  0.000461908    1.358    0.264
       178 -10.3407      6.8031     81.8110   9.3297896094e+01   6.0882584713e+01    0.3531842    0.2038901 -52.73  0.001657504    1.657    0.397
       179  -9.5332     86.5969     82.3205   5.7537593904e+01   4.9699564391e+01    0.2342995    0.1954397 -14.30 0.0008321148    1.554    0.357
       180 -11.3950     88.1236     77.3619   5.5430458195e+01   5.0541062213e+01    0.3292561    0.2591014 -52.14 0.0001875175    1.243    0.196
       181 -10.5223     42.7326     81.9595   7.5451532137e+01   5.7422110857e+01    0.3019026    0.1868386 -70.15  0.001320299    1.604    0.376
       182 -11.1662     99.6129     76.8331   5.1499879478e+01   4.8161798566e+01    0.3874783    0.3036946 -20.97   0.00132858    1.659    0.397
       183  -9.7236     54.2224     85.8382   7.1263022674e+01   5.4720360295e+01    0.1951756    0.1724169 -29.84 -0.000430966    1.272    0.214
       184 -11.3724     30.5325     62.1733   7.6383788646e+01   6.4206185088e+01      1.13161    0.7449927  64.62  0.003581743    1.888    0.470
       185 -14.3095     16.6869     67.3573   8.5615624881e+01   6.4193562757e+01    0.6099927    0.4851567 -40.79  0.001281367    1.275    0.216
       186 -11.8292      2.6874     62.8474   9.3089680532e+01   6.6283290087e+01    0.7841066     0.382696  75.49  0.003275629    2.337    0.572
       187 -11.6865     12.3672     58.6553   8.6354865895e+01   6.6849507703e+01    0.6658371    0.5088659 -50.84  0.001898557    1.225    0.184
       188 -12.2913    226.4783    245.8263   5.8493333422e+01  -1.8833877582e+00    0.4713813    0.3049701   0.41  0.003787808    1.137    0.121
       189 -13.0532     12.5117     47.3515   8.3475359567e+01   6.9782366335e+01    0.6065746    0.4841917 -51.38  0.000789053    1.151    0.131
       190 -11.8698     21.6412     75.3570   8.4514601860e+01   6.1596125188e+01    0.5309587    0.3208238 -44.78  0.002135429    1.694    0.410
       191 -12.3421    167.7477     73.3029   3.4820840280e+01   3.3178728539e+01    0.3342946    0.2286469 -43.05 0.0004131534    1.298    0.230
       192 -10.9884     56.2145     74.8385   6.7245222693e+01   5.7262031235e+01    0.4664859    0.2279431  30.93  0.001768697    2.273    0.560
       193 -10.6046     44.5982     74.6012   7.2599929393e+01   5.9121641755e+01    0.2663987    0.2299976  54.57 0.0004700314    1.194    0.163
       194  -9.7392    107.3339     74.3208   4.8369006641e+01   4.6958893928e+01    0.1552922    0.1273728   5.27 -4.097268e-05    1.702    0.412
       195  -9.7932      7.5554     73.5497   9.1821154517e+01   6.3123557028e+01    0.2429758    0.1958025 -48.43 0.0007854964    1.227    0.185
       196 -10.3946      1.9138     73.0308   9.4850536757e+01   6.3548534909e+01    0.3662265    0.2484856  27.56  0.001907901    1.583    0.368
       197  -9.3022     84.2955     79.3058   5.7396721981e+01   5.0887157304e+01    0.1525592    0.1265966 -12.22 0.0003489551    1.584    0.369
       198 -10.1429     25.9112     71.4842   8.1386635677e+01   6.2242379190e+01    0.3364348    0.2195249 -83.20  0.001563277    1.603    0.376
       199  -9.6995    161.9455     71.2675   3.5217941679e+01   3.4824300589e+01    0.1925344    0.1788529 -79.85 0.0002812589    1.089    0.082
       200 -11.6350     50.2441     68.3844   6.7984852763e+01   5.9869523175e+01    0.4037006    0.2906809 -45.35 0.0007674998    1.406    0.289
       201 -11.8516    122.7171     67.4692   4.2032782255e+01   4.4726001641e+01    0.3512578     0.264338 -56.31 0.0002945235    1.304    0.233
       202 -10.8691    147.1729     65.5868   3.6190081832e+01   3.9226076040e+01    0.3026691    0.2269554 -61.79 0.0007976916    1.323    0.244
       203 -10.2542    139.4836     66.1440   3.7872651967e+01   4.0956535552e+01    0.2479481    0.1788906  70.12  0.001186878    1.473    0.321
       204  -9.9228     93.6077     66.2589   4.9802283755e+01   5.1800327923e+01    0.2141545    0.1470687 -36.49 0.0006902274    1.582    0.368
       205  -9.4591    184.6970     65.6452   3.0223571695e+01   3.0709758785e+01    0.1324839    0.1073297   4.59 0.0003153674    1.710    0.415
       206  -9.5526    131.1387     64.7859   3.9207145206e+01   4.3204729985e+01    0.1960129    0.1792531  27.76 0.0004445016    1.314    0.239
       207 -10.3646     80.0457     64.5219   5.3886422913e+01   5.5166246145e+01    0.5823412    0.2518181  57.87  0.001841164    3.247    0.692
       208 -10.1986     73.9069     61.9164   5.5273379200e+01   5.7037444935e+01     0.241967    0.1850924  88.01 0.0005351561    1.644    0.392
       209 -10.7461    155.7744     62.5584   3.3728690624e+01   3.7711894006e+01    0.4223117     0.256137 -35.49  0.001945924    1.579    0.367
       210 -10.5099     98.1123     59.9353   4.6084141870e+01   5.2061816541e+01    0.2671976    0.2351099 -76.40 0.0006856645    1.146    0.128
       211 -11.3945     46.6989     60.3097   6.7016284307e+01   6.2439971182e+01    0.4044098    0.3129097 -28.28 0.0009022648    1.493    0.330
       212 -10.3280     51.9937     61.9771   6.4961750155e+01   6.1168268756e+01    0.3782188    0.2769263 -29.65  0.001439987    1.633    0.388
       213 -11.3216     57.6965     58.8060   6.1070658000e+01   6.0920392120e+01    0.4252291    0.3421015 -15.21  0.001372776    1.566    0.361
       214 -10.1484     69.3954     61.1288   5.6803032545e+01   5.8136567896e+01    0.4198681    0.1805603 -43.45   0.00149642    2.426    0.588
       215 -10.3268    106.2823     63.9756   4.5145383083e+01   4.9328243098e+01    0.2528364    0.2153129  25.23            0    1.451    0.311
       216 -10.1007    138.2947     60.2611   3.6239499594e+01   4.2277898277e+01    0.3919609    0.2221126 -76.98  0.001413323    2.881    0.653
       217 -10.0469    134.8594     58.1442   3.6241591944e+01   4.3480011845e+01    0.3291961    0.2147923 -81.14 0.0004768354    1.966    0.491
       218 -10.7636    120.5786     60.2949   4.0128624869e+01   4.6589508416e+01    0.4230282    0.3519554  89.11  0.002147002    1.243    0.196
       219 -10.1444    113.7169     60.6099   4.1946226191e+01   4.8198835649e+01    0.2863879    0.2155396 -83.16 0.0009548826    1.541    0.351
       220 -10.6307     90.4525     61.0533   4.8938741266e+01   5.3608953973e+01    0.3708591    0.2090048  48.21  0.001083856    1.793    0.442
       221  -9.8637     83.1535     61.3638   5.1577270831e+01   5.5179371220e+01    0.2324227    0.1413126  59.25   0.00095388    1.830    0.454
       222  -9.9110    169.1674     59.8150   3.0800548195e+01   3.5052420810e+01    0.2137902    0.1731159 -58.36 0.0004174557    1.114    0.103
       223 -10.4259    202.0982     62.3886   2.7240781109e+01   2.7571665778e+01     0.211233    0.1573233 -33.07  0.001225098    1.240    0.194
       224  -9.0841    109.2740     60.2936   4.3008184759e+01   4.9332346519e+01    0.1441684    0.1238345  10.02 0.0001736398    1.521    0.343
       225  -9.8802    127.0612     58.6913   3.8084111696e+01   4.5294080880e+01    0.2069946    0.1876314  75.79 0.0002653643    1.103    0.094
       226 -10.5322    144.7436     57.8628   3.4235598532e+01   4.1122317978e+01    0.4889869    0.2091628  51.15  0.001849366    2.546    0.607
       227 -11.4411     80.2714     56.5687   5.0778361186e+01   5.6827424939e+01    0.4544804    0.3293237 -13.26  0.001384343    2.091    0.522
       228  -9.0285    163.5770     57.4884   3.0964220696e+01   3.6705568125e+01    0.1443422     0.126488 -55.46 4.771878e-05    1.016    0.016
       229  -9.4952    177.1964     55.8505   2.8557515857e+01   3.3842044813e+01    0.1732289    0.1638491  19.22 0.0003703916    1.331    0.249
       230  -9.8108    112.0274     56.5362   4.0926456013e+01   4.9369743475e+01    0.2192572    0.1485089  58.30  0.000312705    1.482    0.325
       231 -11.0765     89.2438     52.3723   4.5978254718e+01   5.5630120722e+01    0.5995522    0.2371799 -42.05   0.00210602    2.510    0.602
       232 -10.2519    151.0203     54.0290   3.1923505726e+01   4.0229852370e+01    0.2179808    0.1944455 -61.66 0.0003838056    1.006    0.006
       233  -9.7469    140.1037     54.1960   3.3915969957e+01   4.2860072268e+01     0.209515    0.2017722   9.06 0.0005599473    1.249    0.199
       234 -10.6518    133.6860     51.6716   3.4309822658e+01   4.4859471554e+01    0.4737745    0.3174028 -47.61  0.002243995    1.403    0.287
       235 -11.3568    128.6344     49.5947   3.4610787260e+01   4.6459381088e+01     0.514752    0.3745413  -9.91  0.001678181    1.948    0.487
       236 -12.7121     38.4439     50.0479   6.7691210949e+01   6.6182010130e+01    0.7202555    0.6723873 -16.70  0.003176463    1.110    0.099
       237 -11.4039     44.4794     43.5234   6.1504569125e+01   6.6719402591e+01    0.4724594    0.3379383 -85.85  0.001946159    2.048    0.512
       238 -11.8256     44.9602     38.2035   5.8741914147e+01   6.7779395062e+01    0.3511676    0.2960016  69.66            0    1.396    0.284
       239 -10.0488     27.6304     53.6689   7.5463091126e+01   6.6721501253e+01    0.3485422     0.235418 -25.12 0.0008757637    1.768    0.434
       240  -9.9988     27.9241     49.2214   7.3759885232e+01   6.7795155606e+01    0.2480985    0.1898407  38.85 0.0007046741    1.370    0.270
       241 -11.3990     51.5435     47.8929   5.9656994722e+01   6.4516696399e+01    0.7970855    0.3818252 -53.42  0.003169909    2.137    0.532
       242 -10.3186     83.4855    248.0481   8.5269895645e+01   1.2761722251e+01    0.2398683    0.1156622  40.06 0.0009952242    1.643    0.391
       243 -10.2008     82.4753     47.0720   4.6086561857e+01   5.8221936665e+01    0.2928853    0.2187665 -38.06  0.001413669    1.384    0.277
       244 -10.4446    186.3879     50.3257   2.5897328023e+01   3.2605479505e+01     0.276282    0.1766754 -55.26  0.001441154    1.413    0.292
       245  -9.3834    164.3096     48.6824   2.8244183104e+01   3.7875621645e+01    0.1522712   0.09473713 -62.07 0.0007032737    1.638    0.389
       246  -9.8626    104.3890     46.4605   3.9118675051e+01   5.3052062486e+01    0.2509542    0.2048651 -71.50 0.0006894579    1.268    0.211
       247  -9.4313     62.4775     47.4159   5.4203448760e+01   6.2517365493e+01    0.1447262    0.1433503  46.33 3.651002e-05    1.029    0.028
       248  -9.7337    142.9940     45.6539   3.0579984954e+01   4.3499879844e+01    0.2028369     0.175886  86.85 0.0004624362    1.126    0.112
       249 -11.1619    112.3665     45.4114   3.6691258551e+01   5.1236033596e+01    0.2620575    0.2573455  77.71 0.0003244936    1.111    0.100
       250  -9.6238     91.6747     45.9167   4.2559259489e+01   5.6261419138e+01    0.2120351    0.1894501 -52.46 0.0004435893    1.110    0.099
       251  -9.9655    152.9428     44.8881   2.8733622837e+01   4.1165170557e+01    0.2021898    0.1873894  52.25 0.0003186139    1.262    0.208
       252 -11.0252     96.9263     42.0166   3.9366967665e+01   5.5661433861e+01    0.4777641    0.3299052  13.80  0.001590908    2.439    0.590
       253 -10.9589     72.7421     43.3518   4.8064678164e+01   6.1141569501e+01    0.3109605    0.2631098 -44.77            0    1.190    0.160
       254 -10.6343     67.7309     41.5842   4.9282814906e+01   6.2582152202e+01    0.2093719    0.1761254 -83.59 0.0007611103    1.370    0.270
       255 -10.8834     23.9645     41.7480   7.3586691083e+01   7.0076430672e+01    0.4544082     0.267813 -57.62  0.001477678    1.592    0.372
       256 -13.0863     27.2417     37.4294   6.9511114130e+01   7.0685734743e+01    0.4738578    0.3641574  66.34  0.001521507    1.654    0.395
       257 -12.5652    104.9800     52.5372   4.1314533554e+01   5.1826545407e+01    0.3167597    0.3041662 -70.04 0.0003454565    1.049    0.047
       258 -10.2886    121.0245     41.1983   3.3150121797e+01   4.9720664307e+01    0.2516266    0.1605884 -80.32  0.001074809    1.935    0.483
       259 -10.3843     89.1235     40.7357   4.1145540103e+01   5.7791800884e+01    0.3790358    0.2784213  89.02  0.001770912    1.643    0.391
       260 -10.4049     79.8630     41.2574   4.4460350747e+01   5.9905375749e+01    0.3996047    0.2706317  56.90    0.0018708    1.468    0.319
       261 -11.0787     83.4691     35.8504   4.0760576330e+01   5.9986878566e+01    0.5639333    0.3550065  27.22  0.002301151    2.402    0.584
       262 -11.8982     74.9919     35.5569   4.3569719154e+01   6.2045772500e+01    0.4145222    0.3877786  63.54 0.0005597837    1.043    0.041
       263 -10.3929     73.4905     31.4795   4.2124128027e+01   6.3082895212e+01    0.3769232    0.2465495 -71.19  0.001608617    2.207    0.547
       264 -11.5871     77.7662     48.0413   4.8204213474e+01   5.9110313510e+01    0.7333671     0.539489   1.58  0.002746613    2.143    0.533
       265  -9.8837    235.8350     40.1408   1.8948689433e+01   2.4038742217e+01    0.1456719    0.1273405 -29.49 0.0004072629    1.298    0.230
       266 -10.5203    225.4488     39.4390   1.9524979518e+01   2.6042106280e+01    0.3432426    0.1299311 -58.01   0.00148937    2.805    0.644
       267 -10.4717    202.5996     38.1602   2.1046453286e+01   3.0756072180e+01     0.428873    0.1356121 -44.29  0.001367491    2.390    0.582
       268  -9.2878    168.2494     39.6487   2.5026104124e+01   3.8229986694e+01    0.1489253   0.08734775 -55.70 0.0004139014    1.591    0.371
       269 -10.0678    115.5840     39.0002   3.3478146106e+01   5.1446462825e+01     0.210114     0.179728 -48.04  0.001110876    1.143    0.125
       270 -10.0348    109.6548     38.2612   3.4531968372e+01   5.3071986521e+01    0.2045965    0.1684644 -66.12 0.0003163842    1.204    0.169
       271 -11.4319    111.1952     34.7979   3.2785993426e+01   5.3203998130e+01    0.3266553    0.2617079  61.97  0.000764678    1.232    0.188
       272 -11.4149    248.2404     36.2897   1.7316409233e+01   2.2316666439e+01    0.2082199    0.1531939 -42.92  0.000280442    1.054    0.051
       273 -10.9787     65.9810     36.6738   4.7670935794e+01   6.3884752493e+01    0.3486269    0.2388671  50.41 0.0002293717    1.439    0.305
       274  -9.3095    158.0180     42.0415   2.7098047775e+01   4.0344178125e+01    0.1689316    0.1465627 -59.51 0.0009540991    1.014    0.014
       275  -9.9633      1.4577     37.1327   8.9109072384e+01   7.3041499197e+01    0.1996737    0.1175941 -69.34  0.001006315    1.530    0.346
       276 -10.3151    193.2015     34.0618   2.0810228712e+01   3.3283449782e+01    0.3679576    0.1825388 -45.18  0.001811165    1.622    0.384
       277  -9.3301    128.9857     36.0212   2.9681812282e+01   4.8460631480e+01    0.1768991    0.1567417 -89.22 0.0003244375    1.067    0.062
       278 -10.6219     97.1273     36.1042   3.6797312837e+01   5.6579127656e+01    0.2241285    0.2030663 -75.43  0.000525873    1.076    0.071
       279  -9.5690     11.8388     29.3716   7.7860558992e+01   7.4239610252e+01    0.1696504    0.1201493  -3.50 0.0001559553    1.535    0.349
       280 -11.3340      7.2920     30.1788   8.2095216428e+01   7.4409618934e+01     0.366906     0.279658  70.60  0.001139999    1.595    0.373
       281 -11.0021     10.3882     34.7515   8.1136657445e+01   7.3080161036e+01    0.3766402    0.2237937  20.20  0.001581306    1.753    0.429
       282 -10.9818     17.5204     31.4764   7.4084060722e+01   7.3200864512e+01    0.5810634    0.3271902   1.47  0.002569708    2.376    0.579
       283  -9.9865    241.1773     34.3774   1.7326493896e+01   2.3765332435e+01     0.143461   0.09437183 -72.44 0.0002665643    1.547    0.354
       284  -9.6535    146.2772     33.9478   2.6152562561e+01   4.4364951144e+01    0.1989252     0.163505 -39.59 0.0004374426    1.197    0.165
       285  -9.5510    140.9294     33.7565   2.6884905417e+01   4.5737459815e+01    0.1939101    0.1706041 -79.80 0.0003822866    1.050    0.047
       286  -9.2687    134.5248     34.5024   2.8171183702e+01   4.7261057910e+01    0.1496878    0.1286773 -68.53 0.0008094253    1.061    0.057
       287 -11.2299    122.4779     33.5620   2.9973144957e+01   5.0481573212e+01     0.305664    0.2575396  75.87 0.0005211937    1.147    0.128
       288 -10.3524     32.9448     33.1970   6.3612616270e+01   7.0819243089e+01    0.3978291    0.1872182  42.70  0.001668464    2.240    0.554
       289  -9.9279    129.2059     31.8887   2.8125063078e+01   4.8983745268e+01    0.2194156    0.1761704 -66.76 0.0003866871    1.178    0.151
       290 -10.1656      1.4304     31.2315   8.7561670308e+01   7.4503438571e+01    0.2215199    0.1103807 -65.07 0.0004246594    1.754    0.430
       291 -10.6113    234.6723     29.2966   1.6589537657e+01   2.5523250865e+01    0.2364417   0.09558894 -40.77 0.0008671097    1.721    0.419
       292 -10.6482    178.6226     28.7595   2.0702558445e+01   3.7219169996e+01    0.3604791    0.2294506 -49.44   0.00113516    1.321    0.243
       293 -10.8416    145.7686     27.9036   2.4183167276e+01   4.5287051760e+01    0.3898771    0.3253062   6.54   0.00212182    1.598    0.374
       294 -11.0626    248.6508     28.6369   1.5660098539e+01   2.3115048997e+01    0.1530339    0.1298166  -1.97  0.001106091    1.671    0.402
       295 -11.8523    156.2270     27.9586   2.2870162970e+01   4.2671848897e+01    0.4368417    0.2517625 -73.22 0.0007005704    1.861    0.463
       296 -11.1007    101.2226     27.9827   3.2214457030e+01   5.6746388234e+01    0.4090164    0.2388675 -50.56  0.001254448    1.782    0.439
       297 -10.0973     81.7775     29.5663   3.8328240739e+01   6.1403540497e+01    0.2251652    0.1641083 -68.83 0.0005515017    1.622    0.383
       298  -9.6447     79.4907     27.0084   3.7803723686e+01   6.2349486007e+01    0.2149652    0.1850425  37.93  0.001159375    1.237    0.191
       299 -10.1735     49.8699     28.1379   5.0761545340e+01   6.8820103298e+01    0.4047116    0.2620596  -3.06  0.001638933    2.794    0.642
       300 -11.7350    239.4371     26.9608   1.5795495298e+01   2.4922676497e+01      0.25633    0.2218445  -9.47  0.001856516    1.544    0.352
       301 -11.0033    197.7326     27.9294   1.8799580021e+01   3.3052462552e+01    0.2649736    0.1694086 -89.67 0.0008962919    1.628    0.386
       302 -11.5161      6.0775    244.8961   1.0166569546e+02   2.0850762811e+01    0.3633854    0.1671469  53.53  0.001727079    1.621    0.383
       303 -10.1668     62.0497     28.2930   4.5032644665e+01   6.6220800722e+01    0.2739121    0.2022999  71.82  0.001352155    1.589    0.371
       304  -9.7286    135.1422     27.1640   2.5441435092e+01   4.8085042387e+01    0.2020576    0.1808743  67.32  0.000402704    1.184    0.156
       305 -11.0877     72.9885    244.5101   8.7248048990e+01   1.4488878253e+01     0.289736    0.1964825  25.53  0.001207173    1.242    0.195
       306  -9.6812     16.0549     26.6771   7.3054651564e+01   7.4445835074e+01    0.1813807    0.1605752  -7.43 0.0004265056    1.116    0.104
       307 -11.8407    216.7209     25.3785   1.6790943230e+01   2.9410511646e+01    0.3171342     0.206901  73.57 0.0002474494    1.742    0.426
       308 -10.2095     69.6856     25.5340   4.0465568562e+01   6.4920390124e+01    0.4766729    0.2156609  61.08  0.001821449    2.350    0.574
       309 -10.7982      9.8614     24.6348   7.7541293001e+01   7.5504845529e+01    0.4611361    0.2708662  -2.07  0.001655638    2.011    0.503
       310 -10.9479      2.2565     24.9744   8.4799090711e+01   7.5966611774e+01    0.4270196    0.2449965 -44.44  0.001591949    1.566    0.361
       311 -12.7593     75.2379    238.9307   8.6344587312e+01   1.5214768323e+01    0.5526788    0.4907007  14.27  0.003840966    1.214    0.177
       312 -10.2156    137.0266     14.9609   2.0768185071e+01   4.9048004813e+01    0.2273999    0.1821545 -43.15 0.0003244237    1.201    0.167
       313 -10.5001    140.1655     18.2065   2.1544369716e+01   4.7880942801e+01    0.2770382    0.2193658  56.93 0.0007773048    1.385    0.278
       314  -9.1843    124.7050    245.6864   7.6516360484e+01   8.5718961317e+00     0.111151    0.0765522  -3.30 0.0003530013    1.598    0.374
       315 -11.3182    128.5042     23.9126   2.5264820930e+01   5.0206499633e+01    0.2545824    0.2391863 -80.62 0.0003005799    1.079    0.073
       316 -10.3774     45.6643    244.3241   9.3158158630e+01   1.7347662716e+01    0.2609459     0.117077  32.83 0.0008632275    1.631    0.387
       317  -9.4777     91.5031     25.4546   3.3510452631e+01   5.9580455603e+01    0.2238832    0.1235632  50.33 0.0005363044    1.812    0.448
       318  -9.6223     93.7954     22.4011   3.1484532793e+01   5.9408109945e+01    0.2280474    0.1675287  30.50 0.0003000082    1.681    0.405
       319 -10.9729     22.4575     24.0348   6.6377154425e+01   7.4253095459e+01     0.300375    0.2410144 -18.08 0.0003862583    1.296    0.228
       320  -9.9030    102.2233    243.4086   8.0920489616e+01   1.1452098100e+01    0.1708295   0.08350005  35.60 0.0009470391    1.607    0.378
       321 -10.7243     88.8484    240.8849   8.3542955373e+01   1.3369756677e+01    0.1706645    0.1443381   8.99 0.0008265094    1.235    0.191
       322 -10.5194     60.5898    240.8654   8.9697793363e+01   1.6443721709e+01     0.206918    0.1058474  33.63 0.0007323675    1.471    0.320
       323  -9.4135    115.6813    240.3161   7.7808024528e+01   1.0421291251e+01    0.1156053   0.07638986  48.54 0.0005957689    1.655    0.396
       324 -10.6181    225.3429     22.5950   1.5601848245e+01   2.8035972228e+01    0.3190263     0.119335 -54.69  0.001383789    2.255    0.557
       325 -10.4959    161.7506     20.0136   1.9737790332e+01   4.2272970447e+01    0.2988707    0.1661328  -7.54  0.001240851    2.882    0.653
       326 -10.1171     54.1931     23.1180   4.5689058355e+01   6.8786611447e+01    0.2571218    0.2131753  87.49  0.000820361    1.480    0.324
       327 -10.3381     68.8273     21.4502   3.8561012992e+01   6.5730643562e+01    0.8076478    0.3288374  72.23  0.002160082    5.571    0.821
       328 -10.5320     63.5114     22.5073   4.1212088348e+01   6.6814116893e+01    0.2541204    0.2401218  48.12 0.0008484963    1.027    0.026
       329 -10.9306     59.1234     21.2774   4.2349166465e+01   6.7995903079e+01    0.2698798    0.2439205  47.44 0.0003616278    1.067    0.063
       330 -10.7033     82.8726     22.0349   3.4253769495e+01   6.2223667949e+01    0.3652792    0.3121307  81.84  0.001303089    1.165    0.142
       331 -10.2690     87.1079     20.1219   3.2108139817e+01   6.1410309997e+01    0.2097712    0.1971585  68.83 0.0002784637    1.038    0.037
       332  -9.1659    186.4867     22.5124   1.8243015547e+01   3.6171270398e+01    0.1361871    0.1058089 -56.97  0.000809907    1.050    0.048
       333  -9.2795     34.7587     22.0190   5.6098367661e+01   7.2765202944e+01     0.283426    0.2308877  28.45  0.001612243    1.226    0.184
       334 -10.2604    195.4858    238.4544   6.2470352211e+01   1.9029403893e+00    0.1903228    0.1434156  -6.31 0.0009777519    1.098    0.089
       335  -9.1818    155.6979     21.7102   2.0914910931e+01   4.3562859956e+01     0.128374    0.1049684  39.28 0.0002895892    1.565    0.361
       336  -9.8658    119.0014     27.5341   2.8287872213e+01   5.2207198927e+01    0.2213327    0.1360261  67.87  0.001020459    1.566    0.361
       337  -9.7849     74.5971     21.1873   3.6397859164e+01   6.4381902311e+01    0.3400785    0.1923356 -48.97 0.0008016104    1.961    0.490
       338 -11.0227     35.1411    238.0631   9.5160968855e+01   1.9519150027e+01    0.1984096    0.1417567  66.38 0.0009542673    1.343    0.256
       339 -10.8533     18.0447    236.4149   9.8871613229e+01   2.1406656276e+01    0.4420404    0.1209622  44.44   0.00180824    2.314    0.568
       340  -9.3646      8.3077    237.3143   1.0102334177e+02   2.2073677824e+01   0.09729826    0.0854682 -23.07 0.0003329382    1.627    0.385
       341 -10.3242     67.6449    236.0572   8.7809055372e+01   1.6555888074e+01    0.2426981    0.1534991  22.51  0.001457766    1.433    0.302
       342 -11.4923     30.5026    234.0892   9.6018761997e+01   2.0710585549e+01    0.4403795    0.2239539  43.54  0.002557635    1.458    0.314
       343  -9.5273     24.3067    232.2906   9.7336190409e+01   2.1632356043e+01    0.1658897    0.1508532  13.52 0.0006781663    1.351    0.260
       344  -9.6024     99.1991     20.2154   2.9200048324e+01   5.8294285820e+01    0.1946376    0.1509547 -62.50  0.001006364    1.312    0.238
       345 -10.6158     41.6091     19.1892   4.9968606114e+01   7.2008079692e+01    0.3883268    0.2034963  45.46 0.0005374931    1.864    0.463
       346 -10.2415    107.9995     18.1312   2.6461730087e+01   5.6253887192e+01      0.22958    0.2099863 -23.97  0.001314067    1.218    0.179
       347 -10.9272    183.2825    234.2690   6.4022238037e+01   3.7035010966e+00    0.2748445    0.1821239  22.71   0.00125802    1.290    0.225
       348 -10.0285     91.6642    235.6856   8.2477513054e+01   1.3940967065e+01    0.1167615   0.08468574  -5.70 0.0003323048    1.691    0.409
       349 -10.5701     53.7458     14.4956   4.0566274720e+01   7.0188991367e+01    0.2819329    0.1676086  52.61 0.0008806649    1.591    0.372
       350  -9.5474    193.0414     16.4110   1.6087843069e+01   3.5398384029e+01    0.1707597     0.115451  84.92 0.0003601265    1.503    0.335
       351  -9.4827    165.6282     16.7001   1.8337311209e+01   4.1706582989e+01    0.1315367   0.09883213  42.36 0.0007030122    1.745    0.427
       352  -9.0361    119.2667     16.3802   2.3778160431e+01   5.3505430032e+01    0.1402699    0.1063005  30.14 0.0006988347    1.686    0.407
       353 -11.0692     39.5327    229.3507   9.3748321505e+01   2.0748102545e+01    0.2963639    0.2048691  56.32  0.001908847    1.259    0.206
       354  -9.5943    193.2552     21.0206   1.7309956008e+01   3.4835181471e+01    0.1798975    0.1425033 -48.97 0.0002983659    1.065    0.061
       355  -9.6019     88.2837    233.6833   8.3039756234e+01   1.4676522070e+01    0.1202152   0.07655309  51.56 0.0003360423    1.583    0.368
       356 -10.2461    164.9107     13.0313   1.7268614677e+01   4.2279239219e+01    0.2097022    0.1825197 -61.43  0.001292782    1.063    0.060
       357 -11.1038     28.2130    245.0558   9.6961097191e+01   1.8885820651e+01     0.262087    0.1917978  76.97  0.001861126    1.429    0.300
       358 -11.3912    185.1940    228.1849   6.2865500013e+01   4.2983998746e+00     0.443408    0.2173054 -16.44  0.002275544    2.720    0.632
       359  -9.5010    151.5253    228.4722   6.9183266889e+01   8.0831775265e+00    0.1156945   0.09411249  14.79 0.0001554333    1.037    0.035
       360 -10.3635    160.0213    235.4963   6.8433483629e+01   6.0881734968e+00    0.1691674   0.09155803  25.36 0.0004666141    1.536    0.349
       361  -9.7424    131.3099    226.6643   7.3044544944e+01   1.0772647432e+01    0.1152428   0.08441184  51.88 0.0004585949    1.680    0.405
       362 -10.3504      3.8372    225.8866   1.0175385592e+02   2.4660350696e+01    0.1600759    0.1500625  46.12 0.0008730745    1.287    0.223
       363 -10.0765     77.2205    220.6904   8.4392520373e+01   1.8346427600e+01      0.17371   0.08806908 -53.47 0.0008813928    2.321    0.569
       364 -10.4134     42.4987    220.5098   9.2568270154e+01   2.2199752969e+01    0.1779791    0.1097348  17.32 0.0008850475    1.705    0.413
       365 -10.9059     45.9823    218.8008   9.1636098831e+01   2.2186281947e+01    0.2855853    0.1212573  35.84  0.001407492    1.780    0.438
       366  -9.7734    211.8465    219.0896   5.7068697400e+01   2.6181682665e+00    0.1510552    0.1271521  -8.65 0.0008234754    1.275    0.216
       367  -9.3939    120.8419    219.3999   7.4397237648e+01   1.3272174693e+01    0.1704951    0.1024826  17.84 0.0006224507    1.630    0.386
       368  -9.4518    176.3182    218.7038   6.3145996623e+01   6.6096945506e+00    0.1009996   0.08652971  43.44 0.0002709798    1.611    0.379
       369  -9.6785    136.0059    216.4814   7.0793097364e+01   1.1868067386e+01    0.1870659    0.1038464  28.72 0.0006007056    1.552    0.356
       370 -10.8229     29.3779    215.3958   9.5431248376e+01   2.4549672013e+01    0.2458652    0.2039692  22.98  0.001249066    1.279    0.218
       371 -10.2990     24.0088    216.0429   9.6750189778e+01   2.4920035411e+01    0.1906996    0.1438571  50.98 0.0003959118    1.050    0.047
       372 -11.4698      8.3844    216.0663   1.0046511962e+02   2.6287613386e+01    0.3757831     0.103771  36.00  0.001701304    2.316    0.568
       373 -12.8413      4.8458    207.8781   1.0109174351e+02   2.8311781035e+01    0.7780842    0.3464167  78.04  0.003937134    2.136    0.532
       374 -12.1454     11.9766    210.2370   9.9430885642e+01   2.7215722166e+01    0.5038291    0.2016948  76.98  0.002352645    2.519    0.603
       375  -9.7401    110.0181    212.0156   7.5916753798e+01   1.5960794257e+01    0.1514577     0.134111  25.42 0.0007239156    1.034    0.033
       376 -10.2963    237.1466    208.8313   5.1655452445e+01   1.2853443237e+00    0.1479717   0.09233009 -10.15 0.0005089167    1.321    0.243
       377  -9.9856    217.3622    208.8295   5.4655130360e+01   3.3301551362e+00    0.1582401    0.0802064 -25.88 0.0006831129    1.771    0.435
       378 -11.0649     19.9501    200.7163   9.7086064309e+01   2.8596325213e+01    0.5045094    0.1549167 -67.25  0.002061593    3.354    0.702
       379 -10.8399    175.3439    202.2504   6.0899232951e+01   9.1690144360e+00    0.2153398    0.1756973   9.23 0.0004442915    1.063    0.060
       380  -9.9708     67.3551    202.7706   8.5155113723e+01   2.3138532189e+01    0.2093066    0.1633834 -58.11 0.0004507097    1.473    0.321
       381  -9.4623    196.5237    201.4950   5.6962287190e+01   6.6775605164e+00    0.1164015   0.09165487  -5.04 4.437415e-05    1.026    0.025
       382  -9.5290     56.7822    196.9778   8.7335741246e+01   2.5637757732e+01     0.226568    0.1275607 -18.45 0.0008822668    3.600    0.722
       383  -9.1335    134.7452    196.6338   6.8330233274e+01   1.5503297486e+01    0.1284212   0.09122355 -16.28 0.0002824637    1.631    0.387
       384 -12.1566     15.7990    192.1491   9.7789162992e+01   3.0907168807e+01    0.4184277    0.3741376  -0.44  0.001859989    1.408    0.290
       385 -10.8065    186.9741    191.6383   5.7069659787e+01   9.3103884682e+00    0.4215523    0.1125455 -35.85  0.001522316    4.185    0.761
