#   1 NUMBER                 Running object number                                     
#   2 MAG_AUTO               Kron-like elliptical aperture magnitude                    [mag]
#   3 X_IMAGE                Object position along x                                    [pixel]
#   4 Y_IMAGE                Object position along y                                    [pixel]
#   5 X_WORLD                Barycenter position along world x axis                     [deg]
#   6 Y_WORLD                Barycenter position along world y axis                     [deg]
#   7 A_WORLD                Profile RMS along major axis (world units)                 [deg]
#   8 B_WORLD                Profile RMS along minor axis (world units)                 [deg]
#   9 THETA_WORLD            Position angle (CCW/world-x)                               [deg]
#  10 FWHM_WORLD             FWHM assuming a gaussian core                              [deg]
#  11 ELONGATION             A_IMAGE/B_IMAGE                                           
#  12 ELLIPTICITY            1 - B_IMAGE/A_IMAGE                                       
         1 -14.4465    167.1796     38.2734   7.6990513028e+01   3.8705813215e+01     1.469489     1.038268   4.43  0.004347611    1.560    0.359
         2 -13.9418    182.0961      6.2433   6.3336929459e+01   3.8264872230e+01     1.055477    0.8945021  53.12  0.004097594    1.124    0.110
         3 -18.8077     60.9280     98.9506   1.2410594872e+02   4.7865140449e+01     16.65036    0.6956824 -61.43   0.02334606   21.906    0.954
         4 -18.9382     73.5930    239.9638   1.3645219013e+02   2.0250262001e+01     6.073176      4.48513  54.44   0.04378092    1.054    0.051
         5 -10.8903     15.5198    238.6552   1.4523130375e+02   2.6275778217e+01   0.09105431   0.05336846  58.70 0.0002352474    1.144    0.126
         6 -13.5571    174.2728    194.3846   1.1395674236e+02   1.2497258267e+01    0.5149532    0.3651992  46.70  0.003239658    1.326    0.246
         7 -12.5556    180.4499    192.8189   1.1257252407e+02   1.1683645751e+01     0.305416    0.2756699  82.33  0.001286163    1.612    0.380
         8 -13.0171    167.3272    190.8528   1.1472107412e+02   1.4127362163e+01    0.4147819    0.3029006  34.90  0.001815193    1.119    0.106
         9 -12.6011    176.1787    187.8055   1.1258009808e+02   1.3072178321e+01    0.3654456    0.2748038 -57.50  0.001865308    1.945    0.486
        10 -11.1678     20.7730    219.3629   1.4375507940e+02   2.8663592962e+01    0.1374667   0.08947063  54.44 0.0003180196    1.158    0.136
        11  -9.9114      8.6608    195.1386   1.4478554129e+02   3.3586571272e+01    0.1287459    0.0988074  81.13  0.001139649    1.166    0.142
        12 -10.4170    137.7583    198.1373   1.2133669750e+02   1.7792572031e+01    0.4401872    0.1822625  55.76  0.001808873    3.502    0.714
        13 -11.7060     16.5674    217.6334   1.4435011421e+02   2.9300376506e+01    0.1603337    0.1189987  51.75  0.001455153    1.249    0.199
        14  -9.4856    116.2132    211.7890   1.2690258676e+02   1.8914461116e+01    0.2973166    0.1419849  60.80  0.001497408    2.761    0.638
        15  -8.4092    110.7616    212.3829   1.2794550754e+02   1.9577978930e+01    0.1553471    0.1129112  83.57 0.0006556497    1.633    0.388
        16 -11.7486    154.5164    185.7670   1.1640740839e+02   1.6978393497e+01    0.2444585    0.1496596  41.01 0.0009322103    1.357    0.263
        17 -11.8659    116.9820    180.3435   1.2309281246e+02   2.3781616203e+01    0.7877736    0.3457208  62.65  0.002624501    5.470    0.817
        18 -11.7824     27.8473    184.0620   1.4088417219e+02   3.3855984057e+01    0.1631415    0.1269765  45.26  0.000388839    1.329    0.247
        19 -13.0038    205.5037    180.4754   1.0591811811e+02   9.0141246421e+00    0.5167924    0.3015684  39.59  0.001911703    1.446    0.308
        20 -12.8649    208.5187    178.4976   1.0501948676e+02   8.7382193098e+00    0.4186863     0.310469  29.86  0.001981361    1.097    0.089
        21 -11.5337    196.6797    175.3657   1.0662972221e+02   1.1211385319e+01    0.3385148     0.274139  79.54 0.0009371702    2.202    0.546
        22 -12.7870    196.4826    171.3952   1.0594695072e+02   1.1776230553e+01    0.4977059    0.4084309 -42.84  0.001744712    1.591    0.371
        23 -13.1637    138.0630    171.1151   1.1746880189e+02   2.2013713121e+01    0.5602438    0.4343883  70.92   0.00336984    1.564    0.361
        24 -13.3409    145.2114    168.9932   1.1565994850e+02   2.1169858617e+01    0.6076901    0.4212773  88.60  0.003035829    2.557    0.609
        25 -11.5349    125.9346    172.1793   1.2013589114e+02   2.3794322786e+01    0.2406953    0.2049656 -64.09    0.0012688    1.337    0.252
        26 -12.1713    113.0071    169.8471   1.2250351722e+02   2.6201239757e+01    0.3500412    0.2931754 -28.16  0.001175183    1.540    0.351
        27 -11.7717    109.7668    208.3387   1.2771693713e+02   2.0321637786e+01     0.258279    0.1990708  26.32  0.001581995    1.484    0.326
        28  -9.5330    227.9901    232.0242   1.1025220623e+02  -1.1655231438e-03    0.1300629   0.09281567  21.47 0.0004220096    1.068    0.063
        29 -10.1139     22.9880    166.2849   1.4076288984e+02   3.7521532720e+01    0.1911415     0.127252   7.58  0.001247739    2.595    0.615
        30 -11.6061    178.3277    173.6727   1.0981994176e+02   1.4688113617e+01    0.2251222    0.1861034 -78.15  0.001322627    1.936    0.483
        31 -10.8636    223.9137    163.9725   9.9525840010e+01   7.8123337955e+00      0.19548    0.1647188  16.48 0.0005033771    1.116    0.104
        32 -11.5188    158.8897    204.6291   1.1826004049e+02   1.3588613993e+01    0.2600818    0.1621149  58.98  0.001302019    1.998    0.500
        33 -12.5338    163.4169    203.4394   1.1726922007e+02   1.3035699209e+01    0.3360133    0.2322222 -48.92  0.001315571    1.888    0.470
        34 -10.6954    130.0519    161.3170   1.1760947795e+02   2.5020504203e+01    0.1832715    0.1456431  45.92 0.0004807002    1.130    0.115
        35 -11.5747    160.6896    198.3175   1.1705758875e+02   1.4168075389e+01    0.1863011    0.1440937  46.46 0.0005081407    1.187    0.158
        36 -11.9553    164.2232    156.4799   1.0954414985e+02   1.9856778044e+01    0.2708885    0.2295276   1.99 0.0007409594    1.247    0.198
        37  -9.7786     14.7645    157.2141   1.4186012551e+02   3.9911338945e+01     0.125615    0.1067935 -75.19 0.0003900751    1.313    0.239
        38 -13.7070    136.0385    126.8545   1.0988059503e+02   3.0336220673e+01     1.531803     0.285317 -48.37  0.003888075    6.232    0.840
        39 -12.3782    128.3190    143.1598   1.1488692246e+02   2.8625979375e+01    0.3714215    0.2343626  51.14  0.001656817    1.593    0.372
        40 -11.1732     28.0190    151.4274   1.3872704342e+02   3.9949102752e+01    0.2129994    0.1211645  80.80 0.0005765171    1.594    0.373
        41 -11.2505    151.3481    150.0841   1.1106325741e+02   2.3282173078e+01    0.2455058    0.1789122  46.28 0.0003085707    1.289    0.224
        42 -11.4882    118.6596    149.5970   1.1820103028e+02   2.9030162024e+01    0.2403866    0.1635782 -57.39 0.0007843223    1.597    0.374
        43 -11.2836    174.2055    148.8392   1.0600106529e+02   1.9213298024e+01    0.3035759    0.2357659  50.92  0.001084516    1.364    0.267
        44 -13.1655    144.8184    145.9475   1.1170459897e+02   2.5194364156e+01     0.503399    0.3959152  78.42  0.002729231    1.721    0.419
        45 -12.0745     24.0096    140.7642   1.3878664199e+02   4.2420210237e+01    0.2551351    0.1675635  28.77  0.001702545    1.797    0.443
        46 -12.2892      7.8180    139.2549   1.4224440745e+02   4.3938904201e+01    0.3329421    0.1839021  28.90   0.00173957    2.088    0.521
        47  -9.7433     30.7673    204.9458   1.4148129092e+02   3.0035435930e+01     0.122187    0.1042878  62.12  0.001090065    1.257    0.205
        48 -11.8382     13.4577    143.8777   1.4131683596e+02   4.2614480104e+01    0.2908027    0.1357752  82.49  0.001694281    1.960    0.490
        49 -12.4344     28.9257    143.8899   1.3794276002e+02   4.1375771115e+01    0.3050328    0.2265819 -10.94  0.002031878    2.225    0.550
        50 -12.7592      2.8262    127.3474   1.4262166011e+02   4.6673564214e+01    0.6214459    0.1757379 -85.42  0.002761087    3.238    0.691
        51 -12.2502     19.0164    128.0615   1.3891650857e+02   4.5423857069e+01    0.3106888    0.1647648 -58.66   0.00180762    1.833    0.455
        52 -13.1656    113.9922    119.1983   1.1366176592e+02   3.5801601771e+01     0.517682    0.3337679 -65.58  0.002486366    1.875    0.467
        53 -10.9387    168.2891    113.6226   9.9421026241e+01   2.6295849506e+01    0.4100497    0.2806012 -66.31  0.001334022    2.484    0.597
        54 -13.6667    133.9020    145.3857   1.1402993388e+02   2.7242193983e+01     1.104197    0.3551738 -54.48  0.003686546    4.270    0.766
        55 -12.0678      4.0524    112.3903   1.4131192551e+02   4.9712315367e+01    0.3363675    0.2340214  -9.05    0.0023139    2.196    0.545
        56 -12.4208     91.7979    109.6863   1.1751063578e+02   4.1381600754e+01     0.285383     0.266688 -86.70  0.001613843    1.065    0.061
        57 -12.6332     84.1862    110.1525   1.1966861612e+02   4.2395191025e+01    0.3667487    0.2713403 -31.03  0.002001137    1.646    0.392
        58 -10.5122    205.6145    110.1237   9.0879467776e+01   1.8770874941e+01    0.2843765    0.1997416  35.59 0.0007592599    1.338    0.252
        59 -11.9388    117.9777    108.5345   1.1030423978e+02   3.7283521744e+01    0.3212172    0.1705164 -32.55  0.001287907    2.470    0.595
        60 -11.2891     15.5956    109.5854   1.3814125626e+02   4.9589397071e+01    0.2592973    0.1181944   9.80  0.001288511    3.629    0.724
        61 -11.7422    160.8523    128.3602   1.0452408782e+02   2.5254933595e+01    0.3253896    0.2732294 -68.16  0.001745439    1.567    0.362
        62 -10.1696    139.8893    249.5790   1.2659220599e+02   1.0709917464e+01    0.1561713    0.1112489  53.45  0.001006261    1.285    0.222
        63 -11.1968     41.7844     91.9190   1.2854979641e+02   5.1432269023e+01    0.1861689    0.1787385  32.56 0.0005497693    1.242    0.195
        64 -10.9699    169.0798    202.7672   1.1614045567e+02   1.2224675771e+01    0.1758396    0.1355933  45.93 0.0004427575    1.221    0.181
        65 -10.0469     13.6409     59.9091   1.3244575364e+02   6.0718081602e+01     0.170099    0.1180584 -70.04 0.0004393503    1.143    0.125
        66 -14.0057    155.0249     53.7419   8.4926858119e+01   3.9554385057e+01     1.124785    0.8735204  39.11 0.0009762483    1.255    0.203
        67 -10.4010     13.3998    245.0282   1.4573018204e+02   2.5567066071e+01    0.2059174   0.07940962 -67.98  0.001463089    3.049    0.672
        68 -12.3400    170.8363     31.0374   7.3763489300e+01   3.8669819407e+01    0.4497888    0.3259388   5.07 0.0009860103    1.478    0.323
        69 -10.4645    137.8860     31.2426   8.0722604106e+01   4.7120329146e+01    0.2988516    0.2136158  70.48  0.001192042    1.752    0.429
