#   1 NUMBER                 Running object number                                     
#   2 MAG_AUTO               Kron-like elliptical aperture magnitude                    [mag]
#   3 X_IMAGE                Object position along x                                    [pixel]
#   4 Y_IMAGE                Object position along y                                    [pixel]
#   5 X_WORLD                Barycenter position along world x axis                     [deg]
#   6 Y_WORLD                Barycenter position along world y axis                     [deg]
#   7 A_WORLD                Profile RMS along major axis (world units)                 [deg]
#   8 B_WORLD                Profile RMS along minor axis (world units)                 [deg]
#   9 THETA_WORLD            Position angle (CCW/world-x)                               [deg]
#  10 FWHM_WORLD             FWHM assuming a gaussian core                              [deg]
#  11 ELONGATION             A_IMAGE/B_IMAGE                                           
#  12 ELLIPTICITY            1 - B_IMAGE/A_IMAGE                                       
         1 -14.1379    168.4204     46.1179   6.9518465332e+01   3.7471161430e+01     1.400798     1.138609  -1.76  0.003961966    1.327    0.246
         2 -14.4161    186.9058     13.0373   5.5492010799e+01   3.6656608367e+01     2.263451     1.496312  68.33  0.007190111    1.486    0.327
         3 -10.6723    146.0311    245.4993   1.1441294224e+02   9.9949920497e+00      0.16198    0.1542796  87.19 0.0007083377    1.383    0.277
         4 -19.9577     63.9173    170.3500   1.2151589453e+02   3.3216355720e+01     14.83842      4.04424 -69.51   0.06076338    3.862    0.741
         5  -9.4693    180.6490    193.3090   1.0203483544e+02   1.1179520292e+01    0.1190033   0.08912219  66.84 0.0007043986    1.715    0.417
         6  99.0000     12.6631    190.5506   1.3255008434e+02   3.4885414385e+01    0.3020267    0.1184594 -79.07   0.00152537    2.197    0.545
         7 -11.8426    147.5133    185.4725   1.0693375061e+02   1.8027588372e+01     0.345024    0.2023319 -47.61  0.001884441    2.024    0.506
         8 -11.8461    151.0514    189.0450   1.0678711897e+02   1.6874616344e+01     0.428098    0.2023823 -57.24  0.002054119    2.918    0.657
         9 -11.6096    153.3922    184.5711   1.0569342736e+02   1.7162150589e+01    0.2800259    0.2369856 -82.68  0.001058485    1.443    0.307
        10 -10.8271    156.7050    190.0381   1.0588305518e+02   1.5763785113e+01    0.2162069     0.152016  40.02 0.0002290135    1.223    0.182
        11 -11.6253    141.5923    189.3765   1.0860097153e+02   1.8409436738e+01    0.2615258    0.1833012  62.22  0.001467099    1.450    0.311
        12 -11.0048    151.1054    239.2922   1.1297059288e+02   9.9999178289e+00    0.2205415    0.1663013  29.04 0.0009917381    1.409    0.290
        13 -10.0147    164.7861    187.1889   1.0396739185e+02   1.4794683674e+01    0.1796297    0.1496156  60.04 0.0005201711    1.242    0.195
        14 -11.0274    238.7039    185.0270   9.0791596136e+01   2.1824919180e+00    0.1688169    0.1353069  10.17 0.0006848146    1.098    0.089
        15 -10.4755     29.3865    183.3834   1.2919527011e+02   3.4597853167e+01    0.1832545    0.1108975  56.65 0.0001189516    1.329    0.247
        16 -10.3305    160.2951    237.0382   1.1124693302e+02   8.9027048365e+00    0.1407988    0.1189801  44.70 0.0005417492    1.149    0.130
        17 -11.3417    189.3722    178.3901   9.8046483722e+01   1.1679038303e+01    0.3972308    0.2918447  50.85  0.001229722    1.331    0.248
        18 -10.4800      3.6109    179.1767   1.3361068565e+02   3.7669378831e+01    0.1599687   0.09279656  74.65 0.0007283217    1.271    0.213
        19  -9.4707    176.2617    227.3577   1.0750741866e+02   7.6037451222e+00    0.1048398   0.07481629  18.18 0.0005398863    1.626    0.385
        20 -11.0715    188.2216    173.8207   9.7464167820e+01   1.2530058105e+01    0.4528026    0.3016557 -71.93  0.002097988    3.158    0.683
        21 -10.1593    225.4008    176.1839   9.1379828731e+01   5.4796040965e+00    0.1570795    0.1139677 -37.71 0.0007259999    1.687    0.407
        22  -9.6286     11.0075    174.5944   1.3205667646e+02   3.7886006557e+01    0.1194345   0.08974056  62.88 0.0002383338    1.179    0.152
        23 -12.3349     22.7376    220.2046   1.3224082257e+02   2.9016067994e+01    0.1849898    0.1171425 -73.53  0.001506202    1.733    0.423
        24  -9.5335    195.1097    172.8977   9.6050435324e+01   1.1391126097e+01     0.186648    0.1716404  54.47  0.001052492    1.253    0.202
        25  -9.5826    207.9097    171.8298   9.3579902275e+01   9.1796858076e+00     0.212925     0.163295 -62.39  0.001019769    2.079    0.519
        26  -9.8786    240.3291    169.3102   8.7647305493e+01   3.6515782803e+00    0.1320012    0.0808364  17.39 0.0003841984    1.665    0.399
        27  -9.3080    218.4014    220.6380   9.9775810393e+01   1.7375172145e+00    0.1774209   0.09566041 -48.55 0.0009534124    3.376    0.704
        28  -8.1605     14.5205    163.7796   1.3079087856e+02   3.9606024358e+01    0.2419714    0.1499309  37.17  0.001741594    1.767    0.434
        29 -10.8168    131.1879    159.4230   1.0615738234e+02   2.5237281293e+01    0.2444021    0.1715256 -32.98 0.0008880559    1.919    0.479
        30 -13.2490    134.0863    146.5936   1.0334136161e+02   2.7072458791e+01      1.28043    0.3699973 -56.19  0.003783066    5.419    0.815
        31 -10.8824    154.7494    154.3715   1.0043299568e+02   2.1847478267e+01    0.3770087    0.2468335 -85.69    0.0016435    2.899    0.655
        32 -10.5929    151.3465    150.6611   1.0044742213e+02   2.3132687699e+01    0.2853391    0.2108771  77.66  0.001291744    1.771    0.435
        33 -10.6591    188.1132    154.7093   9.3947623678e+01   1.5355836644e+01    0.5355118    0.2214217  46.01  0.002259785    2.173    0.540
        34 -12.1978    144.7096    146.2959   1.0102040735e+02   2.5161504421e+01    0.5580952    0.3750357  68.60  0.002764666    1.877    0.467
        35  -9.5210    163.4035    151.2397   9.8097425776e+01   2.0726954421e+01    0.1692736    0.1293581 -56.95 0.0002732821    1.544    0.352
        36  -9.7871    174.7243    149.1285   9.5433322050e+01   1.8863047178e+01    0.2335128    0.1746141  53.92 0.0005770432    1.334    0.250
        37 -12.2190    175.7668    217.3616   1.0630914623e+02   8.8840450644e+00      0.32281    0.1996865  35.15  0.002051773    1.368    0.269
        38  -9.9030     23.6725    215.2926   1.3187442391e+02   2.9707951559e+01   0.09819379   0.06953998  84.95 0.0002855031    1.234    0.190
        39 -12.0542    135.7040    128.9883   9.9583613067e+01   3.0104738178e+01    0.6144837    0.2140783 -52.10  0.002166533    3.279    0.695
        40 -11.9272    135.2555    122.1498   9.8240947844e+01   3.1513831335e+01    0.6222657    0.2104299 -50.47  0.002157082    3.235    0.691
        41 -10.8888    160.5254    127.6147   9.3855777748e+01   2.5408640231e+01    0.4034748     0.299911 -68.94  0.001646267    1.775    0.437
        42 -11.7103    141.2967    138.6868   1.0029472393e+02   2.7202486759e+01     0.375555    0.2216927 -49.83  0.001820729    1.813    0.448
        43 -11.0889    113.9889    117.4411   1.0226668460e+02   3.6430502054e+01     0.254714    0.2012859 -58.94 0.0003808432    1.260    0.206
        44 -10.7782    168.3438    113.4096   8.8922990328e+01   2.6274779357e+01    0.3865324    0.2937813 -76.75 0.0008827112    1.857    0.462
        45 -11.5518     11.7079    205.8418   1.3338224529e+02   3.2370336401e+01     0.172198     0.120198  52.70 0.0009490654    1.301    0.231
        46 -10.0938    231.3499    113.8363   7.7283010883e+01   1.2405971884e+01    0.2529677    0.2203992  38.13  0.000765652    1.160    0.138
        47 -10.6403    135.0000    111.5787   9.5924619789e+01   3.3629827640e+01    0.5235893    0.1391018 -42.31  0.001560012    4.104    0.756
        48 -10.2930    134.5937    105.2711   9.4516264987e+01   3.4950298531e+01    0.4168156    0.1674508 -49.14  0.001529433    2.623    0.619
        49 -10.4258    168.9361    201.4963   1.0532097731e+02   1.2060555230e+01     0.192629   0.09680852  43.94  0.001037022    1.602    0.376
        50 -10.1619    205.4940    110.1777   8.0845699927e+01   1.8556072101e+01    0.3238654    0.1978991  41.96  0.001158986    1.589    0.371
        51 -10.5084      6.2605    102.1578   1.2798949311e+02   5.2760563372e+01    0.1574253    0.1485881 -47.45 0.0006270842    1.391    0.281
        52 -10.1924    174.5912    199.2232   1.0399503034e+02   1.1417140119e+01    0.1481256    0.1132681 -20.67 0.0007475739    1.672    0.402
        53 -10.5948    159.7329    195.3199   1.0609080305e+02   1.4473996125e+01    0.1955374    0.1517277 -70.46   0.00125176    1.724    0.420
        54 -12.1704    150.8180    195.0710   1.0767991391e+02   1.6004600409e+01    0.4715109    0.2033968  46.48  0.002230356    1.919    0.479
        55  -9.7511    146.8650     82.1760   8.5455635345e+01   3.6733293389e+01    0.2067685    0.1767447  14.81 0.0004687268    1.301    0.232
        56 -10.1717     94.4904     79.8059   9.8479418408e+01   4.7713891433e+01    0.2822759    0.1741446  47.98  0.001125816    1.759    0.432
        57 -13.5238    156.2117     60.2654   7.6647564506e+01   3.8357222845e+01      1.36975    0.9916093  43.86  0.002725438    1.385    0.278
        58  -8.9179    159.3439    248.3071   1.1260488709e+02   7.7418228356e+00    0.1024181    0.0673648  26.46 0.0007043058    1.693    0.409
        59 -12.4230    173.2193     38.0715   6.5954963291e+01   3.7344996956e+01    0.4613557    0.4417694  13.89 0.0008703644    1.028    0.027
        60  -9.9081     13.5947     59.9212   1.2010479324e+02   6.1447804765e+01    0.1747167     0.159632  78.39  0.000415603    1.260    0.206
        61 -10.9584    206.0872    192.6554   9.7498563397e+01   6.8673918529e+00    0.1806677    0.1704731 -28.22 0.0007121668    1.356    0.262
