#   1 NUMBER                 Running object number                                     
#   2 MAG_AUTO               Kron-like elliptical aperture magnitude                    [mag]
#   3 X_IMAGE                Object position along x                                    [pixel]
#   4 Y_IMAGE                Object position along y                                    [pixel]
#   5 X_WORLD                Barycenter position along world x axis                     [deg]
#   6 Y_WORLD                Barycenter position along world y axis                     [deg]
#   7 A_WORLD                Profile RMS along major axis (world units)                 [deg]
#   8 B_WORLD                Profile RMS along minor axis (world units)                 [deg]
#   9 THETA_WORLD            Position angle (CCW/world-x)                               [deg]
#  10 FWHM_WORLD             FWHM assuming a gaussian core                              [deg]
#  11 ELONGATION             A_IMAGE/B_IMAGE                                           
#  12 ELLIPTICITY            1 - B_IMAGE/A_IMAGE                                       
         1 -13.0337    235.9757     40.0756   6.8352765032e+01   2.1493870466e+01     2.893384    0.5675007 -45.55   0.00810538    4.782    0.791
         2 -14.4656    239.0300     72.5682   7.6151800384e+01   1.6163714046e+01     2.884943    0.5265678 -32.44  0.007626906    4.946    0.798
         3 -13.4781    244.4464    100.0104   8.2133549208e+01   1.0731049593e+01     2.488922     1.132928 -59.19  0.007315433    5.067    0.803
         4  -9.4527      7.3960     57.2258   1.3335672309e+02   6.3846296116e+01    0.1673694   0.09357925 -74.83 0.0009470563    1.762    0.432
         5 -13.8998    248.9024     75.2811   7.5547112606e+01   1.3552860644e+01     5.390347    0.3259708 -32.89   0.00991472   10.526    0.905
         6 -10.0450    220.7918     29.8181   6.7368872601e+01   2.6488009107e+01    0.4313802    0.1086852 -41.16  0.001437306    3.271    0.694
         7 -13.9850    234.2895     55.0252   7.2329203125e+01   1.9839088344e+01     2.125974    0.7076414 -32.23  0.007654198    2.744    0.636
         8 -13.8145    243.6477     76.8601   7.6608654933e+01   1.4476556317e+01     2.972152    0.3062546 -31.93  0.005428731   10.507    0.905
         9  -9.4880    167.3121      7.6696   6.7423651639e+01   4.2660227270e+01    0.1465092   0.09727813 -62.88 0.0007043375    1.672    0.402
        10  -9.6510     97.4651    227.4757   1.3470937984e+02   1.6405531047e+01     0.121556   0.09284063  62.90 4.131447e-05    1.041    0.039
        11 -12.6888    248.9544    225.2392   1.0722352409e+02  -7.7199320926e+00    0.9949399    0.3010916 -29.06  0.004283034    3.753    0.734
        12 -12.5576    247.1866    247.3932   1.1102415110e+02  -9.7902086828e+00    0.7042835    0.3630961  35.99  0.003869753    1.567    0.362
        13 -12.3466    249.2768    239.2384   1.0943296367e+02  -9.2590714945e+00    0.6271046    0.3468205 -26.49  0.003991092    1.925    0.480
        14  -9.4917    183.4912    223.5173   1.1825520553e+02   2.9725009281e+00    0.1242209     0.103125  38.58  8.51895e-05    1.039    0.038
        15 -10.0415    148.6449    222.1090   1.2450981703e+02   9.1100944352e+00    0.3001562    0.1535582 -56.43  0.001523982    2.443    0.591
        16 -10.8760    114.8019    221.6766   1.3084652437e+02   1.4753974423e+01    0.2534579    0.1584162 -43.10  0.001398149    2.305    0.566
        17 -10.4735    126.0117    220.7573   1.2861289755e+02   1.3106449381e+01    0.2487635    0.1392649  50.48 0.0008958547    1.503    0.335
        18 -10.4666    109.0994    222.1763   1.3197939137e+02   1.5564093347e+01    0.1771269    0.1544412  45.54  0.001006682    1.253    0.202
        19 -11.6197    163.5029    226.4490   1.2234115782e+02   5.9210247649e+00    0.4271183    0.2947694  39.55  0.002434044    1.217    0.178
        20 -10.1767    143.7369    216.4783   1.2467353032e+02   1.0871955607e+01    0.2146834    0.2038883 -23.32 0.0009510468    1.314    0.239
        21 -10.1091    131.2439    215.0361   1.2688210351e+02   1.3232619595e+01    0.2737221    0.1706434 -53.06  0.001321812    1.871    0.466
        22 -10.2470    111.9473    214.7350   1.3057439815e+02   1.6448963714e+01    0.2715555     0.167556 -49.90  0.001516752    2.019    0.505
        23  -9.5236    199.3356    215.6662   1.1415334991e+02   1.3936617681e+00    0.1187124   0.09609794  69.96 0.0007052126    1.739    0.425
        24 -10.2447    185.7798    214.3111   1.1641423859e+02   3.9247938471e+00     0.260728    0.1738266 -62.28  0.001279842    2.308    0.567
        25  -9.7770    177.3195    210.8144   1.1743952972e+02   5.9387918002e+00      0.18092    0.1604701 -88.05 0.0007774472    1.433    0.302
        26 -10.5235    116.1241    210.2537   1.2921094981e+02   1.6594272833e+01    0.2576264    0.1750797 -72.45  0.001024956    1.647    0.393
        27  -9.3552    193.3269    210.6932   1.1443756846e+02   3.1454845327e+00    0.1206326   0.09687894  68.20 0.0003203592    1.652    0.395
        28  -9.5499    148.0107    209.7394   1.2289661516e+02   1.1278701623e+01    0.2153798    0.1648249 -80.38 0.0008919992    1.639    0.390
        29 -11.3917    185.9606    203.8642   1.1467739124e+02   5.4835005854e+00    0.4616827    0.2479592 -51.68  0.002219789    2.423    0.587
        30 -10.3860    198.9899    204.9926   1.1244014645e+02   2.9926736705e+00    0.1905679    0.1567024  73.30  0.001126301    1.709    0.415
        31 -10.5143    177.1550    197.9292   1.1535973769e+02   8.0332707171e+00    0.3166889    0.2530488  80.28  0.001019996    1.686    0.407
        32 -11.9419    164.5274    202.0878   1.1850299090e+02   9.6419811440e+00    0.7390608    0.4103941 -37.01  0.003600837    2.254    0.556
        33 -11.0452    162.5599    193.9869   1.1756487319e+02   1.1396618969e+01    0.4168184    0.3155686 -72.70  0.001557471    1.718    0.418
        34 -11.7323    172.8340    195.8334   1.1584519710e+02   9.1782384554e+00    0.4646443    0.3426743  36.47  0.001771532    1.243    0.195
        35 -11.4460    173.3709    191.8524   1.1505577848e+02   9.7546336965e+00    0.4247049    0.3249695  56.53  0.001786993    1.344    0.256
        36  -9.4521    130.5036    202.5248   1.2532098335e+02   1.5606154351e+01    0.2250231     0.123569 -70.09  0.001037358    2.492    0.599
        37 -10.6541    250.1173    200.2599   1.0267827764e+02  -4.9664305911e+00    0.3750717    0.1571082 -30.12  0.001813678    2.396    0.583
        38  -9.5090    212.0211    202.0519   1.0955701068e+02   1.1345007204e+00     0.186145    0.1597306  77.95  0.001129773    1.730    0.422
        39  -9.2264    140.3308    200.6729   1.2307899488e+02   1.4229430859e+01    0.1364363    0.0945445  71.49 0.0005695262    1.710    0.415
        40 -10.3670    148.9025    197.7205   1.2090575294e+02   1.3231599409e+01    0.3975513    0.1930573 -60.81  0.001699915    2.817    0.645
        41 -10.6527    124.9035    197.0799   1.2567985267e+02   1.7593528594e+01    0.3731237    0.2507485  48.80  0.002064254    1.307    0.235
        42  -9.7888    193.7679    196.7896   1.1198890846e+02   5.1754664981e+00    0.1709165    0.1543827  70.26   0.00072563    1.357    0.263
        43 -10.8757    197.7734    183.3231   1.0876879863e+02   6.5767736717e+00    0.3933475    0.2998033 -72.68  0.002040751    2.034    0.508
        44 -10.0089    210.4417    189.2245   1.0751437170e+02   3.3005337643e+00    0.4463274    0.2594043 -58.26   0.00182965    3.139    0.681
        45 -10.6657    211.5182    183.0561   1.0614836030e+02   4.0456275745e+00    0.3607446    0.2555226  18.65  0.001945494    1.504    0.335
        46 -10.4229    205.8441    191.6086   1.0880199383e+02   3.7749620734e+00    0.3531463    0.2592904  74.61  0.001789033    2.292    0.564
        47 -11.2730    204.2418    185.2057   1.0790599878e+02   5.0618722337e+00    0.8955407    0.4545732 -56.36  0.003430437    3.676    0.728
        48 -10.6430    246.8720    192.9268   1.0185529681e+02  -3.5176048147e+00    0.3166337    0.2327878  82.21  0.001474094    3.727    0.732
        49  -9.4068    215.4530    194.2268   1.0753039608e+02   1.6585829023e+00    0.1691289    0.1213546 -47.92 0.0009409671    1.751    0.429
        50 -10.5830    186.5122    193.3010   1.1275214914e+02   7.0648342604e+00    0.2951264    0.2402645 -53.32   0.00121638    1.467    0.319
        51 -10.3182    179.5063    190.8811   1.1368089202e+02   8.7709073172e+00    0.3724365    0.2078427 -55.71  0.001701185    2.405    0.584
        52 -10.4992    200.0643    191.7026   1.0989405306e+02   4.8172939682e+00    0.2118057    0.1845509 -48.21 0.0008598678    1.366    0.268
        53 -10.6688    138.9714    188.1898   1.2142403303e+02   1.6803265108e+01    0.4464512    0.2022576 -52.16  0.001941457    2.424    0.587
        54 -10.3714    192.1186    187.7664   1.1067741479e+02   6.9198607473e+00    0.4206881    0.2887462  77.62  0.001899523    2.713    0.631
        55  -9.9522    217.6636    187.9267   1.0595898387e+02   2.1882395467e+00    0.2160571     0.208541  71.73  0.001187148    1.345    0.256
        56 -10.6326    165.4654    186.3173   1.1566588777e+02   1.2212808382e+01    0.3786858     0.254064 -62.30  0.001333248    1.903    0.475
        57 -10.2806    155.8947    185.9269   1.1754723409e+02   1.4092677914e+01    0.4306995    0.1817681 -52.22  0.001744908    2.741    0.635
        58  -9.8061    128.9206    187.6526   1.2344163032e+02   1.8716078771e+01    0.2659934    0.1742183 -77.78  0.001243189    1.944    0.486
        59  -9.6863    148.9572    187.0494   1.1916613072e+02   1.5181903306e+01    0.2093876     0.193215  52.62 0.0007735427    1.033    0.032
        60 -10.2172    120.3805    185.3703   1.2489730697e+02   2.0672781890e+01    0.3901906     0.162278 -64.45  0.001493075    3.169    0.684
        61 -10.4854    183.3282    183.8807   1.1166520494e+02   9.2331733810e+00    0.3767386    0.2285797 -47.99  0.001659178    1.869    0.465
        62 -11.6663    174.4724    183.3068   1.1331481954e+02   1.1029150347e+01    0.6334556    0.4742681 -88.82  0.003188909    2.013    0.503
        63 -10.2196    170.8852    177.1608   1.1290247156e+02   1.2823369502e+01    0.2199074    0.1878413  73.30  0.001231429    1.336    0.252
        64  -9.8780    224.5841    183.3918   1.0385599459e+02   1.6127649912e+00    0.2291602    0.1565462 -59.60  0.001123253    2.445    0.591
        65  -9.8403    243.9878    181.4630   1.0014088806e+02  -1.5091301969e+00    0.2389894     0.166123 -42.32  0.001181092    1.696    0.410
        66 -11.2276    147.7590    178.6975   1.1798560098e+02   1.6998239704e+01    0.5437375    0.2956266 -43.84  0.002479665    2.072    0.517
        67 -10.8496    192.3255    178.0966   1.0881599766e+02   8.4833447706e+00    0.3789999     0.291635 -34.44  0.001539859    1.381    0.276
        68 -10.4631    138.0506    178.5830   1.2003020923e+02   1.8845387735e+01    0.3670387    0.2081746 -52.99  0.001477245    1.896    0.473
        69 -10.4853    205.3654    177.4863   1.0620962264e+02   6.0792891511e+00    0.4481366    0.2405373 -46.08  0.002059908    2.143    0.533
        70 -10.8502    206.2476    169.8529   1.0452176065e+02   7.1525714926e+00    0.3939743    0.2372892 -45.28  0.001631241    1.840    0.456
        71  -9.5707    218.6105    176.8664   1.0364793267e+02   3.6829919250e+00    0.2466628    0.1583256 -48.24  0.001105161    1.911    0.477
        72 -11.1129    183.0863    175.6181   1.1015223538e+02   1.0709856592e+01    0.3701117    0.3111446 -56.99  0.001172425    1.376    0.273
        73 -11.2904    177.3158    170.7674   1.1036828351e+02   1.2717400279e+01    0.4478338    0.3169405 -56.57  0.001544206    1.671    0.402
        74  -9.9209    159.2575    174.6479   1.1483565054e+02   1.5561619017e+01    0.2574224    0.1700125 -60.17  0.001241421    1.805    0.446
        75  -9.8511      4.2248    175.0162   1.4823199034e+02   3.8052137106e+01    0.1698726   0.08775928  62.20 0.0008810909    1.643    0.391
        76 -10.2975    173.8158    174.0602   1.1171812729e+02   1.2812356888e+01    0.2132044    0.1885028  85.34 0.0007311212    1.327    0.246
        77  -9.6749    142.4310    171.9999   1.1793511862e+02   1.9332065314e+01    0.2079681    0.1381233 -51.09 0.0006791361    1.603    0.376
        78  -9.8666    198.7729    170.4438   1.0606235526e+02   8.5173056115e+00    0.2516342    0.2185831 -80.52 0.0009473898    1.522    0.343
        79  -9.6045    134.4195    170.8107   1.1946955427e+02   2.1090874963e+01    0.2619994    0.1367994 -57.69  0.001134612    2.110    0.526
        80 -10.0441    192.5541    136.3103   9.9870923378e+01   1.5887369023e+01    0.4937908    0.1496164 -36.05  0.001476729    3.671    0.728
        81 -10.7532    219.8405    163.2918   1.0066235243e+02   5.5762751662e+00    0.4468226    0.2172855 -26.12  0.001845601    2.438    0.590
        82 -10.7161    217.8666    157.4617   9.9787344978e+01   6.9031927086e+00    0.4175909    0.2613946 -38.66  0.002054405    1.608    0.378
        83 -11.0461    188.3470    157.2726   1.0538387458e+02   1.2930305004e+01    0.4735752    0.3639072 -70.91  0.002342037    1.765    0.433
        84 -12.3820    212.7218    162.9659   1.0189469200e+02   7.0170373491e+00     1.402362    0.5024638 -43.11  0.005161738    3.008    0.668
        85 -11.4538    189.4311    149.1949   1.0341857472e+02   1.4179906176e+01    0.6770667     0.453511 -62.05  0.002661659    2.029    0.507
        86 -11.9063    205.3307    155.1468   1.0161722490e+02   9.8113486344e+00     0.766224    0.4276352 -41.83  0.003464999    1.840    0.457
        87 -11.1761    200.2640    148.9294   1.0122830939e+02   1.1944837066e+01    0.6812106     0.478345 -34.57  0.003384851    1.437    0.304
        88 -10.8828    195.1897    144.8777   1.0131309330e+02   1.3745060820e+01    0.7618561    0.3583725 -52.18  0.002785761    2.802    0.643
        89 -10.7087    168.2278    168.3321   1.1175909705e+02   1.4983893731e+01    0.4602153    0.2558223 -50.42  0.001695093    1.987    0.497
        90 -10.3122    149.6419    168.3186   1.1569880532e+02   1.8672163530e+01    0.3401823    0.2574236 -42.49  0.001597833    1.447    0.309
        91  -9.6064    120.8597    168.4192   1.2206382301e+02   2.4089375403e+01    0.3115158    0.1597622 -70.57  0.001216334    2.765    0.638
        92  -9.2352    222.5759    167.8199   1.0110916586e+02   4.3389471948e+00    0.1804138    0.1236593 -45.63 0.0005429545    1.665    0.399
        93 -10.6577    185.3042    166.5157   1.0791020591e+02   1.1883854748e+01    0.4331535    0.2513234 -48.82  0.001393239    1.926    0.481
        94  -9.1798    163.2720    168.3448   1.1279829966e+02   1.5971659203e+01    0.1392828    0.1120019  -1.53 0.0006995295    1.618    0.382
        95  -9.2177    229.5736    166.7517   9.9651816666e+01   3.1887435732e+00    0.1818944    0.1216848 -43.01 0.0009404253    1.645    0.392
        96 -11.0088    192.4264    164.9626   1.0618091831e+02   1.0724451915e+01    0.5167227    0.2646314 -46.63   0.00205847    2.154    0.536
        97 -10.8855    138.8224    163.2081   1.1710954662e+02   2.1816608409e+01    0.5831137    0.3011977 -55.90  0.002225308    2.109    0.526
        98 -10.6496    159.3916    163.4059   1.1265450587e+02   1.7705911057e+01    0.4578305    0.2498522 -50.14  0.001602152    1.967    0.492
        99  -9.6224    234.3348    163.6796   9.8190337016e+01   2.7691163523e+00    0.1260936    0.1085238 -73.80 0.0005423758    1.703    0.413
       100 -11.3717    177.7073    159.4586   1.0800379845e+02   1.4725002856e+01    0.5761703    0.3059281 -43.61  0.001959375    1.967    0.492
       101 -10.3592      9.9026    161.7847   1.4617591319e+02   4.0385563065e+01    0.2397211    0.1072464  75.01  0.001247823    2.151    0.535
       102 -10.4393    151.3526    159.9896   1.1371867806e+02   2.0003010977e+01    0.3860362    0.2512992 -55.87  0.001435157    1.669    0.401
       103 -10.9618    167.6837    155.8231   1.0934161984e+02   1.7492888579e+01    0.5470888     0.285358 -42.85  0.002308681    2.006    0.501
       104 -10.3030    157.4348    155.3748   1.1145494990e+02   1.9697868945e+01    0.3880529    0.2133944 -50.14  0.001499724    1.924    0.480
       105 -10.0380    144.6429    154.0798   1.1402427978e+02   2.2563719233e+01    0.3573964    0.2220546 -61.37  0.001524163    1.860    0.463
       106 -11.2022    225.2723    139.7866   9.4571856223e+01   8.3147854828e+00    0.3397282    0.2528116 -53.70  0.001141462    1.596    0.374
       107  -9.7357    226.6319    132.4777   9.2664127522e+01   9.2408130178e+00    0.3653926    0.1578351 -44.48  0.001404041    2.448    0.591
       108 -11.6650    234.7116    148.3621   9.4855692294e+01   5.0555102723e+00    0.6535938    0.4157902 -71.26  0.002428068    4.001    0.750
       109 -10.4886    229.7995    138.8242   9.3571472729e+01   7.5507762187e+00    0.3158392    0.1647227 -46.59  0.000978366    2.142    0.533
       110  -8.9800    223.6801    153.3152   9.7850293355e+01   6.4276357089e+00    0.1328047    0.1119428 -74.30 0.0007039799    1.656    0.396
       111 -10.2728    133.0507    151.3956   1.1613012156e+02   2.5432342676e+01    0.5394301    0.2397489 -54.35  0.002079802    2.381    0.580
       112 -11.5203    196.5561    156.9910   1.0370163152e+02   1.1287941510e+01    0.6646935    0.4084997 -53.40  0.002994553    2.004    0.501
       113 -10.5656    182.0981    149.9369   1.0506841705e+02   1.5595198992e+01    0.3983452    0.2151895 -41.82  0.001284647    1.897    0.473
       114 -10.0390    162.2786    149.7829   1.0922317105e+02   1.9813612120e+01    0.3249643    0.2020675 -51.22  0.001429506    1.708    0.415
       115 -11.2605    205.4586    162.6778   1.0319289795e+02   8.5035233390e+00    0.5272893    0.3653903 -54.65  0.001767643    1.815    0.449
       116 -10.4991    233.5486    154.4808   9.6380160422e+01   4.3253994649e+00    0.3796183    0.2630264 -76.17  0.001616021    3.138    0.681
       117  -9.6822    142.5396    148.2730   1.1330799538e+02   2.4206482822e+01    0.2760579    0.1443083 -53.16  0.001037949    2.014    0.503
       118 -10.3880    224.4994    147.1124   9.6347173323e+01   7.2708264416e+00    0.3136056    0.2509021 -63.43   0.00131247    1.657    0.397
       119 -10.2811    175.5587    145.6005   1.0546868415e+02   1.7817306741e+01    0.3533783    0.2338556 -47.85   0.00138311    1.576    0.366
       120 -10.4600     14.2003    146.9749   1.4401746482e+02   4.3278816740e+01     0.209397    0.1210092  52.49  0.001275674    1.708    0.415
       121 -11.2614    148.6730    142.5645   1.1068691401e+02   2.4146136641e+01    0.8786957    0.3494162 -50.45   0.00311196    2.661    0.624
       122 -10.1100    208.7258    144.3245   9.8590836979e+01   1.0978105290e+01    0.2986716    0.2389683 -78.25  0.001224666    1.758    0.431
       123 -10.6353    165.6831    142.8008   1.0695307624e+02   2.0488947411e+01     0.479045    0.2706349 -43.04  0.001914712    1.812    0.448
       124 -10.8209    182.0241    140.9875   1.0308264149e+02   1.7307716784e+01    0.4323896     0.278937 -44.82  0.001339555    1.584    0.369
       125  -9.6357    124.6991    142.7015   1.1633482655e+02   2.8953260456e+01    0.3021931    0.1761957 -73.92  0.001166391    2.541    0.606
       126  -9.7711      3.0278    142.5279   1.4620852583e+02   4.5136714472e+01    0.1604927    0.0636547  54.85 0.0008097796    2.537    0.606
       127 -10.7856    239.0248    140.9952   9.2507750270e+01   5.3690713961e+00    0.2121598    0.1663678 -61.77  0.001079898    1.706    0.414
       128  -9.7463    203.2115    141.1821   9.8920582216e+01   1.2696383616e+01    0.2188091    0.1969463   3.06 0.0009482863    1.130    0.115
       129  -9.7877    212.0230    130.1707   9.4714423411e+01   1.2738345006e+01    0.5993955    0.2240973 -41.02  0.002144684    2.601    0.616
       130 -10.2756    219.7007    138.0822   9.5167273429e+01   9.7492030163e+00    0.4656063    0.1820464 -37.52  0.001647028    2.453    0.592
       131 -10.2471    215.8401    137.0302   9.5619594149e+01   1.0737424295e+01    0.5101762    0.2169834 -51.21  0.001697032    3.478    0.712
       132 -11.0941    197.9291    135.9818   9.8738256324e+01   1.4772026831e+01    0.6942611    0.2481905 -38.35  0.002387762    2.789    0.641
       133 -10.4339     24.8027    139.6774   1.4078118797e+02   4.4000520770e+01     0.297637    0.1331538  56.01  0.001466085    2.398    0.583
       134  -9.7677    235.4057    139.1519   9.2696957228e+01   6.3732107262e+00    0.2928235     0.123225 -38.08  0.001180745    2.236    0.553
       135 -10.1960    232.5055    134.7040   9.2176488586e+01   7.6691664559e+00    0.2612543    0.2155932 -88.07 0.0009806632    1.703    0.413
       136 -10.6499    207.7151    137.6160   9.7250507741e+01   1.2363437202e+01    0.4221246    0.3205325 -75.05  0.002003515    1.907    0.476
       137 -10.5687    172.1589    136.9693   1.0422930108e+02   2.0243432692e+01    0.4973995    0.2673946 -50.18   0.00201215    2.011    0.503
       138  -9.7697    138.3946    137.6396   1.1198758317e+02   2.7326152806e+01    0.2841397    0.1421205 -53.91 0.0008497009    2.114    0.527
       139 -10.2917    187.9250    134.7858   1.0044113020e+02   1.7190554402e+01    0.3941515    0.2087251 -41.55  0.001131792    1.887    0.470
       140  -9.8950    186.5312    129.2400   9.9405247203e+01   1.8549445178e+01    0.3059645    0.1808065 -40.53  0.000923623    1.683    0.406
       141 -10.1543    162.4040    134.9893   1.0589044024e+02   2.2776727053e+01    0.4174653    0.1935412 -47.83   0.00146995    2.230    0.552
       142 -10.7972    179.5284    132.7285   1.0167911616e+02   1.9445055766e+01    0.4702743    0.2804343 -42.68   0.00149412    1.683    0.406
       143 -10.9115    204.7933    129.9429   9.6001420371e+01   1.4357409655e+01    0.5009076    0.3229991 -63.75  0.002021481    2.303    0.566
       144 -10.3816    142.8539    130.1650   1.0923671324e+02   2.8004294665e+01    0.5467578    0.2114182 -48.54  0.001889264    2.618    0.618
       145 -10.2860    131.6136    130.0317   1.1190418350e+02   3.0374419893e+01    0.6639935    0.2010468 -53.42  0.001919932    3.853    0.740
       146 -10.5417    221.0603    129.7253   9.2991343837e+01   1.0873183953e+01    0.3888108    0.2128785 -34.40   0.00170541    1.754    0.430
       147 -10.6470    192.9705    129.3502   9.8141769499e+01   1.7087120655e+01    0.4229435    0.2419684 -38.19  0.001486622    1.735    0.424
       148 -10.5888     13.3874    130.2789   1.4260472144e+02   4.7103986325e+01    0.3096863    0.1386593  71.50  0.001453824    2.666    0.625
       149 -10.6163    168.5944    128.2823   1.0294362271e+02   2.2763110542e+01    0.5133205    0.2927035 -40.19   0.00213743    1.779    0.438
       150 -10.9010    217.9221    125.6963   9.2592483559e+01   1.2232678806e+01    0.3569607    0.1916758 -25.50  0.001423533    2.117    0.528
       151 -12.2629    226.1809    124.6730   9.0917094276e+01   1.0632028665e+01    0.5517598    0.4060184 -84.74  0.002571554    2.129    0.530
       152  -9.9016     45.5486    124.7065   1.3348049890e+02   4.5391767930e+01    0.3821816    0.1464577  59.12  0.001270007    4.711    0.788
       153 -10.7757     30.4845    124.5446   1.3750442452e+02   4.6962976283e+01     0.363299    0.1566456  61.08  0.001535479    3.168    0.684
       154 -10.0095    211.9769    123.2984   9.3081559813e+01   1.3948719967e+01    0.3340064    0.1854904 -43.54 0.0009813765    1.795    0.443
       155 -10.7156    152.4616    127.5575   1.0637898922e+02   2.6487032133e+01    0.6140817    0.2491743 -50.43  0.002104701    2.662    0.624
       156 -10.1541    203.0662    121.6645   9.4328553505e+01   1.6227601625e+01    0.3376263     0.218068 -44.23  0.001401036    1.547    0.353
       157 -10.2772    195.0469    121.5046   9.5824560091e+01   1.8073568219e+01    0.4225278    0.2010147 -45.44  0.001363024    2.160    0.537
       158 -10.3993    172.2863    120.3233   1.0018815578e+02   2.3513454798e+01    0.4240679    0.2383354 -43.27   0.00151337    1.769    0.435
       159 -10.3863    158.3221    119.8074   1.0313909504e+02   2.6795335909e+01    0.4964788    0.2357663 -41.58  0.001866623    2.118    0.528
       160 -12.3478    231.6654    118.7310   8.8592533963e+01   1.0448167707e+01    0.4266224    0.2372527 -35.17  0.001918368    1.667    0.400
       161 -10.7380    141.4045    117.7159   1.0657345750e+02   3.0986587550e+01    0.7894115    0.2892547 -53.12   0.00242281    3.315    0.698
       162 -10.3465      3.9749    118.0335   1.4374969877e+02   5.0547947627e+01    0.2778828    0.1216614  80.91  0.001316498    2.587    0.613
       163 -10.4345    188.7235    123.2502   9.7505145484e+01   1.9187440776e+01    0.3828631    0.2006003 -44.17  0.001221761    1.914    0.478
       164  -9.8678    216.5844    117.2028   9.0779413766e+01   1.3986095294e+01    0.2094686    0.1380249 -24.41 0.0008012436    1.611    0.379
       165  -9.1850    199.4935    117.4497   9.3962530862e+01   1.7802278925e+01    0.1488243    0.1455092 -30.16 0.0002129036    1.015    0.014
       166 -10.4258    185.9541    115.0599   9.6011807785e+01   2.1374028720e+01    0.4466835    0.2222242 -40.91  0.001395204    1.967    0.492
       167 -10.8604    179.8709    123.4060   9.9352391389e+01   2.1175398773e+01    0.5855492     0.300953 -35.63  0.002290709    2.038    0.509
       168  -9.5670    203.4615    115.9747   9.2848056911e+01   1.7161499293e+01    0.2354989    0.1429653 -38.75  0.001004808    1.590    0.371
       169 -10.4635    193.0399    114.4561   9.4452743727e+01   1.9840005196e+01    0.4488147    0.2208384 -39.71   0.00146423    1.975    0.494
       170  -9.5829    208.6643    113.7814   9.1345723528e+01   1.6365007810e+01    0.2186697    0.1296383 -43.35 0.0007467422    1.656    0.396
       171 -12.5372    243.9008    109.7009   8.4526085366e+01   9.3222466403e+00    0.5442262    0.3586875  82.87  0.002431313    2.478    0.596
       172 -10.5877    174.6358    110.7878   9.7248420095e+01   2.4843045527e+01    0.5133007    0.2366668 -42.04  0.001717176    2.131    0.531
       173  -9.8543    167.5401    112.3051   9.9168990336e+01   2.6202770990e+01    0.3791051    0.1534205 -38.34  0.001287001    2.537    0.606
       174  -9.5076    200.3578    112.1215   9.2459815516e+01   1.8570193370e+01    0.2289516    0.1303723 -47.06 0.0009394565    1.814    0.449
       175 -10.7593     14.4940    110.5470   1.4003404842e+02   5.1525743986e+01    0.3403156    0.1844341  88.83  0.001604764    1.838    0.456
       176  -9.1794    218.2230    110.0303   8.8728419922e+01   1.4850414260e+01    0.1995817    0.1164646 -34.42 0.0008643499    1.631    0.387
       177 -10.1651    182.7093    108.7278   9.5035751515e+01   2.3336753663e+01    0.3614026    0.1842942 -44.12  0.001401636    1.948    0.487
       178  -9.8150    133.1847    108.9337   1.0634883918e+02   3.4652357069e+01    0.3387661    0.2039819 -57.12  0.001399111    1.825    0.452
       179 -10.0686    189.2455    107.3375   9.3365467007e+01   2.2051769321e+01    0.4421415    0.1986315 -40.06  0.001514831    2.153    0.536
       180 -10.2221    159.1509    110.6501   1.0060201714e+02   2.8480189853e+01    0.4658277    0.2167153 -40.38  0.001716014    2.154    0.536
       181  -9.2128    196.6872    107.7701   9.2040006520e+01   2.0216548200e+01    0.2167381    0.1320224 -43.55 0.0004816233    1.613    0.380
       182 -11.4007     23.6856    103.3907   1.3637481812e+02   5.2461494902e+01    0.6176701     0.288936  67.37  0.002598659    3.436    0.709
       183  -9.6690    159.5432     99.8567   9.7609302580e+01   3.0559087235e+01    0.3933303    0.1477498 -42.68  0.001297219    2.606    0.616
       184  -9.5844    108.7332     99.1408   1.1020094580e+02   4.1805848198e+01    0.2497118    0.1625483  89.36 0.0009433439    2.764    0.638
       185  -9.3624    164.5751     93.3502   9.4678662468e+01   3.0628654776e+01    0.3063847    0.1455526 -43.01  0.001129271    2.069    0.517
       186  -9.5806    176.5951     92.7911   9.1982722127e+01   2.7812091554e+01    0.2958922    0.1514562 -34.41  0.001123651    1.997    0.499
       187  -9.8640    138.7439     91.7149   1.0021883742e+02   3.7036439320e+01    0.4577077     0.195787 -55.79  0.001376881    3.510    0.715
       188 -10.3226     35.8698     91.5097   1.3052503999e+02   5.4123707330e+01    0.2628329    0.1531333 -82.66  0.001158686    1.978    0.494
       189 -11.5398    166.7181    248.2292   1.2463596823e+02   2.2890059399e+00    0.3101315    0.1880765  35.33    0.0013743    1.412    0.292
       190  -9.6746    124.4460     91.1502   1.0371083821e+02   4.0316263060e+01    0.2841053     0.200145 -87.87  0.001110411    2.182    0.542
       191  -9.2329    150.6893     88.5192   9.6421424170e+01   3.4895038777e+01    0.2849132    0.1405741 -40.04  0.001071568    1.993    0.498
       192  -9.3338    179.6017     85.7979   8.9412686618e+01   2.8355528174e+01    0.2316254    0.1368096 -47.56 0.0009428002    1.734    0.423
       193  -9.2421     48.3441     84.6711   1.2496796164e+02   5.4387290805e+01    0.1314841   0.09656827  80.50 0.0007050749    1.749    0.428
       194  -9.4450    158.4651     82.5105   9.2887100678e+01   3.4172730519e+01     0.323154    0.1501912 -39.16  0.001185881    2.105    0.525
       195  -9.7417    140.5527     82.6121   9.7084752866e+01   3.8434261982e+01    0.4038683    0.1814891 -49.53  0.001412292    2.468    0.595
       196 -10.3513     24.9009     81.3779   1.3211293708e+02   5.7384384961e+01    0.3022301    0.1986474  73.80  0.001576302    1.998    0.500
       197  -9.3199    107.6695    248.6944   1.3496012437e+02   1.1362045813e+01    0.1011575   0.08440783  24.98  0.000703769    1.658    0.397
       198  -9.7558    150.1043     79.9909   9.4023285978e+01   3.6673688724e+01    0.3478347    0.1872524 -51.05  0.001275215    2.074    0.518
       199  -9.4832      9.1895     81.2243   1.3735267998e+02   5.8522620317e+01    0.1633667   0.07804542  37.38  0.000880982    2.531    0.605
       200  -9.2835    215.6557     80.1807   8.1483179409e+01   2.0454453646e+01    0.2109732    0.1369954 -23.72 0.0005963784    1.676    0.403
       201  -9.5371    174.6386     77.8695   8.8116768011e+01   3.1009712044e+01    0.2354184    0.1349302 -45.51  0.000949816    1.756    0.430
       202  -9.3717    184.1980     77.2537   8.6088160708e+01   2.8717321313e+01     0.246521    0.1028782 -43.83 0.0006069119    2.387    0.581
       203  -9.0846    167.5104     77.5039   8.9459742195e+01   3.2857248269e+01    0.1570157    0.1485255 -69.90 3.714144e-05    1.067    0.063
       204  -9.2693    223.6389     76.1894   7.9220543449e+01   1.9185850990e+01    0.2090155    0.1354117 -22.28 0.0009398179    1.704    0.413
       205  -9.4085    211.5443     76.0802   8.1038899530e+01   2.2115042500e+01    0.2272333    0.1420093 -33.58  0.001011485    1.540    0.351
       206  -9.1054    189.4659     76.0066   8.4760211142e+01   2.7607185369e+01    0.2362484    0.1467105 -37.18 0.0009623974    1.559    0.359
       207  -9.4847    157.4460     76.0370   9.1169458628e+01   3.5617689659e+01    0.2461989    0.1494043 -39.29  0.001031072    1.620    0.383
       208  -9.6277    140.6546     75.5210   9.4883861579e+01   3.9769301992e+01     0.283921    0.1816438 -56.80  0.001183653    1.848    0.459
       209  -9.8734    128.0910     75.8753   9.8143226972e+01   4.2597687507e+01    0.3245372    0.2233641 -76.70  0.001327058    2.254    0.556
       210  -9.5416    175.6727     71.5045   8.6038108781e+01   3.1855348678e+01    0.2819404    0.1421059 -34.19  0.001082338    1.977    0.494
       211 -11.5070    229.4384     70.0714   7.6811168613e+01   1.8763220305e+01    0.4435856    0.1099937 -36.37  0.001382836    3.331    0.700
       212 -10.0369    166.5315    102.8038   9.6866452844e+01   2.8320760999e+01    0.4584851     0.154509 -38.40  0.001418874    3.004    0.667
       213  -9.1752    162.7569     71.0510   8.8508526438e+01   3.5188225982e+01    0.2128784    0.1292623 -36.88 0.0008898492    1.626    0.385
       214  -9.7697     52.4760     71.4809   1.2016956950e+02   5.6822836348e+01    0.1312215    0.1141381 -54.24 6.250916e-05    1.067    0.063
       215  -9.0878    170.4644     70.5017   8.6763547333e+01   3.3344310824e+01    0.1537826    0.1493286 -67.60 5.928574e-05    1.015    0.014
       216  -9.5808    157.0000     69.9620   8.9401439845e+01   3.6815008173e+01    0.2529721   0.08743475 -35.51 0.0007932651    2.879    0.653
       217  -9.5877     16.5133     70.5016   1.3281025612e+02   6.0420351107e+01    0.1202623   0.09591444 -63.46 0.0001957347    1.056    0.053
       218  -9.2581    219.2541     69.3428   7.8066156984e+01   2.1307346673e+01    0.1423316    0.1145405   7.66 0.0004300148    1.581    0.368
       219  -9.1788    193.8012     67.9231   8.1695098333e+01   2.7853067448e+01    0.2061688    0.1184789 -32.15 0.0008526875    1.736    0.424
       220  -9.9314    146.8186     67.5062   9.0900158023e+01   3.9754062579e+01    0.3847334    0.2006799 -41.04  0.001528081    1.890    0.471
       221  -9.7955    203.5556     66.3138   7.9636122298e+01   2.5652249024e+01    0.2830372    0.1342968 -37.89 0.0009869714    1.969    0.492
       222 -10.0643    138.7711     66.3247   9.2410776638e+01   4.1902646796e+01    0.3775009     0.187298 -50.49  0.001390255    2.368    0.578
       223  -8.7881    195.2800     72.6487   8.2781716458e+01   2.6708105899e+01    0.1607499    0.1120938 -62.57 0.0006129349    1.649    0.393
       224  -8.7143    220.2915     64.6526   7.6673699562e+01   2.1775529838e+01     0.156522    0.1031293 -60.44 0.0007028043    1.665    0.399
       225  -9.2149    214.7553     70.7518   7.9110967332e+01   2.2181082330e+01    0.2456226    0.0970634 -43.70 0.0008725472    2.422    0.587
       226  -9.1593    187.6448     62.8121   8.1276754532e+01   3.0239439484e+01    0.2238642    0.1299718 -43.30 0.0009377942    1.686    0.407
       227  -9.1555    182.3807     68.2099   8.3798755363e+01   3.0706435210e+01    0.2299312    0.1312054 -45.59 0.0009380929    1.761    0.432
       228  -9.1797     73.4966     60.5227   1.0944933377e+02   5.6176686038e+01    0.1360231    0.1234257 -38.43 0.0002700382    1.057    0.053
       229 -10.1585    167.5276    242.5023   1.2376786508e+02   2.9381848769e+00    0.1190857   0.09403156  42.29 0.0001514341    1.015    0.015
       230  -8.9861    201.0000    102.9137   8.9975622852e+01   2.0075301406e+01    0.2468349   0.08439627 -36.22 0.0005940945    2.828    0.646
       231  -9.3894    130.5195     58.0052   9.1661449560e+01   4.5305139198e+01    0.2166016    0.1201734 -56.11 0.0008092666    2.469    0.595
       232  -9.8678    102.8424    241.8234   1.3515011022e+02   1.3173922368e+01    0.1652673    0.1072726  63.36 0.0006474117    1.332    0.249
       233  -9.4143    119.4074     56.2324   9.3909722634e+01   4.8150811965e+01    0.2144542    0.1322183 -46.81  0.000782962    1.713    0.416
       234 -10.4236    149.8373    101.8234   1.0038529071e+02   3.2430371212e+01     0.611932    0.1985841 -48.22  0.001801079    3.394    0.705
       235  -9.3401    100.5188     54.0511   9.8470126565e+01   5.2541036854e+01    0.2005837    0.1350339 -36.69 -4.81582e-05    1.423    0.297
       236  -9.6990     31.4149     52.2568   1.2249092130e+02   6.3102422749e+01    0.1870399    0.1501814  59.63   0.00100403    1.731    0.422
       237  -9.7127    222.2849     50.6727   7.2700650036e+01   2.3341096285e+01    0.1520172   0.09915207 -60.14 0.0003942866    1.607    0.378
       238 -11.0395    225.9957     46.1526   7.1051236990e+01   2.3067505609e+01    0.5053496    0.2043842 -58.86  0.001616975    3.775    0.735
       239 -10.0393    129.6992     47.8011   8.8315369397e+01   4.7170409157e+01    0.3180948    0.1383055 -25.66  0.001118229    2.765    0.638
       240  -9.5366    122.5757     45.7944   8.9361945880e+01   4.9147719662e+01    0.2119016    0.1308575 -43.87 0.0009490533    1.702    0.413
       241 -10.3148     45.4595    102.1924   1.2962362424e+02   5.0679060610e+01    0.4047521    0.1852975  67.08  0.001206826    6.104    0.836
       242  -9.5348    219.5779     45.7153   7.1727888658e+01   2.4699307872e+01    0.2079588    0.1218846 -42.12 0.0009527269    1.574    0.365
       243  -9.6219    139.7003     56.1323   8.8817662151e+01   4.3432302406e+01     0.249471    0.1842586 -53.00 0.0008201666    1.485    0.327
       244  -9.0419    205.0000    105.0187   8.9790287565e+01   1.8760457639e+01    0.2502752   0.08359025 -36.07 0.0007938672    2.883    0.653
       245  -9.4134    225.5041     40.5232   6.9641015625e+01   2.3949692426e+01    0.2221452    0.1132562 -42.78 0.0009755128    1.779    0.438
       246  -9.7552    223.6513     37.2499   6.8999464953e+01   2.4834854701e+01    0.2508887    0.1221533 -30.60 0.0009948836    1.997    0.499
       247  -8.9995    218.2816     39.6348   7.0264287632e+01   2.5844655058e+01    0.1549644    0.0953186 -58.63 0.0007015453    1.684    0.406
       248  -9.0152    211.5988     39.5130   7.1060784352e+01   2.7531553339e+01    0.1435519    0.1298047 -62.61 0.0001629454    1.026    0.026
       249  -9.6668    151.7017     39.3245   8.0531804242e+01   4.3002017662e+01    0.1520945    0.1115747 -65.17 0.0004289158    1.628    0.386
       250  -9.9366    139.2584    103.2632   1.0332681440e+02   3.4530375426e+01    0.5260686    0.2031534 -43.59  0.001783637    2.542    0.607
       251  -9.2453    228.4714     36.9242   6.8371693347e+01   2.3703332824e+01    0.2065912    0.1299475 -32.60 0.0006646087    1.532    0.347
       252 -11.5150    237.3884    240.3455   1.1152437152e+02  -7.6727347228e+00    0.2994714    0.1302916  24.56  0.001090054    2.595    0.615
       253  -9.2043    217.6203     34.7158   6.9028022420e+01   2.6653483325e+01    0.2051351    0.1149649 -42.51 0.0009367628    1.649    0.393
       254  -9.3332    225.5930     33.2128   6.7729440553e+01   2.4881189870e+01    0.1861913    0.1336578 -17.51 0.0007404069    1.636    0.389
       255  -9.3759    119.4803     33.5055   8.5560314242e+01   5.1665285585e+01    0.1394705    0.1357972  17.10 3.400764e-05    1.047    0.045
       256 -12.2396    232.4466    235.5882   1.1159843401e+02  -6.4229809429e+00    0.3094693    0.2461352 -32.01  0.002222693    1.568    0.362
       257 -11.6547    239.2483    230.8093   1.0971856432e+02  -6.9041596712e+00    0.2804745    0.2064254  43.59   0.00166084    1.516    0.340
       258  -9.5837    128.2845    100.9408   1.0545929452e+02   3.7421032347e+01    0.5450514    0.1339031 -43.80  0.001479703    4.013    0.751
       259 -11.8107    151.1687     29.2393   7.7188953115e+01   4.4466354212e+01    0.5177702    0.1549148  52.53  0.001730004    2.945    0.660
       260  -9.9379    175.5889    101.0651   9.4463224287e+01   2.6494103133e+01    0.3418444    0.1490228 -38.81  0.001215541    2.253    0.556
       261  -9.5713    224.7345     23.5660   6.5325160019e+01   2.6281637354e+01    0.2426481    0.1113944 -30.75  0.001046346    2.098    0.523
       262  -9.0185     44.4298     25.5365   1.0713470072e+02   6.6617361252e+01    0.1234181   0.09972238 -20.12 9.589283e-05    1.014    0.014
       263  -8.7983    213.0000     31.9995   6.8840316564e+01   2.8155826147e+01    0.2193221   0.07802402 -28.75 0.0007316237    2.802    0.643
       264 -10.5249    167.4057     23.2084   7.2413343788e+01   4.0998120657e+01    0.2093478    0.1234351 -40.63 0.0009494299    1.726    0.421
       265  -9.1743     58.5832     22.4439   9.9940787471e+01   6.5104305259e+01    0.1266127    0.1041534  -9.19 4.456166e-05    1.039    0.037
       266  -9.7625     63.3313     21.6537   9.7758773189e+01   6.4469990070e+01    0.1183828     0.100445 -62.42  0.000704977    1.761    0.432
       267 -11.8901    230.6726    228.5315   1.1077617602e+02  -5.3473951281e+00    0.3943571    0.2425501  40.80  0.002432141    1.478    0.324
       268  -8.8938    214.4800     19.4952   6.5310012696e+01   2.9294865574e+01    0.1382726    0.1238668 -74.34 0.0008103265    1.007    0.007
