#   1 NUMBER                 Running object number                                     
#   2 MAG_AUTO               Kron-like elliptical aperture magnitude                    [mag]
#   3 X_IMAGE                Object position along x                                    [pixel]
#   4 Y_IMAGE                Object position along y                                    [pixel]
#   5 X_WORLD                Barycenter position along world x axis                     [deg]
#   6 Y_WORLD                Barycenter position along world y axis                     [deg]
#   7 A_WORLD                Profile RMS along major axis (world units)                 [deg]
#   8 B_WORLD                Profile RMS along minor axis (world units)                 [deg]
#   9 THETA_WORLD            Position angle (CCW/world-x)                               [deg]
#  10 FWHM_WORLD             FWHM assuming a gaussian core                              [deg]
#  11 ELONGATION             A_IMAGE/B_IMAGE                                           
#  12 ELLIPTICITY            1 - B_IMAGE/A_IMAGE                                       
         1 -11.9774    128.6582     20.9179   5.4155759303e+01   5.0410553752e+01     1.253014    0.8794589  33.47  0.005718945    1.438    0.304
         2 -11.8952     35.3005     69.2303   1.0211405505e+02   5.8779446706e+01     4.234086      1.66846 -38.03   0.01759625    2.618    0.618
         3 -11.2303     20.3740     62.3904   1.0617964976e+02   6.1500887360e+01     1.185984    0.8540964  22.92  0.007506493    1.662    0.398
         4 -11.2060     99.9033     40.7941   6.9019547067e+01   5.4332007774e+01     1.733259     0.929328  41.00  0.007813516    1.818    0.450
         5 -10.8821    106.7255     32.5743   6.3877557364e+01   5.4050188074e+01    0.9123382    0.4917984 -17.88  0.003967324    2.168    0.539
         6 -11.3817     99.9683      5.7187   5.4784992632e+01   5.8532608011e+01    0.5930985    0.2773768  45.50 0.0004081933    1.827    0.453
         7 -12.7162     87.7645     55.7310   7.8461549278e+01   5.4225320214e+01      1.23346     1.121137 -13.81  0.001648428    1.030    0.029
         8 -13.4729     69.6128     30.7752   7.5058847422e+01   6.1561546840e+01     2.996181     1.265244  45.91    0.0125989    2.592    0.614
         9 -12.2236    115.6745     14.7452   5.4690795883e+01   5.4126791176e+01     1.095027    0.5304644  40.93  0.004882318    1.975    0.494
        10 -12.1520    106.2394      9.3102   5.4740470277e+01   5.6810659549e+01     2.457523    0.7944831  43.03  0.009255604    2.863    0.651
        11 -10.2559     65.8604     20.5364   7.1947714118e+01   6.3640777719e+01     1.132624     0.802936  86.53  0.004439404    4.962    0.798
        12 -11.5957     50.7633     25.1177   8.0054135223e+01   6.5349528992e+01     1.115112    0.5077865 -20.64  0.004609669    2.963    0.663
        13 -10.6940     27.4612     18.1834   8.7608168932e+01   6.9303749201e+01    0.5173206    0.2424689 -19.10  0.001524902    2.701    0.630
        14 -11.8234     25.2336      6.9450   8.3273876720e+01   7.1212879255e+01    0.7913755    0.3702426 -36.47  0.004296267    1.882    0.469
        15 -12.2593     28.8168     25.2453   9.0057342434e+01   6.8013907171e+01     1.361433    0.7452594  -8.65  0.007028645    2.232    0.552
        16 -11.8610     18.2965     14.1262   9.0431267746e+01   7.0844592909e+01    0.9739522    0.4162891 -48.18  0.004970899    2.384    0.581
        17 -11.3073      4.6924     26.2746   1.0250304396e+02   6.9759901708e+01    0.4962736     0.271141 -18.87   0.00299203    1.800    0.444
        18 -11.3473     11.9098     25.4958   9.8540731055e+01   6.9436230996e+01    0.4968796    0.2076403 -28.62 0.0009883959    2.394    0.582
        19 -10.9164      7.5587     19.6142   9.8511275252e+01   7.0778263452e+01    0.4671178    0.2808643  16.43  0.003038222    1.821    0.451
        20 -13.3293      5.0469      9.9275   9.5785180717e+01   7.2582861584e+01     1.138907    0.5324313 -18.70   0.00347521    2.248    0.555
        21 -11.5761      2.2873      2.9491   9.4114502097e+01   7.3880487958e+01    0.3312469    0.2141152 -40.71  0.002114023    1.364    0.267
        22 -10.9263    210.7719     12.9582   3.9722363794e+01   3.0943556300e+01     1.162438    0.4076914  55.02    0.0046564    2.892    0.654
        23 -10.8287    199.8250      5.3867   3.8875597063e+01   3.4353623619e+01    0.5602542    0.4075936 -46.11  0.003270005    1.348    0.258
        24 -10.8160    208.4618      4.3001   3.7781515954e+01   3.2389559475e+01    0.6331437    0.4474196  87.68  0.003684617    1.289    0.224
        25 -10.1536    204.6106     22.9651   4.2937043474e+01   3.1304203925e+01    0.5606218    0.2673706 -25.11  0.002453854    2.345    0.573
        26 -10.9604    215.5823     22.6611   4.1660651282e+01   2.8708225630e+01    0.5216938    0.4545566 -46.00  0.002080536    1.149    0.129
        27 -10.2282    157.0505      6.0367   4.4135105619e+01   4.4883196375e+01    0.6614732     0.323575 -20.58  0.003008397    2.327    0.570
        28 -11.0948    181.7504     31.9612   4.8383484599e+01   3.5883336714e+01     0.877885    0.5436313 -60.70  0.003869945    1.859    0.462
        29 -10.6855    185.7467     25.0030   4.5827173978e+01   3.5720508429e+01      1.43531    0.3395011 -47.76  0.003669457    6.202    0.839
        30  -9.7152    184.3816     13.6032   4.2786214595e+01   3.7317956027e+01    0.6499305    0.2304317  67.14  0.002159229    2.506    0.601
        31 -10.9625    154.6466     17.3206   4.8097903402e+01   4.4390807682e+01    0.6523324    0.3349593  49.00 0.0006879863    1.841    0.457
        32 -10.4657    149.6863     15.4226   4.8295794773e+01   4.5826263705e+01    0.5333288    0.4521006 -19.62  0.003108067    1.294    0.227
        33 -10.4954    151.8107      9.0140   4.5861128619e+01   4.5918488344e+01    0.4052543    0.3152483  24.68  0.001119122    1.442    0.307
        34 -10.8254    175.7949     18.7883   4.5387817013e+01   3.8916218052e+01    0.6312908    0.4628344 -58.95  0.002234812    1.435    0.303
        35 -10.8408    162.5963     17.6599   4.6955901587e+01   4.2358306114e+01    0.7283793    0.3597073  37.89  0.002569658    2.513    0.602
        36 -10.9976    169.2617     13.8460   4.4821819836e+01   4.1076839760e+01     0.508877    0.2771539  67.50 0.0004963827    1.668    0.401
        37  -9.8499    173.1844     10.7774   4.3383622153e+01   4.0399937827e+01    0.2394159    0.2114406  39.93 0.0006057441    1.228    0.186
        38 -10.7404     59.5381      3.7691   6.6271016798e+01   6.6702511328e+01    0.9700297    0.4056533  43.60  0.004729757    2.171    0.539
        39  -9.1093     72.0100     16.4681   6.7858504584e+01   6.3073151079e+01    0.3043422    0.2094521  33.01  0.001753762    1.324    0.245
        40  -9.2512     81.2441     19.9796   6.6312957608e+01   6.0916215353e+01    0.5984206     0.508004  88.83   0.00347299    1.867    0.465
        41 -10.0823    231.7478     19.0149   3.9210883305e+01   2.5389329566e+01    0.4330768    0.3569948 -63.18  0.002742619    1.050    0.047
        42  -9.2050    222.1505     12.8696   3.8626750413e+01   2.8279308621e+01    0.3307798    0.2821525 -47.03  0.002084449    1.168    0.144
        43  -9.9264    225.7586      8.1256   3.7192287300e+01   2.7960233966e+01    0.3586665    0.2379018 -35.30  0.002069722    1.498    0.332
        44  -9.6929    232.5096     10.5270   3.7187714193e+01   2.6171923626e+01    0.3853441    0.2040528  71.92  0.002013323    1.806    0.446
        45  -8.8873    233.8214      7.1843   3.6324175913e+01   2.6238795060e+01    0.2074688    0.1694447 -49.48 0.0006355262    1.162    0.139
        46  -9.9846    242.3448     13.6502   3.7098333861e+01   2.3648338360e+01    0.4811801    0.2211885  51.47  0.002232581    2.763    0.638
        47  -9.2746    193.6353     14.4810   4.1936223826e+01   3.4934730850e+01    0.2962546    0.1725719 -70.01  0.001395818    1.945    0.486
        48  -9.5476     38.5565     11.6185   7.9103617903e+01   6.8956251932e+01     0.399446    0.3111856 -12.86   0.00267592    1.078    0.073
        49  -8.7358     37.3585      6.0000   7.6790029879e+01   6.9851726060e+01     0.289199     0.130311  36.67  0.001516977    2.228    0.551
        50  -9.9331     42.0457      3.4847   7.3310621644e+01   6.9504719183e+01    0.3754092    0.2458739 -15.02  0.001257376    1.328    0.247
        51 -10.2295     31.6943     11.9122   8.2529308929e+01   6.9771968183e+01    0.2604885    0.1614351 -24.60 0.0008283433    1.351    0.260
        52  -8.6318     86.0228     11.2290   6.0956128920e+01   6.0957556038e+01    0.2669791    0.1150959  41.06 0.0008733433    2.094    0.522
        53  -8.7871    133.3273      1.3363   4.6246666831e+01   5.1133695209e+01    0.2093676    0.1184266  60.73 0.0007185836    1.515    0.340
        54  -9.1273    131.2225     10.1878   4.9769115573e+01   5.0878927219e+01    0.3544239    0.1464164  51.26   0.00125801    2.060    0.515
        55  -9.2881    134.4787      6.9486   4.8023433307e+01   5.0381596779e+01    0.2749309    0.2281539 -22.80  0.001075807    1.327    0.247
        56  -9.4004    131.5011      4.9751   4.7853474865e+01   5.1275778449e+01    0.3547389    0.1823315  39.52  0.001637233    1.957    0.489
        57  -9.9798     77.6291      8.1898   6.2160309729e+01   6.2936291013e+01    0.4148523    0.2066364 -24.11  0.001213272    2.012    0.503
        58 -10.3540    163.5924      5.9459   4.3203530978e+01   4.3257513909e+01    0.5143303    0.3208247 -39.74  0.001941386    1.694    0.410
        59  -8.6707    167.6965      4.6546   4.2277311244e+01   4.2349369334e+01    0.3316197     0.221312  21.47 0.0009322448    1.955    0.489
        60  -9.1486    250.0357      7.4958   3.5191399670e+01   2.2677859727e+01    0.2712249    0.1445039 -60.52  0.001473916    1.686    0.407
        61  -9.4341    189.9964      6.3654   4.0147875820e+01   3.6655313574e+01    0.4020092    0.1853388 -37.33  0.001863875    2.114    0.527
        62  -7.9591    143.3112      8.3501   4.6996310040e+01   4.8088967357e+01    0.1454475   0.09073263  35.24  0.000273047    1.718    0.418
        63  -8.9503    139.6797      8.3210   4.7596339831e+01   4.8986347818e+01    0.2027683    0.1780734 -43.47 0.0005099697    1.265    0.209
        64 -10.8269    139.4263      4.2858   4.6254802592e+01   4.9402442779e+01    0.3393183    0.2827619  11.44 0.0007533525    1.325    0.245
        65  -9.2316    185.4294      5.6982   4.0465668667e+01   3.7844719069e+01    0.2679879    0.2004942  17.19   0.00134721    1.767    0.434
        66  -9.8477    181.7983      4.4544   4.0527235630e+01   3.8859732198e+01    0.3799358    0.2684337  58.88  0.002130457    1.338    0.252
        67  -9.4377    218.0663      5.0519   3.7116996622e+01   3.0054607365e+01    0.3537903    0.2392682  45.23  0.001971181    1.835    0.455
        68  -9.0558     67.5291      5.9921   6.4481959198e+01   6.5059842813e+01    0.1954591     0.143601  10.59 0.0005059157    1.204    0.169
        69  -9.2808     71.3081      4.0535   6.2259112306e+01   6.4554543911e+01    0.3318635    0.2843429 -29.76  0.001678053    1.419    0.295
        70 -11.3258     16.4666     37.0361   1.0045266016e+02   6.6964668101e+01    0.7405296    0.5111325  48.26  0.004437022    2.315    0.568
        71  -9.0610    230.2712      3.0433   3.5662576797e+01   2.7467702212e+01    0.2599416    0.1600834  33.15  0.001294683    2.695    0.629
        72  -9.0076     84.4654      3.3033   5.7854541343e+01   6.2039206101e+01    0.3418812    0.2185743  23.94  0.001217968    1.488    0.328
        73  -9.8202    243.7154      4.6666   3.5031824891e+01   2.4334202991e+01    0.3650642    0.1903459 -37.25  0.001992919    1.738    0.425
        74  -9.1327    247.8741      1.9111   3.4157444478e+01   2.3734088534e+01    0.2175909    0.1480199 -73.56 0.0009302584    1.275    0.215
        75 -12.5703     11.8163    125.4380   1.1988872895e+02   4.7504932274e+01    0.7463911     0.358055 -81.37  0.000487454    1.842    0.457
        76  -9.0512    211.1476    250.1780   9.2910742563e+01  -6.3350157931e+00    0.1538805    0.1261752  36.43  0.001082753    1.355    0.262
        77  -9.3796    124.9612    250.0262   1.0884562059e+02   6.7302729542e+00    0.1813939    0.1383179  12.63  0.001137094    1.774    0.436
        78 -11.5818      9.6185    109.1073   1.1851483166e+02   5.1507579615e+01    0.8942528    0.4125814 -42.67   0.00438392    2.297    0.565
        79 -11.6207     15.2554    102.9530   1.1594601038e+02   5.2594296657e+01    0.8139401    0.4208769 -48.93  0.003912796    1.719    0.418
        80  -9.4542     98.4352    140.5366   9.8450170852e+01   3.3530996348e+01     0.426532     0.212839 -56.93  0.001339786    1.941    0.485
        81  -9.0426    247.3345    140.3074   6.5636506839e+01   3.9008827080e+00    0.1403465   0.09884337   1.75 0.0006421235    1.671    0.402
        82  -9.3826     47.5363    139.1740   1.1201149769e+02   4.0989174241e+01    0.3222996    0.1473617 -69.20  0.001432789    1.961    0.490
        83 -10.2018      3.0987    137.2284   1.2335336190e+02   4.5329041006e+01    0.4288692    0.2473905 -46.90  0.002498106    1.931    0.482
        84 -10.4438     58.1695    137.8750   1.0892413905e+02   4.0062198894e+01    0.4693241    0.2163735  39.23  0.001731121    2.269    0.559
        85  -9.4581     55.9610    133.2622   1.0877874708e+02   4.1456118979e+01    0.2339646    0.1635775 -65.54  0.001255596    1.255    0.203
        86 -10.0651     23.3082    136.3758   1.1809482211e+02   4.4022769904e+01    0.3666421    0.1952569 -79.98  0.001416047    1.652    0.395
        87  -9.8319    237.4886    135.4971   6.6183677259e+01   6.5164906067e+00    0.2807963    0.1399021  47.86  0.001228787    2.229    0.551
        88 -10.5890     66.4252    134.3353   1.0604432547e+02   3.9870911703e+01    0.3863144    0.2479753 -86.36  0.001818519    1.843    0.457
        89 -10.7818     61.5060    110.5434   1.0288654417e+02   4.6306270056e+01    0.5755866    0.4584411 -63.25  0.003220518    1.136    0.119
        90  -9.2965     71.2710    102.5024   9.8011349692e+01   4.6914873969e+01    0.3465453    0.1863463 -60.52  0.001504409    1.828    0.453
        91 -10.6847     76.7004    101.8281   9.6131229228e+01   4.6280330864e+01    0.6429454    0.4235239 -36.88  0.003070727    1.573    0.364
        92 -10.1659     74.2768     95.8553   9.5395408356e+01   4.8036904479e+01    0.4114625    0.2917377 -46.97  0.001143462    1.273    0.214
        93 -10.7290     74.3118     89.7986   9.3782166984e+01   4.9422913891e+01    0.9456285    0.3987351  46.98  0.003491119    3.083    0.676
        94 -11.6569     65.7034    123.4935   1.0424326512e+02   4.2614916610e+01    0.8318296    0.6131375 -45.36  0.004431223    1.346    0.257
        95 -10.0888     61.1398    120.1975   1.0494848420e+02   4.4009232367e+01    0.3530784     0.281732  -1.47   0.00182732    1.621    0.383
        96  -9.9191     73.6713    129.8387   1.0317464598e+02   3.9974366493e+01    0.3634296    0.2416477  77.21  0.001294045    2.000    0.500
        97 -10.3224     55.7212    126.7418   1.0773557680e+02   4.3077762649e+01    0.4141865    0.1971938 -58.10   0.00143247    1.796    0.443
        98  -8.9742     81.8646    124.5500   9.9764335448e+01   4.0054858215e+01    0.2404619    0.1796786 -49.65 0.0005757493    1.265    0.209
        99  -8.9784     74.4446    125.0151   1.0200282181e+02   4.1039776922e+01     0.197703    0.1915998  50.34 0.0003603565    1.130    0.115
       100  -8.7775    131.5971    124.2343   8.5956305601e+01   3.1121702050e+01    0.2220653    0.1445611 -37.32 0.0005424465    1.610    0.379
       101 -10.7903     91.3828    120.8122   9.6201730232e+01   3.9442934873e+01    0.5439293    0.5065612 -64.63  0.003044895    1.027    0.026
       102  -9.9912    116.2179    116.4537   8.8130302296e+01   3.5982974525e+01    0.2848965    0.2606748 -29.32 0.0007912975    1.115    0.103
       103  -9.4540    108.7195    115.4659   8.9973468266e+01   3.7646465430e+01    0.3520231    0.2207873 -44.95  0.001544683    1.541    0.351
       104  -9.2821    104.5841    116.3615   9.1366043814e+01   3.8202340349e+01     0.348045    0.2185254 -36.63  0.001498784    1.739    0.425
       105 -10.9012     45.0819    114.0095   1.0860955270e+02   4.7377218500e+01    0.5813595    0.3445598  -9.75  0.002284262    2.916    0.657
       106  -9.4722     97.4909    115.5088   9.3195260885e+01   3.9668634972e+01    0.2888654    0.1493716  39.03 0.0007907656    2.040    0.510
       107  -9.7678     83.0498    114.6733   9.7246258370e+01   4.2254608382e+01    0.3863103    0.2731456  15.69  0.001832266    1.833    0.455
       108 -10.0169     63.5925    101.8822   1.0031306118e+02   4.8112137853e+01     0.586498    0.5117981  32.12  0.002771439    1.286    0.222
       109 -10.4166     96.7673    109.5376   9.1936791621e+01   4.1199604412e+01     0.478989    0.3608246 -57.77  0.001833294    1.307    0.235
       110 -11.5729     75.6062    120.0137   1.0063123116e+02   4.2087785926e+01    0.2799578    0.2551732  34.89  0.001605857    1.210    0.173
       111  -8.9078    104.7336    109.7349   8.9661551368e+01   3.9718609068e+01    0.3820815    0.2510544  75.91  0.001471819    2.644    0.622
       112  -9.5410    113.1800    107.7551   8.6731837695e+01   3.8565763888e+01    0.2793469    0.2722924 -79.82 0.0005743236    1.073    0.068
       113 -10.7277    105.8893    102.2497   8.7352237327e+01   4.1216749122e+01    0.6408366    0.4799196 -76.20  0.002058683    1.757    0.431
       114  -9.1518     23.5678    108.8268   1.1428882964e+02   5.0596518996e+01    0.2964297    0.1787453  26.77  0.001342241    1.993    0.498
       115  -9.4363     46.2042     98.3617   1.0517843913e+02   5.1017986908e+01    0.2785246    0.2478599  43.65 0.0009516499    1.305    0.234
       116  -9.9145     51.2620     92.3972   1.0215964504e+02   5.1864872915e+01    0.3767987    0.2633327 -35.35  0.001168557    1.440    0.306
       117 -10.4632     49.7109    102.9006   1.0499741635e+02   4.9553600553e+01    0.5260275    0.4410177 -18.38  0.003115125    1.366    0.268
       118 -10.0745     56.4948     86.0207   9.8803170679e+01   5.2718260197e+01    0.5159198    0.3046964  -5.17   0.00189407    2.808    0.644
       119  -9.8728     52.2831     83.8548   9.9712997965e+01   5.3719386456e+01    0.7142534    0.2748169 -42.22  0.002788253    2.543    0.607
       120 -10.1134     39.1987     96.6193   1.0712464976e+02   5.2144333481e+01    0.3328868    0.2260917 -19.79  0.001172037    1.846    0.458
       121 -11.6793     35.4882     91.3526   1.0727767039e+02   5.3734503787e+01    0.7398676     0.376002  17.67  0.002009923    2.517    0.603
       122 -11.2626    142.7876    101.4255   7.7062248026e+01   3.3703481765e+01    0.6773707    0.3717278  30.37  0.002450252    2.470    0.595
       123 -10.4501    133.4361    102.3047   7.9713727008e+01   3.5582397695e+01    0.4875925    0.3125803 -37.94  0.001581673    1.561    0.359
       124  -9.5395    132.7057     98.3725   7.8799445286e+01   3.6580973310e+01    0.3558364     0.321969 -87.69  0.001068387    1.268    0.211
       125  -8.9245     27.3908    103.2262   1.1218947687e+02   5.1627037831e+01    0.2388529     0.144669 -73.78  0.001275096    1.495    0.331
       126 -10.1938    158.5195    101.8728   7.3371626139e+01   3.0018994182e+01    0.3621147    0.2843845 -56.24 0.0006716622    1.378    0.274
       127 -10.2774    156.1224     96.6720   7.2478908471e+01   3.1622805486e+01    0.5354789    0.4877148  -7.07  0.002673763    1.160    0.138
       128  -9.3699    235.9433    249.4830   8.8447697083e+01  -9.7185624880e+00    0.1708448   0.09096473  33.10 0.0007571904    1.568    0.362
       129  -9.9400    182.9513    249.6370   9.7964330983e+01  -2.0802221684e+00    0.2922074   0.09286097  38.17   0.00126212    2.545    0.607
       130 -10.5822      4.3888     54.7045   1.1082354809e+02   6.4110304619e+01    0.6864312    0.3876314 -69.37  0.003231737    1.666    0.400
       131 -11.2795     41.7997     51.6679   9.4248626718e+01   6.1794492938e+01    0.9818003    0.5298576  29.68  0.004770945    2.058    0.514
       132 -10.4322     16.7307    110.1440   1.1654500331e+02   5.0790152891e+01     0.242382    0.2076326 -31.34 0.0003137396    1.364    0.267
       133 -12.0119     31.8481     58.5999   1.0051158127e+02   6.1377369591e+01    0.7853142    0.6475627  55.88  0.003968757    1.693    0.409
       134  -9.9062    107.2645    248.2596   1.1195500379e+02   9.6380263402e+00    0.2873896    0.1457125  64.41  0.001415437    2.524    0.604
       135  -9.5976     58.8239    247.4934   1.2066354435e+02   1.6346782992e+01     0.213139     0.104117  77.00  0.001157503    2.297    0.565
       136 -11.1661     16.3227     85.6372   1.1271892125e+02   5.6568923304e+01    0.8803496    0.3723661 -50.79  0.003212741    1.855    0.461
       137 -11.0800     19.2772     72.3020   1.0895651861e+02   5.9400172863e+01    0.5923116    0.3474681 -50.06  0.003390308    1.336    0.252
       138 -10.9954     81.1907     75.2760   8.7251356226e+01   5.1528670225e+01    0.5167418     0.314751  45.65 0.0008390345    1.882    0.469
       139 -10.8036    114.7158     24.5891   5.8709217328e+01   5.3267414165e+01    0.4492433    0.2810127  43.26 0.0002453359    1.471    0.320
       140 -12.1736     55.7010     66.6686   9.3623565666e+01   5.7077781891e+01     1.180675    0.7479056 -46.75  0.003320444    1.382    0.276
       141 -11.8682     72.1543     68.6326   8.8257638677e+01   5.4354390363e+01     1.436336    0.9517978  15.68  0.005136067    1.825    0.452
       142  -8.6933     30.4547    248.5105   1.2556351835e+02   1.9485558337e+01     0.106138    0.0775986  68.04 3.261755e-05    1.037    0.036
       143 -12.0743     31.8276     41.9399   9.5147707953e+01   6.4718344044e+01    0.8696256    0.4923814  17.90  0.004789881    1.971    0.493
       144 -11.8507    101.8639     55.0229   7.3714197462e+01   5.1615953708e+01     1.349708    0.8547136   9.44   0.00564116    2.333    0.571
       145  -9.4391      3.9263    245.9747   1.2972136363e+02   2.2646058180e+01    0.2163337    0.1098782 -70.09  0.001474318    2.056    0.514
       146 -10.5705    141.7924    244.3607   1.0500459628e+02   5.0558797210e+00    0.3103398    0.2712398  36.43  0.001891617    1.093    0.085
       147  -9.9746    149.3676    248.2437   1.0405395575e+02   3.2837321556e+00    0.3109822     0.156747  60.52  0.001335983    3.373    0.704
       148  -9.2959    188.3018    243.6169   9.6109824222e+01  -2.0766494192e+00    0.1764327   0.09418353  30.18 0.0007363193    1.631    0.387
       149 -12.6745     49.2030     39.3914   8.6693902838e+01   6.3213958373e+01    0.5919353    0.3684699  27.74 0.0003946292    1.691    0.409
       150 -11.8619     56.5555     37.6479   8.2980024332e+01   6.2511579705e+01    0.4819524    0.3493451  -9.02  0.001581466    1.340    0.254
       151  -9.8494      4.6717     99.5797   1.1873828645e+02   5.4028203483e+01    0.3869633    0.2171733 -88.53  0.002113424    1.791    0.442
       152  -9.2842      3.4503     93.3014   1.1824720256e+02   5.5548994559e+01     0.363187     0.102392 -60.21  0.001605968    2.328    0.571
       153 -10.8409      4.1558     88.1448   1.1725398898e+02   5.6700568310e+01    0.7497687    0.2778648 -63.50  0.003297803    1.910    0.477
       154  -9.5414      7.7053     85.3025   1.1561001298e+02   5.7164610870e+01    0.2041226     0.152739  57.40  0.000782538    1.663    0.399
       155 -10.0117     87.5162     97.4764   9.1616212396e+01   4.5578943361e+01    0.4249792    0.4001201  57.56  0.002398235    1.177    0.151
       156  -9.1616     44.2898     93.6663   1.0479821871e+02   5.2329318069e+01     0.338933    0.1468649 -47.81  0.001484451    1.995    0.499
       157  -9.0095     10.8417     99.6575   1.1683131319e+02   5.3652730762e+01    0.2069928     0.129798 -60.89 0.0003502174    1.242    0.195
       158  -8.8424     94.0406     97.3670   8.9569902130e+01   4.4487226449e+01    0.2580351     0.189646 -35.77 0.0005067724    1.357    0.263
       159 -10.9231    117.4349     94.7882   8.1942438952e+01   4.0589865047e+01    0.5885621    0.5646345  62.34  0.002435704    1.123    0.110
       160 -11.0144    119.9398     87.8175   7.9187779761e+01   4.1547900890e+01    0.8149765    0.5602157 -88.76  0.003112656    2.741    0.635
       161  -9.6131    189.5647     93.8976   6.4557943303e+01   2.4243984586e+01    0.3116781    0.2477031 -13.45 0.0009139451    1.434    0.303
       162  -9.0400    187.3457     89.6022   6.3822889586e+01   2.5552230199e+01    0.2641929    0.2232392 -46.41 0.0004520129    1.159    0.138
       163 -10.7167     53.6284     97.7790   1.0260965869e+02   5.0324393722e+01    0.5646244    0.4802673 -10.19  0.003333117    1.344    0.256
       164  -9.5971    104.1158     92.3745   8.5117395059e+01   4.3756328955e+01    0.4657456    0.3029744   9.62  0.001553375    2.461    0.594
       165  -9.5361    106.7541     87.2329   8.2821411176e+01   4.4358734657e+01    0.3530384    0.2066385 -43.57 0.0006883404    1.635    0.388
       166 -10.6790     88.9884     88.9496   8.8792337265e+01   4.7255407265e+01     0.604048    0.4543526 -17.76  0.001517313    1.550    0.355
       167  -9.4921     82.6955     89.9902   9.1100050160e+01   4.8072648300e+01    0.2818647     0.246429  23.64 0.0006248705    1.230    0.187
       168  -9.7352     82.8278     85.9652   8.9915427973e+01   4.8949313904e+01    0.4535333    0.2465995 -26.84  0.001728482    2.628    0.619
       169 -10.9933     69.7857    112.7072   1.0080788938e+02   4.4682521711e+01     1.096029    0.3797777 -43.45  0.003641866    3.299    0.697
       170  -8.7140    213.6538     90.1839   5.9258928710e+01   1.9295462986e+01    0.2161615    0.1337351 -26.59 0.0009467757    1.706    0.414
       171  -9.5208    193.9740     89.7213   6.2596783268e+01   2.3954803159e+01    0.2553515    0.2126161 -36.75  0.000502079    1.153    0.132
       172 -11.5125    138.9207     69.8357   6.8568519461e+01   4.0796781496e+01    0.9778287    0.8320653 -19.09   0.00497916    1.219    0.180
       173  -8.9672    131.6392     67.0170   6.9492437813e+01   4.2999733871e+01    0.2658993    0.2117789  44.26 0.0006752937    1.249    0.199
       174 -10.4825    146.1828     84.2110   7.1229403352e+01   3.6402713264e+01     1.090975    0.5890319 -23.60   0.00389901    2.552    0.608
       175 -10.2986    144.3288     77.9056   6.9768231720e+01   3.8039646781e+01    0.6173187    0.3343857  54.41  0.002326832    1.941    0.485
       176  -8.7013    146.7511     74.9501   6.8275986410e+01   3.8013771743e+01    0.2546636    0.2037858  38.43 0.0003096432    1.280    0.219
       177 -11.1672    136.5167     81.5424   7.2832907844e+01   3.9159621254e+01    0.9613099    0.5941825  -8.96  0.003435748    2.835    0.647
       178  -9.1604    133.0140     79.7926   7.3198388697e+01   4.0297984559e+01    0.3103596    0.2206853  51.60 0.0006929588    1.457    0.314
       179 -10.0774    112.8805     86.8850   8.0918692954e+01   4.3207590603e+01    0.4613558    0.2001192 -39.25  0.001660744    2.316    0.568
       180  -9.0692    155.2114     86.1264   6.9653652379e+01   3.3903293944e+01    0.4441496    0.2559542  24.30  0.001497381    2.914    0.657
       181  -9.1335     74.3731     84.0673   9.2168241079e+01   5.0702531396e+01    0.4018693    0.1975957  28.12   0.00164834    2.441    0.590
       182  -9.6710    161.5047     82.0383   6.7027619488e+01   3.3165569582e+01    0.3027583    0.2507396  11.63 0.0005545293    1.416    0.294
       183  -9.0678    158.0278     81.0000   6.7497146908e+01   3.4195915194e+01    0.3538245     0.234221  54.91 0.0008566399    1.554    0.357
       184 -12.1673    118.3798     69.7401   7.3943828069e+01   4.5472886555e+01     1.482507    0.7601215  43.30  0.005992364    1.974    0.494
       185 -11.0045    106.6809     62.3376   7.4833606587e+01   4.9324682605e+01     1.083752    0.4899065 -36.85  0.004133275    2.182    0.542
       186  -9.9117    111.9756     63.7568   7.3765453976e+01   4.7956260284e+01    0.4714763    0.3223848 -31.42  0.001443615    1.455    0.313
       187 -10.9877     98.7392     75.5757   8.1660861773e+01   4.8342186662e+01     1.157733    0.4120289 -35.47  0.003627269    3.384    0.705
       188  -9.8828    101.4620     69.5230   7.8846510330e+01   4.9021449522e+01    0.2811364    0.2631498 -62.86  0.000841496    1.231    0.188
       189 -10.8509    102.8309     81.0722   8.2128715198e+01   4.6423170318e+01    0.4795743    0.3712213  17.57  0.001394336    1.471    0.320
       190 -10.9172    105.2290     76.6673   8.0019316339e+01   4.6857587420e+01    0.5213103    0.4298741 -78.46  0.002585956    1.624    0.384
       191 -10.4281    122.8262     80.3930   7.6115637668e+01   4.2443473231e+01    0.3827213    0.2951572  36.41  0.000969823    1.334    0.250
       192  -9.8539    168.8341     78.3714   6.4377182219e+01   3.2053300478e+01    0.5839523    0.4103386  89.03  0.002459629    2.048    0.512
       193  -8.7668    170.1931     70.5749   6.1808927738e+01   3.3081343043e+01    0.3510722    0.1849656  32.47  0.001221983    2.847    0.649
       194  -9.7312    166.5125     73.0099   6.3283985027e+01   3.3567954843e+01    0.3691163    0.2584887 -52.47  0.001670104    1.546    0.353
       195  -9.4080    164.4772     68.5020   6.2359703818e+01   3.4844501107e+01    0.3467644    0.2677115 -61.18  0.001239741    1.472    0.321
       196 -10.0184    189.7411     77.3091   5.9989322307e+01   2.7138001187e+01    0.6144383    0.2768167  39.26  0.002086457    3.023    0.669
       197  -9.2834     88.3849     78.2064   8.5785509338e+01   4.9688051497e+01    0.2672855     0.199222  40.98  0.001349684    1.442    0.307
       198  -8.0372     47.5097     78.4893   1.0002001963e+02   5.5477435079e+01    0.1362902    0.1146868 -42.90 6.007559e-05    1.014    0.013
       199  -9.6007      5.2907     76.9748   1.1501937832e+02   5.9185723636e+01     0.235636     0.173609 -89.19 0.0008210642    1.473    0.321
       200  -9.6295      3.5859     72.8128   1.1488451512e+02   6.0203573367e+01    0.2974228    0.1277921 -55.75  0.001047224    1.662    0.398
       201  -9.0935     70.2188     76.6030   9.1408798347e+01   5.2960613427e+01    0.2687013    0.2482374 -28.79  0.001266165    1.048    0.046
       202  -9.4012    248.1776     76.0075   5.0784971410e+01   1.4036483192e+01    0.2376052     0.128112 -53.84 0.0007560449    1.955    0.488
       203  -9.3156    204.1501     75.8596   5.7094435453e+01   2.3916929006e+01    0.3272123    0.1973147  42.89 0.0009395188    1.887    0.470
       204  -9.7035    162.2882    250.2526   1.0188762502e+02   9.9549707234e-01    0.2281143    0.1258873  36.45 0.0009512338    1.465    0.318
       205  -9.5952    130.7185     74.8187   7.2240119256e+01   4.1772905846e+01    0.3608814     0.269647  64.64  0.001671522    1.584    0.369
       206  -9.8053    177.3111     69.3151   6.0043290446e+01   3.1535687138e+01    0.5083795    0.3645396 -50.95   0.00238717    1.452    0.311
       207 -10.9074    133.5531     53.6896   6.4580563172e+01   4.4811497832e+01     1.292479    0.7357159  12.34  0.004256892    3.678    0.728
       208 -11.7220    163.4673     53.4061   5.7954271098e+01   3.7529062738e+01     1.399942    0.9518092 -87.88  0.005915457    2.029    0.507
       209 -10.1600    136.3930     42.7070   6.0163079762e+01   4.5792388821e+01      1.16526    0.3972114 -43.63  0.003784348    3.475    0.712
       210 -11.3745    141.9210     44.3569   5.9491326541e+01   4.4212602855e+01    0.7222064    0.3615576 -20.92  0.000571206    2.471    0.595
       211 -11.1652    155.7949     42.9342   5.6154494583e+01   4.0978602221e+01    0.8142777    0.6116912  41.65  0.004105908    1.351    0.260
       212  -9.6196    131.9590     62.9367   6.8071367157e+01   4.3644787303e+01    0.2841296    0.2514086  73.48  0.001478969    1.284    0.221
       213 -10.8016    137.8248     59.1384   6.5366696373e+01   4.2909060404e+01     0.408024    0.2947559   8.20 0.0003676291    1.799    0.444
       214 -11.5821    149.3683     66.0279   6.4883593222e+01   3.8968226113e+01    0.9809582    0.6215694 -31.59  0.004322353    1.616    0.381
       215 -10.4665    143.8813     58.0208   6.3575634856e+01   4.1638156486e+01    0.3347645    0.2629715  53.76 0.0005101852    1.260    0.206
       216 -12.3500    147.4435     53.6486   6.1351877087e+01   4.1466815545e+01    0.5239405    0.4017219  47.29 2.508821e-05    1.272    0.214
       217 -10.5234    145.6218     48.8264   6.0171301545e+01   4.2650270658e+01    0.4401788    0.2857569  29.92 0.0007497944    1.845    0.458
       218  -9.1994    250.1608     70.1517   4.9184614424e+01   1.4505510311e+01    0.1961012    0.1761904 -21.05 0.0006950953    1.219    0.179
       219  -8.4904    226.0000     65.9467   5.1254614837e+01   2.0396366296e+01    0.2406678   0.07485548 -33.53 0.0008087376    2.986    0.665
       220  -8.3583    193.9729     66.4661   5.6242990364e+01   2.7899550841e+01    0.2166786    0.1459245  61.05  0.000426897    1.520    0.342
       221  -9.0641    207.0054     61.0011   5.2689210759e+01   2.5593042278e+01    0.3691903    0.1837115 -42.13  0.001552398    1.883    0.469
       222 -10.3926    193.2951     48.9215   5.1473984916e+01   3.0726206871e+01    0.8818408    0.2878448  60.40  0.003056934    2.923    0.658
       223  -9.4881    174.3200     56.7110   5.6902069663e+01   3.4305573315e+01    0.4066486    0.2584563  -7.95  0.001007749    2.293    0.564
       224 -11.0097    177.3689     46.7574   5.3412518170e+01   3.5014330142e+01    0.9926355    0.7271981  47.96  0.004971068    1.391    0.281
       225 -10.1437    186.0540     61.0030   5.6060916771e+01   3.0714157909e+01    0.4852535     0.303756  69.55  0.001880918    1.757    0.431
       226 -11.5592    184.6100     55.2052   5.4649252112e+01   3.1963417510e+01    0.6449419    0.3850001 -51.51   0.00282492    1.804    0.446
       227  -8.8707    234.1388     59.8342   4.8694977014e+01   1.9477651236e+01    0.2011875    0.1654039 -57.76 0.0002526765    1.123    0.110
       228  -9.2792    212.7539     59.0270   5.1331350207e+01   2.4519399365e+01    0.3589134    0.2398706   3.18  0.001542268    2.461    0.594
       229  -9.2707    201.1789     59.8160   5.3257366032e+01   2.7180815294e+01    0.2725966    0.2245254  56.64 0.0007288114    1.250    0.200
       230 -10.8939    193.8101     54.9469   5.3072302896e+01   2.9719548433e+01    0.7769989    0.4912404  25.85  0.003244848    2.409    0.585
       231 -10.5524    121.1692     54.8679   6.8144717214e+01   4.7486784704e+01     0.551189    0.4641012 -16.67  0.002913553    1.202    0.168
       232  -9.9270    116.6650     49.9366   6.7620912297e+01   4.9299458168e+01    0.5094387    0.3528582 -13.52  0.001879984    1.653    0.395
       233 -10.1064    118.4759     43.5760   6.4846476489e+01   4.9872725592e+01    0.6220564    0.2363764 -36.58  0.002301011    2.626    0.619
       234 -10.0133    234.1972     55.5266   4.7645597602e+01   2.0088999106e+01    0.3711092    0.2562164  70.53  0.001976673    1.544    0.352
       235  -9.8262    238.6303     52.1620   4.6320315545e+01   1.9583533324e+01    0.2341628    0.2197933  51.13 0.0003264267    1.252    0.202
       236  -8.8923    224.1400     56.1246   4.9046525276e+01   2.2284402008e+01    0.2014491    0.1880257  17.43 0.0006612448    1.281    0.219
       237  -8.1795     61.7946     56.6113   8.8029966544e+01   5.8300493469e+01    0.2336646    0.1839475  83.07 0.0001118924    2.248    0.555
       238 -11.6335     58.0038     48.6018   8.6629835892e+01   6.0360282369e+01    0.7636289    0.6096704  23.16  0.004582671    1.311    0.237
       239  -9.3989     66.7300     47.3174   8.2795717044e+01   5.9308933153e+01    0.1881466    0.1834164 -45.78 0.0003068633    1.318    0.241
       240 -10.6064     66.8163     43.5880   8.1332498565e+01   5.9951890477e+01    0.3840988    0.3647378 -57.53  0.001878178    1.400    0.286
       241  -8.7646     12.5079     56.6240   1.0792357517e+02   6.3256928427e+01    0.2364468    0.1040815  24.39  0.001215692    2.665    0.625
       242  -9.2951    211.6237     50.7463   4.9328640736e+01   2.5999432811e+01    0.3969223    0.2065794 -42.88   0.00176323    1.790    0.441
       243  -9.2283     76.5726     51.5395   8.0776919666e+01   5.6956747518e+01    0.3196903    0.2132544 -10.91 0.0008783003    1.772    0.436
       244 -10.7666     76.1483     43.5248   7.7882427959e+01   5.8424197075e+01    0.5805881    0.3024008 -28.14  0.002608416    1.984    0.496
       245  -8.8263     10.0290     52.2398   1.0784615629e+02   6.4327825998e+01    0.1569298    0.1276038 -30.52 0.0004303543    1.165    0.141
       246  -9.1368    228.4157     49.8758   4.6964059434e+01   2.2196183316e+01    0.2179357    0.1739435 -85.88 0.0003799607    1.279    0.218
       247  -8.0793     16.6466     50.6555   1.0458520689e+02   6.4239425010e+01    0.1359591    0.0682482 -34.07 0.0007039038    1.819    0.450
       248  -8.3071     21.4749     49.4173   1.0213977577e+02   6.4142883661e+01    0.1219273   0.09831521 -39.44 0.0001002466    1.041    0.039
       249 -10.5058    205.9778     46.4054   4.8954548973e+01   2.7971116536e+01    0.6073652    0.2107055  53.14  0.002051382    2.898    0.655
       250  -8.7122      6.8860     47.0602   1.0784315370e+02   6.5576701369e+01    0.1634277    0.1331805 -58.39 0.0004047872    1.209    0.173
       251  -9.9982    219.7986     43.2776   4.6362541525e+01   2.5101924800e+01    0.4484094    0.1868443 -40.99  0.001474168    2.145    0.534
       252  -9.6193    249.2725     42.8106   4.3019006521e+01   1.8556884844e+01      0.43134    0.2072074 -21.27  0.001791058    2.907    0.656
       253  -9.6502     38.5543    241.5017   1.2379073723e+02   1.9835350566e+01    0.1111998   0.08031638  67.71 -0.0006345884    1.022    0.021
       254  -9.2882     16.7375     44.1835   1.0263420307e+02   6.5546538292e+01    0.1978983    0.1299272 -46.80 0.0002318416    1.191    0.161
       255  -9.4841    191.1358     42.1101   4.9893059004e+01   3.2211914876e+01    0.5321804    0.2297374 -30.73  0.001878753    2.343    0.573
       256 -11.7247    192.2585     32.4762   4.7042791347e+01   3.3191359211e+01    0.3862892    0.3175155 -41.54 -8.253461e-05    1.216    0.178
       257  -9.4431    128.0936     45.1504   6.2970136881e+01   4.7415712762e+01    0.4642269    0.2817456  22.87  0.001920999    2.232    0.552
       258 -10.4858      8.1569     41.1556   1.0561466936e+02   6.6700664495e+01    0.4448774    0.2211085  28.30  0.002505769    2.461    0.594
       259  -8.3749    210.6969    240.3322   9.1485658576e+01  -5.0293799954e+00    0.1058059   0.09238415  54.05 0.0007036024    1.656    0.396
       260  -9.1860    241.8686    239.1589   8.5772716295e+01  -9.3359892822e+00    0.1697552    0.1094468  10.33 0.0008836233    1.341    0.254
       261 -11.2683     15.7180     30.8271   9.8631401758e+01   6.8187726012e+01    0.2244086    0.1914991 -14.85 0.0003027435    1.194    0.162
       262  -9.0076     55.8842    238.5915   1.2053789411e+02   1.8311678487e+01     0.185809    0.1375217 -75.49  0.001313366    1.429    0.300
       263 -10.3534     14.5364    237.8246   1.2765317505e+02   2.3072013924e+01    0.2766637    0.1305807  82.13  0.001716635    1.829    0.453
       264  -9.0927    193.0000    236.0035   9.4087864170e+01  -1.7465757193e+00    0.2947665   0.06974956 -41.95  0.001048955    4.913    0.796
       265  -9.3394    190.2460    235.9655   9.4600642868e+01  -1.3105490747e+00    0.1431311    0.1039629 -35.63 0.0006892633    1.589    0.371
       266  -8.6223    181.2975    234.3441   9.6054385422e+01   3.3776102394e-01     0.125598   0.08752119   6.75 0.0002998171    1.671    0.401
       267  -8.9356     21.0636    232.3229   1.2627114620e+02   2.3426492652e+01    0.1517228    0.1071483  65.79 0.0005938724    1.064    0.061
       268  -9.2397     12.6166    232.0652   1.2769489931e+02   2.4324498077e+01    0.2174954   0.09799098  54.20  0.001357678    1.702    0.412
       269 -10.9846     36.5064     27.2042   8.7274907567e+01   6.6851566520e+01    0.2391866    0.1773195 -17.69 0.0003253531    1.116    0.104
       270  -9.3494    208.3524     41.6488   4.7380312431e+01   2.8048274415e+01    0.2745099    0.1906866  51.10 0.0007955746    1.546    0.353
       271  -8.9310    166.4554     42.2800   5.3958518096e+01   3.8390158351e+01    0.3314031    0.1487789  48.74  0.001287189    2.210    0.547
       272 -10.9161    147.1916     34.8740   5.5212446261e+01   4.4207871325e+01     1.434135    0.2455694  53.21  0.003980501    4.323    0.769
       273  -8.7842    225.0563     41.3524   4.5260804001e+01   2.4136323995e+01    0.2085948    0.1541892  54.22  0.001138804    1.485    0.327
       274  -8.7646    112.2432     41.2629   6.5664508836e+01   5.1612976915e+01    0.1790581    0.1670415 -77.45 0.0003335965    1.312    0.238
       275  -9.5153    173.8472     39.0462   5.1705343312e+01   3.6962745550e+01    0.3443437    0.2480648  63.62  0.001008523    1.334    0.251
       276  -8.9623    219.3562    230.8931   8.8392387613e+01  -5.0905676149e+00    0.2047671    0.1444622  35.87 0.0005616841    1.353    0.261
       277 -11.4428    219.4030     35.6657   4.4496096108e+01   2.6202695391e+01    0.8442436    0.4371001  55.74  0.003206595    2.006    0.501
       278 -10.5457    226.4760     28.4822   4.1963089966e+01   2.5462043531e+01    0.5371222    0.4290415 -55.24  0.003225155    1.123    0.110
       279  -9.4613    135.8233    230.0291   1.0433665369e+02   8.3538055430e+00    0.1923168    0.1440654 -16.42  0.001090959    1.961    0.490
       280  -9.2804    202.2277    229.0037   9.1247738541e+01  -2.2052214732e+00    0.2050679     0.150007  29.67  0.000377424    1.153    0.133
       281 -10.7877    213.0150     29.9320   4.3776818354e+01   2.8442260891e+01    0.7899905    0.4625542  43.21  0.003718171    2.153    0.536
       282  -9.1297    203.0973     29.1926   4.4754417588e+01   3.0928146816e+01    0.2190142    0.1863552 -15.38 0.0006465667    1.376    0.273
       283  -9.2840     40.9639    221.5428   1.2202775287e+02   2.3332617494e+01    0.2007948    0.1393697 -65.52 0.0007477463    1.594    0.373
       284  -9.2818    235.2294    219.2321   8.3546937952e+01  -5.9188731207e+00    0.1867022   0.08992676  45.23 0.0008946701    2.474    0.596
       285  -9.7669    211.0087     17.5542   4.0853835310e+01   3.0381891373e+01    0.4732428    0.1645085  60.57  0.001916514    2.631    0.620
       286  -9.1025    197.8403     37.2659   4.7602516043e+01   3.1196109689e+01    0.2339414    0.2139103 -87.59 0.0006453457    1.032    0.031
       287  -9.3068     13.4161    212.4030   1.2652290159e+02   2.8041457487e+01    0.2600892   0.08854705 -84.47  0.001247799    2.730    0.634
       288  -9.1375     26.4940    212.5295   1.2411379458e+02   2.6711474569e+01    0.1148081   0.08674122  75.03 4.671986e-05    1.004    0.004
       289  -9.8580    179.9332     25.0359   4.6636075216e+01   3.7174042876e+01    0.2640314    0.2067751  69.22 0.0003130693    1.197    0.164
       290  -9.2862    160.1048     24.6367   4.9539323373e+01   4.2218409647e+01    0.3126928    0.2654718 -42.59  0.001315498    1.239    0.193
       291  -9.6946    233.9914    199.7018   8.0205053503e+01  -3.0351124967e+00    0.1846643    0.1491468  13.22  0.001159048    1.078    0.073
       292 -11.0416    189.0412     19.3889   4.3827110401e+01   3.5538169647e+01     0.299439    0.2422955  61.30  0.000327803    1.203    0.169
       293  -8.3603    209.3039    199.2778   8.4717146554e+01   1.0794212710e+00     0.133826   0.09292517   7.10 0.0006962551    1.547    0.354
       294  -9.3633     27.8032    193.8503   1.2252915211e+02   3.0463008227e+01    0.2162986     0.172255  80.96  0.001248666    1.038    0.036
       295  -8.9944     32.9887    192.1124   1.2132832092e+02   3.0298606248e+01    0.1766656    0.1291478 -50.65 0.0007973866    1.750    0.429
       296  -9.2610     11.0564    192.4872   1.2577764174e+02   3.2356052049e+01    0.2252672    0.1315648  38.46  0.001431356    1.789    0.441
       297  -8.3737    215.5268    189.5027   8.1660703886e+01   1.5648437289e+00    0.1368652     0.116342   4.63 8.731629e-05    1.028    0.027
       298  -8.4272    229.6627    187.8197   7.8697141678e+01  -5.6817368701e-01    0.1770171    0.1135233 -40.78 0.0004318006    1.695    0.410
       299  -9.8073     31.2449    185.2699   1.2112098605e+02   3.1974563028e+01    0.2106042    0.1762029 -50.42   0.00142106    1.541    0.351
       300  -9.7125     10.4927    185.0031   1.2540352009e+02   3.4004219591e+01    0.3031392    0.2229579   0.69  0.001952103    2.341    0.573
       301  -8.3748     18.3266    182.6595   1.2362926238e+02   3.3810793271e+01    0.1284695   0.06826474  68.32 0.0007051404    1.733    0.423
       302 -10.5050    245.3477     33.4582   4.1278714996e+01   2.0617953268e+01    0.5301747    0.3037627  61.44  0.002607921    1.858    0.462
       303  -9.1745    242.3137     24.7315   3.9579833287e+01   2.2361070035e+01    0.2776222    0.1805722 -57.76  0.001042912    1.373    0.272
       304 -10.8788    235.8658     32.4176   4.1953849546e+01   2.2837937201e+01    0.4604397    0.3741411  26.76  0.002296177    1.704    0.413
       305  -9.5251    237.9091     26.1672   4.0305610220e+01   2.3158115015e+01    0.3099366     0.227215 -72.42  0.001087157    1.270    0.213
       306  -9.8452    135.0580     33.9979   5.7440697310e+01   4.7300439931e+01    0.3243808    0.2319071  15.06 0.0008795972    1.673    0.402
       307  -9.9841    113.4686     32.0852   6.1886941170e+01   5.2616278338e+01    0.3780646    0.2230626 -12.26  0.001167725    2.051    0.512
       308  -8.7030    198.8023     32.4048   4.6154470899e+01   3.1581928366e+01    0.2201079     0.160898 -26.70 0.0005651493    1.472    0.321
       309  -8.6195      4.3668     33.2620   1.0499517443e+02   6.8459632948e+01     0.146745   0.09191936 -58.97 0.0006817354    1.477    0.323
       310  -9.7008    173.1543     30.7371   4.9324067683e+01   3.8200779303e+01    0.3866456    0.2642263  30.58   0.00131452    1.808    0.447
       311 -10.1098    167.5452     29.1223   4.9722872190e+01   3.9813789508e+01    0.3429065    0.2329534  64.72  0.001114026    1.386    0.278
       312  -9.1991    167.0032     25.4935   4.8695387176e+01   4.0379919185e+01     0.295646    0.2123829 -74.06  0.001164665    1.602    0.376
       313  -9.5809    153.0547     25.7791   5.1111360138e+01   4.3858557269e+01    0.5164713    0.3485292  -1.35  0.002477561    1.900    0.474
       314  -9.1911    146.2837     29.2307   5.3502910763e+01   4.5139649607e+01    0.4515544    0.2631745  62.35  0.002078958    1.637    0.389
       315  -9.5148    147.3630     23.9244   5.1523761118e+01   4.5493115107e+01    0.2807476    0.2186642  40.82 0.0006808094    1.266    0.210
       316  -8.7054    140.5000     24.1088   5.2882150904e+01   4.7172060805e+01    0.3258226    0.1790133  -8.97  0.001368986    2.440    0.590
       317  -9.0803    198.4441     24.6581   4.4110725594e+01   3.2612032139e+01    0.3065673    0.1234241 -31.76   0.00125551    2.423    0.587
       318  -7.8536    192.6459     25.7265   4.5124221366e+01   3.3917341924e+01    0.1398914   0.09863412  41.18 0.0003830981    1.641    0.391
       319  -9.3043     26.4284    179.5634   1.2166648404e+02   3.3723067375e+01    0.2038276    0.1379267 -73.58   0.00127914    1.300    0.231
       320  -9.7129      1.7267    178.6652   1.2677188089e+02   3.6100513952e+01    0.3206259    0.1257928 -81.01  0.001664168    2.046    0.511
       321  -9.0618     75.0121     18.7889   6.7870198533e+01   6.2239391661e+01    0.2504641    0.1665979  43.65 0.0007757327    1.478    0.324
       322  -8.9050     36.9932    179.5077   1.1936124775e+02   3.2653080937e+01    0.1763441    0.1129981  40.50  0.001036669    1.609    0.378
       323 -10.2198    246.7437     18.8025   3.7882836791e+01   2.2104029453e+01     0.523638    0.2528425  86.09  0.002518958    2.287    0.563
       324  -8.6240     79.8099    176.3750   1.0919377307e+02   2.7993778440e+01    0.1789692    0.1288708  26.89 0.0009453809    1.667    0.400
       325  -8.6541     65.5761    173.2375   1.1213333689e+02   3.0680728677e+01     0.182481    0.1123192 -58.51 0.0005890233    1.590    0.371
       326  -8.8694    236.0716     13.4696   3.7564379984e+01   2.5050501751e+01    0.2231034     0.150494 -78.39 0.0005997836    1.391    0.281
       327  -9.3094    246.4951    171.9738   7.2529173232e+01  -9.3792673576e-01    0.1762891    0.1064822 -51.85 0.0008097089    2.501    0.600
       328  -9.0193      1.1614    170.6317   1.2637541245e+02   3.7896858450e+01    0.2190803   0.06761704 -80.67 0.0008386148    2.676    0.626
       329  -8.9265    239.4499     18.7678   3.8480392774e+01   2.3697540802e+01    0.2090397    0.1936673 -19.21  0.001238016    1.345    0.257
       330 -10.3513     32.4313    166.2264   1.1909643062e+02   3.6152408023e+01    0.2313004    0.1919405  66.20 0.0002958539    1.164    0.141
       331  -8.6059    101.2194     18.8036   5.9886781695e+01   5.6946052072e+01    0.1795864    0.1352655  21.45  0.000993551    1.284    0.221
       332  -9.2313    198.6129     16.0736   4.1800328649e+01   3.3542203541e+01    0.2491593    0.1802102  62.25  0.001101326    1.339    0.253
       333  -9.2468     19.0243    165.7073   1.2211113384e+02   3.7536328832e+01    0.1672184    0.1382321  74.77  0.001047405    1.124    0.110
       334  -9.8855     67.4274     12.9843   6.7867566713e+01   6.4309897302e+01    0.2679595    0.1769456  46.68  0.000778195    1.592    0.372
       335  -9.4555     13.0345    165.7155   1.2345143359e+02   3.8049234240e+01     0.160516    0.1302356 -89.18 0.0005007121    1.071    0.066
       336  -9.8869      2.2140    159.3232   1.2536264452e+02   4.0335569900e+01    0.4121214    0.1475871 -86.89   0.00186147    2.568    0.611
       337 -10.9550     18.9030    158.6596   1.2150963461e+02   3.9162502636e+01    0.4111136    0.2396004  27.74 0.0003056927    2.083    0.520
       338  -9.5812     28.7185    158.2563   1.1915703540e+02   3.8365796971e+01    0.1990046    0.1719014  83.16 0.0003203367    1.098    0.089
       339  -9.4738     17.7931    147.8411   1.2073885638e+02   4.1771025859e+01    0.1957874    0.1340438  85.62  0.000350636    1.277    0.217
       340  -9.4208      8.1162    151.1526   1.2336625528e+02   4.1760455654e+01    0.2508736    0.1892894  70.15  0.001009163    1.238    0.192
       341 -10.2972     20.0781    152.1789   1.2061422824e+02   4.0565411324e+01    0.2868139    0.1854401 -74.41 0.0008843202    1.258    0.205
       342 -11.0021     14.6693    151.3484   1.2183172942e+02   4.1207397261e+01    0.4228322    0.3340404  73.20  0.001409087    1.180    0.153
       343  -9.9803     45.3957    151.0327   1.1420828061e+02   3.8366044949e+01    0.2921797    0.1967421 -62.20 0.0006633579    1.339    0.253
       344 -11.2029     30.0731    141.3575   1.1692620889e+02   4.2235477772e+01    0.7607523    0.4390176  85.06  0.003919356    1.814    0.449
       345  -9.5036     35.8865    151.3483   1.1664344292e+02   3.9292243912e+01    0.3522824    0.1870841  65.31 0.0009036539    2.151    0.535
       346 -10.1060     30.6415    151.6532   1.1798147167e+02   3.9733746302e+01    0.2652397    0.1935005 -62.68   0.00059205    1.279    0.218
       347 -10.5352     40.4989    146.6448   1.1489316108e+02   3.9942863261e+01    0.5469546    0.3402427  -1.28   0.00259972    2.895    0.655
       348 -10.2873     37.9511    143.0056   1.1508302267e+02   4.1078448928e+01    0.3143249    0.2505871  43.28  0.001076867    1.389    0.280
       349  -9.7575     67.5451    147.8365   1.0800924625e+02   3.6437827891e+01    0.3383915    0.1295151 -66.06  0.001282702    2.563    0.610
       350  -8.9392      1.4414    147.5129   1.2463174027e+02   4.3070263254e+01    0.1722097    0.1187639 -56.67 0.0005783672    1.486    0.327
       351  -9.1428     10.8020    144.8735   1.2216063442e+02   4.3012581245e+01    0.1913483    0.1685058  56.26 0.0007175746    1.294    0.227
       352  -9.8969      5.3284    147.2806   1.2369437245e+02   4.2854185570e+01    0.2084318     0.168021 -85.03 0.0005483127    1.062    0.059
       353 -10.2142      6.3114    142.6599   1.2305287217e+02   4.3852220912e+01     0.257085    0.1913287 -69.05 0.0005532737    1.183    0.154
       354 -11.9264     16.7310    140.8862   1.2029197603e+02   4.3490327957e+01    0.9870266    0.5536487  66.96    0.0053322    1.904    0.475
       355  -9.9068     34.8484    131.4910   1.1436320628e+02   4.4160567121e+01    0.3834916    0.1908283 -72.33 0.0009214463    1.754    0.430
       356 -11.3079     34.2101    109.5625   1.1114963274e+02   4.9520298542e+01    0.8114597    0.5435517  38.49  0.004591968    1.722    0.419
       357 -11.5905     47.6324    123.9944   1.0959752735e+02   4.4674691175e+01    0.6554634    0.5284835  84.82  0.003852843    1.272    0.214
       358 -12.6816     35.9635    120.6709   1.1244647904e+02   4.6674288371e+01     1.817466     1.076417  24.25   0.00958688    2.059    0.514
       359 -11.2298     19.1993    119.0285   1.1704429693e+02   4.8494120942e+01    0.8634319    0.2174057 -60.64  0.003435649    2.727    0.633
       360 -10.9708     14.5513    132.3105   1.1993073668e+02   4.5682617108e+01    0.5254555    0.3300357  -4.47  0.001384435    2.511    0.602
