#   1 NUMBER                 Running object number                                     
#   2 MAG_AUTO               Kron-like elliptical aperture magnitude                    [mag]
#   3 X_IMAGE                Object position along x                                    [pixel]
#   4 Y_IMAGE                Object position along y                                    [pixel]
#   5 X_WORLD                Barycenter position along world x axis                     [deg]
#   6 Y_WORLD                Barycenter position along world y axis                     [deg]
#   7 A_WORLD                Profile RMS along major axis (world units)                 [deg]
#   8 B_WORLD                Profile RMS along minor axis (world units)                 [deg]
#   9 THETA_WORLD            Position angle (CCW/world-x)                               [deg]
#  10 FWHM_WORLD             FWHM assuming a gaussian core                              [deg]
#  11 ELONGATION             A_IMAGE/B_IMAGE                                           
#  12 ELLIPTICITY            1 - B_IMAGE/A_IMAGE                                       
         1 -10.6244     28.2410     19.2687   6.3699291905e+01   6.7519044326e+01    0.7281781    0.3686558 -51.87  0.004017246    1.933    0.483
         2 -11.1038     31.1341     11.2662   5.9074176875e+01   6.8555318664e+01     0.575148     0.260348 -30.91  0.002121636    1.954    0.488
         3 -11.0125     35.1722      3.3049   5.3565081695e+01   6.9314338514e+01    0.3695475    0.2143323 -38.62  0.001642842    1.572    0.364
         4 -11.6030    246.2250     32.0942   1.6239243999e+01   1.8965067986e+01    0.6831896    0.3829678 -41.29 0.0007636268    1.655    0.396
         5 -12.3398    132.2043     29.5379   3.3795037930e+01   4.8380803993e+01     1.055384    0.5170755 -13.87 0.0002154126    2.624    0.619
         6 -10.2429     23.2681     24.3561   6.7736794018e+01   6.7063108170e+01    0.8140877    0.2852767 -58.72  0.003180681    3.981    0.749
         7 -11.2921    220.9976     15.3781   1.4535039657e+01   2.7143061726e+01    0.3422576    0.2609112 -67.36 0.0005913079    1.366    0.268
         8 -11.5647    236.2270     30.0739   1.6818886078e+01   2.1642383176e+01    0.5474953    0.4207793  -7.91  0.002885691    1.463    0.316
         9 -10.4430    246.8808     13.9194   1.1529767916e+01   2.0866708987e+01    0.3947711    0.2548711  62.98  0.001122233    1.565    0.361
        10 -12.4079    239.6493     19.2761   1.3603356998e+01   2.2037551655e+01    0.8278441    0.6770012 -25.39  0.001812067    1.237    0.192
        11 -11.6770    228.4631     16.6332   1.4066203538e+01   2.5110353707e+01    0.9053735    0.4599987  42.76  0.003528678    2.335    0.572
        12 -11.0944    180.6842     23.5388   2.2342267058e+01   3.6818025046e+01    0.6117487    0.3780931 -73.49  0.001599781    2.300    0.565
        13 -10.7099      6.7088     22.2041   7.4063836935e+01   6.8629033720e+01    0.5090898    0.1409815 -45.75  0.002481337    2.391    0.582
        14 -11.4859      8.6507     13.5463   7.0157804104e+01   7.0059994872e+01     0.632346    0.2417311 -55.84  0.002096333    2.374    0.579
        15 -12.1292    111.3225     18.9534   3.4773475681e+01   5.4471713085e+01    0.5956702    0.3568245  -6.54  0.002751595    1.888    0.470
        16 -10.1979     39.2758     16.6304   5.7966530204e+01   6.6826409187e+01    0.4814226    0.3298715  32.74  0.003100176    1.748    0.428
        17 -10.1551     39.6382      9.0033   5.4387450839e+01   6.7965747148e+01    0.2178472    0.1551888 -18.35 0.0003746991    1.136    0.120
        18 -11.2154     57.2606     12.7326   4.9088291826e+01   6.5119152764e+01    0.8847725     0.481634  52.45  0.004297002    3.010    0.668
        19  -9.8452     62.9372      9.8889   4.5661142453e+01   6.4666313053e+01    0.1881845    0.1467004  -8.57 0.0003184979    1.054    0.051
        20 -10.0598     47.1572      5.6001   4.9648990787e+01   6.7510712824e+01    0.3425807    0.2014682  25.31   0.00141833    1.791    0.442
        21 -10.1230     48.4345      2.5116   4.7603117086e+01   6.7751958026e+01    0.2401837    0.1936582  41.36 0.0009933204    1.660    0.398
        22 -10.9003     43.5162     12.4260   5.4357431158e+01   6.6987624468e+01     0.214226    0.1831159  -0.87 7.641297e-05    1.199    0.166
        23 -11.4225     45.9784      9.2805   5.1894757545e+01   6.7145882690e+01    0.2340283    0.1829811 -16.21 0.0002857734    1.018    0.017
        24  -9.7605    200.5252     17.6673   1.7661618177e+01   3.2224990001e+01    0.7361806     0.310022  86.32  0.002203646    4.250    0.765
        25 -11.4704    192.9730     18.0519   1.8793716335e+01   3.4178115052e+01     0.393239    0.3252007  46.85   0.00175845    1.192    0.161
        26  -9.5638     76.4116     13.2193   4.2531991393e+01   6.2022548373e+01    0.3642827    0.1743585 -24.07  0.001255102    1.990    0.498
        27  -9.1191     76.3449      9.3105   4.0760283491e+01   6.2532184449e+01    0.2141703    0.1321498  16.68  0.001113324    1.745    0.427
        28  -9.8800     77.8590      6.0683   3.8753029420e+01   6.2654326587e+01    0.2732859    0.1960551 -39.90  0.001110135    1.669    0.401
        29 -11.5278    151.5073     18.8911   2.5808610005e+01   4.4940010636e+01    0.4785678    0.3408149  61.52  0.002370136    1.383    0.277
        30  -9.8295    155.4932     14.9562   2.3669180144e+01   4.4351368665e+01    0.3262628    0.2482412 -22.39 0.0009295918    1.356    0.263
        31 -10.7962    151.8982      4.6097   2.0592669392e+01   4.6293498617e+01    0.6949756    0.3223478  48.30  0.002312965    1.934    0.483
        32 -10.2539    149.6437     11.9578   2.3651029320e+01   4.6156709650e+01    0.3147477    0.2515757  63.63 0.0004916739    1.244    0.196
        33 -11.2776    154.2924      9.9458   2.2097102347e+01   4.5172943433e+01     0.593528     0.351998  83.45  0.001531681    2.199    0.545
        34 -10.4127     80.9660     18.6844   4.3472869309e+01   6.0493415800e+01    0.5058964    0.2014012 -34.57  0.002174668    2.312    0.568
        35 -10.7360     84.4647     13.6408   4.0135495301e+01   6.0531703932e+01    0.4090743    0.3182926  88.87  0.001660601    2.433    0.589
        36 -11.1651    101.0195     16.1414   3.6359120803e+01   5.6993755145e+01    0.5474111    0.3803015  19.67  0.001785869    1.450    0.311
        37  -9.6789    136.6783     16.9028   2.8035803336e+01   4.8855125113e+01    0.3926955    0.2902143   1.46  0.002003118    1.419    0.295
        38 -10.5045    131.4115     13.5582   2.7869690908e+01   5.0495610645e+01    0.3870898    0.2723158 -51.67 0.0007823674    1.803    0.445
        39 -11.5994    123.8940     11.8933   2.8866309387e+01   5.2452159280e+01     0.517478    0.4794346 -60.43  0.002472761    1.322    0.243
        40 -12.6166    128.7793      4.4335   2.4838171656e+01   5.2045478259e+01    0.8975142    0.3849838  53.03  0.003785502    2.027    0.507
        41 -12.5625    187.0714     13.7307   1.8267664914e+01   3.6199291559e+01    0.5921042    0.3888951  -4.81 0.0003892845    1.789    0.441
        42 -12.0078    182.6037     11.5783   1.8212119621e+01   3.7602291585e+01    0.5198883    0.3462652  -7.32  0.001651475    1.714    0.416
        43 -11.0615     24.1261     13.3164   6.3051773375e+01   6.8897156365e+01    0.3882213    0.2365389  -5.38  0.001690129    1.876    0.467
        44 -10.8670     16.1427     13.6015   6.6755099134e+01   6.9515712443e+01     0.205533    0.1468807 -43.32 0.0003305761    1.180    0.152
        45 -10.1462     17.8619      8.5612   6.3867063384e+01   7.0219448590e+01    0.2402561    0.1499855 -45.56 0.0006511412    1.395    0.283
        46  -9.8974    143.5782     11.9637   2.4791324359e+01   4.7683321120e+01    0.4412569    0.3177592 -53.12  0.002184529    1.708    0.415
        47 -11.0930    217.7835      3.8326   1.1680841839e+01   2.9141272899e+01    0.7467308    0.4392281  11.51  0.002858816    2.478    0.596
        48 -11.2709    208.5528     10.3995   1.4535730897e+01   3.0880920413e+01    0.4754454       0.3236  51.78 0.0008738163    1.453    0.312
        49 -10.9469    211.5071      4.3204   1.2469566574e+01   3.0712388199e+01    0.5945533    0.3684364  72.99  0.001949719    1.545    0.353
        50 -10.3898    204.1988      3.7089   1.3091057007e+01   3.2672837839e+01     0.392649     0.315812 -32.71   0.00200647    1.279    0.218
        51 -11.2135    199.3584      3.3926   1.3547240363e+01   3.3970600223e+01    0.8000337    0.3485285  82.11  0.002975193    2.739    0.635
        52 -10.0871     90.9576     10.4421   3.6742979903e+01   5.9692624419e+01    0.4465411    0.2072638  51.39  0.002028344    2.235    0.552
        53 -11.3092     89.6096      3.5390   3.4002791467e+01   6.0726707560e+01     0.492381    0.4285482 -72.34  0.002891196    1.744    0.427
        54 -10.4306    249.4354      6.8182   9.5313331590e+00   2.1001280800e+01    0.3839762    0.2196004 -29.27  0.001931557    1.669    0.401
        55 -10.2889    116.3302      8.3994   2.9184414979e+01   5.4557759878e+01    0.2506702    0.2238712 -67.91 0.0006416972    1.456    0.313
        56 -10.5115    103.1028      8.1176   3.2348463402e+01   5.7485316457e+01    0.3300181     0.236323  51.12  0.001100505    1.420    0.296
        57 -10.5640    106.1054      2.5723   2.9171806533e+01   5.7407885675e+01    0.4427157    0.3352085  88.16  0.002342715    1.995    0.499
        58  -9.2410     98.0295      7.7696   3.3553542606e+01   5.8580437511e+01    0.2738828    0.1580917 -20.40  0.001367388    1.660    0.397
        59 -10.9569    168.2939      5.5831   1.8324300966e+01   4.1955309544e+01    0.5841008    0.3792321   8.51  0.002246937    1.830    0.454
        60  -8.9823    137.5643      7.6053   2.4313829268e+01   4.9610547350e+01    0.2522947    0.1107164 -34.28  0.001016391    2.369    0.578
        61  -9.3816     22.7298      7.9910   6.1368701582e+01   6.9887967776e+01    0.1667903    0.1215668 -24.74 0.0002666996    1.051    0.049
        62  -9.3234     26.3849      6.5148   5.9027837283e+01   6.9773576996e+01    0.1766411    0.1323047 -22.92 0.0004977763    1.020    0.020
        63 -10.9174    236.3305      6.4032   1.0579807768e+01   2.4217340711e+01    0.3701352    0.1909708  50.88  0.001685177    2.070    0.517
        64  -9.6691    178.7025      5.6986   1.6867842064e+01   3.9205234472e+01    0.2319265     0.226699 -43.33 0.0005842126    1.087    0.080
        65 -10.1617    175.9951      3.0149   1.6369697067e+01   4.0165532433e+01    0.2582347    0.2444144 -34.63 0.0005007728    1.128    0.114
        66 -11.5845      3.4292      4.1608   6.8925585332e+01   7.1994018734e+01    0.2644269    0.2187764 -64.15  0.001256017    1.677    0.404
        67 -10.9438      6.7070      2.7036   6.6674262271e+01   7.2018173308e+01    0.2133406    0.1423749 -28.55 0.0004525714    1.144    0.126
        68 -10.1150     16.0677      2.9284   6.2189821527e+01   7.1268438687e+01    0.2880162    0.2564587  54.88  0.002003222    2.007    0.502
        69  -8.9648    229.7062      2.0321   1.0046420584e+01   2.6294266782e+01    0.1834834    0.1675316 -44.39 0.0003713153    1.096    0.088
        70 -10.0734    176.3564     12.3783   1.9377822677e+01   3.9173014677e+01    0.2973167    0.2364899  89.44 0.0002014442    1.370    0.270
        71  -9.0502     64.4811      2.0645   4.1324353676e+01   6.5406146690e+01    0.1935184    0.1056384 -26.74  0.001040865    1.632    0.387
        72  -9.2868     23.9972      2.0553   5.8009140870e+01   7.0683104614e+01    0.1680067    0.1251842 -25.36 0.0003507716    1.064    0.060
        73  -9.4825    224.9983      6.9766   1.1814306459e+01   2.6993262791e+01    0.2281805    0.1460027 -57.34 0.0006580234    1.619    0.382
        74  -8.9394    114.8005      1.2506   2.6549173210e+01   5.5600686980e+01    0.1950743   0.09953816  50.88 0.0004595689    1.748    0.428
        75 -10.9355     39.9489      2.2150   5.0960248910e+01   6.8896888501e+01    0.3267887    0.2154675  46.85  0.001977965    2.295    0.564
        76  -8.2835    138.9993    107.7444   5.6823030415e+01   3.3081862752e+01    0.1773676    0.1271421  46.72            0    1.406    0.289
        77  -9.9601    130.5913    105.1105   5.8181130509e+01   3.5349658754e+01    0.4436381    0.3397955   1.60  0.002103223    1.814    0.449
        78  -9.7143     34.4623    105.0671   8.3221471737e+01   4.9526129277e+01    0.3800495    0.1546867 -74.62  0.001716591    2.500    0.600
        79  -8.7394    136.0625    121.8318   6.0909317828e+01   3.0836663317e+01    0.1874448    0.1674343   4.29 -0.0006383859    1.308    0.236
        80  -8.8449     38.7770    110.9576   8.3010779674e+01   4.7838188375e+01    0.1585976   0.08091587 -65.83 0.0005094284    1.586    0.370
        81  -9.5302    114.3127    104.2688   6.2026563657e+01   3.8690737846e+01     0.231335    0.2081096 -24.03 0.0004772252    1.211    0.174
        82  -8.7447     95.3603    105.1417   6.7122210799e+01   4.1813739461e+01    0.1915495    0.1216493 -62.57 0.0002644501    1.614    0.381
        83  -9.4990     91.9701    103.9070   6.7730422025e+01   4.2626691483e+01    0.3736704    0.2408384 -11.83  0.001502283    3.247    0.692
        84 -11.8321     81.0648    103.1767   7.0462188456e+01   4.4448930635e+01    0.2700761     0.241483 -77.34  0.000300858    1.089    0.082
        85  -9.6226      1.7967    104.6473   9.1462564207e+01   5.2079550085e+01    0.1772526    0.1073417 -68.04 0.0004731713    1.248    0.199
        86 -10.5999    107.0906    103.1575   6.3605500925e+01   4.0238486308e+01    0.3555073     0.250599  30.72  0.001382502    1.665    0.399
        87  -9.8437    127.1846    101.9721   5.8218118360e+01   3.6678604508e+01    0.2226001    0.2064258  49.54 0.0003110507    1.107    0.096
        88  -9.4145     63.6501     98.4541   7.4180849007e+01   4.7836295824e+01    0.1993159    0.1237584  41.63 0.0004702424    1.818    0.450
        89  -9.3715     71.3112     98.5095   7.2089653833e+01   4.6832951008e+01    0.4341125    0.1901992 -55.89  0.001939293    1.988    0.497
        90  -9.7678     67.4111     99.7707   7.3423776708e+01   4.7070885031e+01    0.2359471    0.1807803  -0.58  0.001326229    1.886    0.470
        91  -8.4446    143.4642    100.5065   5.3886917740e+01   3.3571284191e+01    0.1489343     0.145316  -9.55 0.0008093805    1.030    0.029
        92 -10.6043    117.4558     97.0473   5.9397315905e+01   3.9603579137e+01    0.4702938    0.2603201 -45.60  0.001565143    1.731    0.422
        93 -11.1082    101.5068     97.8108   6.3757209638e+01   4.2351855826e+01    0.2885641    0.2434914  62.47 -0.0002256994    1.309    0.236
        94  -9.3267     39.8941     98.5875   8.0714277291e+01   5.0428015656e+01    0.2895544    0.1515088 -69.40   0.00154318    1.666    0.400
        95  -9.6165     35.9216     95.8258   8.1324231554e+01   5.1403832509e+01    0.2068287    0.1661664  87.95 0.0006022544    1.261    0.207
        96  -8.9338     17.0921     98.1409   8.6763283206e+01   5.2446429839e+01    0.1476295    0.1088965 -88.95 0.0002717095    1.245    0.197
        97 -10.9337    107.9534     96.1063   6.1624239047e+01   4.1572201569e+01    0.3776304    0.2379662  46.30 0.0004311579    1.687    0.407
        98  -8.8214     86.7910     96.8177   6.7473784940e+01   4.4969213267e+01    0.1869705    0.1511072 -76.47 0.0008731301    1.329    0.247
        99  -9.2771     26.9406     97.0215   8.3968421061e+01   5.1925518216e+01    0.1734022    0.1376311 -77.53 0.0004352178    1.081    0.075
       100 -10.0523      9.6206     93.7448   8.8143974972e+01   5.3898201781e+01    0.3189481    0.1665235 -88.78  0.001163094    1.956    0.489
       101  -8.5668    164.3154     95.7455   4.7822714956e+01   2.9774927746e+01    0.1477613    0.1223637 -86.89 0.0002418529    1.529    0.346
       102  -8.7595     45.3782     94.0927   7.8387333815e+01   5.0863626099e+01     0.174906    0.1012396 -73.48 0.0006577201    1.696    0.410
       103  -9.7989     16.8493     92.8612   8.6072697175e+01   5.3596469679e+01    0.2924061    0.1273335 -69.56  0.001569981    1.783    0.439
       104  -8.3148      5.3233     94.2958   8.9354199331e+01   5.4050314422e+01    0.1102128   0.06509832 -50.31  0.000257491    1.621    0.383
       105  -8.8271    137.4156     92.2551   5.3100689332e+01   3.6503904708e+01    0.1990983    0.1402319 -51.07  0.000249811    1.478    0.323
       106 -11.0238    126.8200     89.2849   5.4908923180e+01   3.9322845496e+01    0.4048592    0.2570013 -41.97 0.0006641877    1.524    0.344
       107 -10.1580    113.1972     91.5450   5.9048294442e+01   4.1551894101e+01    0.3023382    0.2461228  12.04  0.001047387    1.504    0.335
       108  -8.7161     90.5823     92.4790   6.5383192090e+01   4.5304908585e+01    0.1377764    0.1239705 -55.80 0.0001115045    1.024    0.024
       109  -8.5662     66.8180     91.8220   7.1872089407e+01   4.8881203180e+01    0.1656184    0.1375934 -89.00 0.0002284714    1.324    0.245
       110 -12.4403     34.9045     89.4738   8.0484520489e+01   5.2876379083e+01    0.3435738    0.2380252  81.84   0.00208056    1.697    0.411
       111  -9.7647     33.8351     83.8029   7.9733584451e+01   5.4198511566e+01    0.2260147    0.1573708 -61.14 0.0005289289    1.138    0.121
       112  -9.9222    100.9377     89.2447   6.1715679964e+01   4.4257899407e+01    0.2995319    0.2192809 -22.27  0.001019769    1.682    0.406
       113 -12.1586    105.2542     81.1697   5.8315415352e+01   4.5155559578e+01    0.6709806    0.4729778 -28.17  0.001153417    1.557    0.358
       114 -11.0245    111.9911     82.8863   5.6973515435e+01   4.3550040885e+01     0.259622    0.2395713  10.43            0    1.157    0.136
       115  -8.9553     48.2386     89.9131   7.6760248956e+01   5.1476743109e+01    0.2542544    0.1402719  62.49  0.001104216    2.804    0.643
       116  -9.3775    139.0995     88.3018   5.1580156860e+01   3.6911343725e+01    0.3011013    0.2124245 -47.19  0.001311295    1.432    0.302
       117  -9.5024    109.5568     88.2431   5.9119795367e+01   4.2914494663e+01    0.2884041    0.1330423 -51.29  0.001131003    2.198    0.545
       118  -9.6776     54.8098     88.6855   7.4616411278e+01   5.1021899498e+01    0.2722937    0.2363471  38.27  0.001466572    1.360    0.265
       119 -11.7940     12.8974     88.0627   8.6450460746e+01   5.4895139893e+01    0.1980852    0.1589197 -72.38  0.001469024    1.064    0.060
       120  -9.9606    119.5555     87.4652   5.6266491395e+01   4.1154592769e+01    0.3693412    0.2684951  67.16  0.001309385    1.764    0.433
       121 -10.6869     84.0519     86.6370   6.5735285462e+01   4.7571222172e+01    0.2921544     0.250077  85.03  0.000325998    1.372    0.271
       122  -9.0859    131.1967     86.6099   5.3049924703e+01   3.8940848795e+01    0.2040198    0.1855017  34.57  0.001093636    1.131    0.116
       123  -9.4344    156.8822     85.9416   4.6720931109e+01   3.3326804343e+01    0.2392545    0.2047603   3.72 0.0005320598    1.289    0.224
       124  -9.7694     75.6110     83.1476   6.7274072131e+01   4.9557756141e+01    0.5015161    0.2810766 -64.35  0.002316732    2.024    0.506
       125 -10.2533     79.9404     80.9806   6.5451147667e+01   4.9388246026e+01    0.2151863    0.1950896 -32.38 0.0003033446    1.107    0.097
       126 -10.0582     59.1735     85.2015   7.2577767584e+01   5.1266883521e+01    0.3397748    0.2062919  32.27  0.001840538    1.956    0.489
       127 -10.4696    121.3509     82.5967   5.4412926920e+01   4.1769671864e+01    0.3912466    0.2965799  66.60  0.001839646    1.637    0.389
       128  -8.7070     95.1807     84.1710   6.1946820420e+01   4.6304654831e+01    0.1795842    0.1549313 -68.45 0.0003570818    1.238    0.192
       129  -9.9766    187.8889     82.9329   3.9301692615e+01   2.6339551230e+01    0.2485376     0.217946 -45.13 0.0002616616    1.187    0.157
       130  -9.4054      1.9622     83.1436   8.8796901913e+01   5.6600911574e+01    0.1571732    0.1463636  70.58  0.001161249    1.335    0.251
       131 -10.1635     87.0523     80.0825   6.3145801338e+01   4.8485552155e+01    0.3223043    0.1793743 -45.57            0    1.621    0.383
       132 -11.0868     53.8975     80.9020   7.3156080968e+01   5.2807653401e+01    0.2429097    0.1770175 -62.68 0.0002759694    1.217    0.178
       133  -9.6851     22.8097     80.3281   8.2339096594e+01   5.5847822819e+01     0.321615    0.1067662 -61.45  0.001515856    2.179    0.541
       134  -8.4941    138.2782     81.3070   4.9752385042e+01   3.8435612384e+01    0.1500455    0.1180448   2.73 0.0002482567    1.554    0.356
       135  -9.9636    150.7139     78.9969   4.6095971143e+01   3.6042479778e+01     0.315715     0.218677 -32.86 0.0003615846    1.441    0.306
       136 -10.5965    151.9671     73.5199   4.4147399509e+01   3.6736599840e+01    0.3686065    0.2528762 -33.65 0.0009468356    1.443    0.307
       137 -11.5970     45.9765     72.9505   7.3723214508e+01   5.5363569065e+01    0.4518254    0.3377631 -86.54 0.0005137821    1.636    0.389
       138 -11.9920     51.2170     69.9484   7.1335203196e+01   5.5436358524e+01    0.3781979    0.2182877 -63.67 0.0005284496    1.707    0.414
       139  -9.8060     42.5306     67.9194   7.3604407073e+01   5.6774740457e+01    0.2084191    0.1886316 -46.11 0.0007918385    1.121    0.108
       140 -10.7498     43.8903     60.7583   7.1326739581e+01   5.8126580266e+01    0.5035306    0.2133587 -54.44   0.00119724    1.912    0.477
       141  -9.0456    187.2165     76.1811   3.7489272727e+01   2.7626887241e+01    0.2033816    0.1804037 -68.78 0.0003040914    1.287    0.223
       142 -10.3654    123.6724     76.0721   5.1875153592e+01   4.2569822021e+01    0.3925341    0.2116875  50.48  0.001640729    1.994    0.499
       143 -11.5245      7.9790     74.1001   8.5691053698e+01   5.8165547438e+01    0.2639016     0.187253 -31.84 0.0007039814    1.643    0.391
       144  -9.9773     56.4535     73.0937   7.0488523720e+01   5.4176523572e+01    0.4136193    0.1789907 -42.22  0.001284909    2.242    0.554
       145 -10.1545     62.7750     70.8451   6.7932587336e+01   5.3877096892e+01    0.3553855    0.2043024  41.10  0.001844251    2.041    0.510
       146 -10.9873    136.4371     71.5826   4.7252554607e+01   4.0661571442e+01    0.4805798    0.4382475 -62.42   0.00256803    1.218    0.179
       147  -9.6325    142.7344     71.0328   4.5547535029e+01   3.9334474995e+01    0.2998902    0.2292426  55.63 0.0003976739    1.388    0.279
       148 -10.4421     83.0682     72.3560   6.2149871329e+01   5.0706798941e+01    0.4726731    0.3743397 -61.14  0.001302131    1.329    0.248
       149 -10.3782     81.0034     63.5040   6.0137550363e+01   5.2810329890e+01    0.6767856    0.2171557 -39.67  0.002341681    3.195    0.687
       150 -10.3549     74.0243     67.3382   6.3448148639e+01   5.3081301714e+01    0.2554142    0.2225354 -24.60 0.0004695757    1.141    0.124
       151  -9.7734     77.4693     66.3999   6.2106122838e+01   5.2767870816e+01    0.2142771    0.2001718 -65.41 7.207235e-05    1.190    0.160
       152  -9.8475     23.6804     72.5072   8.0597381163e+01   5.7448948949e+01    0.2802338    0.1646979 -80.83  0.001579719    1.881    0.468
       153  -9.0019    183.0697     72.1485   3.7112686520e+01   2.9329479573e+01    0.2326259    0.1952654  23.99 0.0002438468    1.257    0.205
       154 -11.5433    157.6128     67.2253   4.0920296880e+01   3.6478383985e+01    0.7440339    0.4544411 -33.21  0.002899904    1.622    0.384
       155 -10.3729    161.0437     64.7770   3.9399966083e+01   3.6050422347e+01    0.3429803    0.2582842 -23.86 0.0008205688    1.357    0.263
       156  -9.5442     61.0699     76.0391   6.9810949236e+01   5.2997774789e+01    0.1827175    0.1609942 -58.88  0.001172089    1.081    0.075
       157 -11.0651     30.5490     71.1619   7.8168868779e+01   5.7186222281e+01    0.2017962    0.1778316 -37.33 5.168513e-05    1.218    0.179
       158 -10.7378     17.2511     70.6643   8.2241993891e+01   5.8301851804e+01    0.2389445    0.1824097 -65.22 0.0006788586    1.052    0.050
       159  -9.8828    105.2258     70.1246   5.5047258264e+01   4.7364507971e+01    0.5141662    0.2779996  22.08  0.001853556    3.335    0.700
       160 -11.7228    111.0505     65.8526   5.2079830840e+01   4.7069939158e+01    0.2677613    0.2326461 -33.50 0.0002632995    1.079    0.073
       161  -9.8006    164.9334     69.8408   4.0134797883e+01   3.4241931369e+01    0.2793274    0.2378985  62.51  0.001393066    1.251    0.200
       162 -10.3224     34.8829     67.8210   7.6043380633e+01   5.7516615292e+01    0.2816976     0.208523 -88.27  0.001750118    1.651    0.394
       163  -9.4351     34.8500     61.6464   7.4575440399e+01   5.8809688829e+01    0.3613479    0.1552638 -37.90  0.001589514    2.539    0.606
       164 -10.8591    180.9345     63.9402   3.5062637894e+01   3.1188491614e+01    0.4342094    0.2847935 -24.89 0.0005757113    1.576    0.365
       165  -9.8800    177.0589     64.0096   3.5842554578e+01   3.2163363098e+01    0.2279614    0.2211209  22.78 0.0003978505    1.013    0.013
       166  -9.0750     84.9860     67.2074   6.0054470672e+01   5.1447159356e+01    0.1904853    0.1753223 -71.08 0.0003781777    1.241    0.194
       167  -8.9868     10.0892     66.8971   8.3787181642e+01   5.9553023129e+01    0.2226735    0.1207703  59.48  0.001215944    2.791    0.642
       168 -10.2846    194.7283     65.7173   3.3018244478e+01   2.7387843560e+01    0.3191338    0.2457893 -24.27 0.0002524921    1.307    0.235
       169  -9.5135    191.0426     61.4190   3.2407359292e+01   2.8989934613e+01    0.4682674    0.1932445  48.82  0.001659041    2.371    0.578
       170  -9.9823    147.1435     65.9905   4.2913880546e+01   3.9199383356e+01    0.3803018    0.1995034  63.60   0.00139585    2.532    0.605
       171  -8.7468    121.6691     66.2285   4.9330953975e+01   4.4845972518e+01    0.2149976    0.1314588 -29.95 0.0009395762    1.682    0.406
       172  -9.5978     60.4959     65.3905   6.7158465334e+01   5.5293090523e+01    0.4321597    0.2815659 -11.53   0.00218156    2.250    0.556
       173 -10.6197     57.7986     57.7881   6.5841643003e+01   5.7169626910e+01    0.4985467    0.3558834  87.64  0.002548622    2.477    0.596
       174 -10.1974     61.7969     57.2033   6.4338332208e+01   5.6784231100e+01    0.2770033    0.1812458 -43.52  0.000243859    1.291    0.225
       175 -10.0390    152.9756     64.9839   4.1252432927e+01   3.7981947403e+01    0.3153675    0.2449768 -15.38  0.001507725    1.378    0.274
       176  -9.9806    147.0342     61.7289   4.1570413486e+01   3.9955492980e+01    0.2311145    0.2143963 -15.65 0.0003624618    1.051    0.048
       177 -12.7326    151.1846     57.5473   3.9257598655e+01   3.9653935321e+01    0.4396403    0.3971809  84.68 0.0007738095    1.285    0.222
       178  -9.5600     25.9401     65.1756   7.8342827734e+01   5.8821255476e+01    0.1674737    0.1603232  45.30 0.0008958865    1.327    0.246
       179  -9.6533      1.9101     63.9882   8.5860291044e+01   6.0613169281e+01    0.1701376    0.1243557 -68.54 0.0006021877    1.077    0.072
       180  -8.8697    172.5116     63.0434   3.6454971965e+01   3.3469480724e+01    0.2286204    0.1527912 -27.43 0.0004454209    1.517    0.341
       181  -9.7906    167.0192     62.1671   3.7309598221e+01   3.4992994143e+01    0.4148411    0.2579937  14.21  0.001563565    2.462    0.594
       182 -10.0659    132.1721     61.5653   4.5107760563e+01   4.3412408597e+01    0.4915158    0.2375929 -50.89  0.001769882    2.694    0.629
       183  -8.6168    200.1846     61.1248   3.0708675979e+01   2.6685108199e+01    0.2026983    0.1750381 -61.76 0.0003019983    1.278    0.218
       184  -8.9145     77.4017     71.2012   6.3525371806e+01   5.1800270655e+01    0.1909714    0.1180106 -57.95 0.0007072333    1.662    0.398
       185  -9.6546    109.4154     57.4892   4.9784631979e+01   4.8937759208e+01    0.5343504     0.205502 -37.55  0.001971348    2.477    0.596
       186  -8.4299    105.5076     57.5116   5.0895766096e+01   4.9695280015e+01    0.4848185    0.3191991 -67.32  0.000769791    2.568    0.611
       187 -10.6195     22.0482     60.8911   7.8672794073e+01   6.0010155079e+01    0.1888614    0.1414722 -52.11  0.001303093    1.060    0.057
       188 -10.1186    218.7299     59.4383   2.7221620466e+01   2.2207048796e+01    0.2748657    0.2493414 -37.76 0.0005492858    1.085    0.078
       189  -8.9792     53.3343     58.8662   6.7645701992e+01   5.7484498323e+01    0.3420373    0.1122699 -61.63 0.0008916087    6.532    0.847
       190 -11.1048    161.2539     56.5991   3.6747901212e+01   3.7326184102e+01    0.4312214     0.325573 -45.03 0.0004687128    1.401    0.286
       191  -9.7332    161.9419     52.3185   3.5212725922e+01   3.7820492790e+01    0.2848939    0.2337153  42.03 0.0003918097    1.199    0.166
       192  -9.0401      4.4668     58.5826   8.4047864532e+01   6.1597674066e+01    0.2559547   0.08219054 -65.52  0.001239664    2.276    0.561
       193  -9.3966    197.0109     57.9696   3.0322878895e+01   2.7968577016e+01    0.2280879    0.2048518 -62.37 0.0003364112    1.206    0.171
       194 -10.4451    200.0998     54.7696   2.8849289103e+01   2.7636122297e+01    0.3634205     0.336369  45.47  0.001944366    1.077    0.071
       195 -10.4612    185.1055     57.3257   3.2253120238e+01   3.1138299461e+01    0.4223444    0.2394709 -32.32 0.0003133799    1.736    0.424
       196 -10.0710    173.3138     52.1006   3.2853962463e+01   3.4959773640e+01    0.6701871    0.2932817 -45.35  0.002335497    2.638    0.621
       197 -10.2668    179.1874     53.0981   3.2046291948e+01   3.3298222916e+01    0.4476444    0.3963796 -70.01  0.001688021    1.275    0.215
       198 -10.2823     94.2079     56.4050   5.3824041590e+01   5.1985115609e+01    0.3785306     0.364315 -51.96  0.001594449    1.180    0.152
       199  -9.8926      8.2495     56.9410   8.2458761622e+01   6.1727090241e+01       0.1781    0.1452802 -33.47 0.0006053619    1.324    0.245
       200  -9.8189    222.9019     55.4223   2.5477065728e+01   2.1719724420e+01    0.2928841    0.2212656 -13.93  0.000915197    1.402    0.287
       201 -10.0529     26.6364     48.2707   7.3949443716e+01   6.2233958341e+01    0.2310071    0.1592499 -33.08 0.0006704084    1.374    0.272
       202 -10.0037     17.4804     27.8886   7.1371894510e+01   6.6867891138e+01    0.4735752    0.3582799 -37.88  0.003445152    1.051    0.049
       203  -9.1251    107.0749    246.5503   8.4962766885e+01   1.3532197708e+01     0.150672    0.1187388  73.85  0.000728288    1.189    0.159
       204 -11.0547     31.1241     32.0531   6.7256973581e+01   6.4977569537e+01    0.4871482    0.3064346 -72.61  0.002190483    2.773    0.639
       205 -10.5849     35.0384     26.4906   6.3682908108e+01   6.5608677515e+01     0.353128    0.3250528 -41.56  0.001747083    1.318    0.241
       206 -11.4308     76.8178    219.6732   8.7503067949e+01   2.1832655206e+01    0.4846815    0.3302081  28.57  0.002319511    2.266    0.559
       207 -10.6358     69.2328    217.4208   8.8570746895e+01   2.3194682601e+01    0.3084678     0.165946  71.90  0.001926136    1.772    0.436
       208 -10.8466     19.8660     55.4029   7.8153369762e+01   6.1300254197e+01    0.2555397    0.1515349 -49.88 0.0004259794    1.297    0.229
       209 -10.2622     10.6473     52.2174   8.0627094709e+01   6.2553898645e+01    0.2515803    0.1809193 -84.19   0.00100796    1.577    0.366
       210 -10.8736     18.0772     50.2454   7.7538918967e+01   6.2475974595e+01    0.4146048    0.2944856  -1.91  0.002149585    1.781    0.438
       211  -9.4504    133.3570     52.0155   4.1601099463e+01   4.4765465982e+01    0.4576085    0.3201595  89.81  0.001906325    2.452    0.592
       212  -9.5234    111.6456     49.8924   4.6536790150e+01   4.9824538395e+01    0.3816319    0.2727739 -81.70 0.0008683875    2.609    0.617
       213 -10.0384    117.6190     51.5948   4.5506457349e+01   4.8296649220e+01    0.3191967    0.2582442  -1.76  0.001665317    1.308    0.236
       214 -10.7123    127.9155     52.5043   4.3131425676e+01   4.5912250922e+01    0.5665359    0.3035597 -40.32  0.001565646    1.855    0.461
       215 -11.8259    122.5592     50.0495   4.3657153850e+01   4.7498664143e+01    0.3887045     0.289172 -42.45  0.001315334    1.384    0.278
       216 -11.0996     85.4646     47.4353   5.3404929002e+01   5.5130060698e+01    0.9885186    0.4476576 -24.05  0.003377076    3.697    0.730
       217 -11.0319     91.0280     43.8289   5.0369112656e+01   5.4801267333e+01    0.3774147    0.3322433  24.91 0.0004025489    1.185    0.156
       218  -9.3641     68.8421     53.4752   6.0834271569e+01   5.6567128281e+01    0.2266895    0.1575178 -42.26 0.0003208196    1.241    0.194
       219  -9.7016    206.0202     52.7425   2.7287320648e+01   2.6394610780e+01    0.2097335    0.1947583  57.80 0.0003951622    1.086    0.079
       220  -9.0884     44.5021     53.1444   6.8990387681e+01   5.9608283182e+01    0.2643847    0.1330157 -47.60   0.00102438    1.587    0.370
       221  -9.2318     45.4166     48.7940   6.7364200513e+01   6.0373345235e+01    0.2005177    0.1037814 -50.63 0.0009080322    1.595    0.373
       222 -12.5670      2.1650     51.1406   8.3356047313e+01   6.3238643824e+01    0.3402125    0.1493137 -46.69 0.0006735749    1.804    0.446
       223 -11.2688     34.6593     38.6223   6.8087774070e+01   6.3418909848e+01    0.4728253    0.4256464  18.08  0.003467019    1.363    0.266
       224 -11.6271    233.1665     48.2797   2.2091990734e+01   2.0124079758e+01    0.2782626    0.2659933 -46.88 0.0002866988    1.024    0.024
       225 -10.4472    211.9412     49.5965   2.5455256343e+01   2.5305395467e+01    0.3371922    0.2636409  87.45  0.001033047    1.473    0.321
       226  -9.9095    201.4760     49.8752   2.7171714170e+01   2.7972053710e+01    0.2868201    0.2454177  69.81 0.0008399925    1.213    0.175
       227  -8.6436     73.6436     50.2937   5.8198459001e+01   5.6478118853e+01    0.1243952    0.1055107 -83.81 0.0007031136    1.691    0.409
       228  -9.4547    193.9252     48.6930   2.8061403889e+01   3.0102898238e+01    0.2999326    0.2732586 -89.38   0.00158226    1.184    0.156
       229  -8.8880    192.1199     44.1756   2.6984489910e+01   3.1199033966e+01    0.2764969    0.1714263 -48.61 0.0006076017    1.784    0.439
       230  -9.1638     88.8087     65.1432   5.8271145269e+01   5.1235500990e+01    0.2058892    0.1807443 -70.19  0.001022577    1.345    0.256
       231 -12.3681    140.2606     38.0267   3.5047797574e+01   4.5290458656e+01    0.4416595    0.4216744 -27.46 0.0003348574    1.107    0.096
       232 -12.0240    138.1340     47.4951   3.8882596651e+01   4.4380853004e+01    0.3514046    0.3128871  55.63 0.0004220613    1.193    0.162
       233 -10.0321    134.5068     43.5464   3.8361209027e+01   4.5839592941e+01    0.2698939    0.2343817  25.12 0.0005215185    1.127    0.113
       234  -9.2257    103.8479     49.0132   4.8427290304e+01   5.1525561859e+01    0.2162363    0.1869534 -44.27  0.001210254    1.227    0.185
       235  -9.2114    151.3415     48.3089   3.6146888341e+01   4.1073525988e+01    0.1622559    0.1127507  22.36 0.0007044153    1.691    0.409
       236  -9.4187     62.9782     47.8114   6.0925554743e+01   5.8452085301e+01    0.2532205    0.1692815 -50.54  0.001407798    1.433    0.302
       237 -10.5948     89.1553     38.1708   4.8829508079e+01   5.6086807615e+01    0.3883282    0.2415403 -26.93  0.000257884    1.529    0.346
       238 -12.2792    163.3883     42.5986   3.1708308247e+01   3.8887381429e+01    0.3974772    0.3531137  79.33 0.0005325624    1.250    0.200
       239  -9.4968    158.0395     39.0196   3.1575748690e+01   4.0750281831e+01     0.272777    0.2094968  49.85 0.0005488647    1.260    0.206
       240  -9.2023    160.9833     37.2460   3.0384194358e+01   4.0243796614e+01    0.2209235    0.2085819 -73.49  0.000352093    1.177    0.151
       241  -9.1486    129.5743     46.2587   4.0530138830e+01   4.6553606893e+01    0.2034045     0.139156 -17.99 0.0007994606    1.547    0.354
       242  -9.8830    108.7592     44.0763   4.5247785024e+01   5.1383644409e+01    0.4015343    0.2570083  62.27  0.001824034    2.128    0.530
       243  -9.2836     73.5201     45.0337   5.6410297414e+01   5.7467466153e+01    0.2061341    0.1162542 -41.89  0.000867131    1.568    0.362
       244  -8.8439     67.3599     45.1716   5.8526757013e+01   5.8342583987e+01    0.2668661    0.1917287 -80.60  0.001278394    2.747    0.636
       245  -9.0361     70.4576     43.5664   5.6910816492e+01   5.8189383453e+01    0.1723557     0.120177  19.60 4.153821e-05    1.649    0.394
       246  -8.9558    180.0094     44.5149   2.9186222645e+01   3.4320521391e+01    0.2181687     0.135284 -86.43 0.0008104474    2.588    0.614
       247  -9.2888    154.4523     44.5163   3.4190455006e+01   4.0869198128e+01    0.3285183    0.1448836  55.41  0.001220446    2.212    0.548
       248  -9.2226     78.5571     44.1919   5.4452084738e+01   5.6838391862e+01    0.2260863    0.1764143  61.72   0.00079035    1.838    0.456
       249  -9.4480     18.5658     42.5693   7.5364221574e+01   6.3976289122e+01    0.2263373    0.1566395  84.11  0.001339826    2.352    0.575
       250  -9.2936    218.2241     41.5660   2.2248384764e+01   2.4759570167e+01    0.2555975    0.1766298  54.83 0.0008644671    1.442    0.307
       251  -9.4339    209.8766     41.4928   2.3413974819e+01   2.6920679567e+01     0.323266    0.1675743 -42.53  0.001316362    1.955    0.489
       252  -9.3985     97.4864     41.7396   4.7640256456e+01   5.3972211329e+01    0.2268871    0.1862447  37.86  0.000573376    1.285    0.222
       253  -9.6061     27.6599     41.7356   7.1706267145e+01   6.3440619813e+01     0.202052    0.1382685 -36.41 0.0007212507    1.251    0.201
       254 -10.3881    239.8916     40.2367   1.9092033685e+01   1.9503704435e+01    0.5143166    0.3007021  26.78  0.002137546    2.487    0.598
       255  -9.8531    250.6754     37.7446   1.7204724659e+01   1.7223147152e+01    0.3206992    0.1316756 -23.75  0.000744456    2.493    0.599
       256 -10.2694     73.7384    213.9583   8.7526464706e+01   2.3195161410e+01     0.304432    0.2536474  67.02  0.001616355    1.182    0.154
       257 -10.7202    230.6021     39.4194   2.0014464326e+01   2.1899713282e+01    0.3163737    0.2580965 -52.49 0.0006127306    1.229    0.186
       258  -9.3782    226.6680     37.6716   2.0034455701e+01   2.3106828461e+01    0.2676338    0.2065119  56.15  0.001385182    1.312    0.238
       259  -9.7701     55.9899    216.8412   9.0697563665e+01   2.4934744844e+01     0.162459    0.1144689  88.77   0.00074729    1.232    0.188
       260 -10.7095    123.9798     30.6895   3.6201089783e+01   5.0128919081e+01    0.2654623    0.2645269  48.01 0.0003540736    1.170    0.145
       261  -9.8189    119.9833     36.7061   3.9485228138e+01   5.0161592608e+01     0.417159    0.2807658  61.42  0.001980629    1.770    0.435
       262  -9.2939    113.4445     40.0362   4.2462843801e+01   5.1062333215e+01    0.2985461    0.2146358  11.95 0.0008943873    1.592    0.372
       263  -9.9650    115.3174     35.4926   4.0250704806e+01   5.1356115230e+01    0.5217431    0.1918196 -37.06  0.001770581    2.625    0.619
       264  -9.7951     75.3929     40.0355   5.3968113267e+01   5.8069118483e+01    0.2084411    0.1873358  32.04 0.0006654524    1.280    0.219
       265  -9.7701    201.6268     37.6733   2.3508303835e+01   2.9565958267e+01    0.4426067    0.2094865 -48.62  0.001643379    2.469    0.595
       266 -10.3902     84.3291     36.4199   4.9679281170e+01   5.7218101901e+01    0.4838808    0.3089187 -32.78  0.002531173    1.411    0.291
       267  -8.5780     80.9572     39.0601   5.1774018148e+01   5.7343481928e+01    0.1604605    0.1371996 -21.24 0.0003141057    1.017    0.017
       268  -9.1374     79.4360     33.4380   5.0101291280e+01   5.8531104811e+01    0.1883252    0.1137592 -42.08 0.0004730671    1.624    0.384
       269 -10.5822     73.7666     35.1335   5.2651896410e+01   5.9162336793e+01    0.4699701    0.2459413 -28.98  0.001597472    1.869    0.465
       270  -9.3605     73.3598     30.8666   5.1109854838e+01   5.9931203177e+01    0.1861385    0.1584772  -2.14  0.001159024    1.097    0.088
       271  -9.4801     76.6414     30.2685   4.9763864958e+01   5.9501127632e+01    0.2328115    0.1743236  33.87 0.0006557616    1.423    0.297
       272  -9.1206     59.5407     31.9633   5.6399044924e+01   6.1774502673e+01    0.1821289    0.1354922 -31.94 0.0005306944    1.124    0.111
       273  -9.6840     51.9204     28.1488   5.7723390558e+01   6.3419636672e+01    0.2061599    0.1716217 -62.40 0.0004262698    1.685    0.406
       274 -10.7070     62.7151     37.1998   5.7255828053e+01   6.0430029177e+01    0.3464412    0.3226012 -79.98  0.002275182    1.503    0.335
       275  -9.8869     58.2548     37.9727   5.9126650637e+01   6.0890831813e+01    0.2522165     0.188105 -56.01 0.0008590449    1.572    0.364
       276 -10.0180     54.6519     37.2586   6.0166054635e+01   6.1480191047e+01    0.2433563    0.1716449 -30.23 0.0002864343    1.219    0.180
       277 -10.8551     54.0621     33.3523   5.8934630394e+01   6.2250307507e+01    0.2894896     0.188574 -40.22 0.0003719366    1.298    0.230
       278 -10.0046    194.6086     37.3930   2.4502505728e+01   3.1445165243e+01    0.2874546    0.2414954 -57.23 0.0004992689    1.277    0.217
       279  -9.1970    110.4405     37.2264   4.2227291211e+01   5.2125417766e+01     0.265644    0.1339394 -26.18  0.001108033    2.027    0.507
       280  -9.6675      2.0516     37.9827   8.0442758951e+01   6.5874422569e+01    0.1668799    0.1167353 -49.53 0.0004082792    1.070    0.066
       281  -8.3519    100.9967    215.2113   8.2986989603e+01   1.9196786447e+01    0.1393885   0.07554759  46.97            0    1.540    0.351
       282  -9.0445    186.0495     36.0244   2.5456661556e+01   3.3875481640e+01    0.1881122    0.1684827  57.67 0.0006733658    1.094    0.086
       283 -10.5627    154.5599     34.0753   3.0579297180e+01   4.2302609071e+01    0.5386659     0.374423 -33.85  0.001325682    1.460    0.315
       284 -10.0169    149.1803     33.3890   3.1448180779e+01   4.3744422655e+01    0.2503954    0.2317037 -25.31 0.0004069458    1.111    0.100
       285  -9.1671     43.7952     34.8865   6.3341722345e+01   6.3184949654e+01    0.4711056    0.1707861 -57.17   0.00161669    4.584    0.782
       286  -8.4367    106.7625     34.9763   4.2388207713e+01   5.3226019075e+01    0.1628474    0.1114775 -27.41            0    1.381    0.276
       287  -8.4603    179.2948     34.3370   2.6054663937e+01   3.5869894544e+01    0.1588599     0.110644  25.83 0.0007028729    1.649    0.393
       288  -9.5361    170.5900     33.8335   2.7423152281e+01   3.8213679282e+01    0.2708048    0.2171411  88.26 0.0006436667    1.461    0.316
       289  -9.7405    170.5678     30.0913   2.6184445468e+01   3.8693961101e+01    0.4266739    0.2629877  44.99  0.001900951    1.588    0.370
       290  -9.0023     91.3094    214.5580   8.4590630224e+01   2.0700470943e+01    0.2145732   0.08463383  47.76   0.00100642    2.053    0.513
       291  -9.4545    123.9454    206.0182   7.7880657988e+01   1.7177286944e+01    0.1663345    0.1359433  60.48  0.001134141    1.014    0.014
       292 -10.0873    222.9748     22.0548   1.6161662964e+01   2.5903781633e+01    0.4528671    0.2379792 -45.61  0.001464275    1.917    0.478
       293  -8.4786    133.0301    198.9805   7.5302490916e+01   1.6846978794e+01     0.136707     0.112922  56.32            0    1.014    0.013
       294  -8.8047    223.0259    188.0430   5.7067411572e+01   2.1515801001e+00    0.1486589    0.1209557  26.64            0    1.019    0.019
       295  -8.9700      1.0000    184.5941   9.7680051418e+01   3.6252317873e+01    0.2102087   0.04292311 -77.72  0.000929189    3.890    0.743
       296 -11.8822     31.3774     52.3148   7.3353383737e+01   6.1025767937e+01    0.6888525    0.3238613 -45.36  0.003696565    1.706    0.414
       297  -9.1237    223.4882     30.9456   1.8570347300e+01   2.4737544807e+01    0.2156427    0.1892139  71.47  0.000408618    1.144    0.126
       298  -9.9868    216.7605     30.2058   1.9214207554e+01   2.6551253306e+01    0.3853769    0.2467555 -51.48 0.0009964211    1.659    0.397
       299  -9.2009    209.4226     30.7501   2.0344233058e+01   2.8389304608e+01    0.2015525    0.1425528  -7.55 0.0009459838    1.627    0.385
       300  -9.3863    180.3657     29.1809   2.4213173517e+01   3.6232837114e+01    0.2760034    0.1941425 -35.73  0.001313693    1.447    0.309
       301  -8.8789    201.1580     29.5421   2.1138702440e+01   3.0700147341e+01      0.20926    0.1427022  66.68 0.0003941687    1.453    0.312
       302  -8.7410    147.0221     29.0843   3.0365888139e+01   4.4844510771e+01    0.1748106    0.1610732  32.47            0    1.028    0.027
       303 -10.4898     82.3139     27.2180   4.6655218576e+01   5.9021582952e+01    0.4245592    0.2991148 -37.28  0.002088269    1.396    0.284
       304 -10.2809     47.2525     28.8603   5.9780159280e+01   6.3865258383e+01    0.2161838     0.164226  18.61 0.0007037707    1.455    0.313
       305  -9.3088      2.6622     29.2876   7.7915119105e+01   6.7526734345e+01     0.168104    0.1313798 -40.23 0.0007188992    1.137    0.121
       306 -10.1096     71.5281     26.5871   4.9994413315e+01   6.0901827618e+01    0.3763981    0.2041329  34.06  0.001895038    1.991    0.498
       307  -8.9334     11.0388     27.2349   7.3836514735e+01   6.7429719656e+01    0.1556322    0.1171409 -39.94 0.0008009745    1.063    0.059
       308  -8.8455    206.9817     26.0263   1.9289520432e+01   2.9588130550e+01    0.1832418    0.1600619 -27.15 0.0009877573    1.163    0.140
       309  -9.9485    100.9785    176.0178   7.8358788754e+01   2.6178833057e+01    0.1743948     0.149404  72.69  0.001152494    1.005    0.005
       310  -9.8788    177.7290     19.3078   2.1433556402e+01   3.8076030918e+01    0.2293899    0.2122748  53.09  0.000177975    1.029    0.029
       311  -8.6503      6.5196    168.4849   9.5788605232e+01   3.8804606198e+01    0.1048834   0.07357371  83.15 0.0004092815    1.025    0.025
       312 -11.0697      4.6266    163.0107   9.5777476956e+01   4.0010830364e+01    0.2390819    0.1423693  49.26 0.0002893434    1.650    0.394
       313 -10.7869    126.7641     34.0205   3.6771164262e+01   4.9029460693e+01    0.5484499    0.2268951 -27.01 -0.000430966    2.467    0.595
       314 -10.8078     67.0424     22.0343   4.9644268967e+01   6.2299869831e+01    0.4005514    0.2758581   3.03  0.001408206    1.564    0.360
       315  -9.6995    248.9191     22.7529   1.3569394590e+01   1.9405399799e+01    0.2292891    0.1879368 -35.84 0.0008796741    1.152    0.132
       316  -9.9369    211.9623     22.3853   1.7584281522e+01   2.8706118251e+01    0.2844791    0.2505871  73.49 0.0004641836    1.115    0.103
       317  -9.4375    164.9365     22.4210   2.4593106818e+01   4.1082782034e+01    0.2700052     0.204103  40.88  0.001270816    1.284    0.221
       318 -10.7048      6.1261    159.1239   9.5238070842e+01   4.0646742544e+01    0.2647073    0.1072438 -69.32  0.001581611    1.977    0.494
       319 -11.1895    112.2723     15.3026   3.3030193350e+01   5.4702923765e+01    0.2282228    0.1928034  25.58            0    1.079    0.073
       320  -9.9525     51.0035     22.8776   5.5934377343e+01   6.4413024258e+01    0.2855505     0.182491 -32.29 0.0008880288    1.290    0.225
       321 -11.7634     55.2469     19.5740   5.2909083626e+01   6.4381059594e+01    0.2399544    0.1967469 -11.81 0.0003670457    1.053    0.051
       322 -11.0503     15.6503    154.5103   9.3069042477e+01   4.0772368182e+01     0.237979    0.1405358  62.89  0.001618462    1.542    0.351
       323 -10.9870     11.4174    144.9392   9.3131316796e+01   4.3048990307e+01    0.2858065    0.1876283  66.17 0.0003895171    1.392    0.282
       324 -10.8161      3.9007    151.9836   9.5160799663e+01   4.2224724035e+01    0.2485968    0.1479003 -79.48 0.0006508292    1.277    0.217
       325 -10.4109      5.7839    147.8756   9.4492082493e+01   4.2898048676e+01    0.2587809    0.1396422  40.63  0.001005731    2.009    0.502
       326  -9.4301     48.8700    151.0937   8.5958401482e+01   3.8205942501e+01    0.1758865    0.1429235 -85.42 0.0005354655    1.052    0.049
       327  -9.3037     29.6815    150.8713   8.9935003289e+01   4.0239969003e+01    0.1892117     0.109732 -74.65 0.0005783705    1.401    0.286
       328  -9.5087     29.9638    146.6572   8.9462579148e+01   4.1078626046e+01    0.2379427    0.1377003  54.49 0.0002318097    1.698    0.411
       329  -9.0850     23.7985    148.2125   9.0890812727e+01   4.1330046206e+01    0.1387766    0.1067561 -70.68 0.0003300677    1.256    0.204
       330  -8.4924     44.6073     23.5110   5.8689758470e+01   6.5087183712e+01    0.1217171   0.09612074 -29.81 6.172986e-05    1.061    0.057
       331  -9.7023     16.3325     22.5519   7.0032853097e+01   6.7928622336e+01    0.2813453    0.1385757 -24.22  0.001530729    2.314    0.568
       332  -9.0882     45.5326    145.8505   8.6064605296e+01   3.9665404006e+01    0.1719365   0.09702685 -72.59 0.0006374696    1.505    0.336
       333 -10.3821    188.3890     20.7753   2.0292559677e+01   3.5092111498e+01    0.2684455     0.254446   9.13 0.0003249622    1.092    0.085
       334 -10.9967      2.8189    141.4667   9.4595978490e+01   4.4405949228e+01    0.4195691    0.2065824 -89.37  0.002622358    1.652    0.395
       335 -10.0461      1.4464     21.2487   7.6045389184e+01   6.9098812329e+01     0.238631   0.07425454 -55.80 0.0005940269    2.220    0.550
       336  -9.6765     75.4148     20.6766   4.6168961759e+01   6.1163268572e+01    0.2592435    0.1982693  31.08 0.0007095757    1.343    0.255
       337  -8.9205     74.6833     17.3173   4.4945663541e+01   6.1762548032e+01    0.2008196    0.1157511 -29.89 0.0003359603    1.556    0.357
       338  -9.5753     44.4305    141.5464   8.5795508271e+01   4.0687720954e+01    0.2031365    0.1620267 -83.46 0.0005910159    1.027    0.026
       339 -10.7076     17.2323    140.8770   9.1575681359e+01   4.3404285114e+01    0.2513604    0.2011421  70.77  0.001102995    1.211    0.174
       340 -10.3444     20.9085    118.5980   8.8430975946e+01   4.7773849317e+01    0.2227245    0.1836014  88.63  0.001399551    1.117    0.105
       341 -11.3947     30.3226    125.5389   8.7051533665e+01   4.5483865720e+01    0.4650855    0.2202511  46.06  0.002601843    2.253    0.556
       342 -11.1193     29.3549    137.7271   8.8665157452e+01   4.2993145251e+01    0.3570567    0.2823829  62.17 0.0008657997    1.283    0.221
       343 -10.8037     28.4967    131.9774   8.8222149878e+01   4.4281955344e+01    0.4796332    0.2326309  77.46  0.002416378    2.521    0.603
       344  -9.6925     71.8815    138.0659   7.9137930258e+01   3.8143071895e+01    0.1870756    0.1556571  89.28 0.0003219948    1.075    0.070
       345 -11.1144     12.6456    135.2730   9.2031246365e+01   4.4929600630e+01    0.2854218    0.1886487 -76.73 0.0001588097    1.169    0.145
       346  -9.5965    118.7044     19.2828   3.3047944249e+01   5.2798988213e+01    0.3739706     0.175777  38.86 0.0006316804    2.168    0.539
       347 -10.1520      8.2688    136.9176   9.3103584520e+01   4.4927319520e+01    0.1794983    0.1375469 -77.75  0.000492587    1.146    0.127
       348 -11.0058     17.5743    133.8393   9.0832422988e+01   4.4832598596e+01     0.356057    0.1813309 -68.80  0.001619517    1.547    0.354
       349  -8.7307    129.4987     19.5319   3.0607365997e+01   5.0276202786e+01    0.1444987    0.1304352  20.62 6.751342e-05    1.007    0.007
       350 -11.0489     12.1338    129.0311   9.1553834560e+01   4.6263272017e+01    0.3989066    0.1546423  38.87 0.0002567881    2.721    0.633
       351  -8.8181    184.9731    134.2755   5.3149121575e+01   1.8061732405e+01    0.2013672     0.178955  39.25 0.0002804086    1.071    0.066
       352  -8.1771     15.3279     18.2557   6.8913960410e+01   6.8769308278e+01     0.112281   0.06540871 -27.68 0.0006941077    1.555    0.357
       353  -9.0878     93.9807     17.3763   3.8893714683e+01   5.8248826850e+01    0.2616732    0.1083954  42.55  0.001095479    2.367    0.577
       354 -10.6859      4.0697    131.9228   9.3563189201e+01   4.6256978321e+01    0.2878806    0.2527378 -57.91  0.001643314    1.436    0.303
       355 -11.8331     98.9847    126.0987   7.0647547946e+01   3.6708620692e+01     0.241656    0.2219109 -78.73 0.0002944544    1.005    0.005
       356 -10.2512     48.7698    126.8965   8.2891838836e+01   4.3348582978e+01    0.2235303    0.1671456  85.39 0.0002121962    1.257    0.205
       357  -9.6537     44.5239    124.5164   8.3567571241e+01   4.4316454800e+01     0.206745    0.1533218 -67.21  0.001101515    1.153    0.133
       358  -9.6154     68.5336    125.4628   7.7921478927e+01   4.1302307439e+01    0.3447471    0.1907654 -84.22  0.001052274    2.358    0.576
       359  -8.6420      1.2111    126.0751   9.3675621695e+01   4.7654709792e+01     0.135979   0.06426993 -75.02 0.0002975259    1.560    0.359
       360  -9.6221    230.3221    124.6729   4.2348611167e+01   9.6484198759e+00    0.2956427    0.2561645  78.46  0.001340443    1.524    0.344
       361  -9.5579     59.0177    125.0688   8.0163815224e+01   4.2573824749e+01    0.1798852    0.1542349 -77.06 -0.001877172    1.035    0.034
       362 -11.3674     23.4793    124.9706   8.8569279165e+01   4.6205905646e+01    0.4479788    0.2106307 -82.47   0.00120622    1.963    0.491
       363 -10.8499    100.1690     23.8371   3.9818358350e+01   5.6166716833e+01    0.4112572     0.251551  48.89   0.00166497    1.702    0.412
       364 -10.4277     10.6265    112.2909   9.0159899496e+01   4.9890024467e+01    0.2509813    0.1554876 -88.86 0.0002379054    1.388    0.280
       365 -10.8817      1.8334    112.6226   9.2282679875e+01   5.0405792965e+01    0.3914891    0.2003545 -74.99  0.002208542    1.439    0.305
       366 -12.1599     11.8940    118.1588   9.0501780516e+01   4.8559864729e+01    0.6096826     0.365593  88.77  0.003953349    1.466    0.318
       367 -10.4131      5.5525    109.4619   9.1069706242e+01   5.0830604785e+01    0.2261969    0.1786332 -68.95 0.0009783774    1.166    0.142
       368 -10.5319      7.7539    106.0060   9.0146869936e+01   5.1415909510e+01    0.3137563    0.1719381 -55.99  0.001172471    1.618    0.382
       369 -10.6677     15.5310    115.6675   8.9368656280e+01   4.8817296354e+01    0.2302805    0.2070414  79.77   0.00100993    1.242    0.195
       370  -8.6673     79.4590    121.4715   7.4542580960e+01   4.0687532937e+01    0.1301407    0.1158873 -70.53 0.0001579634    1.040    0.038
       371  -8.3749      1.4568     11.5438   7.2761241141e+01   7.0847497127e+01    0.1107913   0.07545619 -39.72 5.117483e-05    1.044    0.042
       372 -11.0115     39.6482    119.2909   8.4010713631e+01   4.5943136754e+01    0.3911335    0.2491773  89.56   0.00232457    1.565    0.361
       373  -9.2727     49.8803    112.2188   8.0378321560e+01   4.6421782653e+01    0.2176414    0.1458298 -59.67 0.0007091551    1.280    0.219
       374  -9.5333     50.9994    118.7503   8.1140607142e+01   4.4872294547e+01    0.2848323    0.2101941 -47.22 0.0008038653    1.466    0.318
       375 -11.4075     46.7968    116.4926   8.1835757108e+01   4.5819406151e+01    0.3366936    0.1886355 -62.54 -0.0002563178    1.481    0.325
       376  -9.0346     98.5737    113.5448   6.8164109788e+01   3.9474934550e+01    0.2012323    0.1855127 -56.35 0.0001055788    1.065    0.061
       377  -9.0825     67.0601    117.9449   7.6998967433e+01   4.3132494063e+01    0.2134809    0.1643357 -14.56 0.0004721279    1.981    0.495
       378 -10.1370     72.4279    117.3703   7.5545499974e+01   4.2553895700e+01    0.2669239    0.2169997  46.63 0.0007344695    1.344    0.256
       379  -8.9418     75.4669    114.0495   7.4151367483e+01   4.2866792441e+01    0.1909862    0.1156577 -59.09 0.0001079644    1.472    0.321
       380 -10.0095     57.3930    117.6749   7.9376523521e+01   4.4378358355e+01    0.2889708    0.1974822  67.72  0.001671292    1.637    0.389
       381  -9.9891     30.5939    117.7171   8.5998132337e+01   4.7136750715e+01     0.207991    0.1615465  87.05 0.0005567596    1.166    0.142
       382 -10.6844     98.7410    117.5255   6.8969634890e+01   3.8590081558e+01    0.2437692    0.2136672 -75.36 0.0003500094    1.097    0.088
       383 -10.8484     62.2615    112.1429   7.7187080008e+01   4.5005699019e+01    0.4318832    0.2235299 -56.71   0.00137235    1.665    0.399
       384  -9.2105     84.2711    113.0417   7.1698839436e+01   4.1826369065e+01     0.180997    0.1544069 -66.89 0.0002243995    1.061    0.058
       385  -9.5632     71.6450    112.8566   7.4903673468e+01   4.3646879687e+01    0.1826013    0.1786098 -33.56 0.0003145188    1.214    0.177
       386 -10.7121     21.3234    110.5842   8.7344484773e+01   4.9454092852e+01    0.2600259    0.1861392  89.84  0.001003776    1.247    0.198
       387 -10.7396     21.3108    104.9188   8.6599815113e+01   5.0672144236e+01    0.2780436    0.1774074 -77.80 0.0006676689    1.281    0.220
       388  -9.5905     35.1053    111.1144   8.3965123605e+01   4.8152560327e+01    0.1816416    0.1372171 -55.52  0.000802687    1.276    0.216
       389 -10.0182     28.4781    109.6805   8.5434205041e+01   4.9056708971e+01    0.2573834    0.1619414 -57.16  0.000930451    1.399    0.285
       390  -9.9937     46.6066    108.8261   8.0662515132e+01   4.7513957570e+01    0.2755639    0.2037131  62.82  0.001151816    1.489    0.329
       391 -11.5870     45.7528    102.7136   7.9850591453e+01   4.8940544972e+01     0.393526    0.2325436 -58.94 0.0008423217    1.397    0.284
       392 -11.1971    120.8787    107.8283   6.1247945966e+01   3.6705998720e+01    0.4206528     0.235822  41.90  0.000807929    1.863    0.463
