#   1 NUMBER                 Running object number                                     
#   2 MAG_AUTO               Kron-like elliptical aperture magnitude                    [mag]
#   3 X_IMAGE                Object position along x                                    [pixel]
#   4 Y_IMAGE                Object position along y                                    [pixel]
#   5 X_WORLD                Barycenter position along world x axis                     [deg]
#   6 Y_WORLD                Barycenter position along world y axis                     [deg]
#   7 A_WORLD                Profile RMS along major axis (world units)                 [deg]
#   8 B_WORLD                Profile RMS along minor axis (world units)                 [deg]
#   9 THETA_WORLD            Position angle (CCW/world-x)                               [deg]
#  10 FWHM_WORLD             FWHM assuming a gaussian core                              [deg]
#  11 ELONGATION             A_IMAGE/B_IMAGE                                           
#  12 ELLIPTICITY            1 - B_IMAGE/A_IMAGE                                       
         1 -14.3112    201.0411     17.5357   6.5346138208e+01   3.2920229061e+01     2.395135     1.530841  32.30   0.01024865    2.320    0.569
         2 -13.8211    206.4418     10.3298   6.2985698472e+01   3.2407653430e+01     1.412404    0.7162755  52.85  0.001447148    2.044    0.511
         3 -13.0790      3.5677      9.8843   1.1602982361e+02   7.0827176704e+01     1.277042    0.3205624 -43.35  0.006250795    2.969    0.663
         4 -10.8850     80.8585    245.7143   1.3919872646e+02   1.3859780694e+01    0.4939255    0.2419783  84.95  0.002322569    2.799    0.643
         5  -9.5513    205.4566    250.4697   1.1677441728e+02  -7.5518665816e+00    0.1241641   0.09949044  26.25 0.0008079165    1.043    0.041
         6 -11.0556    136.1469    227.8092   1.2666488496e+02   8.1692638813e+00    0.4219781    0.1776262 -50.97  0.001843794    2.713    0.631
         7 -11.6152    149.8915    248.6634   1.2686464864e+02   2.1462194819e+00    0.4720909    0.2896831  54.24    0.0026331    1.480    0.324
         8 -11.5338    135.6853    241.0443   1.2854670436e+02   5.8722721032e+00    0.3243013    0.2814258  19.16  0.000400286    1.468    0.319
         9 -12.0075    134.9612    237.0602   1.2816104541e+02   6.6987447677e+00     0.425109    0.3704711  27.90  0.001312508    1.353    0.261
        10 -10.6825    122.4916    249.8185   1.3210183632e+02   6.5793931504e+00    0.6970822    0.2433035  56.48  0.002572228    3.621    0.724
        11 -11.2532    133.4873    249.3936   1.3001879546e+02   4.8166203329e+00     0.641032    0.2206643  52.68  0.002542688    2.938    0.660
        12  -9.9083    126.8609    249.1045   1.3121150894e+02   5.9763252579e+00    0.2507394    0.1925713  84.23  0.001076693    1.405    0.288
        13 -11.1628    122.3250    245.0902   1.3157287440e+02   7.4278627702e+00    0.4429953    0.1810756  52.81  0.001992435    2.234    0.552
        14 -11.6373    126.4642    240.6417   1.3024835544e+02   7.5183192256e+00    0.4028142    0.3486446  80.94  0.001760172    1.165    0.142
        15 -10.6271    115.2876    250.1723   1.3346222887e+02   7.6994708693e+00    0.4740573    0.1904649  43.11  0.002237109    2.095    0.523
        16 -11.8394    109.6717    246.8837   1.3412132130e+02   9.1872803202e+00    0.5354047    0.4637789  81.17   0.00367153    1.165    0.142
        17 -10.1836     92.4554    232.5144   1.3572930839e+02   1.4593003912e+01    0.3528081    0.1711662  63.94  0.001652804    2.249    0.555
        18 -10.7109    104.5071    237.8630   1.3406233969e+02   1.1663990957e+01    0.2691508    0.1852245  48.73 0.0008418703    1.263    0.208
        19 -10.4302    103.4951    244.5862   1.3500074812e+02   1.0590223180e+01    0.3722484     0.189114  72.80  0.001683751    2.747    0.636
        20 -11.5344     96.8690    240.0759   1.3573071821e+02   1.2467358771e+01    0.4489143    0.2687515 -78.45  0.001913096    1.842    0.457
        21 -10.3108    101.1665    240.1513   1.3494319977e+02   1.1773903839e+01    0.2312395    0.1656967 -85.59 0.0003588541    1.432    0.302
        22  -9.0969    101.1904    250.3711   1.3603580639e+02   9.9181382085e+00    0.2126424     0.124448  71.23 0.0006125674    1.794    0.443
        23 -11.1261     98.3594    246.4811   1.3613971354e+02   1.1057857340e+01     0.436007    0.2345077  42.88  0.002347155    1.676    0.403
        24 -10.2597     87.7821    250.5882   1.3844145082e+02   1.1940664556e+01    0.4084847    0.1529324  41.05  0.001444629    2.469    0.595
        25 -10.7676     88.0612    247.2441   1.3806719888e+02   1.2503482806e+01    0.3316643    0.1814076  39.13  0.001822961    1.886    0.470
        26  -8.9136     74.8322    250.5688   1.4069591009e+02   1.3848885537e+01     0.220574    0.0993688  41.59  0.001154285    2.085    0.520
        27 -12.3282     61.7779    245.9793   1.4254400507e+02   1.6521452751e+01     1.011499    0.5801612  34.05  0.005734509    2.306    0.566
        28 -14.6753     49.1753    218.7791   1.4243350992e+02   2.3512070135e+01     1.926181     1.466209  47.88   0.01303622    1.418    0.295
        29 -10.3150     86.0258    236.6690   1.3737048305e+02   1.4784300056e+01    0.2692914    0.1739288  81.24  0.001172235    1.523    0.343
        30 -14.3840     21.7653    153.9136   1.4148963435e+02   4.0751770310e+01     1.520299     1.298731  12.62   0.01063175    1.668    0.401
        31  -9.6915    184.1390    250.6065   1.2073353621e+02  -4.0175822520e+00    0.1813829    0.0983244  33.20 0.0004602786    1.702    0.412
        32  -9.4203    199.7822    245.7462   1.1708633337e+02  -5.9553264602e+00    0.1570734    0.1346088  51.23 0.0004217053    1.303    0.232
        33 -11.2294    143.2576    248.8888   1.2813535835e+02   3.2442144731e+00     0.537852    0.3214521 -84.23  0.002340517    2.999    0.667
        34 -12.2699    247.5869    240.6965   1.0758898159e+02  -1.2880887022e+01    0.4783613    0.3335009  37.52  0.003072079    1.416    0.294
        35 -10.1432    165.2582    241.9716   1.2302856227e+02   5.6353681918e-01    0.2496578     0.162821  35.28 0.0006968623    1.408    0.290
        36 -10.3890    173.2428    239.8802   1.2119434603e+02  -5.0264397843e-01    0.2702872    0.2062281 -58.72 0.0009289447    1.648    0.393
        37 -11.1153    145.3474    240.6564   1.2665027530e+02   4.2660446140e+00    0.3070989    0.1312431  52.72  0.001049283    2.292    0.564
        38 -10.7605    115.8129    239.8112   1.3216202058e+02   9.4546049454e+00    0.2270293    0.1909071  57.80 0.0006977483    1.080    0.074
        39  -9.8284     83.5160    238.4221   1.3800915157e+02   1.4829131266e+01     0.293924    0.1465466  46.95  0.001575287    1.707    0.414
        40 -11.7281     42.6103    237.2170   1.4511340310e+02   2.0681809390e+01    0.3105981    0.2073054  64.90  0.001216089    1.166    0.142
        41 -11.3446    129.1193    233.8119   1.2886023296e+02   8.2950798431e+00    0.5250711    0.2766752 -74.82  0.002293695    2.994    0.666
        42  -9.6022    162.0575    232.8581   1.2230118167e+02   2.6397262816e+00    0.2028935    0.1718916  50.79 0.0004940184    1.061    0.057
        43 -11.0671    122.4643    232.8153   1.3002084150e+02   9.6212796125e+00    0.3801468     0.335437  83.86  0.001718165    1.146    0.127
        44  -9.1475    110.3052    233.6631   1.3246968504e+02   1.1504861538e+01    0.2004937    0.1245799  70.09 0.0008227332    1.702    0.413
        45 -11.1346     98.4649    231.4057   1.3446582692e+02   1.3858811366e+01    0.3671792     0.270253 -81.89 0.0008193397    1.364    0.267
        46 -11.1432    111.9902    230.1924   1.3171991759e+02   1.1883280761e+01     0.493765     0.237342  47.23  0.001461035    1.774    0.436
        47  -9.7379    104.4736    229.5080   1.3309063947e+02   1.3255386840e+01    0.3466394    0.1529179  53.24  0.001353052    2.059    0.514
        48  -9.8665     71.6922    233.4402   1.3967317284e+02   1.7521687129e+01    0.3280952    0.1074251 -54.55  0.001349164    3.828    0.739
        49  -9.3725     77.9566    233.3256   1.3851539396e+02   1.6634344017e+01      0.21581    0.1420351 -86.14  0.001199672    1.458    0.314
        50 -10.9747    156.6738    231.6522   1.2317437615e+02   3.8126558431e+00    0.2328052    0.2189246  39.34 0.0004746863    1.126    0.112
        51 -11.1218    141.8366    230.3815   1.2590513165e+02   6.6896772207e+00    0.3829773    0.2701513 -41.62  0.001489258    1.786    0.440
        52 -10.2324    165.8631    235.3643   1.2193732827e+02   1.5382280873e+00    0.2531647      0.23263  38.01  0.001513222    1.094    0.086
        53 -10.5676    245.1676    226.9969   1.0561777456e+02  -1.0738440537e+01    0.1801345    0.1481252 -61.27   0.00109371    2.053    0.513
        54 -10.6883     84.7112    229.6332   1.3687527107e+02   1.6346325649e+01    0.2424537    0.2204327  49.44 0.0008143009    1.369    0.270
        55 -10.6786     77.6434    221.0551   1.3729710141e+02   1.9122109795e+01    0.2708606    0.1825725  70.28 0.0003991279    1.312    0.238
        56 -10.8261     80.3930    227.4706   1.3745905733e+02   1.7423502569e+01    0.3148937     0.285852  -2.14  0.000885834    1.832    0.454
        57 -10.0392     78.9643    224.5515   1.3741986137e+02   1.8219288983e+01    0.2161495    0.1995566 -17.36 0.0007920784    1.755    0.430
        58 -10.4700    165.5271    226.9278   1.2070950651e+02   3.0301629453e+00    0.4065409    0.2543375 -68.12   0.00174695    2.392    0.582
        59 -11.0880    161.1258    223.1339   1.2098906941e+02   4.5017383871e+00      0.59078    0.3148054  30.38  0.001912498    2.244    0.554
        60  -9.3589    190.8404    228.1363   1.1594580938e+02  -1.7498988358e+00    0.1741166    0.1398186  17.98 0.0003296123    1.265    0.210
        61  -9.2120    179.6431    228.1250   1.1812303502e+02   2.6454577612e-01    0.1911059    0.1635384 -89.58  0.000784446    1.514    0.339
        62  -9.4104    197.9574    227.4673   1.1446058779e+02  -2.9097521655e+00    0.1986952    0.1142061  41.57 0.0003042417    1.530    0.346
        63  -9.8531     93.9568    217.0300   1.3364073634e+02   1.7437832670e+01    0.3672233    0.1956398 -86.64  0.001636775    2.545    0.607
        64 -10.8788     92.7333    226.0809   1.3495283482e+02   1.5808028414e+01    0.2757735    0.1782908  57.98 0.0004354685    1.327    0.246
        65 -11.8259     98.7527    223.5896   1.3349052974e+02   1.5344395408e+01     0.513641    0.3083386  44.05  0.001383903    1.543    0.352
        66 -11.0093    132.3507    224.6625   1.2697656133e+02   9.4297556967e+00    0.2761107    0.2273386 -14.40   0.00132068    1.838    0.456
        67 -10.4804    149.3411    223.0420   1.2333651721e+02   6.6760474787e+00    0.3783673    0.2815783  -4.13  0.001635374    2.218    0.549
        68 -10.8594    117.3590    224.2996   1.2991149425e+02   1.2110403202e+01    0.2346557    0.2049903  63.90 0.0002733686    1.060    0.056
        69  -8.8717    219.8585    223.5541   1.0962273791e+02  -6.1238559485e+00    0.1633043    0.1136353  46.50 0.0009105673    1.495    0.331
        70 -11.7233    142.1021    221.7074   1.2459208545e+02   8.2393170344e+00    0.3773581    0.3222686  48.09 0.0003066309    1.069    0.065
        71 -11.2884    137.8095    214.5061   1.2438127841e+02   1.0397728177e+01    0.5753158    0.3425479  37.73  0.001301914    1.665    0.399
        72 -10.4266    105.5255    219.5507   1.3164912853e+02   1.5043712267e+01    0.3813702      0.21841  76.47 0.0006853261    2.274    0.560
        73 -11.1445     70.5100    219.4122   1.3848979456e+02   2.0495566339e+01    0.4985307    0.2770594 -80.88  0.002676606    1.800    0.445
        74 -13.3131     14.0827    238.8975   1.4988962475e+02   2.3655400295e+01    0.6555223    0.3157254  64.20   0.00418963    1.628    0.386
        75 -14.3169      4.2496    246.2089   1.5179292876e+02   2.3331450355e+01     1.668565    0.4590357 -80.35  0.008234279    3.173    0.685
        76  -9.4977    178.1760    220.3955   1.1714136123e+02   1.8367880376e+00    0.2035336    0.1139799  50.45 0.0009573157    1.742    0.426
        77 -10.3641    246.0412    218.9459   1.0400276932e+02  -9.7713513308e+00    0.2096243    0.1353622   4.54  0.001140415    1.720    0.419
        78 -10.0859    110.9614    221.5855   1.3082764764e+02   1.3728714943e+01    0.3342491    0.2053095 -51.54  0.001213356    1.904    0.475
        79  -8.6301     89.5317    218.4915   1.3469304316e+02   1.7837024585e+01    0.1312044    0.1060939  72.40  0.000165206    1.022    0.022
        80 -12.3227     13.6378    248.9015   1.5052075460e+02   2.1857740491e+01    0.3029995    0.1637864  63.34 0.0008438898    1.371    0.270
        81  -9.3861    183.0214    214.0096   1.1508424972e+02   2.0421843910e+00    0.1647148    0.1491322  34.61 0.0003752095    1.014    0.014
        82 -10.0705     88.1813    212.9278   1.3429541181e+02   1.9196355023e+01    0.2423574    0.1698335 -77.82 0.0005034807    1.383    0.277
        83  -9.9409    102.0890    211.8957   1.3134777599e+02   1.7175185363e+01    0.3514961    0.1899617  60.46  0.001661973    1.895    0.472
        84  -8.9556    152.2440    211.9853   1.2100981314e+02   8.2096685146e+00    0.1623494    0.1188567 -53.44 0.0003634852    1.516    0.341
        85 -10.9321     72.6556    210.0579   1.3705974993e+02   2.2135059741e+01    0.3796526    0.2713374  52.50  0.002297373    1.297    0.229
        86  -9.4981     68.4636    211.4943   1.3804529028e+02   2.2432062151e+01    0.1995377    0.1639768  76.74 0.0007514363    1.049    0.046
        87  -9.7448     33.3720    211.4875   1.4470498146e+02   2.6932441158e+01    0.1619044    0.1446474  63.99 0.0005217519    1.377    0.274
        88 -10.1274    135.2921    208.0253   1.2390233375e+02   1.2141896555e+01    0.3234324    0.2408342  22.78  0.001219681    1.752    0.429
        89  -9.2899    119.7876    208.8340   1.2726621004e+02   1.4777417173e+01    0.1886514    0.1428016  71.03 0.0002662375    1.299    0.230
        90  -9.9446    108.9672    207.3924   1.2931521754e+02   1.6956541775e+01    0.2572062    0.1810019 -65.45  0.000926601    1.461    0.316
        91 -11.5250     92.2939    204.7057   1.3241918034e+02   2.0283662150e+01    0.7078276    0.2978149  52.88  0.001765106    2.326    0.570
        92 -10.8808     93.8387    201.7889   1.3170955024e+02   2.0661882855e+01     0.389231    0.2417257  83.32 0.0005808799    1.875    0.467
        93 -11.5206    247.5336    205.4760   1.0121143921e+02  -8.0775968810e+00    0.4492621    0.2696845  14.55  0.002246136    1.998    0.500
        94 -10.4064    175.1953    205.4225   1.1515845755e+02   5.0715275798e+00    0.3321609    0.2370201 -20.53  0.001642138    1.869    0.465
        95  -9.1241    178.2877    204.7130   1.1439719542e+02   4.6066957298e+00    0.2095538     0.182156  52.33 0.0002308192    1.131    0.116
        96  -9.4943     83.9317    242.2920   1.3831936033e+02   1.4038263077e+01    0.2151246    0.1540366 -67.25  0.001248085    1.528    0.346
        97  -9.4645    125.9525    205.7407   1.2551081040e+02   1.4311340670e+01     0.197698    0.1634698  57.67 0.0004529403    1.080    0.074
        98  -8.5617    114.2761    206.6631   1.2810210498e+02   1.6193297865e+01    0.1400751   0.09632928  77.26 0.0002329889    1.609    0.379
        99  -9.3251    149.1064    204.8350   1.2048544217e+02   1.0191275517e+01    0.2669219    0.1911882 -17.68  0.001247249    2.243    0.554
       100 -10.6307     98.7309    196.8521   1.2998762170e+02   2.0932964771e+01    0.5089166    0.3095137  58.82  0.001714364    1.606    0.377
       101  -9.7620    166.9686    203.0483   1.1643757227e+02   7.1062466844e+00    0.2086629    0.1880516  45.37            0    1.013    0.013
       102 -10.2182    169.7028    200.0960   1.1533949485e+02   7.1383065785e+00    0.2438495    0.2185621  31.05 0.0003777048    1.104    0.094
       103  -9.7210    133.1489    202.7473   1.2351882065e+02   1.3609754301e+01    0.2222037    0.1988382 -73.05 0.0004403446    1.167    0.143
       104  -9.2541     76.9061    202.9601   1.3537475841e+02   2.3029952171e+01    0.2141512    0.1302704  71.55  0.000802202    1.679    0.404
       105 -10.3424    138.0669    201.6151   1.2228890644e+02   1.2924854838e+01    0.2380453    0.2026592 -63.80 0.0002999174    1.247    0.198
       106  -9.7512     64.2411    201.9668   1.3783687731e+02   2.5057034614e+01    0.2502151    0.2096949  27.35 0.0008267188    1.667    0.400
       107  -8.9745     32.9075    201.9510   1.4397818058e+02   2.8986678960e+01     0.137452    0.1065788  79.59 0.0003841941    1.055    0.052
       108 -10.2471    197.4213    200.8227   1.0980320940e+02   1.6298616519e+00    0.2821641    0.1892245  36.47 0.0009670682    1.401    0.286
       109 -10.5437    112.8397    193.5844   1.2644684630e+02   1.9231644949e+01    0.4778392    0.2766438 -66.04  0.001232421    1.845    0.458
       110 -11.1612    115.2745    200.2243   1.2693895579e+02   1.7373764824e+01     0.242001    0.2293928 -88.10 0.0002383447    1.148    0.129
       111 -10.4058    119.9924    199.0924   1.2575437572e+02   1.6774593628e+01    0.3237234    0.2187422  66.00  0.000364307    1.550    0.355
       112  -9.8882     44.5651    199.2027   1.4146975412e+02   2.8209406990e+01    0.2865672    0.1590911  52.44 0.0008441021    1.669    0.401
       113  -8.6939     28.3037    200.6696   1.4473776090e+02   2.9769478687e+01    0.1252777   0.06901553  73.29 0.0007035732    1.653    0.395
       114  -8.5938    158.6992    199.3305   1.1751521905e+02   9.4330664032e+00    0.1438112    0.1090701  78.75 0.0005815458    1.647    0.393
       115  -9.0293     86.2625    199.2804   1.3296808605e+02   2.2407029269e+01    0.1679465    0.1516456  61.53 0.0001663726    1.191    0.160
       116  -9.2200     85.7728    195.9789   1.3263480346e+02   2.3206296702e+01    0.2469472    0.1762109 -77.09 0.0002626685    1.328    0.247
       117 -11.3426     52.8180    197.9257   1.3969782099e+02   2.7455660072e+01    0.5621959    0.2051281  47.12  0.002558547    2.516    0.603
       118 -10.2175     56.6298    194.0830   1.3850429384e+02   2.7803758602e+01    0.4010444    0.2001834 -80.02   0.00113336    1.997    0.499
       119 -10.8535    102.4101    202.4504   1.2999646677e+02   1.9110802718e+01     0.430341    0.2409092  56.79  0.001211818    1.739    0.425
       120 -10.3270    133.8851    197.3006   1.2247445143e+02   1.4600996593e+01    0.3853042    0.2230429 -66.70  0.001171325    2.093    0.522
       121 -11.7063     67.7221    195.1507   1.3633217965e+02   2.6062343471e+01    0.4063531    0.2954083 -41.78   0.00130218    1.969    0.492
       122  -9.8967     72.7083    193.2888   1.3505682007e+02   2.5763306067e+01    0.1977303    0.1543643  78.12  0.001186236    1.117    0.105
       123  -9.1989    107.2429    196.2106   1.2806215067e+02   1.9635641294e+01    0.1939069    0.1458314  76.32 0.0005433857    1.327    0.247
       124  -9.9272    159.7097    194.1258   1.1636734989e+02   1.0269385582e+01    0.2989499    0.2237002  62.72  0.001038653    1.433    0.302
       125 -10.0499     20.7443    192.9287   1.4551711288e+02   3.2214975122e+01    0.3541287    0.1561941 -79.57  0.001874981    1.901    0.474
       126 -10.3082    248.5276    193.9906   9.8802758339e+01  -6.5114169005e+00    0.2649239    0.1670343  22.00  0.001371703    1.716    0.417
       127 -10.3204    120.7164    191.6982   1.2442179834e+02   1.8229504344e+01    0.5107995    0.2888116 -48.98  0.001823018    1.933    0.483
       128  -9.8986    118.0269    190.0096   1.2473942283e+02   1.9084807164e+01    0.2117143     0.186778  76.75  0.001209318    1.040    0.038
       129  -9.8165     82.7986    193.7144   1.3296672189e+02   2.4165562575e+01    0.3178045    0.2395146  -1.03  0.001046428    2.606    0.616
       130 -10.5225     38.7288    192.4365   1.4195878564e+02   3.0372163806e+01    0.2309765    0.1670556 -63.80  8.63139e-06    1.422    0.297
       131  -9.0524     42.1660    189.1291   1.4093054538e+02   3.0697247915e+01    0.1709631    0.1471818 -79.19   0.00052795    1.220    0.180
       132  -9.9935     26.1272    192.9768   1.4448663280e+02   3.1647918581e+01    0.2309977    0.1471333 -86.74  0.000906468    1.253    0.202
       133  -9.3725     47.7695    192.8121   1.4017632999e+02   2.9210006271e+01    0.1785468     0.141238 -71.67  0.001120444    1.247    0.198
       134 -10.3212    191.4162    191.4154   1.0921255502e+02   4.4997188738e+00    0.2752525    0.2480501  16.03   0.00062943    1.108    0.097
       135  -9.3384    135.2906    190.1196   1.2095200980e+02   1.5850477641e+01    0.1954744    0.1765502 -89.59 0.0004664376    1.100    0.091
       136 -10.0000     32.3041    189.6060   1.4296502748e+02   3.1714532249e+01    0.3188016    0.2479645  29.05  0.002110885    1.774    0.436
       137 -10.7733     26.0316    184.7329   1.4375695920e+02   3.3448968886e+01    0.4089119    0.1741114  54.60  0.002071216    2.330    0.571
       138  -9.8770     29.9551    182.8286   1.4278239559e+02   3.3456821289e+01    0.2786248    0.1560483  54.27  0.001609803    1.731    0.422
       139 -11.1676    249.7654    187.7219   9.7337500409e+01  -5.7473706700e+00    0.3776682    0.2538425 -15.89  0.002020566    1.546    0.353
       140 -11.8981     73.0693    187.4742   1.3423374453e+02   2.7010552948e+01    0.3538955    0.2412765 -54.31 0.0006973387    1.592    0.372
       141  -9.3967     77.2999    188.7219   1.3348361518e+02   2.6109226333e+01    0.2006722     0.159738  74.69 0.0001945919    1.118    0.105
       142  -9.7701    175.5635    186.7682   1.1160602519e+02   8.5623172033e+00    0.1980421    0.1403297 -60.40 0.0006640691    1.676    0.403
       143  -9.4178     31.0098    195.1657   1.4373639091e+02   3.0650217120e+01    0.2184615    0.1255769  60.90 0.0007519437    1.594    0.373
       144  -9.9804    143.2433    184.9989   1.1828531564e+02   1.5402537400e+01    0.4846531     0.178836 -43.54  0.001645792    3.229    0.690
       145 -10.4757    140.0853    183.0559   1.1863205169e+02   1.6437576023e+01    0.4702454    0.3200079  16.18 0.0003629774    2.376    0.579
       146 -10.3307     54.1953    182.0001   1.3761628189e+02   3.0816557164e+01    0.2214375    0.2036028  10.39 0.0009807552    1.582    0.368
       147 -12.9899    248.0096    172.9231   9.4624828630e+01  -3.0578576022e+00     1.117398    0.5933799 -33.76  0.005268477    1.776    0.437
       148 -12.6311    248.1061    101.4642   7.8928845580e+01   9.2898819303e+00    0.8597134    0.5383942 -37.83  0.004207303    1.473    0.321
       149 -12.5902    248.4909    133.7934   8.6121589812e+01   3.5605798506e+00     1.161659    0.6874047 -32.31  0.005468353    1.627    0.385
       150  -9.7376    175.0340    179.9959   1.1038204916e+02   1.0017468715e+01    0.3422503    0.1544453  44.21  0.001318735    2.117    0.528
       151  -9.3892    170.1179    180.0488   1.1144907055e+02   1.1017281769e+01    0.2098328    0.1918536   4.89  0.001136964    1.211    0.174
       152  -9.7306    128.5769    179.5072   1.2057737612e+02   1.9436648084e+01     0.147459    0.1332099  78.36 9.840389e-05    1.049    0.047
       153  -8.9443    109.2787    177.9851   1.2471481900e+02   2.3331066212e+01    0.1867207    0.1222815 -60.69 0.0008982967    1.512    0.339
       154 -11.5358     82.4958    175.7405   1.3049070739e+02   2.8280269066e+01     0.449328    0.3436212  48.41  0.001026512    1.326    0.246
       155  -9.9321     77.2031    175.6410   1.3168142382e+02   2.9102016970e+01    0.2375429    0.1736108  82.10 0.0005651103    1.348    0.258
       156  -9.6042     85.8704    183.3642   1.3085603183e+02   2.6012451587e+01    0.2760585    0.2186715   6.74 0.0006221528    2.049    0.512
       157  -9.3505    115.0703    176.6230   1.2315190720e+02   2.2600241042e+01    0.2526431    0.1869339 -74.93 0.0006815018    1.410    0.291
       158 -11.7605     68.7954    173.7589   1.3332110624e+02   3.0749847560e+01      0.53009    0.2745437 -51.66  0.001694933    2.039    0.510
       159 -10.8296     68.9726    166.7850   1.3227690007e+02   3.2344535864e+01    0.2435323    0.1916901 -69.91 0.0002782554    1.144    0.126
       160  -9.1461     48.0382    179.7148   1.3866750347e+02   3.2098546237e+01    0.1652443    0.1365827  65.25 0.0004039734    1.189    0.159
       161 -13.1452    248.4273    114.0182   8.1713365484e+01   7.0435344162e+00     1.528452    0.9337159 -25.91  0.007009258    1.867    0.464
       162 -10.4711     95.5871    172.8172   1.2701457458e+02   2.6865078408e+01     0.242588    0.2028009  67.90 0.0004727752    1.134    0.118
       163 -10.2816     80.8307    163.9085   1.2903693045e+02   3.1288812081e+01    0.2460057    0.1916529  48.46 0.0008815567    1.325    0.245
       164 -11.4554     95.8920    157.0732   1.2421948427e+02   3.0491648329e+01    0.4158725    0.3073211 -65.38  0.001066402    1.281    0.219
       165 -12.6764     88.0287    166.8986   1.2781539063e+02   2.9469347754e+01    0.8443041    0.6593707 -59.43  0.004665602    1.249    0.200
       166 -10.5511     89.9257    160.4836   1.2627913580e+02   3.0669975958e+01    0.3108039    0.2409646 -76.77 0.0004443271    1.232    0.188
       167 -11.3968     28.4929    171.4368   1.4192852798e+02   3.6146529159e+01    0.3876591    0.2501536 -66.17  0.001187171    1.354    0.261
       168  -9.4159     37.0955    184.2143   1.4146009568e+02   3.2369438691e+01    0.2549322     0.136714  46.43  0.001052005    1.855    0.461
       169  -8.8515    167.2112    170.0299   1.1004968084e+02   1.3690764802e+01    0.2007078    0.1222675 -45.99 0.0008643594    1.696    0.410
       170  -9.2741    100.5405    170.5081   1.2547212845e+02   2.6565403205e+01    0.1438529    0.1290043  87.60 5.312052e-05    1.006    0.006
       171 -10.6561     43.5787    168.9780   1.3836407783e+02   3.5069369462e+01    0.3563382    0.2810263 -54.40  0.001527578    1.412    0.292
       172  -9.9895     48.7702    169.1433   1.3722517053e+02   3.4421078974e+01    0.2260237    0.1901476  37.61  0.001446944    1.449    0.310
       173 -11.1310     89.9313    237.2050   1.3670605846e+02   1.4085789965e+01    0.3388983    0.2194264 -85.34  0.001428317    1.589    0.371
       174  -9.6197    107.3153    168.1850   1.2347266642e+02   2.5924376005e+01    0.2212127    0.1931804  41.51 0.0003506331    1.240    0.193
       175  -9.1765     58.5183    167.5020   1.3479720401e+02   3.3584726677e+01    0.1331157    0.1109667 -86.23 0.0001427453    1.006    0.006
       176  -9.1755    136.1949    165.2550   1.1611867795e+02   2.1128746416e+01    0.2027038    0.1683431  83.06 0.0003522319    1.301    0.231
       177  -8.8855     53.6855    164.8392   1.3554523739e+02   3.4815321096e+01    0.1801704    0.1039025 -76.73 0.0003596746    1.603    0.376
       178 -10.0819     46.9663    163.0360   1.3685012435e+02   3.6043710672e+01     0.192432    0.1570832 -84.93 0.0003498782    1.013    0.013
       179  -9.2932     37.0103    162.5485   1.3905469324e+02   3.7273146420e+01    0.1611912    0.1183123  44.96 0.0004834888    1.508    0.337
       180 -11.2075     73.7818    157.6435   1.2971769823e+02   3.3807170050e+01    0.4268342    0.3346432 -75.60  0.001586977    1.147    0.128
       181 -10.0353     79.0200    158.9345   1.2865897005e+02   3.2732192651e+01    0.2110876     0.183877 -85.26 0.0004846314    1.022    0.021
       182  -9.0744     52.4879    158.4792   1.3494740892e+02   3.6442747941e+01    0.1319469    0.1099636 -81.59 0.0001989815    1.003    0.003
       183 -14.9745     15.7786    168.8079   1.4434728033e+02   3.7953587808e+01     3.645631    0.9426146 -60.15   0.01549724    3.056    0.673
       184  -9.6210    134.4766    155.9246   1.1461881434e+02   2.3583437340e+01    0.2280385    0.1485308 -52.47 0.0003663933    1.537    0.349
       185  -9.3635    228.3022    155.1426   9.4360754576e+01   3.7856272121e+00    0.2089889    0.1706325 -38.25 0.0005961182    1.177    0.151
       186  -8.7578    124.6997    154.2983   1.1663459145e+02   2.5899413092e+01    0.1529206    0.1154789  82.29 0.0002121584    1.578    0.366
       187 -11.0008    113.7512    151.0335   1.1865070414e+02   2.8747531521e+01     0.400651    0.3290341 -44.34 0.0009269363    1.291    0.225
       188 -11.0504    101.0869    150.7486   1.2174385313e+02   3.1095572857e+01    0.4134577    0.3645739 -69.78  0.001563918    1.063    0.059
       189  -9.2760    104.2079    145.7659   1.1997019112e+02   3.1721132015e+01    0.2979461    0.2363855 -13.35  0.001447272    1.802    0.445
       190  -9.0675    104.2835    142.3218   1.1924453058e+02   3.2518190541e+01    0.2961012    0.1823196 -35.77  0.001238845    2.069    0.517
       191 -10.0889     53.0078    146.3040   1.3302420836e+02   3.9231541421e+01    0.2709056    0.1912627 -85.08 0.0006683109    1.374    0.272
       192 -10.4795     60.2403    150.9844   1.3196446922e+02   3.7228722996e+01    0.3233161    0.2023803  64.98 0.0009385736    1.834    0.455
       193 -10.8990     56.0379    150.5034   1.3292239603e+02   3.7874144820e+01    0.3125087    0.2705896  88.35  0.001291541    1.080    0.074
       194  -9.5886    132.2515    152.2514   1.1437931462e+02   2.4870201284e+01    0.2039517    0.1704971  84.69 0.0002962448    1.301    0.231
       195  -9.8890     90.1984    149.8447   1.2429955633e+02   3.3138382653e+01    0.2177613    0.2137226  55.95 0.0004606945    1.164    0.141
       196 -13.2109     67.5973    144.3283   1.2902747267e+02   3.7824500743e+01     1.054513    0.6285036  77.31    0.0040524    2.369    0.578
       197 -12.1099     74.1858    139.4342   1.2645598078e+02   3.8059446409e+01      0.63845    0.4788291 -83.85   0.00342168    1.387    0.279
       198 -10.6326    134.0000    144.9960   1.1238241529e+02   2.6172250538e+01    0.6713413    0.2178191 -52.55  0.002045981    3.274    0.695
       199 -10.7015    133.0568    140.2286   1.1154585042e+02   2.7454790504e+01    0.4148993    0.3820186 -14.01  0.001856139    1.254    0.203
       200  -8.9791    122.0311    148.0230   1.1597864276e+02   2.7870761759e+01    0.1776331    0.1675853 -79.80 0.0009558625    1.013    0.013
       201  -9.0850     85.9902    147.7782   1.2497585607e+02   3.4300754143e+01    0.1730566    0.1166702  40.45            0    1.587    0.370
       202 -12.5933      8.1070    142.5214   1.4334494851e+02   4.4445952208e+01    0.4495003    0.3934776  59.55  0.003390145    1.336    0.252
       203 -11.9270      2.3112    144.9524   1.4492041127e+02   4.4328134406e+01    0.4865038    0.1844941 -67.39  0.002528714    1.912    0.477
       204 -10.5372    236.5142    145.9651   9.0853325599e+01   3.7907304884e+00    0.3160499    0.2109163  45.63 0.0008785321    1.592    0.372
       205 -10.9422     61.0325    137.6499   1.2955786894e+02   4.0271561881e+01    0.2710945    0.2195128  57.19 0.0009867575    1.330    0.248
       206 -10.9754     37.0753    143.9673   1.3661628072e+02   4.1554208972e+01    0.1939058     0.160535 -74.41 0.0004292582    1.033    0.032
       207 -12.0982     18.0037    140.0262   1.4072559718e+02   4.4226950267e+01    0.3249087    0.2292777  79.98  0.001658941    1.398    0.285
       208 -11.3435     42.5329    140.8037   1.3480311847e+02   4.1714180769e+01    0.3557117     0.184268  61.22  0.001639508    2.531    0.605
       209 -12.1588     51.8885    237.7051   1.4356406738e+02   1.9405795713e+01    0.8425402    0.5669993  89.05  0.003630521    1.257    0.204
       210 -11.5099     48.1389    138.4744   1.3302256315e+02   4.1636977733e+01    0.4668403    0.2030831  24.03  0.001955708    3.359    0.702
       211 -11.6507     12.8152    137.0714   1.4161187652e+02   4.5309300974e+01    0.2644986    0.1843498  64.79  0.001709988    1.547    0.354
       212 -10.5659    111.7593    136.1290   1.1599956886e+02   3.2602312164e+01    0.3822573    0.3070276  12.10  0.001435501    1.649    0.394
       213 -14.6144     30.4441    246.2248   1.4774579347e+02   2.0455578634e+01     2.556598     1.095892  61.48   0.01484035    1.903    0.475
       214 -14.2492      8.8953    207.0928   1.4875375776e+02   3.0423250792e+01     1.629399     0.927374 -70.45   0.01071145    1.559    0.358
       215 -12.6056     45.6707    131.5028   1.3253082971e+02   4.3539774024e+01    0.6385248    0.4343344  65.10  0.003104291    1.723    0.419
       216 -10.9911     20.8538    133.9798   1.3925734688e+02   4.5361391269e+01    0.1818089    0.1650362 -80.65 0.0002738947    1.170    0.145
       217 -11.7328      2.2329    130.7154   1.4341393491e+02   4.7482737478e+01    0.4227981    0.1240038 -69.87  0.001902471    2.473    0.596
       218 -12.1299     67.6334    128.2189   1.2606447849e+02   4.1619891776e+01    0.5808986    0.3919564  55.71            0    1.709    0.415
       219  -9.1048    159.0947    145.1639   1.0645868536e+02   2.0782192501e+01    0.2062764    0.1788714  85.87            0    1.275    0.215
       220  -9.8313    117.2217    128.9567   1.1295802097e+02   3.3220698223e+01    0.2570559    0.1754486 -24.30  0.001078958    2.074    0.518
       221  -9.4598    105.9844    127.7654   1.1563113283e+02   3.5615953449e+01     0.362979    0.1765459 -55.91  0.000802794    2.052    0.513
       222 -12.1873     31.1498    126.9576   1.3562072938e+02   4.6057503274e+01    0.3263959     0.243575  40.93  0.001302861    1.574    0.365
       223 -13.2649     20.0550    121.8673   1.3777392046e+02   4.8170318438e+01    0.6448455    0.3696438 -41.16  0.003396845    1.913    0.477
       224 -12.1263     30.9757    117.1506   1.3409435286e+02   4.8310531371e+01     0.446849    0.2565667 -38.49  0.001616604    1.961    0.490
       225 -12.2517     38.2030    123.7846   1.3323515284e+02   4.6108007322e+01    0.5340612     0.256875 -62.57  0.002648178    1.691    0.409
       226 -10.4570    209.7846    125.6929   9.1078183471e+01   1.3321337356e+01    0.2825443    0.2588385 -34.11 0.0005129257    1.079    0.073
       227  -8.5405     85.3213    126.7131   1.2095059620e+02   3.9379837058e+01    0.1426543    0.1082691  80.03 0.0007004677    1.598    0.374
       228 -10.8322     55.1149    120.6619   1.2803868410e+02   4.4977962876e+01    0.2912386       0.2359   6.75    0.0016364    1.591    0.372
       229 -12.3764      9.6039    118.2058   1.3999953432e+02   4.9762870989e+01    0.4647602    0.2040586 -41.56  0.002315169    2.588    0.614
       230 -11.6750     15.3345    114.6185   1.3796150423e+02   5.0155489599e+01    0.3281311    0.1870751 -66.44 0.0006163225    1.360    0.265
       231  -9.6455     65.9350    181.9709   1.3506734023e+02   2.9265412415e+01    0.1925792    0.1666225 -89.62 0.0003046542    1.070    0.065
       232 -11.2461    168.1354    113.2730   9.6593377272e+01   2.5548855693e+01    0.3915151    0.3199751 -89.94 0.0006869376    1.449    0.310
       233 -11.2044      2.3325    111.4589   1.4099991012e+02   5.1713331178e+01    0.3658161   0.07835529 -68.12  0.001413361    3.327    0.699
       234 -10.8985     64.9929    111.9630   1.2345707193e+02   4.5738757377e+01     0.205037    0.1805212 -54.68  0.001233519    1.010    0.010
       235  -9.4391    203.7621    111.4187   8.8751128633e+01   1.7467702867e+01    0.2178506    0.1429178  41.66 0.0009464519    1.673    0.402
       236  -8.8250     83.6782    111.2644   1.1792802640e+02   4.3202372677e+01    0.1368377    0.1091368  79.15 0.0002764347    1.558    0.358
       237 -10.2907     69.9661    111.0554   1.2182069501e+02   4.5273711127e+01    0.2028356    0.1821908 -54.89  0.001211969    1.010    0.010
       238 -11.4613     57.2432    110.1605   1.2531413975e+02   4.7130845285e+01    0.4369097    0.2428241  12.94  0.001913122    2.917    0.657
       239 -10.8712     13.3314    108.0210   1.3750452422e+02   5.1759517190e+01    0.1720066    0.1237243 -65.27 0.0005685693    1.078    0.072
       240  -9.5736    114.4834    107.0590   1.0826372694e+02   3.8686118468e+01    0.2220705     0.144479 -47.94 0.0003681906    1.486    0.327
       241 -10.4634     31.7697    110.6359   1.3274816089e+02   4.9710728880e+01     0.195596    0.1584759  47.12 0.0005482936    1.472    0.321
       242  -9.5536     32.9985    100.0120   1.3039630364e+02   5.1965905387e+01     0.158205    0.1156166 -58.19 0.0003756114    1.116    0.104
       243 -11.0855     28.0111    106.3889   1.3306525069e+02   5.0989995153e+01    0.2495298    0.1819147 -42.04   0.00133217    1.331    0.249
       244  -9.6828    134.7432    105.2611   1.0245769383e+02   3.4863774316e+01    0.2560978    0.1272509 -33.75 0.0009066427    2.437    0.590
       245  -8.5352     44.7047     90.2801   1.2470000361e+02   5.2946306670e+01    0.1163072   0.09607428  86.13  0.000243452    1.535    0.349
       246 -13.0082     43.1384    228.3481   1.4433093551e+02   2.2344864191e+01    0.3942143    0.3761247  81.52 0.0007979405    1.531    0.347
       247 -11.6515    248.3273    142.4867   8.8063667061e+01   2.0709541266e+00    0.7131159    0.4337395 -27.95  0.002874112    1.681    0.405
       248 -13.7380    244.6787    157.9589   9.2043767594e+01   8.3158625745e-02     2.320249    0.9555496 -43.79  0.009215163    2.397    0.583
       249  -8.3565     50.6612     67.3054   1.1673722539e+02   5.6988965344e+01    0.1155009    0.1001908  85.48 0.0005076914    1.677    0.404
       250  -8.9467    123.9949     51.0347   8.9029112767e+01   4.7235146163e+01    0.1658387    0.1559645  -4.19            0    1.068    0.064
       251 -10.1094    193.1089    249.1863   1.1885539223e+02  -5.3253771146e+00     0.219791    0.1662617  -8.51 0.0009578292    1.615    0.381
       252 -10.1151    169.5472    248.7761   1.2319371458e+02  -1.2523518507e+00    0.2984574    0.1885184  17.05 0.0008737594    2.353    0.575
