#   1 NUMBER                 Running object number                                     
#   2 MAG_AUTO               Kron-like elliptical aperture magnitude                    [mag]
#   3 X_IMAGE                Object position along x                                    [pixel]
#   4 Y_IMAGE                Object position along y                                    [pixel]
#   5 X_WORLD                Barycenter position along world x axis                     [deg]
#   6 Y_WORLD                Barycenter position along world y axis                     [deg]
#   7 A_WORLD                Profile RMS along major axis (world units)                 [deg]
#   8 B_WORLD                Profile RMS along minor axis (world units)                 [deg]
#   9 THETA_WORLD            Position angle (CCW/world-x)                               [deg]
#  10 FWHM_WORLD             FWHM assuming a gaussian core                              [deg]
#  11 ELONGATION             A_IMAGE/B_IMAGE                                           
#  12 ELLIPTICITY            1 - B_IMAGE/A_IMAGE                                       
         1 -10.7134    199.7409     43.6560   6.0952918861e+01   2.9629089863e+01    0.4939404    0.3889445 -33.22  0.002917286    1.293    0.226
         2  -9.8640    118.7388     19.4327   6.4842382250e+01   5.3025151350e+01    0.4780307    0.2215289  -7.63  0.001584623    4.183    0.761
         3 -10.2301    171.6871     13.3563   5.5630240351e+01   3.9889873008e+01    0.2491188    0.2306046  76.53  0.001350145    1.197    0.165
         4 -11.3002    165.7754      5.2133   5.3799953732e+01   4.2173784279e+01    0.5486783    0.4629044  73.62  0.003383304    1.198    0.165
         5  -9.5611      6.3458      7.6829   1.1231003774e+02   7.7906030095e+01    0.1144997   0.09208669  50.59 0.0007048505    1.722    0.419
         6  -9.0571    118.4563    245.0000   1.1785112119e+02   9.2962222828e+00    0.2791402   0.05474763  31.45 0.0009321883    3.914    0.745
         7  -9.4404    185.4565    249.6392   1.0499852603e+02   2.5029187477e-01      0.19959    0.1290247   8.63  0.001333622    1.310    0.237
         8 -10.6207    109.8936    246.4272   1.1983186143e+02   1.0167576984e+01    0.4143994    0.2888086 -10.48  0.001948523    1.936    0.483
         9 -10.2885     90.0655    248.6237   1.2431512068e+02   1.2301063210e+01    0.4118408    0.2267302  53.74  0.002302375    1.887    0.470
        10 -16.2349     61.2792    234.4023   1.2959110380e+02   1.8321184022e+01     2.943038      2.36516  13.47  0.004219102    1.422    0.297
        11 -11.9242    117.7497    211.6274   1.1409600979e+02   1.5155969883e+01    0.5609511    0.3381515 -14.14  0.002467446    2.857    0.650
        12 -11.8685    110.9946    208.9775   1.1535195523e+02   1.6638764098e+01    0.5089222    0.3789429  67.16  0.002838982    1.682    0.405
        13 -11.4547    115.4021    218.1844   1.1547093563e+02   1.4283712273e+01    0.5153708     0.228674 -59.74  0.002332201    2.907    0.656
        14 -11.9327    111.6379    215.5585   1.1602355950e+02   1.5301340537e+01    0.4357895    0.3598921  -0.02  0.002672035    1.349    0.259
        15 -11.4929    107.6762    212.8414   1.1662509826e+02   1.6377173803e+01    0.3438244    0.2842895 -23.16  0.002087472    1.451    0.311
        16 -12.0399    191.5194    217.8378   9.9359534523e+01   3.7246956890e+00    0.5216773    0.4203146   6.01  0.003631913    1.043    0.041
        17 -13.4168    135.7221    211.3710   1.0993291864e+02   1.2575494568e+01    0.9947066    0.6449662  33.33   0.00551872    1.298    0.230
        18 -12.0024    207.8000    212.6358   9.5575677991e+01   2.3463140960e+00    0.6404755    0.3821193  39.35  0.003811613    1.894    0.472
        19  -9.3221    150.6294    238.4707   1.1033942256e+02   6.1055955780e+00    0.3647896     0.273824  54.90  0.002294345    1.849    0.459
        20 -10.5724    159.9983    211.4324   1.0465539643e+02   9.0297279969e+00    0.3102804    0.1891689 -46.93  0.001701439    1.936    0.483
        21 -11.9703    154.0510    208.7354   1.0551396763e+02   1.0338065467e+01    0.3826795    0.3327672 -28.55  0.002485448    1.275    0.215
        22 -11.2780    199.3204    207.3871   9.6268074312e+01   4.1726286864e+00    0.3358167    0.2393196   8.36  0.002152517    1.225    0.183
        23 -11.2534    194.3169    206.2482   9.7012477139e+01   5.0087503293e+00    0.2897419    0.2415493  -8.95  0.001986389    1.127    0.113
        24 -14.9919     35.0487    216.8752   1.3458585238e+02   2.4727324010e+01     2.290811       1.7436 -84.62   0.01484056    1.426    0.299
        25  -8.9906     14.5512    205.5554   1.3897955896e+02   2.9126650137e+01    0.1996441    0.1067076  52.04 7.359985e-05    1.480    0.324
        26 -11.7820    126.2396    202.9546   1.1092262765e+02   1.5523908138e+01    0.4642487     0.348775  27.47  0.002319844    1.154    0.133
        27 -11.2109    186.8339    204.2982   9.8120162917e+01   6.3289148014e+00    0.3171867    0.2057426 -19.83  0.001834305    1.579    0.367
        28 -12.2294    153.4790    197.4006   1.0387980745e+02   1.2368486599e+01    0.4582377    0.3676303 -23.69  0.002747881    1.310    0.237
        29  -8.7771    249.6740    198.3516   8.6444996543e+01  -8.5441053963e-01      0.09408   0.08325979 -37.93 0.0007048007    1.761    0.432
        30 -11.2136     79.3937    197.4203   1.2183202509e+02   2.3501543828e+01    0.3059313    0.2357585  73.00  0.001725216    1.410    0.291
        31 -11.6070    200.5679    193.9120   9.3804675929e+01   5.9561510173e+00    0.4115971    0.2786877 -42.53  0.002367157    1.693    0.409
        32  -8.5592    233.6646    198.9774   8.9003149431e+01   9.3743126838e-01    0.1623537   0.08511163 -51.25 0.0007045659    4.299    0.767
        33 -11.5068    169.8137    193.4146   9.9734498000e+01   1.0547802017e+01    0.4604757    0.2672723  53.35  0.002101402    2.639    0.621
        34  -9.7346    132.3286    238.2578   1.1413809857e+02   8.5499334401e+00     0.317439    0.1245844  26.54  0.001418823    2.289    0.563
        35 -11.4505    146.7665    221.1868   1.0887082548e+02   9.3230394838e+00    0.4751016    0.3727684  11.35  0.003016052    1.160    0.138
        36  -9.9524    137.5106    237.0123   1.1289013678e+02   8.0581527670e+00    0.3197251     0.155488  18.83  0.001379731    2.232    0.552
        37  -8.8712    204.4760    235.4959   9.9611895786e+01  -2.1239366603e-01    0.1140594   0.08458305   6.97 0.0008101905    1.001    0.001
        38 -10.7365    190.6898    186.2615   9.4330286644e+01   8.5543328448e+00    0.2270384    0.1737035  22.88  0.001390434    1.196    0.164
        39 -11.1992    169.4719    185.0469   9.8372166974e+01   1.2021349168e+01    0.3604088    0.2192716 -14.94   0.00169817    2.173    0.540
        40  -9.5175    108.8924    233.9621   1.1876247653e+02   1.2378684653e+01    0.4170458    0.1375002  31.57  0.001565366    2.385    0.581
        41  -9.7375    114.3488    231.4157   1.1726644376e+02   1.2086044314e+01    0.2117473     0.178253   7.07 0.0002407532    1.244    0.196
        42 -10.6860     28.3489    182.3250   1.3417209776e+02   3.3075812399e+01    0.2306354    0.2001656  86.94  0.001027765    1.164    0.141
        43 -10.7844    201.3078    180.0448   9.1236384088e+01   7.9424564340e+00    0.2858927    0.1751591  33.62  0.001593399    1.596    0.373
        44 -10.9885     83.3919    177.0641   1.1824700903e+02   2.7479038239e+01    0.3100169    0.2602179 -39.38  0.001707787    1.398    0.285
        45 -10.2934    187.6836    176.4364   9.3144481992e+01   1.0595112694e+01    0.2353619    0.1473905 -17.87  0.001132528    1.805    0.446
        46 -12.4824    124.8824    224.4634   1.1409372610e+02   1.1839062977e+01    0.8156364    0.4610413  46.02   0.00168964    1.765    0.433
        47 -11.5705     79.2623    172.8232   1.1882879895e+02   2.9074580692e+01    0.4280455    0.3070894 -14.67  0.002019478    2.006    0.501
        48  -9.5118     14.4753    230.1943   1.3991675313e+02   2.4068664067e+01    0.2660259    0.1704458  24.06  0.001669529    1.554    0.356
        49 -12.1014    124.7692    166.7663   1.0549184143e+02   2.3056655262e+01    0.4919714    0.3953674 -36.06  0.001811242    1.361    0.265
        50 -10.8520    198.5500    161.2171   8.8214381015e+01   1.1348140703e+01    0.4612487    0.1186491 -38.93  0.001577305    3.733    0.732
        51 -11.4534    177.2583    181.3161   9.6103090160e+01   1.1426080337e+01    0.2965341    0.2699592 -28.20  0.001888962    1.215    0.177
        52 -11.0147     94.5067    161.2774   1.1274644866e+02   2.9433952065e+01    0.3826937    0.1799726  27.99  0.001454798    2.245    0.555
        53 -11.8849    123.7260    216.8932   1.1339704952e+02   1.3332269474e+01    0.5150965    0.3113355 -29.26  0.002596618    2.236    0.553
        54 -10.4656    219.8896    220.9469   9.4778385007e+01  -2.0323638506e-01    0.4068288    0.2006349  18.80  0.002296871    1.969    0.492
        55 -10.5868    101.8963    158.1185   1.1010972285e+02   2.8941169615e+01    0.2421642    0.2004136  61.84  0.001247701    1.266    0.210
        56 -11.6691     81.2668    144.3886   1.1383680971e+02   3.5685957694e+01    0.4963759    0.4204118 -85.83  0.001698422    1.251    0.201
        57 -10.5863    214.5248    219.0289   9.5398852898e+01   6.7611832949e-01    0.2187381    0.1936224  21.61  0.001644901    1.486    0.327
        58 -11.2144    123.0541    144.0828   1.0156698224e+02   2.8333354719e+01    0.3906395    0.2753397  14.65  0.001734089    1.805    0.446
        59 -10.8210     93.5958    140.4117   1.0928577497e+02   3.4601912786e+01    0.2680976    0.2147306  27.42   0.00131747    1.276    0.216
        60  -9.7095     89.6372    135.6680   1.0958348615e+02   3.6457472061e+01    0.1605981    0.1211336 -14.74 0.0007038059    1.810    0.448
        61 -12.2690     56.6816    128.3664   1.1927094626e+02   4.3473545618e+01    0.7815671    0.5251715 -42.52   0.00360492    1.694    0.410
        62 -12.8768    116.8004    121.1652   9.8194797155e+01   3.4765304415e+01    0.8439466    0.8067854 -28.60  0.003872699    1.105    0.095
        63  -9.0822    187.6968    118.3187   8.1119136371e+01   2.0583940380e+01    0.1378109    0.1083056 -70.28 0.0004340848    1.626    0.385
        64 -11.6858    244.1406    105.2169   6.9904933700e+01   1.2392618116e+01     1.040825    0.4385687 -32.38  0.005027525    2.036    0.509
        65  -9.5748    228.6087    111.0024   7.3073785884e+01   1.4161858692e+01    0.3911075    0.1110955 -33.24  0.001408947    3.330    0.700
        66  -9.5128      1.6282    110.4328   1.3777300871e+02   5.3367055881e+01    0.3380454   0.09923077 -74.18  0.001246563    2.826    0.646
        67 -10.8151    160.9214    100.2634   8.1926684266e+01   2.9519740789e+01    0.5687638    0.3753349 -29.58   0.00258047    1.678    0.404
        68  -9.5366    181.7360    100.0632   7.7848559866e+01   2.4992673334e+01    0.2748201    0.2004095 -20.39  0.001363195    1.582    0.368
        69 -10.3437     37.5226     98.4538   1.2140548462e+02   5.3765699360e+01    0.3883375    0.3045936 -16.31  0.001991243    1.487    0.328
        70  -9.9296     48.4789     98.2218   1.1672201735e+02   5.2508171165e+01    0.2622386    0.2248281 -48.70  0.001386214    1.173    0.148
        71  -9.5174     13.4995     96.2362   1.3149404596e+02   5.6442768850e+01    0.3924334    0.1795662 -21.30  0.001496707    3.135    0.681
        72  -9.2182    107.7921     94.7781   9.3975817034e+01   4.2670268708e+01    0.2610259    0.1776762  -0.48 0.0009469037    2.743    0.635
        73 -10.6556    211.1897     87.2492   7.0162080203e+01   2.0973153124e+01    0.6652728    0.2589246 -37.66  0.002796813    2.214    0.548
        74  -9.7389    241.2245     88.4946   6.6765855328e+01   1.5207368695e+01    0.2459276    0.1430013 -35.16  0.001388583    1.419    0.295
        75  -9.5813    129.0450     83.2175   8.4568094072e+01   4.0230384651e+01    0.2869057    0.2319953 -44.20   0.00139741    1.261    0.207
        76 -10.6804     84.1473     81.7853   9.8069967115e+01   5.0609397271e+01    0.5958509    0.4213781  19.46  0.002587673    1.800    0.445
        77 -10.0640    214.7533     71.6379   6.6062985836e+01   2.2560324474e+01    0.2987432    0.2359349 -39.30  0.001800726    1.131    0.116
        78 -10.6405    140.8820     65.9156   7.6462780754e+01   4.0539853559e+01    0.4858239    0.3832097 -53.19  0.002423488    1.280    0.219
        79  -9.9885      3.5120     68.4994   1.3260713011e+02   6.4168861102e+01     0.131653    0.1173805 -61.84  0.000355815    1.001    0.001
        80  -9.9243     87.3881     63.8483   9.0883447339e+01   5.3817131900e+01    0.3701162    0.3341419  36.67  0.001944397    1.095    0.087
        81  -9.5245     20.3443     56.3430   1.2061318929e+02   6.6168384163e+01    0.3214998     0.176585 -22.89     0.001432    2.174    0.540
        82  -9.6195     95.8134     53.5509   8.4169681033e+01   5.3875590080e+01    0.3028071    0.2489154  11.86  0.001488999    1.493    0.330
        83 -10.0521    144.6340    241.2362   1.1191616557e+02   6.4750113842e+00    0.4439432    0.2789595  12.49  0.002608222    1.575    0.365
        84 -10.7060     81.4600     44.8269   8.5663203247e+01   5.8764952704e+01    0.3661633    0.3190627  66.86  0.001954792    1.212    0.175
        85 -10.0146    140.5941     38.1887   6.7551490875e+01   4.4917080826e+01    0.4025634    0.2895241 -75.75   0.00196821    1.494    0.331
        86  -9.3817    172.8120     35.7248   6.1937404804e+01   3.7021145314e+01    0.2247653    0.1719221  53.45  0.001217989    1.443    0.307
        87  -9.8070    181.5058     25.0003   5.7938221951e+01   3.6199241504e+01    0.2713986    0.1682055 -79.79  0.001373938    1.608    0.378
        88  -9.6853    108.7787     25.2142   6.9234969748e+01   5.4962533346e+01    0.2501771    0.1476783  33.48  0.001054522    2.183    0.542
        89  -9.3685    185.6060    244.7916   1.0432925528e+02   8.4513836234e-01    0.1308047    0.1064351 -38.58 0.0007418534    1.670    0.401
        90  -9.8879    142.5937     18.0347   6.0447336532e+01   4.6863421375e+01    0.4005174    0.2310521  48.02   0.00184874    1.907    0.476
        91  -9.5810    234.6335     46.7702   5.8401604477e+01   2.1933837161e+01    0.1837213   0.08673114 -41.96 0.0005968027    1.666    0.400
        92  -8.9796    180.8780    244.4772   1.0517124684e+02   1.4532852398e+00    0.1746518   0.08939145  29.04  0.001019521    1.560    0.359
        93  -9.5862    124.2773    243.4963   1.1644828104e+02   8.7800515568e+00    0.2386902    0.1827424 -17.99  0.001557565    1.572    0.364
