#   1 NUMBER                 Running object number                                     
#   2 MAG_AUTO               Kron-like elliptical aperture magnitude                    [mag]
#   3 X_IMAGE                Object position along x                                    [pixel]
#   4 Y_IMAGE                Object position along y                                    [pixel]
#   5 X_WORLD                Barycenter position along world x axis                     [deg]
#   6 Y_WORLD                Barycenter position along world y axis                     [deg]
#   7 A_WORLD                Profile RMS along major axis (world units)                 [deg]
#   8 B_WORLD                Profile RMS along minor axis (world units)                 [deg]
#   9 THETA_WORLD            Position angle (CCW/world-x)                               [deg]
#  10 FWHM_WORLD             FWHM assuming a gaussian core                              [deg]
#  11 ELONGATION             A_IMAGE/B_IMAGE                                           
#  12 ELLIPTICITY            1 - B_IMAGE/A_IMAGE                                       
         1 -13.6076    210.4403     29.5638   1.2810113385e+01   3.0604817381e+01     0.780759    0.6314009 -52.70  0.003877964    1.076    0.071
         2 -11.2427    227.2911      9.5553   7.5956009719e+00   2.9584008197e+01    0.2064377    0.1537261 -55.55 0.0007427574    1.033    0.032
         3 -15.5759    121.4137    235.4133   7.1275742926e+01   9.9378306662e+00     6.296665     4.198396 -62.50   0.03563786    2.012    0.503
         4 -14.0032    246.9397    239.2634   4.8194150740e+01  -3.7553528722e+00     1.644018    0.3986587 -35.07  0.007868829    3.252    0.693
         5 -11.8461     89.3404    212.3972   7.6041040990e+01   1.8368430903e+01    0.2822504     0.229601 -47.02 0.0006720512    1.332    0.249
         6  -9.8998     67.5825    213.0155   8.1686456008e+01   2.0848074422e+01    0.1715882    0.1475327  29.39 0.0002062348    1.044    0.042
         7 -10.8010     71.0700    230.4230   8.2562767946e+01   1.6766674851e+01    0.1429848    0.1350535  37.20 0.0002009648    1.101    0.092
         8 -10.6405    160.8594    200.5809   5.7406169915e+01   1.1243830699e+01     0.306706    0.1842646 -51.32  0.001510144    1.944    0.485
         9  -9.9019    210.9848    198.6682   4.7517044003e+01   5.2755778817e+00    0.1610885    0.1265534  -2.16 0.0004600279    1.123    0.110
        10  -9.4972     69.8074    197.5795   7.9357840831e+01   2.4080066709e+01    0.2022741   0.08752701 -55.09 0.0005668286    2.349    0.574
        11  -9.8508     69.3847    194.3672   7.9083347395e+01   2.4882813162e+01    0.1833783    0.1407959  54.21            0    1.351    0.260
        12 -11.3326     55.9581    193.9805   8.2763495732e+01   2.6558885723e+01    0.2571387    0.1941236 -50.76 0.0009057315    1.419    0.295
        13 -10.2250     11.0831    189.4037   9.4947302631e+01   3.1982543942e+01    0.1388889    0.1243171   8.95 0.0008550209    1.248    0.199
        14 -12.2474     63.5426    178.2723   7.8692326151e+01   2.9500338776e+01    0.5749045    0.3532243 -27.47  0.002492827    2.147    0.534
        15 -11.7791     51.8348    186.5795   8.3114882653e+01   2.8821699408e+01    0.4344516    0.3205846 -25.14  0.001646141    1.626    0.385
        16 -10.0357     57.2628    182.7086   8.1093927436e+01   2.9155432756e+01     0.205309    0.1783895  36.62 0.0001945259    1.090    0.082
        17  -9.3269     71.0091    186.7428   7.7660077306e+01   2.6494367453e+01     0.186883    0.1546898  29.78 0.0003210994    1.137    0.120
        18  -9.5542     77.9050    184.3670   7.5389843252e+01   2.6175805107e+01    0.1976135    0.1303042   8.68 0.0004725587    1.747    0.427
        19 -11.4323     54.6128    229.1420   8.6465707218e+01   1.8812753584e+01     0.234797    0.1376773 -64.20  0.001082183    1.897    0.473
        20 -11.0621     73.9056    180.9174   7.6041570231e+01   2.7531591227e+01    0.4463527     0.283932 -53.15  0.001189322    1.608    0.378
        21 -10.2662    175.0297    179.5021   5.0748048532e+01   1.3093853523e+01     0.246536    0.1791794 -35.82 0.0008972493    1.263    0.208
        22 -12.6516    172.7813    174.1387   5.0194557047e+01   1.4394284629e+01     0.727516    0.4475409  -6.60  0.001400944    2.159    0.537
        23 -11.5158    180.7168    168.4194   4.7530085569e+01   1.4263040997e+01    0.5463228     0.318542 -58.19  0.002445949    2.632    0.620
        24 -18.8411     27.9577    131.0939   8.4015505879e+01   4.5937330474e+01     18.99154     4.070434 -73.26    0.0470988    5.442    0.816
        25 -10.4929     57.8049    222.2834   8.5082059276e+01   1.9924065181e+01    0.1549143   0.09921308 -63.29 0.0006201091    1.723    0.420
        26 -11.2584      2.9960    176.5198   9.6496547493e+01   3.5778972976e+01      0.17031    0.1513896   3.76 0.0006361961    1.281    0.219
        27 -11.9591    139.6604    171.4716   5.6950801399e+01   1.9971363155e+01     0.276114    0.2503625  89.50 0.0007915455    1.461    0.315
        28 -11.6317      2.3194    164.1807   9.5977450373e+01   3.8989149810e+01     0.215691     0.194997 -43.46  0.000583442    1.226    0.184
        29 -15.7050     68.2682    143.7463   7.1810499299e+01   3.7729163924e+01     2.470642      1.76259  53.09   0.01148493    1.542    0.352
        30 -12.0556    133.5335    145.6670   5.3193721682e+01   2.6483600109e+01    0.9819019    0.2969193 -52.73  0.002863223    4.010    0.751
        31 -11.5796    112.4736    150.9746   5.9824641238e+01   2.8937538734e+01    0.4618018    0.3266122  76.58  0.001448232    2.283    0.562
        32 -11.8069    108.9096    145.2784   5.9624935781e+01   3.0875999117e+01    0.3476358    0.3072424 -35.47 0.0006633057    1.115    0.103
        33 -12.1935     92.8013    148.1161   6.4899435258e+01   3.2878212899e+01    0.3777367    0.3331552  47.05 0.0003392762    1.179    0.152
        34 -13.1780     97.8978    142.9496   6.2318735464e+01   3.3304387806e+01    0.8588421    0.5410257 -35.21  0.002401245    1.775    0.436
        35 -11.4207    106.5758    139.0574   5.8945089343e+01   3.2748858177e+01    0.4104323    0.2840025  71.87  0.001034235    2.242    0.554
        36  -9.1667    151.5352    135.5142   4.6708343051e+01   2.5381070184e+01    0.1434093     0.134384 -36.59 6.127932e-05    1.062    0.058
        37 -12.2764    106.5654    130.9157   5.7110054201e+01   3.4672332897e+01    0.5708632    0.4529463  52.15  0.001942061    1.379    0.275
        38 -11.4259    133.7474    128.4225   4.9230405266e+01   3.0162684258e+01    0.5075391    0.4020943  89.33  0.001775987    1.775    0.437
        39 -12.1208     97.4562    130.2008   5.9652546938e+01   3.6473876864e+01    0.3739293    0.2874034  43.75 0.0002947243    1.338    0.252
        40 -10.5995    115.4069    125.1694   5.3243699265e+01   3.4360857706e+01    0.2588107    0.2067994  23.67 0.0006633092    1.344    0.256
        41 -10.8850     59.3528    231.1825   8.5481431661e+01   1.7888773603e+01    0.1839584   0.09223213 -48.21 0.0008783984    2.352    0.575
        42 -10.0058    162.7717    120.9523   4.0972175527e+01   2.6157162325e+01    0.1927471    0.1641634 -61.03 0.0003470888    1.283    0.220
        43 -10.0193    158.7656    120.6093   4.1707630210e+01   2.6981004790e+01    0.2371324    0.1672985 -60.19 0.0003236609    1.665    0.399
        44  -9.4259    156.4764    117.5263   4.1447448053e+01   2.8014372487e+01    0.2125808    0.1295319 -52.00 0.0009599068    1.708    0.415
        45 -10.6027    103.4456    120.2446   5.5471598985e+01   3.7751089695e+01    0.2939099    0.2418732  -2.58 0.0006188115    1.419    0.295
        46 -10.5156     85.2139    118.4832   6.0774493285e+01   4.1489470537e+01    0.2426126    0.2125081  86.89 0.0008506425    1.324    0.245
        47 -10.3715    110.9876    115.0277   5.1958750499e+01   3.7503241098e+01    0.2299328    0.2239197 -47.93 0.0004744498    1.036    0.034
        48 -12.0923    117.4952    109.1002   4.8604541707e+01   3.7519025240e+01    0.4472016    0.3338372  60.91  0.002101514    1.568    0.362
        49  -9.2033    160.4290    108.5178   3.8456224292e+01   2.8950040199e+01    0.1419281    0.1296822 -40.72 0.0001439395    1.010    0.010
        50 -11.9717     81.4039    104.8397   5.8585895021e+01   4.5486545013e+01    0.8015154    0.3697273  55.23  0.002455278    3.594    0.722
        51 -12.3001    112.6207     99.8270   4.7427800313e+01   4.0507874110e+01    0.5568678    0.3844873  78.96  0.001608036    2.303    0.566
        52 -10.4255     97.7287     87.8624   4.8322160833e+01   4.6145382762e+01    0.3373151    0.1764506  63.46  0.001091984    3.394    0.705
        53  -9.6049    154.5069     87.4420   3.4232403494e+01   3.3983202599e+01    0.1400498    0.1318391 -53.24 0.0001827428    1.009    0.009
        54  -9.4223     65.2686     88.3626   5.9920343193e+01   5.2263679801e+01    0.2040631    0.1379259  43.52 0.0002827746    1.530    0.346
        55 -13.0016    170.3347     67.9917   2.6418602639e+01   3.3772530940e+01    0.5039638    0.4158759  58.88 0.0008462245    1.308    0.236
        56  -9.5186     58.1941    228.0454   8.5494209763e+01   1.8662798802e+01    0.1410825    0.1310427 -88.35 0.0004186371    1.206    0.171
        57 -13.6730    186.5870     54.8908   2.0950042417e+01   3.2235149312e+01    0.9999783    0.8436095  15.75  0.003850922    1.658    0.397
        58 -12.0161    192.7218     49.3190   1.8918633207e+01   3.1718979859e+01    0.3163521    0.2929562  50.81 0.0009000787    1.345    0.256
        59 -11.5100     49.5737    224.5941   8.7336006887e+01   2.0298324911e+01    0.1803661    0.1531525 -63.54 0.0005169482    1.326    0.246
        60 -11.6545     93.2459    235.8681   7.7817913326e+01   1.3167012152e+01    0.2420158    0.2369087 -42.98 0.0005812997    1.213    0.175
        61 -10.0883     72.9570     30.4676   3.5107391730e+01   6.1701964038e+01    0.2154188    0.1268633  55.65  0.001025768    1.584    0.369
        62 -10.0765     60.8035     21.3252   3.5028164907e+01   6.5573858908e+01    0.2059841    0.1608519  66.06 0.0007771444    1.381    0.276
