#   1 NUMBER                 Running object number                                     
#   2 MAG_AUTO               Kron-like elliptical aperture magnitude                    [mag]
#   3 X_IMAGE                Object position along x                                    [pixel]
#   4 Y_IMAGE                Object position along y                                    [pixel]
#   5 X_WORLD                Barycenter position along world x axis                     [deg]
#   6 Y_WORLD                Barycenter position along world y axis                     [deg]
#   7 A_WORLD                Profile RMS along major axis (world units)                 [deg]
#   8 B_WORLD                Profile RMS along minor axis (world units)                 [deg]
#   9 THETA_WORLD            Position angle (CCW/world-x)                               [deg]
#  10 FWHM_WORLD             FWHM assuming a gaussian core                              [deg]
#  11 ELONGATION             A_IMAGE/B_IMAGE                                           
#  12 ELLIPTICITY            1 - B_IMAGE/A_IMAGE                                       
         1 -14.1463    167.1386     55.0835   6.7239699597e+01   3.6524167457e+01     1.906652     1.319866  19.07   0.00577981    1.872    0.466
         2 -14.2918    181.0713     40.2056   5.9853370770e+01   3.5147538007e+01     1.148436     1.008507  41.46  0.003363055    1.141    0.123
         3 -13.7886    185.8020     33.3378   5.6889434994e+01   3.4830792002e+01    0.8269928    0.6598824 -34.25  0.001312413    1.269    0.212
         4 -14.8364    201.9619      8.3402   4.6994730687e+01   3.3475994525e+01     1.586627     1.220317  -7.07  0.005540671    1.507    0.336
         5 -13.1321    189.6011     14.5062   5.0449270110e+01   3.6078710710e+01    0.4986221    0.4427908  37.14  0.001497804    1.170    0.145
         6 -13.1853    228.8660      2.7652   4.2582152611e+01   2.7119609044e+01     1.927312    0.2811508  70.75   0.00496468    5.966    0.832
         7 -11.0593    184.2006    211.5619   9.9926741095e+01   5.4746085907e+00    0.3116644    0.2668216 -53.16  0.001930857    1.456    0.313
         8 -14.2914    246.2778    239.6368   9.3841856713e+01  -8.1666600703e+00     1.514855    0.6832801 -23.79  0.008570331    2.692    0.629
         9  99.0000     58.1351    235.2413   1.2386588698e+02   2.1314269790e+01     8.372727     6.297147  82.23   0.06890304    1.186    0.157
        10 -10.7216    188.8367    176.0620   9.3101821737e+01   9.9723424122e+00     0.379319    0.2071877 -49.47  0.001762614    2.219    0.549
        11 -11.7260    239.5195    176.7407   8.4066029790e+01   8.3960658904e-02    0.2937111    0.1331602  34.98   0.00130565    2.162    0.537
        12 -11.0134    204.3817    175.5336   9.0086657896e+01   6.9903228568e+00     0.313363    0.2813475 -47.49  0.001114653    1.315    0.240
        13 -10.7749    196.6439    175.4568   9.1513842302e+01   8.5273132174e+00    0.3048247    0.2349057  54.63  0.001707588    1.323    0.244
        14 -10.8520     47.6243    171.8279   1.2059159343e+02   3.4113558283e+01     0.212586    0.1715694  81.55 0.0007776283    1.084    0.077
        15 -11.8795    230.2505    167.1622   8.3757898606e+01   3.1545718612e+00    0.3878842    0.1652827 -43.12  0.001584017    2.845    0.648
        16  -9.8635    185.5110    168.9622   9.2399265789e+01   1.1800437116e+01    0.1949105    0.1379477 -40.92 0.0005589554    1.555    0.357
        17 -11.9433    189.4255    208.6242   9.8549464520e+01   4.9522759505e+00    0.8135536    0.1442917  40.71  0.002144649    6.376    0.843
        18  -9.9072    124.1913    161.2581   1.0348531202e+02   2.5080721869e+01    0.1834767    0.1445971  81.96 0.0005237731    1.313    0.238
        19 -12.7208     69.1166    196.1676   1.1891160517e+02   2.6730856065e+01    0.4077085    0.3267949 -60.32  0.002134361    1.578    0.366
        20 -12.7927     73.7234    210.5582   1.1942571653e+02   2.3498403712e+01    0.4528908    0.3140265 -44.30  0.001752493    2.491    0.599
        21 -12.0572    134.0045    146.3648   9.8675315969e+01   2.6280287869e+01     1.255651    0.3145423 -55.88  0.003150513    6.307    0.841
        22 -11.9162    113.8218    151.6421   1.0408222373e+02   2.8864452334e+01    0.4671644    0.2763195  85.84   0.00195026    2.729    0.634
        23 -10.2817    123.9225    151.6761   1.0187637046e+02   2.7069904481e+01    0.1939631    0.1621405  62.31  0.000519476    1.127    0.113
        24 -10.1071    118.9134    148.8357   1.0246638395e+02   2.8555117255e+01    0.2917365    0.1681207 -51.86 0.0008449561    1.763    0.433
        25 -10.6365    174.3707    148.8223   9.0577634744e+01   1.7631568338e+01    0.2992827    0.2495315  82.86 0.0008707675    1.434    0.303
        26 -11.5724    144.0231    146.9546   9.6602635535e+01   2.4214888638e+01    0.4770338    0.2481581 -62.48  0.001899085    2.569    0.611
        27 -11.5826     93.5850    141.6163   1.0690782759e+02   3.4319466012e+01       0.2411     0.195373  84.49  0.001429372    1.179    0.152
        28 -12.3741    111.1486    137.8536   1.0219806616e+02   3.2236293753e+01    0.5568041    0.4239305 -23.69  0.002848963    1.946    0.486
        29 -10.6678    187.9180    154.7205   8.9086009085e+01   1.3730624619e+01    0.5578145    0.1604175  43.56  0.001783286    3.351    0.702
        30 -10.3570    160.1334    147.3229   9.3227764111e+01   2.0884837153e+01    0.2631595    0.1823578 -76.10 0.0007328267    2.055    0.513
        31 -12.5902    100.1302    137.0913   1.0460895747e+02   3.4254756565e+01    0.2769852    0.2567165 -64.17 0.0004574801    1.148    0.129
        32 -11.9973    106.0667    130.9014   1.0205530872e+02   3.4606534280e+01    0.3839682    0.3047497 -74.28  0.001125864    1.235    0.190
        33 -11.2588    135.7652    128.3742   9.4574122090e+01   2.9646852897e+01    0.6167713    0.1716291 -50.13  0.001879143    3.749    0.733
        34 -11.0917    117.2214    128.6395   9.8960320422e+01   3.3129635725e+01    0.2719518    0.2484859   2.36 0.0006803716    1.376    0.273
        35 -11.3428    105.2588    124.5886   1.0099414357e+02   3.6115905005e+01    0.2498037    0.2301469 -21.81 0.0004634421    1.328    0.247
        36 -10.2556    121.1495    123.2744   9.6889249812e+01   3.3552475661e+01    0.2252947    0.1577318  -9.06  0.000936255    2.694    0.629
        37 -10.7935    160.7621    127.7641   8.8820650605e+01   2.4557178026e+01    0.3315103    0.2428694 -56.07  0.001363151    1.477    0.323
        38  -9.7160    153.4397    119.9226   8.8602020929e+01   2.7702552022e+01    0.2107024    0.1277087 -66.80 0.0008061664    2.445    0.591
        39 -10.3907    111.9456    118.1074   9.7992389995e+01   3.6354482560e+01     0.205681    0.1974481 -88.81 0.0003718365    1.050    0.048
        40 -10.9014    168.1443    113.1020   8.3667132682e+01   2.5779362385e+01    0.3602678    0.2877431 -82.51 0.0009270728    1.587    0.370
        41 -10.6923    134.6306    105.6258   8.9478011126e+01   3.4621688549e+01    0.4353988    0.1404511 -45.29  0.001405109    3.034    0.670
        42 -11.3098    117.7277    109.8568   9.4678856181e+01   3.7071600895e+01    0.3859908    0.2245795  56.92  0.001680779    2.000    0.500
        43 -10.6324    205.5169    110.1396   7.5307113232e+01   1.7601343509e+01    0.3265761    0.2138943  41.49  0.000859967    1.551    0.355
        44 -11.9927     64.3730    193.6835   1.1953386764e+02   2.7812645453e+01    0.3074372    0.1978885 -86.85  0.001525253    1.378    0.274
        45 -10.2478     77.9896    104.9383   1.0385904413e+02   4.4716812546e+01    0.2018024    0.1763048 -65.04  0.000421535    1.010    0.010
        46 -11.9459    193.2943    195.6632   9.5748032394e+01   6.1011942661e+00    0.8934339    0.4603519 -62.72  0.003085347    5.407    0.815
        47  99.0000     12.9057    205.8630   1.2911289280e+02   3.1272689675e+01    0.3553568    0.1284619  42.00  0.002179951    2.512    0.602
        48  -9.7498    151.2324     81.5652   7.8901252750e+01   3.5767326746e+01    0.2089811    0.1445186  39.27 0.0004640254    1.530    0.346
        49 -10.3647     78.6753     75.0901   9.6475311345e+01   5.1087440296e+01    0.1993731    0.1815073  64.82 0.0004070968    1.280    0.219
        50 -12.9076    170.0286     69.6601   7.1166676118e+01   3.3382625055e+01    0.7109213    0.4729764 -79.54   0.00121914    2.455    0.593
        51  -9.6243    166.3290    233.7925   1.0609501617e+02   5.4950196067e+00     0.126918    0.1088406 -29.96 0.0003423382    1.559    0.359
        52  -9.6555    167.8118    230.2470   1.0539190849e+02   5.7258309575e+00    0.1439242    0.1175053  31.28 0.0003545075    1.270    0.212
        53 -18.8937     33.4900     99.0465   1.1474630572e+02   5.1118149621e+01     13.80222    0.9610605 -65.16   0.02866641   11.077    0.910
        54 -10.5012     13.5837     59.9177   1.1354435391e+02   6.0976692661e+01    0.1667931     0.153278 -77.89 0.0004238946    1.255    0.203
        55 -11.0525     82.0425    195.1225   1.1645296086e+02   2.5170823355e+01    0.2819752      0.25058  50.94  0.002050204    1.376    0.273
        56 -10.4980    175.7581    217.6086   1.0230269504e+02   6.1129432655e+00    0.1773356   0.09597161  51.57 0.0006317048    1.634    0.388
