#   1 NUMBER                 Running object number                                     
#   2 MAG_AUTO               Kron-like elliptical aperture magnitude                    [mag]
#   3 X_IMAGE                Object position along x                                    [pixel]
#   4 Y_IMAGE                Object position along y                                    [pixel]
#   5 X_WORLD                Barycenter position along world x axis                     [deg]
#   6 Y_WORLD                Barycenter position along world y axis                     [deg]
#   7 A_WORLD                Profile RMS along major axis (world units)                 [deg]
#   8 B_WORLD                Profile RMS along minor axis (world units)                 [deg]
#   9 THETA_WORLD            Position angle (CCW/world-x)                               [deg]
#  10 FWHM_WORLD             FWHM assuming a gaussian core                              [deg]
#  11 ELONGATION             A_IMAGE/B_IMAGE                                           
#  12 ELLIPTICITY            1 - B_IMAGE/A_IMAGE                                       
         1 -11.1522    215.6226     32.6780   3.0483183658e+01   2.8182069061e+01    0.6549327    0.5636597  28.63  0.002799529    1.558    0.358
         2  -9.8450    241.7284     10.2940   2.3698142786e+01   2.5353119518e+01    0.7309318    0.3313767 -63.73  0.003978504    2.075    0.518
         3  -9.4232    245.9201      6.7810   2.2762965659e+01   2.4911306260e+01    0.4240666    0.2054072 -78.33   0.00241616    2.078    0.519
         4  -9.6330    242.4956      2.9928   2.2194438293e+01   2.5930639308e+01    0.5438806    0.2079648  83.72  0.002788141    2.692    0.628
         5  -8.5857    120.4937      8.8066   3.5521847599e+01   5.3113294209e+01    0.2571846    0.1700949  63.99  0.000904416    1.314    0.239
         6 -10.3826    199.3067    241.0707   7.7030159431e+01  -1.3318449368e+00    0.2108844    0.1700749   2.27 0.0002047045    1.115    0.103
         7 -10.7953     20.7143    201.6773   1.1206869879e+02   2.9125611652e+01    0.6283202    0.4366447  27.46 0.0006622482    1.504    0.335
         8 -11.7528     55.1919    236.4468   1.0681200287e+02   1.8316403461e+01     1.063628    0.6839006  25.62   0.00315196    1.552    0.355
         9 -13.6850     11.4539    211.0859   1.1470531569e+02   2.7900346225e+01     3.027542     1.669768  85.29   0.01748808    1.694    0.410
        10  -8.3355     77.4899    236.8266   1.0200964405e+02   1.5593185161e+01    0.1579458    0.1209385 -73.28 0.0008932929    1.502    0.334
        11  -8.2305    238.2454    234.0070   6.8945096246e+01  -5.0618677169e+00    0.1396838   0.07992226 -27.50  0.000716803    1.557    0.358
        12  -7.3556    178.6781    232.1951   7.9690508099e+01   2.6444852839e+00    0.1585744    0.1027018 -26.82 0.0003763495    1.588    0.370
        13 -10.9519     93.7243    227.8064   9.7477644496e+01   1.5231029925e+01    0.8840818    0.3224379  25.17  0.003359267    3.143    0.682
        14 -10.9833     44.6709    220.4142   1.0790103713e+02   2.2702268826e+01    0.7288275    0.4624471   2.13  0.003780915    2.461    0.594
        15  -8.6245    123.4569    226.0249   9.0561719674e+01   1.1461181445e+01    0.1804145    0.1295165 -51.45  0.001036971    1.614    0.380
        16 -10.0050    135.7994    224.0646   8.7547488655e+01   1.0047109051e+01    0.2361749    0.2117371 -25.87  0.000470342    1.224    0.183
        17  -9.7142     55.8561    222.1011   1.0551154385e+02   2.1102207216e+01    0.4284916    0.1957995 -80.78  0.001985997    2.680    0.627
        18  -7.8699    115.3089    229.3475   9.2809360510e+01   1.1997323350e+01    0.1285515   0.09414927  -8.02  0.000704437    1.706    0.414
        19  -7.6789    196.7224    229.0553   7.5652147466e+01   6.9148019387e-01    0.1637762    0.1323194  -9.01  0.000570991    1.139    0.122
        20  -8.9404     87.3297    217.4587   9.7781524305e+01   1.8133974453e+01    0.2140475    0.1997323  16.58 0.0006744911    1.143    0.125
        21 -10.1294     58.0297    211.2867   1.0404400142e+02   2.3120656829e+01    0.7865876    0.3508965  68.08  0.003042618    3.472    0.712
        22 -10.4059     49.3148    209.3319   1.0592732426e+02   2.4542841805e+01    0.5733768    0.1290218  35.29  0.002133358    3.218    0.689
        23 -10.6951     49.6414    203.2790   1.0530949955e+02   2.5832693700e+01    0.8250764    0.3398065  41.02  0.003778266    2.078    0.519
        24 -11.7567     37.9046    196.0083   1.0753195312e+02   2.8731788231e+01     1.041506    0.5818373  57.83  0.001911421    1.741    0.426
        25  -8.7904    158.7969    210.7959   8.0465807829e+01   9.0075188329e+00    0.2262268    0.1797718   8.46 0.0004689826    1.155    0.134
        26 -13.9095      8.9960    247.4089   1.1681568505e+02   2.0901901189e+01     3.063226     1.086659  20.48   0.01161924    3.890    0.743
        27  -8.1787    144.0785    207.6550   8.3225009313e+01   1.1817991710e+01    0.2206798    0.1899576 -59.16 0.0008515327    1.444    0.308
        28  -9.9816    123.9840    205.9985   8.7610420909e+01   1.5204380686e+01    0.1935608    0.1728497  24.41            0    1.004    0.004
        29 -10.2619     45.8374    224.6366   1.0795964524e+02   2.1705941648e+01    0.4846275    0.2642185  71.60    0.0023251    2.019    0.505
        30  -7.6072    237.3991    198.7967   6.3102584603e+01  -2.8914937518e-01     0.176378   0.09309916 -24.24 0.0009516483    1.692    0.409
        31  -8.0174     57.4629    194.5220   1.0251384826e+02   2.6897387335e+01    0.1281877    0.1213647  60.89 0.0001115244    1.064    0.060
        32  -8.8888    166.0013    240.3885   8.3463030873e+01   3.1143916286e+00    0.1932083    0.1679086 -18.00 0.0002397464    1.259    0.206
        33  -7.6630     67.4767    193.5096   9.9861933008e+01   2.5898520379e+01    0.1327809    0.1227693  55.32 0.0008101104    1.014    0.014
        34 -10.3679     45.7482    188.1150   1.0484008624e+02   2.9714064438e+01    0.6716738    0.2310316  45.95  0.002656039    2.735    0.634
        35  -9.8052     51.7339    188.0157   1.0328990557e+02   2.9066243966e+01    0.3256165    0.2879784 -81.87  0.001373563    1.122    0.108
        36 -10.5857     49.0457    184.6809   1.0363720035e+02   3.0152666982e+01    0.6035896    0.3965973  17.33  0.002917503    1.761    0.432
        37  -7.0947     62.7061    189.3204   1.0059962318e+02   2.7456134320e+01    0.1408364   0.09288623  62.74 0.0004467651    1.611    0.379
        38  -7.1895     86.5957    193.7466   9.5024556831e+01   2.3292787348e+01    0.1377118    0.1039835  -5.91 0.0006094328    1.712    0.416
        39  -9.7374     22.0798    184.5392   1.1054892264e+02   3.2899243174e+01    0.4804753    0.3020939  74.23  0.002044515    1.524    0.344
        40  -7.1819     92.3780    190.5146   9.3103795046e+01   2.3190731726e+01    0.1332783    0.1296088  26.78 -0.0001392181    1.056    0.053
        41  -7.3567    182.5646    193.4722   7.2393296332e+01   8.3887006782e+00    0.1355179    0.1160578   0.50 -3.266965e-05    1.011    0.011
        42  -9.8411     25.7454    177.7498   1.0907125741e+02   3.4171000666e+01    0.3720103    0.1704664  52.52  0.001434446    2.150    0.535
        43  -9.8508     22.4115    174.4117   1.0966800733e+02   3.5266215034e+01    0.3432674    0.2435924  80.53  0.001101999    1.313    0.238
        44  -8.1412    124.8998    177.9094   8.2768791563e+01   2.0895562122e+01    0.2112219     0.199478  21.84  0.000372765    1.027    0.026
        45  -7.4543    119.0454    177.9890   8.4266513743e+01   2.1845776891e+01    0.1844406    0.1451774  31.93 0.0004344147    1.201    0.167
        46  -7.6521     56.0077    176.7397   1.0089161999e+02   3.1237318430e+01    0.2901044    0.1548372  76.08  0.001180849    2.627    0.619
        47  -8.6961     14.8018    176.4593   1.1180467822e+02   3.5418035791e+01    0.2373756    0.1670743  76.10 0.0006331379    1.290    0.225
        48  -8.8800     69.6143    167.7101   9.5932044338e+01   3.1711122130e+01    0.3390472    0.2404586 -28.07  0.001472367    1.790    0.441
        49  -8.9043     64.6023    172.8632   9.8047473728e+01   3.1112928949e+01    0.3406571     0.245652 -30.87  0.001478275    1.728    0.421
        50  -9.1185    167.8120    235.9115   8.2446987793e+01   3.5556432763e+00    0.2740542    0.1968963   6.76 0.0004230915    1.283    0.221
        51  -9.2727     10.9593    166.9085   1.1211771988e+02   3.8001531947e+01    0.2589164    0.1531701  79.85  0.001378544    1.607    0.378
        52  -8.3550     50.2362    164.1980   1.0095457808e+02   3.4972982644e+01    0.4326921    0.1994171  64.66  0.001544573    3.330    0.700
        53  -9.3845      2.0215    161.9199   1.1415578015e+02   3.9831025086e+01    0.4817248    0.1401328 -73.56  0.001944508    2.801    0.643
        54  -9.5073     78.8308    159.2953   9.1996603631e+01   3.2493365156e+01    0.3742642    0.2814649  76.69 0.0002900159    1.582    0.368
        55  -9.7186    167.6528    158.1122   6.8609326800e+01   1.7469477813e+01       0.2524    0.2260033  -0.61 0.0002945946    1.043    0.041
        56 -10.1727     66.3223    154.7322   9.4923869973e+01   3.5353517131e+01    0.3936326    0.2718267 -36.96 0.0007403276    1.660    0.398
        57  -8.1732    172.9868    155.1705   6.6806694232e+01   1.7067290235e+01    0.2065821    0.1979762  45.39 0.0005529639    1.221    0.181
        58  -8.6921     84.8581    153.7952   8.9298257246e+01   3.2951591497e+01    0.2883318    0.2062564  15.65   0.00121064    1.610    0.379
        59  -8.9142    111.1068    152.8018   8.1629174867e+01   2.8905428027e+01    0.2484788    0.2203046 -26.25            0    1.167    0.143
        60  -7.6140     23.1906    153.0470   1.0750799733e+02   4.0443147793e+01    0.2323991    0.1281083  70.58  0.001079083    2.019    0.505
        61  -9.9788      5.5408    153.6617   1.1261849865e+02   4.1609837199e+01    0.5964651    0.2705492  36.86  0.002921804    2.156    0.536
        62 -10.0577      5.3844    141.7285   1.1171971936e+02   4.4575751349e+01    0.5363683    0.2723295  79.16  0.002540165    2.049    0.512
        63  -9.7096     67.2624    143.7308   9.2818209314e+01   3.7993943559e+01    0.4880965    0.3614132 -66.55  0.002172553    1.340    0.254
        64  -9.8624     70.8298    145.7155   9.2064645983e+01   3.7003307914e+01    0.6860483    0.4101789  62.44  0.002846637    2.239    0.553
        65  -8.3910    168.6370    231.1472   8.1570808346e+01   4.1853005204e+00    0.2067629    0.1653205  19.34 0.0003110608    1.067    0.063
        66  -7.4174     74.6054    140.4402   8.9940576308e+01   3.7792117707e+01    0.3013639     0.142493 -76.17 0.0009544629    3.581    0.721
        67  -9.1788     87.9317    138.1334   8.5373146830e+01   3.6326039837e+01    0.2799381    0.2495769 -15.18 0.0004068307    1.204    0.169
        68  -9.1391      2.9021    130.6407   1.1152170804e+02   4.7498530363e+01    0.3121025    0.1331524 -61.15  0.001404407    1.956    0.489
        69  -7.5242    117.7313    127.8992   7.4265472773e+01   3.3477136347e+01    0.2155133    0.1921284 -39.46 0.0006047073    1.112    0.101
        70  -8.3075    250.3567    125.9349   4.6976017588e+01   8.6336826758e+00    0.1842109    0.1395445 -41.76 0.0005451705    1.226    0.184
        71  -8.2238     97.0480    125.7104   7.9847606282e+01   3.7816787615e+01    0.2196211    0.1993905  18.66 0.0005758487    1.121    0.108
        72  -7.9959     14.5587    124.2109   1.0706973483e+02   4.8410698869e+01    0.2651182    0.1470152  43.93  0.001300792    1.950    0.487
        73  -8.4656     61.3253    118.8980   9.0038525481e+01   4.5094521470e+01    0.2429282    0.2065918  10.58 0.0004336948    1.272    0.214
        74  -8.6938    175.8333    111.7906   5.6074353181e+01   2.4818601535e+01    0.3426689     0.226737 -29.82  0.001258579    1.535    0.348
        75  -7.8332     95.2880    110.0725   7.6543214902e+01   4.1849346949e+01    0.2783895    0.2144836   1.51 0.0009526083    1.580    0.367
        76  -7.4095     91.8377    102.1677   7.5553583103e+01   4.4319160543e+01    0.2016267    0.1708179 -16.37  0.001002683    1.257    0.205
        77 -10.2639     80.4270    101.6500   7.9274290827e+01   4.6449059318e+01    0.2816143     0.256752 -35.96 0.0002133758    1.056    0.053
        78  -7.3678    152.2211     98.8278   5.7763975692e+01   3.2397245509e+01    0.1974438    0.1720949   8.66 0.0003610805    1.264    0.209
        79  -7.4212     79.6384    242.7030   1.0208599126e+02   1.4231115188e+01    0.1165349   0.08995004  -3.72 0.0007033112    1.712    0.416
        80  -7.4228    129.8855     82.8549   5.8598340040e+01   4.0484346087e+01    0.1964255    0.1772053 -82.46  0.001011183    1.276    0.216
        81  -7.2525    115.0266     59.0822   5.4860299697e+01   4.8128902810e+01    0.1707468    0.1606178 -18.17  0.000321197    1.087    0.080
        82  -7.0991    153.7360     57.6702   4.5562207626e+01   3.9126688874e+01    0.1409701    0.1114291  17.34 0.0002470136    1.573    0.364
        83  -8.0010    146.1492     55.7708   4.6470475844e+01   4.1240845927e+01    0.2071741    0.1875469  86.81 0.0003774615    1.140    0.123
        84  -9.8105    193.7237     50.7481   3.7311169301e+01   3.0716494095e+01    0.3074628    0.2700536  13.95  0.001606929    1.424    0.298
        85  -8.5256    220.1474     48.6737   3.3739710949e+01   2.5274524482e+01    0.2040351     0.182248 -31.61 0.0002376799    1.209    0.173
        86  -8.8210    115.4649     47.1943   5.0577581964e+01   4.9886290668e+01    0.2733976     0.250057 -12.55 0.0004209114    1.144    0.126
        87 -10.9912    204.1422     44.5120   3.4482866883e+01   2.9213679030e+01    0.5821184    0.5242484  58.59  0.003755552    1.244    0.196
        88  -7.6600    232.4830     44.0679   3.1506532543e+01   2.3362270118e+01    0.1738303    0.1057906 -35.72 0.0004682245    1.471    0.320
        89  -7.9335    221.8306     40.5884   3.1718912207e+01   2.5939652825e+01    0.1672859    0.1084184 -86.77 0.0009375528    1.663    0.399
        90  -8.3911    249.6869    249.1744   6.9425257581e+01  -8.0791648560e+00    0.1564746    0.1164386 -19.52  0.001196328    1.407    0.289
        91  -7.1337    110.8456     31.5915   4.6000672645e+01   5.3093814423e+01    0.1799144    0.1294933  71.26 0.0002914254    1.502    0.334
        92  -7.5142    183.3929     31.7034   3.3619762438e+01   3.5476161081e+01    0.1567918    0.1261648 -18.50 0.0002468044    1.449    0.310
        93  -8.5158    160.9600     17.5029   3.2400383243e+01   4.2365544575e+01    0.2068756    0.1876774 -17.79 -0.0004265156    1.275    0.216
        94  -9.2376    178.4278    246.7264   8.1885638634e+01   5.4162283688e-01    0.2546586    0.2346568  68.14 0.0006800176    1.817    0.450
        95  -7.2042     80.6312    247.6886   1.0232367697e+02   1.3204083983e+01    0.1161405   0.08840024  -4.37 2.040162e-05    1.768    0.434
        96 -11.7837      1.9968    235.5132   1.1772409662e+02   2.3750990440e+01    0.7202222    0.2852621 -78.87  0.002758184    2.439    0.590
