#   1 NUMBER                 Running object number                                     
#   2 MAG_AUTO               Kron-like elliptical aperture magnitude                    [mag]
#   3 X_IMAGE                Object position along x                                    [pixel]
#   4 Y_IMAGE                Object position along y                                    [pixel]
#   5 X_WORLD                Barycenter position along world x axis                     [deg]
#   6 Y_WORLD                Barycenter position along world y axis                     [deg]
#   7 A_WORLD                Profile RMS along major axis (world units)                 [deg]
#   8 B_WORLD                Profile RMS along minor axis (world units)                 [deg]
#   9 THETA_WORLD            Position angle (CCW/world-x)                               [deg]
#  10 FWHM_WORLD             FWHM assuming a gaussian core                              [deg]
#  11 ELONGATION             A_IMAGE/B_IMAGE                                           
#  12 ELLIPTICITY            1 - B_IMAGE/A_IMAGE                                       
         1  99.0000    189.6161     19.6175   6.7176551457e+01   3.4893665307e+01     1.441684    0.7446591 -32.35  0.004637346    1.985    0.496
         2 -15.7035    241.6239     96.1292   8.0068968620e+01   1.1406161319e+01     7.891357     1.510756 -34.09   0.02191556    4.545    0.780
         3 -13.7532    235.9081     55.5602   7.0900227139e+01   1.8664611710e+01     2.280988     1.185502 -84.30  0.003071486    3.339    0.700
         4 -13.2300    183.7458     82.3917   8.6418540494e+01   2.7526056339e+01     3.897304    0.4232835 -40.23  0.007799866    7.466    0.866
         5 -13.8373    136.5606     39.2623   8.2908515067e+01   4.6452802027e+01     3.812765    0.8590029  61.36  0.008571833    6.438    0.845
         6 -14.1871    167.4786     51.1891   8.0324155916e+01   3.6760092199e+01     1.863786     1.033262  72.46  0.006970054    2.164    0.538
         7 -11.9787    223.8179     29.7367   6.5828008971e+01   2.4944663023e+01     0.771343    0.4545058 -82.72  0.001738554    1.955    0.489
         8 -13.6148    216.6423     23.6291   6.5048962459e+01   2.7455886410e+01    0.7864838    0.5232562  17.94  0.003679518    2.315    0.568
         9 -14.8713    206.7450     33.3483   6.8808724893e+01   2.8819465399e+01     4.620739     1.891077 -54.16    0.0161781    3.129    0.680
        10 -12.2499    124.0178     24.8558   8.0564165363e+01   5.1401776582e+01    0.3918501    0.2615384 -76.07  0.001688485    2.465    0.594
        11 -10.3642    250.5031     18.5381   6.0597922830e+01   1.9924577058e+01    0.3914836    0.1135725 -29.85  0.001484507    3.239    0.691
        12 -12.0312    220.9556     13.3704   6.1989486920e+01   2.7515304602e+01    0.3941467    0.2219342 -41.61  0.001010408    1.687    0.407
        13 -10.1810    244.5703     14.4289   6.0149924508e+01   2.1739124467e+01    0.2726082    0.1698139  36.72  0.001348108    2.395    0.583
        14 -11.9301    144.3872      7.1059   6.9919427946e+01   4.8073582871e+01     1.272888    0.5772611 -64.31  0.003844431    5.026    0.801
        15 -14.2530    117.6387      3.9439   7.3843829526e+01   5.5071615668e+01     3.238229    0.1292985  57.92  0.008487651    5.295    0.811
        16 -12.6701    233.9194      4.0332   5.8599201104e+01   2.5335606687e+01    0.9457384    0.5623299  80.99  0.004484253    1.556    0.357
        17 -12.4602    248.9108      3.5251   5.7367973849e+01   2.1909239542e+01    0.5630804    0.3616659 -65.79  0.003253662    1.391    0.281
        18 -10.6417    150.9747     11.0116   7.0158261106e+01   4.5999852825e+01    0.2558663    0.1982906 -21.27 0.0006484921    1.442    0.307
        19  -9.6880    221.4463      6.9167   6.0336917340e+01   2.8065548324e+01    0.1887627    0.1248872 -33.02 0.0006280022    1.555    0.357
        20 -10.8752    248.9679      9.8370   5.8764592634e+01   2.1232032548e+01    0.3875143    0.1947475 -61.09  0.001898992    1.940    0.485
        21 -11.0422    156.5420      5.7951   6.7532987649e+01   4.5014545649e+01    0.2975399    0.2024628 -56.94  0.001034867    1.700    0.412
        22 -12.2407    104.3049      1.9914   7.6071114715e+01   5.8385619189e+01    0.4092651     0.172006  52.08  0.001810578    1.938    0.484
        23 -10.2560    215.7540      3.1902   5.9915053240e+01   2.9847959546e+01    0.3488492    0.2098122 -26.48  0.001797474    1.820    0.450
        24  -9.9156    222.9654      1.7169   5.8931467859e+01   2.8209004145e+01    0.1909267    0.1465864  87.09 0.0004888402    1.153    0.132
        25 -12.0016    198.4034    119.5933   9.3387381463e+01   1.7353224975e+01     0.571231    0.3402312  68.17  0.001901485    2.467    0.595
        26  -9.4440    135.0000    120.9408   1.0823644129e+02   3.1663508706e+01    0.2537589   0.08863445 -45.80 0.0008009152    2.932    0.659
        27 -12.3769    215.3510    117.2052   8.9565130751e+01   1.3876682968e+01    0.4439637    0.3438192  69.88  0.002180163    1.582    0.368
        28 -13.0086    220.9171    113.3265   8.7617162715e+01   1.3268935937e+01    0.5959712    0.3545761 -11.91  0.002167138    2.389    0.581
        29  -9.7664    167.6408    113.2752   9.8331701055e+01   2.5803521521e+01    0.2501903    0.1921352 -79.74  0.001095136    1.789    0.441
        30 -11.7824    204.7673    110.4294   8.9845414157e+01   1.7481630844e+01    0.5096484    0.2809817  37.07  0.002035131    2.054    0.513
        31 -12.9744    228.5643    105.0195   8.4276557669e+01   1.2904739454e+01     0.640059    0.3621242 -42.35  0.002398427    1.749    0.428
        32  -9.1297    205.2425    223.6379   1.1332489423e+02  -8.0637013082e-01    0.1065465   0.09735552  70.19 0.0006930616    1.601    0.375
        33 -11.8399    177.7421     62.4305   8.1784033938e+01   3.2359027693e+01     0.311643    0.2730998  45.20 0.0002794859    1.133    0.117
        34 -15.1131     45.9935    198.0526   1.4207794239e+02   2.9238364454e+01     1.190615     1.022293 -34.41  0.003441982    1.835    0.455
        35 -14.5277     57.1434    186.2175   1.3867405415e+02   3.0312229627e+01     1.008909    0.7937939  72.51  0.002862767    1.052    0.049
        36 -10.9172    135.0918    105.2123   1.0414983111e+02   3.4985207106e+01    0.5455623    0.3492667 -32.01  0.002301808    1.770    0.435
        37 -11.0548    146.9413     94.1433   9.8031491970e+01   3.4506323294e+01    0.3714939    0.3049677  11.55 0.0008692183    1.434    0.302
        38 -10.5487    133.4880     92.2811   1.0095262360e+02   3.8010774496e+01    0.2988129    0.2499501  81.63  0.000624673    1.454    0.312
        39 -11.4143    154.4972     86.0098   9.3829076732e+01   3.4240832982e+01    0.3906676    0.2815338  -0.71   0.00133684    1.934    0.483
        40 -11.8506    157.9851     83.0045   9.2123765168e+01   3.3933277843e+01    0.3782701    0.3434105 -29.78 0.0008551982    1.132    0.117
        41 -11.6612    140.2631     82.4669   9.6273553185e+01   3.8361809992e+01    0.3525653    0.3341405 -31.89 0.0006704978    1.075    0.070
        42 -12.7337    154.0262     72.0978   8.9735544638e+01   3.6877759627e+01    0.3927511    0.3071685 -28.17 0.0007653463    1.345    0.256
        43  -9.6004    130.6310     66.2243   9.3643840710e+01   4.3642679305e+01     0.217785    0.1459171 -24.03 0.0009444579    1.670    0.401
        44 -10.5662    218.8308    181.5648   1.0320556709e+02   2.7117124923e+00    0.3089963     0.123175  51.17  0.001139173    3.133    0.681
        45 -12.2096    225.7002    176.0381   1.0081985374e+02   2.2535384448e+00    0.4796364    0.2862986  -3.41  0.002154797    2.295    0.564
        46 -11.7012     65.6440    169.7634   1.3493385141e+02   3.2743802072e+01    0.4622034    0.2091283 -66.36  0.002172921    2.112    0.526
        47 -13.0541    171.2914     69.3794   8.5141821006e+01   3.2920712587e+01    0.9439829    0.7437513  10.45  0.001559959    1.556    0.357
        48 -12.2993    186.5864     53.3257   7.7486433389e+01   3.1409638963e+01     0.384501    0.2930566  33.43 0.0006680471    1.482    0.325
        49  -9.8440    190.5005     36.4935   7.1940114940e+01   3.2668432662e+01    0.2456004    0.1388108  80.74 0.0006109371    2.034    0.508
        50 -10.4765    243.4005     31.8392   6.4312670075e+01   1.9990090064e+01    0.1970448    0.1607419 -73.29 0.0003394505    1.135    0.119
        51 -10.8710    250.0686     26.0729   6.2348784210e+01   1.9151794151e+01    0.3438335    0.1700999 -32.24  0.001187225    1.914    0.478
        52 -11.0761    233.0936     24.6514   6.3598008355e+01   2.3285334895e+01    0.5650119    0.2628088 -67.92  0.001825097    2.834    0.647
        53  -9.5771    228.5037     22.4634   6.3515273407e+01   2.4650023473e+01     0.134987     0.120196 -76.94 0.0005874351    1.012    0.012
        54 -10.5659    152.5695     26.1037   7.4998689879e+01   4.3994695802e+01    0.4586227    0.1239048  52.91  0.001476506    3.003    0.667
        55 -10.3799    132.9097    207.9429   1.2520106641e+02   1.4355755044e+01    0.2779638    0.1850261 -39.05  0.001487583    1.989    0.497
        56 -10.6093    136.6746     17.3191   7.4992066444e+01   4.9075530085e+01       0.2219    0.2039518 -81.22  0.001027775    1.220    0.181
        57 -11.9268    229.4933    166.5040   9.8164913372e+01   2.9642101670e+00    0.2597794    0.2511308 -44.98  0.001141378    1.337    0.252
        58 -10.6237    225.1535     19.7307   6.3170048706e+01   2.5780981405e+01    0.2712074    0.2062458  25.10 0.0005124578    1.792    0.442
        59 -10.2224    129.4821     20.4570   7.7657342947e+01   5.0554460917e+01    0.1434342    0.1296481  46.07 0.0001053073    1.023    0.022
        60 -11.6344    138.5095     21.5029   7.6133882638e+01   4.8159286636e+01    0.3466582    0.2428247 -36.37  0.001083321    1.562    0.360
        61  -9.2744    196.0004    167.2209   1.0476790532e+02   9.4623425422e+00    0.1877385    0.1095667  42.99  0.000408902    1.583    0.368
        62 -10.3651    202.1869    248.1813   1.1761244369e+02  -3.3663647763e+00    0.1753219    0.1259401  24.82 0.0003926092    1.137    0.120
        63 -12.6396    191.4536     48.6502   7.5317060333e+01   3.0795630648e+01    0.6029583    0.3502614  29.65  0.002348945    2.512    0.602
        64 -13.5586     20.3317    224.7154   1.4861582790e+02   2.6955440986e+01    0.7226892    0.3488958 -72.39  0.004655793    2.008    0.502
        65 -12.4238     67.8658    144.3018   1.3087060938e+02   3.8188810766e+01     0.635108    0.3698022  62.35  0.002599871    1.971    0.493
        66 -11.8442    210.8817    134.1595   9.4474792962e+01   1.1985397932e+01    0.5673853     0.240416  51.88  0.002098267    2.496    0.599
        67 -11.2002    184.0712    134.8881   1.0008134231e+02   1.7837219611e+01    0.3811804    0.2254115  50.70  0.001180453    1.688    0.407
        68 -11.4916    213.4661    128.6498   9.2681129959e+01   1.2357090571e+01     0.351006    0.2593009 -86.27  0.001551393    2.233    0.552
        69 -10.1938    209.3032    129.6351   9.3706145735e+01   1.3110297688e+01    0.1499428    0.1185916 -70.26 0.0007035991    1.736    0.424
        70 -10.7791      7.1957    129.1189   1.4474845032e+02   4.7758718248e+01    0.1675961    0.1288337 -69.35 0.0004236382    1.164    0.141
        71  -9.8512    160.5083    128.0147   1.0370452864e+02   2.4526820588e+01    0.2400088    0.1553195 -42.68  0.001037309    1.605    0.377
        72 -13.4426     14.6619    223.4661   1.4952198200e+02   2.7752042267e+01    0.6773782    0.3087887 -72.62  0.004306186    2.087    0.521
        73  -9.0140     42.2669    124.2607   1.3474565515e+02   4.5903119629e+01     0.117959   0.08841195 -44.56            0    1.455    0.313
