#   1 NUMBER                 Running object number                                     
#   2 MAG_AUTO               Kron-like elliptical aperture magnitude                    [mag]
#   3 X_IMAGE                Object position along x                                    [pixel]
#   4 Y_IMAGE                Object position along y                                    [pixel]
#   5 X_WORLD                Barycenter position along world x axis                     [deg]
#   6 Y_WORLD                Barycenter position along world y axis                     [deg]
#   7 A_WORLD                Profile RMS along major axis (world units)                 [deg]
#   8 B_WORLD                Profile RMS along minor axis (world units)                 [deg]
#   9 THETA_WORLD            Position angle (CCW/world-x)                               [deg]
#  10 FWHM_WORLD             FWHM assuming a gaussian core                              [deg]
#  11 ELONGATION             A_IMAGE/B_IMAGE                                           
#  12 ELLIPTICITY            1 - B_IMAGE/A_IMAGE                                       
         1  -8.7632     48.5913     21.4364   3.6991865905e+01   6.8379785159e+01    0.2210918    0.1986651 -22.71 0.0006481311    1.200    0.167
         2 -11.8657    237.5807      2.7020   3.5598983617e+02   2.5389827022e+01    0.6498781     0.418744 -37.11  0.004185383    1.431    0.301
         3 -11.5939    248.7764      4.0927   3.5572252864e+02   2.3036037554e+01    0.8473768    0.3855631 -24.87  0.004418827    2.536    0.606
         4  -9.4439     92.0746      9.9115   1.5209390396e+01   6.0270510020e+01    0.4103118    0.2238008 -70.52  0.001526712    3.524    0.716
         5  -8.2216     83.8274     10.8701   1.7875275005e+01   6.2183107969e+01    0.1792181    0.1599973 -77.75 0.0005344862    1.327    0.247
         6  -8.6158     55.9160      9.9653   2.7252557162e+01   6.8505882775e+01    0.1886601    0.1630858 -76.90 0.0007394625    1.687    0.407
         7  -8.2833    101.3450      7.7290   1.2078843239e+01   5.8151264664e+01    0.1371909    0.1005111 -76.92 0.0002793664    1.617    0.381
         8  -8.7393     70.6138      6.3074   1.9668081012e+01   6.5720240981e+01    0.1905921    0.1538543 -68.72 0.0008562602    1.674    0.403
         9  -8.5968     33.9406      5.2578   3.5523719569e+01   7.3160117317e+01    0.2265612    0.1551346 -56.68  0.001153059    2.693    0.629
        10  -8.6867     79.1925      3.5909   1.5643467487e+01   6.3974877590e+01    0.2568768    0.1556291 -41.02  0.001209942    1.972    0.493
        11  -8.4570     62.7009      1.5230   1.9788314154e+01   6.7941580307e+01    0.1696598    0.1195698  65.93 0.0009304689    1.519    0.342
        12  -7.5541     39.6452      1.3198   2.9750946683e+01   7.2637981684e+01    0.1136212    0.1019436 -84.09 0.0007046308    1.753    0.430
        13 -10.1953    146.5411    245.4180   6.1190086493e+01   4.5593387100e+00    0.2938415    0.2080412 -35.27   0.00142123    1.707    0.414
        14 -10.1245    243.1136    245.3441   4.3315817849e+01  -7.6335308437e+00    0.3883149    0.1769983 -18.55  0.002261677    2.198    0.545
        15  -8.9551    248.1030    233.7935   4.0757738348e+01  -6.9132057617e+00    0.2541598    0.1418536 -11.32  0.001413724    1.583    0.368
        16 -10.1139    246.9631    227.7032   3.9985626675e+01  -6.1007930468e+00    0.4513188    0.1712207 -26.15  0.002337254    2.546    0.607
        17 -10.2655    248.8522    241.2553   4.1781546961e+01  -7.8082757092e+00    0.4647007    0.1872219 -31.63    0.0022895    2.342    0.573
        18 -10.0909    233.6684    246.1509   4.4986463677e+01  -6.6871521523e+00    0.5465688    0.2278635 -25.74   0.00307078    2.395    0.582
        19 -10.0651    211.4174    247.4961   4.9012957697e+01  -4.2580375221e+00     0.363101    0.2211959 -49.82  0.001803689    3.080    0.675
        20  -9.6940     75.6551    247.4821   7.6314160017e+01   1.3876718988e+01    0.2574928    0.1037635  28.00  0.001179827    2.365    0.577
        21  -8.6283     34.5675    247.5237   8.4845884263e+01   1.8737528726e+01    0.2183105   0.05991259  40.83  0.001024631    2.308    0.567
        22  -9.1147    139.3438    243.8519   6.2479996001e+01   5.8046406966e+00    0.2009919    0.1209536 -62.92  0.001088881    2.594    0.615
        23  -8.9094     46.2184    244.2227   8.2269028538e+01   1.8039686343e+01    0.2005108   0.05182078  40.09 0.0007040757    2.472    0.596
        24  -8.5702    201.8614    242.9331   5.0074075084e+01  -2.5225777239e+00    0.1821249    0.1412757 -23.42 0.0005896313    1.419    0.295
        25  -8.6476    168.9151    243.0901   5.6377851709e+01   1.8032905229e+00    0.1783944    0.1412384  36.41 0.0006309148    1.326    0.246
        26  -8.6701     77.4975    243.0048   7.5554498608e+01   1.4432974486e+01    0.1642686   0.08766126  70.14 0.0008100762    2.501    0.600
        27  -9.0270    183.5186    240.2057   5.3124699779e+01   2.2267388512e-01    0.3660018    0.2534865  60.70  0.001912614    3.144    0.682
        28  -9.2768     29.6557    241.6418   8.5555894842e+01   2.0347756174e+01     0.292219   0.09597916  41.37   0.00146286    2.054    0.513
        29  -8.7532    178.9236    241.5005   5.4196265812e+01   6.6428733292e-01    0.1881501   0.09538281  31.20  0.001031147    1.585    0.369
        30  -9.4149    159.9173    240.0562   5.7768259549e+01   3.4854332009e+00    0.2318718    0.1809478 -64.53  0.001002642    2.043    0.511
        31  -7.9745    153.3124    241.6469   5.9322914534e+01   4.1760269148e+00    0.1178244   0.08690064  53.02 0.0007045125    1.729    0.422
        32  -9.0869    131.8672    247.3738   6.4452551089e+01   6.3052292129e+00    0.1913285    0.1652988  61.35 0.0005821213    1.444    0.307
        33  -8.9824      3.5542    240.5605   9.0757797752e+01   2.3124246091e+01    0.2689716   0.08203258  55.18  0.001358476    2.333    0.571
        34  -9.7016    242.3330    236.3604   4.2082621361e+01  -6.5630768049e+00    0.3402589    0.1693676 -13.39  0.001989511    2.036    0.509
        35  -8.8227    193.9101    239.2943   5.1017548296e+01  -1.0333887820e+00     0.167905    0.1221391  16.19  0.000544498    1.056    0.053
        36 -10.0423    119.9904    245.2123   6.6693468632e+01   8.3017217258e+00    0.3446833    0.2027006  63.97   0.00165327    2.697    0.629
        37  -9.3616    135.6405    238.8986   6.2644424096e+01   7.1074809965e+00    0.1671808    0.1434976  33.60  0.001001498    1.131    0.116
        38  -9.8630    123.9867    239.1422   6.5151284833e+01   8.7313235013e+00      0.42039   0.07666506  35.29  0.001358128    4.006    0.750
        39  -9.7065     71.3093    238.7801   7.6539490989e+01   1.5995406224e+01    0.2798266    0.1378545  33.26  0.001338791    1.657    0.396
        40  -8.7094     53.1099    238.6768   8.0458257608e+01   1.8262881001e+01    0.2123763    0.1080383  48.14  0.001180898    1.531    0.347
        41  -9.6169    231.0046    236.3714   4.3960207328e+01  -5.2745463819e+00    0.3405167    0.2157624 -26.97   0.00147287    1.549    0.354
        42  -8.3504    125.3006    250.3230   6.6149036763e+01   6.7554348391e+00    0.1173056   0.08435025   5.18 0.0007027042    1.630    0.387
        43  -9.4437     82.9067    238.4506   7.3987020332e+01   1.4543998571e+01    0.3935878     0.092102  33.88   0.00145269    3.184    0.686
        44  -9.3650     19.1078    238.5043   8.7572594949e+01   2.2024153056e+01    0.2294486   0.07824616  35.47  0.001159406    2.145    0.534
        45  -8.9959    216.9938    235.5120   4.6246282852e+01  -3.4916314443e+00    0.1973759      0.16206  40.46 0.0006118137    1.809    0.447
        46  -9.4540    213.6601    231.6391   4.6243716220e+01  -2.5928787751e+00    0.2758047    0.2179467  51.02   0.00147222    2.208    0.547
        47  -9.1350    203.1424    234.4118   4.8575302069e+01  -1.6002866628e+00    0.2395617    0.1588872 -40.49 0.0009048161    1.896    0.473
        48  -9.7261    175.6518    233.2116   5.3653972343e+01   2.2771683680e+00     0.399406    0.2411255 -54.27  0.002156037    2.615    0.618
        49  -8.4810      7.0258    234.8269   8.9884445871e+01   2.3886637912e+01    0.2037552   0.07023463  50.16   0.00106462    2.012    0.503
        50  -8.1591    122.7756    233.9639   6.4796457747e+01   9.7721300845e+00    0.1881604    0.1338983  68.27  0.001056311    1.949    0.487
        51  -9.5533    108.2277    233.7799   6.7957298948e+01   1.1892225073e+01    0.2301606     0.169897  64.21 0.0008800296    1.575    0.365
        52  -8.9709     94.3040    234.5565   7.1110992714e+01   1.3706054636e+01    0.2632636   0.09337084  36.96  0.001152186    2.133    0.531
        53  -8.7911     78.2304    234.2055   7.4631302214e+01   1.5943237288e+01    0.1771194    0.0985461 -87.78 0.0008880927    2.510    0.602
        54  -9.8344     68.2405    232.0660   7.6659186558e+01   1.7645317474e+01    0.3820447    0.1450645  57.55  0.001534021    3.220    0.689
        55  -8.4434    194.4477    232.1268   4.9851827932e+01  -1.5031415812e-01    0.1599182    0.1101247 -30.61 0.0005471623    1.561    0.360
        56  -9.3204    186.5149    230.5612   5.1133632766e+01   1.1444095857e+00    0.2525278    0.2142921 -80.28  0.001422489    2.336    0.572
        57  -8.2041     11.3664    231.7002   8.8887555532e+01   2.4081576229e+01    0.1288705   0.05599916  54.13 0.0004752846    1.731    0.422
        58  -8.3144      1.5284    230.9476   9.0869516535e+01   2.5130351278e+01    0.1574554   0.09280724  84.96 0.0005904886    1.558    0.358
        59  -9.0994    140.1768    230.1032   6.0548754501e+01   7.8758558972e+00    0.2419559    0.1363828  49.71 0.0008596856    2.015    0.504
        60  -8.6322    229.6622    228.5305   4.2968749233e+01  -4.1849451908e+00    0.1804349   0.09245538 -31.58 0.0007409597    1.900    0.474
        61 -10.0517    149.2233    225.7079   5.8013536009e+01   7.2558985203e+00    0.4918614    0.3539403  87.81   0.00248727    2.858    0.650
        62  -8.6466    162.0081    227.6609   5.5610204770e+01   5.0581645145e+00    0.2535654    0.1599562  56.58  0.001258213    2.548    0.608
        63  -9.4748    127.6893    226.9182   6.2844435714e+01   1.0260999850e+01    0.2518016    0.1814484  68.64  0.001005876    1.966    0.491
        64  -9.4558    236.0431    229.8328   4.2101742642e+01  -5.0970695220e+00    0.3845317    0.1371734 -31.44  0.001549777    2.687    0.628
        65  -7.9432    120.2872    227.6466   6.4571411992e+01   1.1228048127e+01    0.1282347   0.08956286  58.36 0.0007023461    1.669    0.401
        66  -9.0780     93.6375    223.6415   7.0117140336e+01   1.5827591693e+01    0.2378211    0.1483857  70.02   0.00121174    2.082    0.520
        67  -9.5193    224.7643    222.7467   4.2887438312e+01  -2.8687173167e+00    0.5026792    0.1696835 -26.05   0.00202839    3.903    0.744
        68  -8.6313    206.0391    225.5375   4.6673278112e+01  -8.1280753131e-01    0.2427776    0.1377681 -40.32  0.001139565    2.059    0.514
        69  -8.3092    199.9872    226.0037   4.7868994066e+01  -6.5318351537e-02    0.1449553    0.1150159  -4.51 0.0003933817    1.132    0.117
        70  -8.8964     11.0704    225.0427   8.8691485824e+01   2.5417358116e+01    0.2307723   0.05646945  46.97  0.001029399    2.611    0.617
        71  -8.1148      6.5182    225.5314   8.9665252568e+01   2.5741360217e+01    0.1150669   0.08716027  58.59 0.0002397276    1.024    0.024
        72  -9.1778    216.4422    223.1124   4.4406309617e+01  -1.8562910550e+00     0.263669     0.180394 -37.77  0.001088551    1.745    0.427
        73  -8.6440    180.4401    224.0786   5.1340537133e+01   2.9301199205e+00     0.186659    0.1539159  34.73  0.000640594    1.325    0.245
        74  -8.6741    105.0039    223.8115   6.7542584502e+01   1.4162616019e+01    0.2837748    0.1615223  61.89   0.00133733    2.346    0.574
        75  -8.4079    173.0085    222.7669   5.2631199476e+01   4.2021258629e+00    0.1894419    0.1627472 -54.09 0.0006902319    1.648    0.393
        76  -7.5144    113.7031    223.6981   6.5558005657e+01   1.2907465076e+01    0.1242384   0.09555762   1.91  0.000221438    1.579    0.367
        77 -10.5298    239.2765    220.4105   4.0062661877e+01  -4.3545527378e+00    0.4177365    0.2091871 -15.06  0.001783886    2.091    0.522
        78  -9.4033    192.2276    221.1372   4.8577173643e+01   1.6834896507e+00    0.2359587     0.205557 -48.27 0.0008994023    1.674    0.402
        79  -8.2067    202.6077    219.8415   4.6402640856e+01   4.2413812664e-01    0.1477046    0.1109351 -40.10 0.0005715341    1.669    0.401
        80  -9.1464    119.8536    218.5597   6.3513797777e+01   1.2928644626e+01    0.3635481    0.1995369  58.54  0.001608453    2.577    0.612
        81  -8.1668     44.1026    220.3711   8.1186876775e+01   2.2905724559e+01    0.1880424   0.08315294  42.07 0.0005699549    1.741    0.425
        82  -8.4574    210.2558    219.0243   4.4861004779e+01  -5.0099019388e-01    0.1630791     0.131143  -8.41  0.000464958    1.148    0.129
        83  -8.0504      1.7030    219.3057   9.0460961339e+01   2.7415470824e+01    0.1236787   0.05970567  56.98 0.0005456775    1.586    0.370
        84  -9.2853    248.8171    249.6844   4.3044425171e+01  -8.6920469850e+00     0.277165    0.1524663   3.07  0.001862729    1.562    0.360
        85  -9.0087    132.5252    215.3126   6.0204641394e+01   1.1578430502e+01    0.4325571    0.2632984  72.23  0.001726001    3.731    0.732
        86  -8.3500     82.3999    220.1845   7.2343971029e+01   1.8070800599e+01     0.172703    0.1176814  86.58  0.000947825    1.795    0.443
        87  -8.2510     51.6035    217.3396   7.9244011588e+01   2.2642150827e+01    0.2092113    0.1142081  58.44 0.0009354235    1.691    0.409
        88  -8.6266    169.1413    215.7283   5.2338023342e+01   5.8730117193e+00    0.1960008    0.1764738 -50.22 0.0008535047    1.482    0.325
        89  -8.4489    142.7041    216.1291   5.8054878019e+01   9.8590077029e+00    0.1882055    0.1647689  72.64  0.001084781    1.517    0.341
        90  -7.7748     61.3471    216.6463   7.6919433201e+01   2.1578416838e+01    0.1439375    0.0762393  57.77 0.0007036698    1.828    0.453
        91  -9.2506    232.3434    214.3170   4.0216091147e+01  -2.7524787915e+00    0.2490115    0.1810355 -31.27 0.0009711556    1.500    0.333
        92  -8.2843     87.1926    215.1861   7.0692784468e+01   1.8394677244e+01    0.1941823    0.1327205  54.70  0.001072814    1.384    0.278
        93  -8.5988     12.3066    215.6092   8.8034153567e+01   2.7214425474e+01    0.2258933   0.08680199  33.54  0.001135574    2.117    0.528
        94  -8.8396    159.9193    220.7817   5.5035063555e+01   6.4535968965e+00    0.4377091    0.1966998  50.11  0.001716687    3.404    0.706
        95  -7.8410    154.3146    214.6583   5.5305831896e+01   8.3155942324e+00    0.1263827    0.0985299  58.72 0.0007047647    1.706    0.414
        96  -8.9597     92.9734    213.7419   6.9164198497e+01   1.7854435520e+01    0.2930699    0.1580292  60.42  0.001323809    2.298    0.565
        97  -8.3475    225.0000    212.0612   4.1094036135e+01  -1.5226307387e+00    0.1787602    0.0600327 -36.23 0.0007968806    2.904    0.656
        98  -8.6013    161.6483    212.1175   5.3344298767e+01   7.6061249965e+00    0.1804184    0.1678823  82.92  0.001058344    1.521    0.342
        99  -9.1559     72.4009    211.2487   7.3797802761e+01   2.1247573857e+01    0.3894497    0.1688286  59.78  0.001541383    2.972    0.663
       100  -9.0530    204.1820    210.7056   4.4610842140e+01   1.4897336687e+00    0.2074926    0.1887512 -53.81 0.0007253882    1.722    0.419
       101  -9.4229    175.0470    209.6334   5.0146378526e+01   5.9474747516e+00    0.3276379    0.2541579  74.06  0.001460814    2.460    0.594
       102  -8.6798    147.8819    210.4946   5.6073508326e+01   1.0034382903e+01    0.2321614    0.1845339 -84.73  0.001116971    1.989    0.497
       103  -8.3758    192.1994    210.1772   4.6806141781e+01   3.2915528493e+00    0.1531315    0.1460153   8.17 0.0004642698    1.361    0.265
       104  -8.8416    116.0294    210.1513   6.3278459655e+01   1.5096958150e+01    0.2592902     0.160959  50.34 0.0008417094    1.621    0.383
       105  -9.4624    236.6128    207.7080   3.8395676541e+01  -2.4468182844e+00    0.3319442    0.2095699 -36.89  0.001536279    1.735    0.424
       106  -9.4523    213.9467    211.7639   4.2996702706e+01  -1.1370044485e-02    0.2966815    0.2842578  46.06  0.001663697    1.680    0.405
       107  -9.7013    246.3339    206.8164   3.6668276710e+01  -3.5368852392e+00    0.2603371    0.1505879 -27.69 0.0006967619    1.514    0.339
       108  -9.5968    250.1900    201.8559   3.5217364947e+01  -3.3877411693e+00    0.3831648    0.1594813 -28.12  0.001425854    2.145    0.534
       109  -8.3235    126.3995    208.2111   6.0593014106e+01   1.3845842665e+01    0.1625813    0.1329198 -77.26 0.0003725365    1.601    0.375
       110  -7.7975    156.3398    207.6767   5.3783971912e+01   9.1879434598e+00    0.1301052    0.1003573  58.55 0.0007050915    1.723    0.420
       111  -9.2345     99.2945    205.9326   6.6706587621e+01   1.8494508188e+01    0.3201314    0.2047788  75.83 0.0009464253    2.221    0.550
       112  -8.2343     56.3121    205.0079   7.7094377503e+01   2.4667652272e+01    0.2046409   0.08731917  78.28 0.0007021042    4.111    0.757
       113  -9.1829    194.6740    203.2619   4.5158438309e+01   3.9690027524e+00    0.2521787    0.2319143 -24.88  0.001224618    1.340    0.254
       114  -9.1162    192.4288    197.0817   4.4522564462e+01   5.2652772598e+00    0.3686194     0.282619 -63.74  0.001575705    2.232    0.552
       115  -9.0710    183.4869    203.6785   4.7439340760e+01   5.6009825676e+00    0.2246058    0.2090955  40.52 0.0007748618    1.382    0.277
       116  -9.6716    163.5824    202.8426   5.1437809179e+01   8.8651497625e+00    0.3657416    0.2354099  51.25 0.0008692711    1.934    0.483
       117  -8.5330    131.2663    204.0663   5.8856922326e+01   1.3854510366e+01    0.2616617    0.1565213  55.01  0.001210124    2.067    0.516
       118  -9.0076     12.7320    203.2313   8.7371519448e+01   2.9790684620e+01    0.3698159    0.1111148  50.34  0.001623195    2.556    0.609
       119  -9.2256    243.3234    200.8221   3.6125413038e+01  -2.4096095859e+00    0.2811107    0.1506453 -30.45  0.001131383    1.658    0.397
       120  -7.9272    227.6544    202.6797   3.9042211266e+01  -6.2371166570e-01    0.1277659   0.07723355   0.50 0.0007049508    1.730    0.422
       121  -8.6505    211.0015    201.7734   4.1828929211e+01   1.8023232503e+00    0.1957294    0.1547386 -42.45 0.0007756037    1.626    0.385
       122  -8.6575    140.0777    200.5205   5.6278823539e+01   1.3092787234e+01    0.2859077    0.1994519  70.20  0.001048966    2.314    0.568
       123  -8.4226     80.0193    201.4859   7.0892236852e+01   2.2254575408e+01    0.2071285   0.08360025  50.04 0.0007824572    2.484    0.597
       124  -9.3172    237.0895    197.8119   3.6614179007e+01  -1.2193433323e+00     0.342623    0.1466598 -34.96  0.001762656    2.159    0.537
       125  -8.3601    177.0141    198.7953   4.7925037538e+01   7.4034067253e+00    0.2067253    0.1700343 -52.91 0.0006324013    1.604    0.377
       126  -9.1860    149.4575    198.2612   5.3784674471e+01   1.1970741235e+01    0.3245219     0.231772  73.22  0.001226357    2.445    0.591
       127  -8.4384    123.9454    198.9937   5.9814384809e+01   1.6018621660e+01    0.2135878    0.1576367  64.16 0.0006080207    1.680    0.405
       128  -8.9492    112.7828    198.1093   6.2372249765e+01   1.7994997287e+01    0.4024036    0.2253506  60.59  0.001685243    2.519    0.603
       129  -8.7760     88.8475    198.7107   6.8362591999e+01   2.1566444113e+01    0.2583435     0.161284  71.64  0.001122522    2.075    0.518
       130  -8.3551    202.2794    197.4672   4.2694940675e+01   3.7107775233e+00    0.1855594    0.1508185 -51.29 0.0005143008    1.746    0.427
       131  -8.8625     60.6784    196.6408   7.5216899695e+01   2.5947299722e+01    0.2555685     0.136656  78.41 0.0009091813    2.402    0.584
       132  -8.7022    215.8354    195.4798   3.9848963802e+01   2.0174571829e+00    0.2209551     0.153365 -47.23 0.0008057082    1.940    0.484
       133  -9.4610    245.8109    193.3602   3.4429838441e+01  -1.7614239542e+00    0.2772123    0.2172689 -56.50  0.001328682    2.405    0.584
       134  -8.9343    224.4818    193.5828   3.7990371541e+01   1.0620922485e+00    0.3029181    0.1073504 -40.10  0.001318341    2.888    0.654
       135  -8.8911    185.0179    194.5860   4.5555591366e+01   6.8233178255e+00     0.211565    0.1817921 -47.94 0.0005798474    1.490    0.329
       136  -8.2831    231.1373    194.1641   3.6960256765e+01   6.4190029499e-02    0.1521138    0.1333783 -20.63 0.0004640768    1.336    0.252
       137  -8.6801    160.4870    193.6361   5.0554888810e+01   1.0981278899e+01     0.235968    0.1879851  88.02 0.0009102607    2.099    0.524
       138  -8.5852     76.9269    193.9093   7.0788257710e+01   2.4345020187e+01    0.2205115    0.1404687  59.17 0.0005282061    1.597    0.374
       139  -9.0596     43.9499    193.5889   7.9163693039e+01   2.8691427999e+01    0.3561235    0.1667361  66.74  0.001544095    2.430    0.588
       140  -8.2013    199.0964    191.4737   4.2230937455e+01   5.1140656953e+00    0.2026205    0.1509367 -58.62  0.000733524    2.147    0.534
       141  -8.3028    172.5281    191.7870   4.7638267691e+01   9.3123558393e+00    0.1695006    0.1315473 -56.05 0.0009277551    1.712    0.416
       142  -7.7931    205.2638    191.6003   4.1087443746e+01   4.1516319580e+00    0.1135311    0.1022018 -63.29 0.0005459114    1.725    0.420
       143  -8.8556    139.2289    190.2786   5.4810050279e+01   1.5188219086e+01    0.2737641    0.1966474  77.93 0.0008577356    2.311    0.567
       144  -9.9805     92.2067    188.9515   6.6234766557e+01   2.3176993051e+01    0.8907074    0.1838437  42.65  0.002578402    4.137    0.758
       145  -7.8830    210.2791    189.6268   3.9802618000e+01   3.6948123623e+00    0.1119964    0.1023516 -62.61 0.0007009915    1.697    0.411
       146  -8.0987    148.4435    188.9103   5.2439811265e+01   1.3882521621e+01    0.1757849    0.1273176 -82.49 0.0008053422    2.417    0.586
       147  -8.5141    237.4331    188.0893   3.4833204897e+01   4.0961086538e-02    0.1769937    0.1003966 -30.42  0.001014151    1.562    0.360
       148  -8.9168    216.4623    187.6765   3.8330564606e+01   3.0656227981e+00    0.2215231    0.1916623 -29.27 0.0007909074    1.321    0.243
       149  -8.7997    191.4752    187.2775   4.2949359187e+01   6.9828358961e+00    0.2469968     0.212713 -84.76  0.001083206    1.961    0.490
       150  -9.1739    155.9096    187.1918   5.0444989871e+01   1.2928975357e+01    0.2927714    0.1988752 -58.87 0.0008385619    1.959    0.489
       151  -8.5027    129.0679    188.0962   5.6868977496e+01   1.7346408797e+01    0.2140754    0.1647647  66.13  0.000647244    1.625    0.384
       152  -9.2898    120.5253    185.7377   5.8577214731e+01   1.9277967073e+01    0.3988763    0.2321235 -72.26  0.001645949    2.700    0.630
       153  -9.4330    249.4792    185.4726   3.2458043611e+01  -1.2011434271e+00    0.2589971    0.1734238 -35.83 0.0008977445    1.522    0.343
       154  -8.3240    230.4897    186.9950   3.5781743300e+01   1.1470500923e+00    0.1791524    0.1054728 -32.87  0.001019192    1.566    0.361
       155  -8.3433    164.7676    186.7152   4.8398783723e+01   1.1505077709e+01    0.1768041     0.159389  55.41 0.0007876853    1.355    0.262
       156  -8.8187    109.2862    185.7752   6.1403752400e+01   2.1145126407e+01     0.325523    0.2193869  74.20  0.001171485    2.104    0.525
       157  -8.7955     54.3954    186.3517   7.5795189032e+01   2.9086303535e+01    0.3688659    0.1638959  72.54  0.001317744    3.513    0.715
       158  -8.8071    210.2359    184.1020   3.8795837282e+01   4.5386736037e+00     0.207977    0.1627132 -42.53 0.0004395527    1.520    0.342
       159  -8.5360    202.9288    184.4815   4.0222537754e+01   5.6121103234e+00    0.2160971    0.1769463 -46.46 0.0008354029    1.542    0.351
       160  -8.3753    182.9742    184.7453   4.4191163849e+01   8.7900583988e+00    0.2189846    0.1692126 -51.53 0.0008504016    1.638    0.390
       161  -8.6354     66.5306    184.5294   7.2391853009e+01   2.7918418995e+01    0.3148501    0.1622449  61.97 0.0008816664    2.286    0.563
       162  -8.5932    224.0377    183.4637   3.6230403803e+01   2.5718734766e+00    0.1875948    0.1432185 -21.07 0.0005453841    1.160    0.138
       163  -8.9596    174.2856    183.3490   4.5739470505e+01   1.0488040280e+01    0.2511985    0.2199866  69.40 0.0008195814    1.598    0.374
       164  -8.1021    197.2867    183.6274   4.1139877841e+01   6.6417747756e+00    0.1188571    0.1075035 -77.25 0.0007019149    1.714    0.416
       165  -8.4860     44.3788    182.3326   7.8046063173e+01   3.1238149624e+01    0.2437586     0.128699  50.48 0.0008641375    1.707    0.414
       166  -8.3053    235.4917    181.0533   3.3868292417e+01   1.2800553448e+00    0.1830495    0.1034434 -30.90 0.0005301418    1.566    0.361
       167  -8.9543    147.5054    180.3252   5.1139196516e+01   1.5698619783e+01    0.2799524    0.2192646  79.95  0.000954131    1.918    0.479
       168  -9.1056     26.2748    180.5114   8.2667773400e+01   3.3624151785e+01    0.3340904    0.1221612  62.56  0.001265553    3.126    0.680
       169  -8.1853    240.7738    179.9517   3.2816173253e+01   7.0094420667e-01    0.1614263   0.08459949 -31.20 0.0008045359    1.665    0.400
       170  -9.3419    191.2544    178.1254   4.1282360817e+01   8.5294356861e+00    0.2432823    0.2236316 -63.53 0.0005629653    1.498    0.333
       171  -8.2317    137.7396    179.1693   5.3245715311e+01   1.7652672806e+01    0.2342493    0.1536645  71.92 0.0009459957    2.740    0.635
       172  -9.4425    249.0131    177.0471   3.1002607105e+01  -1.8950892522e-02    0.2462343    0.1961569 -37.60 0.0006844184    1.475    0.322
       173  -9.1127    250.5101    172.5126   2.9941889394e+01   3.9254752335e-01    0.2159004    0.1373464 -28.55 0.0006030684    1.317    0.241
       174  -7.6627    169.3239    178.6281   4.5919805363e+01   1.2184988534e+01    0.1353556     0.112946  79.20 0.0007032031    1.813    0.448
       175  -8.7850     36.6746    178.0003   7.9707552117e+01   3.3132755028e+01    0.2229709   0.08557986  77.73 0.0007049183    4.295    0.767
       176  -8.5143    231.2562    176.7968   3.3773025076e+01   2.4873191297e+00    0.2184039    0.1290346 -34.80 0.0009210538    1.564    0.361
       177  -8.5872    217.6599    177.1080   3.6152097219e+01   4.4663775870e+00    0.1879438    0.1519785 -44.68   0.00113587    1.529    0.346
       178  -8.4393    205.1851    177.2110   3.8431736333e+01   6.4031905146e+00    0.1617105    0.1570901 -31.49 0.0004674668    1.353    0.261
       179  -8.2265    129.1637    177.1711   5.4986718960e+01   1.9578225550e+01    0.1973599    0.1679521  67.38  0.000476766    1.366    0.268
       180  -8.0898     97.5447    177.4755   6.3172335834e+01   2.4897078392e+01    0.1442114    0.1327018  40.34 0.0001338305    1.037    0.036
       181  -8.2195     88.9098    176.9052   6.5394371739e+01   2.6403174506e+01    0.2360936    0.1538829  60.90 0.0007352103    1.701    0.412
       182  -9.5662     57.4256    173.3276   7.3553584879e+01   3.1774775070e+01    0.7848614    0.3335997  75.77  0.002211627    5.477    0.817
       183  -7.7471    211.7031    176.3428   3.7069763987e+01   5.5066122848e+00    0.1158508     0.104571 -65.84 0.0005925803    1.667    0.400
       184  -8.8197    182.9697    175.8174   4.2509765486e+01   1.0323327123e+01    0.2285169    0.1876648 -34.93 0.0006401001    1.267    0.211
       185  -9.1627    158.7464    174.6388   4.7502887103e+01   1.4798217852e+01    0.3484594    0.2563554  88.80  0.001094181    2.525    0.604
       186  -8.9404    103.8730    174.3825   6.1004746424e+01   2.4552436133e+01    0.4473251    0.2138212  55.73  0.001609232    2.825    0.646
       187 -10.2059     75.8663    170.8376   6.8095142771e+01   2.9812601456e+01     0.997483    0.4265355 -81.81  0.002936846    4.856    0.794
       188  -9.1719    175.6803    172.0232   4.3293501457e+01   1.2265070879e+01    0.3267619    0.2260853 -43.00  0.001330225    1.533    0.348
       189  -8.2604    134.5294    171.5112   5.2637930589e+01   1.9802738278e+01    0.1471101    0.1352376  37.32  0.000809338    1.050    0.048
       190  -9.3572    121.1884    170.2797   5.5775317666e+01   2.2465374682e+01    0.3321704    0.2511616 -83.86  0.001007883    1.780    0.438
       191  -8.3955     45.0537    171.0827   7.6749588730e+01   3.3846385410e+01    0.2413662    0.1366864  63.00  0.001125431    1.823    0.452
       192  -8.5466    230.4769    170.0224   3.2619900269e+01   3.5860814211e+00    0.1881968    0.1078724 -32.43  0.000671341    1.555    0.357
       193  -8.4706    205.9638    170.0627   3.6906761896e+01   7.4210060862e+00    0.1862058    0.1627146 -65.02 0.0006300457    1.668    0.400
       194  -8.5779    198.1983    169.9274   3.8342134527e+01   8.7339200759e+00    0.1904263    0.1828648 -43.06 0.0006866643    1.317    0.240
       195  -8.1267    244.3871    169.1862   3.0250230335e+01   1.6921556579e+00    0.1651964   0.09771223 -39.17 0.0005520387    1.660    0.398
       196  -8.4258    237.1954    169.2210   3.1380473141e+01   2.7140318737e+00    0.1567104    0.1344857 -33.89 0.0006287534    1.334    0.251
       197  -9.0250    166.8665    168.3306   4.4469772370e+01   1.4527188225e+01    0.2768963    0.2174875  66.08  0.001030216    1.765    0.434
       198  -8.2024    149.8118    169.5375   4.8583830090e+01   1.7415489917e+01    0.2049293    0.1290717  49.63 0.0009250586    1.715    0.417
       199  -8.3675    218.8349    168.1127   3.4219086831e+01   5.6578897537e+00    0.1802083    0.1636655 -30.48 0.0005470426    1.275    0.216
       200  -8.9428    191.7850    166.3502   3.8879796432e+01   1.0436047039e+01    0.2727135    0.1723845 -36.55 0.0005905465    1.552    0.356
       201  -8.2637    111.6654    167.3242   5.7738568907e+01   2.4806353095e+01    0.2319458    0.1660821  67.14  0.001026816    1.733    0.423
       202  -8.8291     21.3119    166.5531   8.2948536371e+01   3.7436497676e+01    0.3323678     0.109116  47.17  0.001327928    2.678    0.627
       203  -8.3275    184.9849    166.2848   4.0228085463e+01   1.1641457835e+01    0.1877158    0.1736605   4.56 0.0005070051    1.070    0.065
       204  -9.2139    137.5104    164.7592   5.0622574245e+01   2.0670937284e+01    0.6007928    0.2595671  55.15  0.001792392    4.121    0.757
       205  -8.1660    233.8702    164.7836   3.1061935992e+01   3.8470325459e+00    0.1600692    0.1356894 -37.27 0.0005309384    1.342    0.255
       206  -9.6761     94.6257    162.3983   6.1534510538e+01   2.8869037318e+01    0.7356697    0.3797762  70.63  0.002147402    4.671    0.786
       207  -8.8053    212.8944    163.6036   3.4375762012e+01   7.3185247575e+00    0.2463185    0.1740239 -39.66 0.0006711978    1.436    0.303
       208  -8.4665    159.6389    164.0960   4.5241712545e+01   1.6670231606e+01    0.2145654     0.183175 -69.20 0.0008183139    1.502    0.334
       209  -8.8440     33.9683    163.3617   7.9106316186e+01   3.6971139807e+01     0.521624    0.1375942  50.02  0.001658741    4.011    0.751
       210  -8.8303    246.1629    162.7519   2.8762406687e+01   2.3418692599e+00    0.2060726    0.1367348 -34.77 0.0005829597    1.367    0.268
       211  -8.1920    240.2853    163.6748   2.9836289378e+01   3.0589771183e+00    0.1115199   0.09209156 -49.39 0.0003382857    1.603    0.376
       212  -8.4203    204.7685    162.7587   3.5680265395e+01   8.8095286022e+00    0.1676722    0.1538331 -43.99 0.0004913914    1.315    0.239
       213  -9.2486      3.6753    162.3438   8.7514262189e+01   3.9911514496e+01    0.3874981    0.1411588  53.42  0.001626632    2.483    0.597
       214  -8.8759    177.3922    160.3663   4.0598043564e+01   1.4079554112e+01    0.2680303    0.2336192  89.16 0.0009095467    1.619    0.382
       215  -8.6522    151.8361    160.7858   4.6377303669e+01   1.8794906319e+01    0.2604992    0.1961994 -79.18 0.0007905706    2.034    0.508
       216  -8.8563    227.5749    159.1449   3.0981731542e+01   5.6529890457e+00     0.285332    0.1664365 -49.71 0.0009503547    2.229    0.551
       217  -8.0982     60.5014    159.9981   7.0996428604e+01   3.4627835050e+01    0.2091613    0.1138185  79.07 0.0008105406    2.557    0.609
       218 -10.1658    249.3582    157.2792   2.7242553148e+01   2.6537036366e+00    0.3508393    0.3439163  33.96  0.001627941    1.439    0.305
       219  -9.2888    105.6649    157.9132   5.7666108441e+01   2.8022955934e+01    0.4117611    0.2519016  65.01  0.001260028    2.297    0.565
       220  -8.6224    224.4848    174.0274   3.4386063665e+01   3.8925374544e+00    0.1887395    0.1106676 -34.31 0.0005882372    1.571    0.364
       221  -8.5365    196.5010    157.5544   3.6178006326e+01   1.1116934547e+01    0.2191296     0.124718 -47.95 0.0006371155    2.005    0.501
       222  -9.0772    167.4119    157.0475   4.2059491329e+01   1.6571011905e+01    0.2944466    0.2279854 -70.42 0.0007676976    1.847    0.458
       223  -7.6808    128.2957    158.6843   5.1759673051e+01   2.3700142241e+01     0.149318    0.1177747  72.84 0.0003059977    1.604    0.377
       224  -8.4837    218.1143    156.4550   3.2031412962e+01   7.5928770616e+00    0.2514403    0.1508804 -47.79 0.0008635457    1.948    0.487
       225  -7.9320    187.8811    157.6164   3.7878464994e+01   1.2654712002e+01    0.1782775    0.1294997  49.55 0.0003851653    1.564    0.360
       226  -8.3474    157.4944    156.0628   4.4088314961e+01   1.8661030221e+01    0.2139324    0.1453926 -45.85  0.000770194    1.546    0.353
       227  -9.0263    119.4267    154.9469   5.3351290825e+01   2.6196036969e+01    0.3651722    0.2502623 -85.62  0.001387716    2.275    0.560
       228  -8.8781     81.6916    154.7134   6.3952941497e+01   3.2828752747e+01    0.4373363     0.220982  63.37  0.001496095    3.135    0.681
       229  -8.5245     49.7210    155.1371   7.3563199395e+01   3.7231442131e+01    0.2576737    0.1194073  62.08 0.0009509369    2.791    0.642
       230  -9.5983    241.7465    153.8682   2.7711260520e+01   4.2567114595e+00    0.3384389    0.2194764  65.11  0.001678068    3.118    0.679
       231  -9.4342    132.6507    152.6961   4.9431099035e+01   2.4178560175e+01    0.4129611     0.311819  86.74  0.001187154    1.924    0.480
       232  -8.8069     68.1427    153.9225   6.7853602047e+01   3.5076237092e+01    0.3329352    0.1830685  63.35  0.001175463    2.311    0.567
       233  -8.3010     20.3300    152.7033   8.2099539560e+01   4.0939258459e+01    0.1429148   0.08367527  59.19 0.0007027162    1.637    0.389
       234  -9.1441    243.1522    150.1405   2.6768637146e+01   4.5854850616e+00    0.2594326    0.1182204 -37.34   0.00110985    1.904    0.475
       235  -8.0960    182.4700    150.9734   3.7576865936e+01   1.4853413614e+01    0.1918426    0.1239423 -62.59 0.0006999027    2.453    0.592
       236  -9.4035     29.5007    150.5260   7.9146559424e+01   4.0632758496e+01    0.3387797    0.1510305  59.78  0.001248873    2.511    0.602
       237  -8.7373      3.0000    150.9291   8.7031680929e+01   4.2732591429e+01    0.2146686   0.06363458 -80.33 0.0008078286    2.980    0.664
       238  -9.3806    248.9412    149.0817   2.5716374027e+01   3.8724947028e+00    0.2890365    0.1489324 -33.38 0.0007583127    1.624    0.384
       239  -8.1321    144.3956    154.2739   4.6821308612e+01   2.1562704118e+01    0.1994128    0.1451066 -58.36  0.000578414    1.606    0.377
       240  -8.7874    189.3709    149.8598   3.5952717823e+01   1.3759028724e+01    0.2437078    0.2016662 -60.49 0.0007873302    1.529    0.346
       241  -8.0912    162.4699    150.4959   4.1774715724e+01   1.8798916449e+01     0.145011    0.1404879  20.70 4.939828e-05    1.070    0.065
       242  -8.3352     98.1856    150.2610   5.8349553592e+01   3.1153490615e+01    0.2129418     0.172523  75.45 0.0006770996    1.397    0.284
       243  -8.3386    212.7916    149.5792   3.1544480148e+01   9.5940556343e+00    0.1624476    0.1289497  52.01 0.0002817554    1.540    0.350
       244  -8.4226    198.7662    148.7894   3.3916814078e+01   1.2215121380e+01    0.1764718    0.1600292 -54.08  0.000485881    1.315    0.239
       245  -8.6867     90.7017    148.3790   6.0181389589e+01   3.2901771370e+01    0.3016613    0.2218474  73.47  0.001093833    1.630    0.386
       246  -9.0665     88.4808    144.9856   6.0209960069e+01   3.4109705166e+01    0.3501781    0.2371974  89.61  0.001368273    1.983    0.496
       247  -9.3370     39.5984    147.7700   7.5742022407e+01   4.0279217943e+01     0.445947    0.2101511  61.62  0.001757577    2.561    0.609
       248  -9.0381    233.5043    147.6151   2.7730089906e+01   6.4580874245e+00    0.2498381    0.1096538 -35.34 0.0006317587    1.991    0.498
       249  -8.4389    223.0476    146.6806   2.9209422752e+01   8.3120279029e+00    0.1725132    0.1537899   5.54  0.000339235    1.110    0.099
       250 -10.2350    148.6640    145.0064   4.3801677976e+01   2.2655687655e+01    0.5335484     0.373761 -81.14  0.001612267    2.444    0.591
       251  -9.9637     54.9373    144.6808   7.0527934734e+01   3.9226152773e+01    0.7522146    0.3335571  63.71  0.002414214    3.756    0.734
       252  -8.1906    175.5642    145.8342   3.7902594111e+01   1.7134785240e+01    0.1989156    0.1355019 -52.69 0.0008696037    1.697    0.411
       253  -9.3304    139.0899    144.8319   4.6123267182e+01   2.4615894884e+01    0.3747109    0.2709771 -85.13  0.001342878    2.182    0.542
       254  -9.7386    106.2313    144.0269   5.4809930362e+01   3.1189082856e+01    0.6072055    0.3597783  71.78    0.0020963    3.110    0.678
       255  -8.8762     13.2132    146.1218   8.3677402610e+01   4.3178622144e+01    0.2714831    0.1252165  51.17  0.001240203    2.086    0.521
       256  -9.1782    240.4769    145.0268   2.6150436245e+01   5.7441558716e+00    0.1904618    0.1058149 -34.04 0.0004852157    1.538    0.350
       257  -9.1282    247.1405    143.6483   2.4905540901e+01   4.9200244847e+00    0.2354072    0.1477974 -28.01 0.0005923234    1.348    0.258
       258  -8.8896    165.4395    143.8193   3.9652890272e+01   1.9525182955e+01    0.2626335    0.2292271  80.11 0.0008283042    1.453    0.312
       259  -9.5690    124.9332    142.5367   4.9304377785e+01   2.7943582649e+01    0.4675541    0.3196154  89.61  0.001630436    2.478    0.596
       260  -9.6058    243.4189    141.1334   2.4938974004e+01   5.8576340814e+00     0.442034    0.1252921 -36.86  0.001721126    2.966    0.663
       261  -8.4403    181.9992    141.3685   3.5585210894e+01   1.6708960645e+01    0.2473181    0.1986574 -65.49 0.0008486838    1.614    0.381
       262  -9.9442     69.6354    141.2523   6.5341080804e+01   3.8049361076e+01    0.4195168    0.2845141  69.17  0.001905105    1.733    0.423
       263  -9.2878      3.2563    142.0237   8.6380567094e+01   4.4917385043e+01    0.3287083    0.1225962  59.18  0.001332886    2.793    0.642
       264  -8.1589    250.4908    140.5226   2.3815380380e+01   4.8615582323e+00    0.1229452    0.1001325 -23.76 4.802998e-05    1.020    0.020
       265  -9.4963     23.6073    138.3049   7.9715750550e+01   4.4295120943e+01    0.4066978    0.1775926  61.15  0.001605383    2.696    0.629
       266  -7.7873    218.5234    138.4782   2.8241005876e+01   1.0392258314e+01    0.1323209     0.117811 -26.42 0.0008088229    1.071    0.066
       267  -8.3038    207.4767    137.5321   2.9919602587e+01   1.2534083314e+01    0.2334906    0.1174094 -46.64 0.0007805598    2.131    0.531
       268  -8.7301    172.0384    137.9855   3.6906174744e+01   1.9330255479e+01    0.2232481    0.1837776 -81.77 0.0006284224    1.664    0.399
       269  -8.5479    197.3437    137.0692   3.1648375266e+01   1.4511622700e+01    0.2029741    0.1612346 -36.96 0.0005214237    1.204    0.169
       270  -9.1014    248.6064    134.9492   2.2965982659e+01   5.9505137695e+00    0.2599469    0.1464316 -38.08 0.0008510116    1.522    0.343
       271  -8.8786    250.7693    129.8787   2.1653863439e+01   6.3447086510e+00    0.3656958   0.09798542 -32.27  0.001307677    3.559    0.719
       272  -8.2008    162.4022    136.1707   3.8607728198e+01   2.1654864343e+01    0.2101249    0.1402689 -53.77 0.0006289671    1.703    0.413
       273  -8.4867     38.9646    135.9766   7.4443926958e+01   4.3377774534e+01    0.2389674    0.1490372  61.78 0.0007162555    1.714    0.416
       274 -10.0735     83.4784    133.1404   5.9445268610e+01   3.7895933217e+01     0.516618     0.318146 -77.62  0.001353104    2.123    0.529
       275  -8.4382    237.5498    133.5175   2.4243905196e+01   7.9274376677e+00    0.2334509   0.09767066 -44.20 0.0006755383    2.389    0.581
       276  -8.7157    179.3248    133.6551   3.4395281193e+01   1.8675423850e+01    0.2630281    0.1659104 -49.49 0.0007055607    1.716    0.417
       277  -8.7119    112.8228    133.0850   5.0572023597e+01   3.2510840299e+01    0.2492304    0.2056848  74.87 0.0007712771    1.413    0.292
       278  -8.8972    142.9680    131.4993   4.2125316171e+01   2.6679953556e+01    0.2835476    0.2158845 -65.33 0.0006903905    1.592    0.372
       279  -9.6138    132.2420    131.1830   4.4797153273e+01   2.8997576264e+01    0.3893121     0.287448 -78.66  0.001107523    1.894    0.472
       280  -9.8120     13.2441    129.5007   8.2204231821e+01   4.7390005969e+01    0.4577113    0.1883622  57.69  0.001819299    2.746    0.636
       281  -8.5767    247.1278    129.9059   2.2151548796e+01   6.9140181474e+00    0.1885137    0.1444404 -42.60 0.0005539654    1.277    0.217
       282  -8.0672    204.5441    130.0593   2.8793981494e+01   1.4345797682e+01    0.1916614    0.1112634 -56.44 0.0008069499    2.406    0.584
       283  -8.2356    192.8338    129.9133   3.0889716587e+01   1.6648535516e+01    0.1903957    0.1626469 -55.80  0.000418404    1.310    0.237
       284  -8.9573    168.2983    129.3006   3.5707331117e+01   2.1781040587e+01    0.2991102    0.2400809 -82.70 0.0005596963    1.707    0.414
       285  -9.3037    152.7767    128.7419   3.9090019705e+01   2.5178967231e+01    0.3740085    0.2350115 -56.05 0.0009141326    1.877    0.467
       286  -9.7429     99.2174    127.7451   5.3392757163e+01   3.6410213169e+01    0.5479233    0.3528219  81.03  0.001735342    2.650    0.623
       287  -9.0127     73.4061    129.3948   6.1943920006e+01   4.0485342842e+01    0.3431563    0.2069842  67.32 0.0009274576    2.303    0.566
       288  -8.1205      1.6711    130.3132   8.6046018019e+01   4.7948896825e+01    0.1381869   0.08061776  60.02 0.0004206586    1.672    0.402
       289  -7.7695    220.5271    129.5104   2.5997930849e+01   1.1476455530e+01    0.1332143    0.1175763 -27.09 8.205716e-05    1.032    0.031
       290  -8.1959    211.4962    128.9945   2.7364125147e+01   1.3213424472e+01    0.1875094    0.1081067 -55.55 0.0008079072    2.369    0.578
       291  -9.0685     50.0318    128.2911   6.9587500409e+01   4.4077611875e+01    0.4294636    0.2275459  68.51  0.001617449    2.719    0.632
       292 -10.3285     44.2376    123.0841   7.0740483948e+01   4.6131160656e+01    0.7795777    0.3707862  78.65   0.00228491    4.030    0.752
       293 -10.1222     60.3209    125.2340   6.5534570673e+01   4.3503693214e+01    0.6664453    0.3615572  70.29  0.002380659    2.987    0.665
       294  -9.6343    117.7166    125.1090   4.7324175800e+01   3.3379660254e+01    0.4482566    0.3005117  74.76  0.001245429    2.329    0.571
       295  -7.7195    228.6646    125.3312   2.3841758202e+01   1.0690477502e+01    0.1297867   0.09759831 -62.09 0.0007052163    1.732    0.423
       296  -8.8953    178.9895    124.4271   3.2317578686e+01   2.0469245463e+01      0.26403     0.196578 -53.98    0.0004868    1.484    0.326
       297  -8.0937    188.5607    123.7739   3.0285499485e+01   1.8607649237e+01     0.200419    0.1299819 -48.85 0.0006879391    1.620    0.383
       298  -9.8132     28.6684    122.5501   7.6137529248e+01   4.7904171281e+01    0.5850137    0.2649138  68.96  0.002097809    3.262    0.693
       299  -7.7750    195.0000    122.0220   2.8677760820e+01   1.7609448496e+01    0.2286513   0.07670947 -38.29 0.0004461358    2.809    0.644
       300  -8.6857    171.9952    121.5058   3.3060024564e+01   2.2501386970e+01    0.2682783    0.2021734 -55.41 0.0005774638    1.472    0.321
       301  -9.0178    158.5167    121.3290   3.5962949945e+01   2.5449340318e+01    0.3089275    0.2333073 -77.85 0.0007150059    1.857    0.462
       302  -8.1982     83.7788    122.4008   5.7080102899e+01   4.0528721164e+01    0.2074782    0.1490549  24.01 0.0005096901    1.542    0.352
       303  -9.6947    141.5684    118.4586   3.9298459696e+01   2.9757219007e+01     0.422819      0.29344 -68.32   0.00124939    1.951    0.487
       304  -8.5413     71.0090    119.9166   6.0817768262e+01   4.3273688397e+01    0.2493661    0.1767282  69.44 0.0007500296    1.722    0.419
       305  -9.4558    130.6398    118.1556   4.2049861602e+01   3.2211705561e+01    0.4038612    0.2877869 -85.55  0.001177073    2.174    0.540
       306  -9.8930      3.1895    117.3598   8.4492344295e+01   5.1139715983e+01    0.5346278    0.1853478  58.83  0.001930469    3.623    0.724
       307  -7.9507    231.6860    117.3393   2.1685628080e+01   1.1392182034e+01    0.1307544   0.09425052 -59.33 0.0007047121    1.698    0.411
       308  -8.2193    185.6097    115.7231   2.8941359685e+01   2.0674910518e+01    0.2021021    0.1299668 -47.40 0.0004480288    1.577    0.366
       309  -9.5615    109.3020    113.9160   4.7012631215e+01   3.7705840080e+01    0.4573877    0.3030204 -72.87  0.001501811    2.127    0.530
       310  -8.1307    167.4207    114.2132   3.2236795337e+01   2.4894734548e+01    0.2104935    0.1394182 -50.75 0.0005433468    1.602    0.376
       311  -9.8138     92.7670    112.5225   5.1826746357e+01   4.1322288201e+01    0.4681406    0.3219413 -78.72  0.001426919    1.982    0.496
       312  -9.6535     78.9529    112.3840   5.6409962062e+01   4.3861328422e+01    0.5067253    0.3417546  84.15  0.001860223    2.196    0.545
       313  -9.2075    121.8933    112.4459   4.2978705131e+01   3.5374414797e+01    0.2920481    0.2423665 -82.27 0.0005890096    1.450    0.310
       314  -8.7385    174.7776    111.8952   3.0131491300e+01   2.3714574883e+01     0.277216    0.1951718 -56.71 0.0007171686    1.614    0.381
       315  -8.7876    159.0919    111.5811   3.3390361753e+01   2.7262137800e+01    0.2909897    0.2064574 -56.22 0.0006962686    1.577    0.366
       316  -8.9751     66.4111    110.4949   6.0382528446e+01   4.6383507746e+01    0.3355914    0.2187033  64.20  0.001071534    1.975    0.494
       317  -8.9447     14.2578    111.1410   7.9874108953e+01   5.2035854793e+01    0.2670847    0.1388371  51.01  0.001229797    2.088    0.521
       318  -9.7221      9.4946    110.4643   8.1552722239e+01   5.2525824761e+01    0.3179184    0.1518099  59.08   0.00138128    2.416    0.586
       319 -11.4757    248.6107    105.4341   1.6918447531e+01   1.0222898391e+01    0.7929417    0.2435261 -36.53  0.003248047    2.618    0.618
       320  -9.3194    139.8786    104.3569   3.6041739146e+01   3.3094524089e+01     0.366008     0.274833 -85.51 0.0008185724    1.849    0.459
       321 -10.2925     45.5468    101.9923   6.6373184514e+01   5.1436411852e+01    0.7719654    0.3963224  66.94  0.002636303    3.534    0.717
       322  -8.6273    166.8121    104.0636   2.9783088927e+01   2.6967487669e+01    0.2362896    0.1984507 -67.23 0.0007078957    1.330    0.248
       323  -9.5657    150.6151    102.9767   3.3074088211e+01   3.0900021349e+01    0.3932396    0.2669712 -65.80 0.0009858698    1.947    0.486
       324  -9.7188    133.4329    108.6300   3.8840866244e+01   3.3659664385e+01    0.5053197    0.2804083 -44.75  0.001401514    1.834    0.455
       325  -9.4150    128.2602    101.7551   3.8352255824e+01   3.6296493300e+01    0.3153227    0.2648694  89.44 0.0007943925    1.418    0.295
       326  -7.7982    175.5331    101.5437   2.7368674642e+01   2.5457137015e+01    0.1488691    0.1403825 -64.55 8.050827e-05    1.081    0.075
       327  -8.3237    159.9709    100.9583   3.0428217150e+01   2.9128763306e+01     0.240165    0.1825342 -70.56 0.0006116894    1.629    0.386
       328 -10.1734    108.6781     98.5391   4.3073657869e+01   4.1352111498e+01    0.5431558    0.3694583  74.03  0.001362688    2.188    0.543
       329  -8.2225    107.2243     92.6748   4.1831953207e+01   4.2968895766e+01    0.2412627    0.1250076 -35.85 0.0005515979    2.272    0.560
       330  -8.9983     82.0728     99.6450   5.2126887447e+01   4.6431150541e+01    0.3164128    0.2365452 -88.55  0.001063906    1.790    0.441
       331  -9.7777     63.9653     95.8384   5.7788780203e+01   5.0435582740e+01    0.5420812    0.3337664  84.12  0.001548541    2.985    0.665
       332  -9.0563     94.8942     96.7658   4.6955487655e+01   4.4639842491e+01    0.2840261    0.2271657 -61.86 0.0005121235    1.349    0.259
       333  -8.3478    165.0137     94.0197   2.7506195841e+01   2.9258775894e+01    0.2403476     0.179776 -69.77  0.000553379    1.632    0.387
       334  -8.5233    189.3898    107.7746   2.6313743796e+01   2.1287717970e+01    0.2761753    0.1285873 -41.62 0.0007096426    2.031    0.508
       335  -8.2663    176.3061     92.9830   2.5003126054e+01   2.6819770306e+01    0.2107499    0.1839321 -46.71  0.000466852    1.111    0.100
       336  -9.2836    139.0975     92.2066   3.2858099729e+01   3.5745190769e+01    0.3582407    0.2510462 -74.99 0.0009416024    2.030    0.507
       337  -9.9178    123.8683     91.0801   3.6507102661e+01   3.9553760783e+01    0.5814132    0.4137454  35.58  0.001439856    1.499    0.333
       338  -8.0766    157.6569     91.7351   2.8434912795e+01   3.1419804551e+01    0.2168335    0.1369055 -47.49 0.0005627073    1.613    0.380
       339  -9.4587      4.8840     91.7430   8.1136569778e+01   5.7557006808e+01    0.2528543    0.1432102  69.79 0.0009845254    2.041    0.510
       340  -9.0945     35.3150     90.2775   6.8066947868e+01   5.5578024234e+01    0.3709819    0.2232965  83.10  0.001203208    2.375    0.579
       341  -8.1989    150.9982     88.9988   2.9137744652e+01   3.3525033656e+01    0.1907551    0.1726325 -43.38  0.000400833    1.111    0.100
       342  -9.6929     86.6574     86.5656   4.6798206563e+01   4.8623755436e+01    0.4885601    0.3336664  75.95  0.001295554    2.344    0.573
       343  -8.0358    164.2385     86.6309   2.5655360609e+01   3.0787758110e+01    0.1549432    0.1116714 -63.32 0.0003431798    1.608    0.378
       344  -9.3588     48.3497     84.1532   6.1079299028e+01   5.5562654525e+01    0.4030113    0.2623349  68.24  0.001572282    2.265    0.559
       345  -8.3997    158.0890     83.8823   2.6153753575e+01   3.2761991138e+01    0.2288467    0.1986179 -69.82 0.0004051356    1.216    0.178
       346  -9.5702    104.8124     83.0034   3.9655312143e+01   4.5588845618e+01    0.3956559    0.2982274 -81.10 0.0009716226    1.833    0.454
       347  -8.8257    140.9099     82.6684   2.9641811350e+01   3.7162807713e+01    0.3044644    0.1966022 -57.84 0.0006841177    1.830    0.453
       348  -9.3752     24.7836     80.7723   7.0656010649e+01   5.8969485215e+01    0.4120121    0.2352162  71.09  0.001278714    2.643    0.622
       349 -10.7078     22.6276    102.7010   7.5525500548e+01   5.3578679126e+01    0.6090382    0.3556369  64.79  0.001945766    2.066    0.516
       350  -8.4188    150.4745     80.4687   2.6807723124e+01   3.5235383701e+01    0.2740859    0.1342103 -48.90 0.0008635207    2.222    0.550
       351  -8.5687     74.7047     80.5098   4.9337919391e+01   5.2272797955e+01     0.251483    0.1893793 -77.79 0.0008283339    1.759    0.432
       352  -9.3680     10.2022     81.0824   7.7304207218e+01   5.9944821770e+01    0.2613974    0.1400903  48.27  0.001231234    2.218    0.549
       353  -8.4581    119.4124     80.1730   3.4439944223e+01   4.2819951408e+01    0.2244183    0.1458078 -54.58 0.0007981351    1.741    0.426
       354  -8.2649    166.6373     79.3181   2.3158575629e+01   3.1499735072e+01    0.1990339    0.1422857 -28.02 0.0005748889    1.524    0.344
       355  -7.9151    184.4793     77.5324   1.9488570769e+01   2.7550346261e+01    0.1442412    0.1354519 -62.44 0.0003620448    1.005    0.005
       356  -7.8478    157.2908     76.6373   2.4252143573e+01   3.4245845310e+01    0.1602963    0.1146437 -69.17 0.0007027052    1.700    0.412
       357  -9.2794    127.9642     75.0273   3.0521753895e+01   4.1764514280e+01     0.336396    0.2208564 -50.90 0.0006268048    1.644    0.392
       358  -8.3882    140.4811     75.0975   2.7469001474e+01   3.8673776253e+01    0.2290831    0.1516223 -41.34 0.0005319734    1.534    0.348
       359  -9.7544     63.0499     73.6846   5.1845104061e+01   5.5855508164e+01     0.414923    0.2728332 -64.31  0.001184979    1.816    0.449
       360  -9.4371     82.4207     72.5277   4.3866715271e+01   5.2561081139e+01    0.3533849    0.2645914 -72.83  0.001024112    1.795    0.443
       361  -8.3888    163.4177     73.2152   2.2056752200e+01   3.3327143676e+01    0.2204655    0.1321267 -48.26 0.0008674611    1.700    0.412
       362  -8.0987    151.3134     72.6945   2.4340261658e+01   3.6411988295e+01    0.1568049     0.117078 -75.50 0.0003482855    1.620    0.383
       363  -8.5538    105.8855     71.7408   3.5683723980e+01   4.7652627975e+01    0.2796461    0.1988759 -70.40 0.0007317066    1.944    0.486
       364  -8.9345     95.0898     70.7802   3.8823909500e+01   5.0270019838e+01    0.3259161    0.2107397 -58.19 0.0007895829    1.895    0.472
       365  -9.2044     51.4980     69.6796   5.5563043240e+01   5.8565541466e+01    0.4037938    0.2507378 -77.92  0.001333155    2.612    0.617
       366  -8.1191    115.4992     72.9193   3.3228239034e+01   4.5171855264e+01    0.2272982    0.1551484 -41.32 0.0005234031    1.513    0.339
       367  -8.7861     16.9516     70.0297   7.2039796201e+01   6.2231985750e+01    0.2097591    0.1500406  63.30 0.0007573209    1.742    0.426
       368  -7.9819    157.2727     69.6571   2.2223950991e+01   3.5447491390e+01    0.1560897    0.1124485 -67.32 0.0002929961    1.616    0.381
       369  -8.7183    147.1002     68.0709   2.3844386914e+01   3.8262150497e+01    0.2427722    0.1794552 -73.68 0.0009230833    1.633    0.388
       370  -8.7545    138.6679     66.0764   2.5090420228e+01   4.0724638205e+01    0.3317987    0.1710965 -48.26 0.0007977862    2.110    0.526
       371  -8.6491    121.7076     65.8099   2.9177390712e+01   4.4998088999e+01    0.2801038    0.2002522 -58.03 0.0006224744    1.616    0.381
       372  -8.7290    110.0675     63.4739   3.1618100533e+01   4.8246246128e+01    0.2788669    0.2115787 -59.01 0.0006771568    1.525    0.344
       373  -8.2786     37.3854     64.1424   6.0449877014e+01   6.1698122009e+01    0.1948006    0.1305441 -70.46  0.000942162    1.755    0.430
       374  -8.0847    158.4182     61.5315   1.9601288517e+01   3.6489341419e+01    0.1493988    0.1385147 -77.69 7.464359e-05    1.043    0.041
       375  -9.6150     73.3511     59.5877   4.2778480534e+01   5.7030243747e+01    0.3713068    0.2595271 -54.19   0.00104494    1.619    0.382
       376  -8.9117     97.4852     60.2510   3.4339971123e+01   5.1783361466e+01    0.2846549    0.2016589  48.94 0.0006764204    1.359    0.264
       377  -7.8699     89.3047     59.6602   3.6867123562e+01   5.3721786751e+01    0.1507639    0.1215457 -85.16  0.000704049    1.678    0.404
       378  -8.4605    130.8261     57.6749   2.4187823136e+01   4.4123320613e+01    0.2911445      0.18356 -61.82 0.0009206368    2.052    0.513
       379  -9.5934     23.6534     56.3429   6.5131120038e+01   6.4927400127e+01    0.4363664    0.2689107  79.33  0.001881625    2.937    0.659
       380  -8.9054      7.6873     57.2185   7.3966498794e+01   6.5883502606e+01    0.2575938    0.1754953  52.01  0.001090117    1.849    0.459
       381  -9.8840    249.5500     55.3291   6.2530288636e+00   1.6955535182e+01    0.2827352    0.1724842 -15.58  0.001469083    2.316    0.568
       382  -8.1204    140.1582     56.1513   2.1592609258e+01   4.1991927875e+01    0.2073415    0.1694896 -66.71 0.0004105184    1.314    0.239
       383  -8.6354     44.1568     55.6189   5.4316215541e+01   6.2737810041e+01    0.2397916    0.1875587 -60.49  0.001225058    1.422    0.297
       384  -8.8172     62.9909     54.5553   4.5181762664e+01   5.9969554781e+01    0.2599446    0.2003553 -62.67 0.0006019089    1.616    0.381
       385  -8.6884     53.9230     53.5595   4.8876588756e+01   6.1711083445e+01    0.2830841    0.1920511 -66.34  0.001308449    2.054    0.513
       386  -7.7344    163.3177     53.2984   1.6283689132e+01   3.6516263485e+01    0.1456063     0.112215  31.43 0.0003441467    1.614    0.381
       387  -8.2881    105.6150     52.8150   2.9112013002e+01   5.1196498443e+01    0.2048223    0.1403042 -47.82 0.0003512273    1.600    0.375
       388  -9.2802     92.4555     50.5290   3.2348795090e+01   5.4677897758e+01    0.3534344    0.2325763 -50.96  0.001051787    1.768    0.434
       389  -8.5901    119.1565     55.8596   2.6460562763e+01   4.7361162012e+01    0.2368386    0.1992962 -77.20  0.000659816    1.356    0.263
       390  -8.2314    112.4513     46.9683   2.5041032171e+01   5.0473705812e+01    0.2151772    0.1472177 -38.50 0.0009869058    1.544    0.352
       391  -8.8586     82.2735     46.5892   3.4314422754e+01   5.7627424132e+01    0.2419515    0.2228761 -75.61  0.000668803    1.293    0.227
       392  -8.7572     16.9034     44.8529   6.5389345946e+01   6.8085802752e+01    0.1871405    0.1523029  64.90   0.00062778    1.658    0.397
       393  -8.1509     45.2246     44.4518   4.9517492960e+01   6.4899397965e+01    0.1770952    0.1259914  42.86 0.0004824496    1.557    0.358
       394  -8.4747     58.2751     42.4257   4.2358114951e+01   6.3142130435e+01    0.2270519    0.1748101 -63.13 0.0009259076    1.763    0.433
       395  -9.1433      5.2250     42.1044   7.1615757067e+01   6.9478901218e+01    0.2710584    0.1737026  70.39  0.001388578    2.389    0.581
       396  -7.7183    132.6999     42.7090   1.8709330294e+01   4.5945565399e+01    0.1485357      0.11067  32.72 0.0002509791    1.564    0.361
       397  -9.0277     69.8667     41.6225   3.7006596211e+01   6.1080765035e+01     0.266329     0.208799 -50.02  0.001150944    1.475    0.322
       398  -8.6251    105.9862     41.4750   2.4725210561e+01   5.2919162181e+01    0.2253367    0.1400818  58.87 0.0005247928    1.543    0.352
       399  -8.4549     36.8315     40.7989   5.2447473472e+01   6.6809326844e+01    0.1698881    0.1641254  83.39 0.0006178494    1.337    0.252
       400  -8.4419     95.7054     38.1038   2.6370974362e+01   5.5921090161e+01    0.2262307    0.1765649 -55.65 0.0005580337    1.516    0.340
       401  -8.1171     80.8541     36.8073   3.0723916769e+01   5.9544035490e+01    0.1883108    0.1716858  89.64 0.0004291279    1.329    0.248
       402  -9.1660     26.2056     35.4823   5.6357398669e+01   6.9168783080e+01    0.2439881    0.2055118  69.60 0.0008043172    1.757    0.431
       403  -8.0058    125.9985     35.3011   1.7536276030e+01   4.8706088741e+01    0.1824156    0.1245743  62.70 0.0005911093    1.347    0.258
       404  -8.5395    111.8173     34.1651   2.0376712616e+01   5.2501847215e+01    0.2239147     0.193801 -75.70  0.000647321    1.283    0.220
       405  -8.1015    119.2096     32.9703   1.8176228620e+01   5.0769976817e+01    0.1858917     0.119342 -30.47 0.0005860216    1.692    0.409
       406  -8.8523     48.6544     33.1279   4.2798368470e+01   6.6469727120e+01    0.2118786    0.1837048  40.17 0.0005493604    1.266    0.210
       407  -8.5154     60.6548     32.3578   3.6755078846e+01   6.4440329690e+01    0.1942116     0.168641  88.62  0.000935752    1.650    0.394
       408  -8.5090     72.2446     31.1856   3.1409339465e+01   6.2273068158e+01    0.1824364    0.1678853 -73.08 0.0005971604    1.364    0.267
       409  -8.4893     13.2911     30.4114   6.2514110636e+01   7.1440268348e+01    0.1965868    0.1518361 -79.98  0.001153884    1.796    0.443
       410  -8.2800    101.6614     29.3373   2.1077309788e+01   5.5692120722e+01    0.2146358    0.1639803 -74.30  0.000706622    1.660    0.397
       411  -9.9796    249.2851     27.9269   5.4532316069e-01   2.0353334186e+01    0.2775962     0.151924  78.90  0.001614783    1.951    0.488
       412  -8.9197     81.5822     27.4120   2.6301392318e+01   6.0749454887e+01    0.2867562    0.2128796 -69.45 0.0008315938    1.964    0.491
       413  -9.2520     91.4449     25.5572   2.2354897478e+01   5.8677234179e+01    0.4610609    0.2291858 -51.62  0.001767768    2.957    0.662
       414  -8.5984      3.7647     27.5965   6.8010505759e+01   7.2684155057e+01    0.1544821    0.1067232  23.56 0.0004216423    1.599    0.375
       415  -8.3903    121.0044     21.6717   1.3569711691e+01   5.1676636293e+01    0.2005823    0.1707991  69.73 0.0005160802    1.062    0.059
       416  -8.2226    104.3009     22.6454   1.7651423159e+01   5.5857628018e+01    0.1454978    0.1065229 -67.99 0.0007037956    1.704    0.413
       417  -8.3211    183.9969    250.0000   5.4400103838e+01  -1.1353349191e+00     0.196136   0.05272905  33.37 0.0008051307    2.961    0.662
       418  -9.0214     74.1932     19.4445   2.5105675322e+01   6.3457234103e+01    0.2636467    0.2110913 -51.59 0.0008443968    1.553    0.356
       419  -8.5474     88.0541     17.3342   1.9674102824e+01   6.0478773308e+01    0.1996788    0.1690713  58.29 0.0005581836    1.107    0.097
       420  -7.7585    112.7364     16.6712   1.3330111322e+01   5.4363048594e+01    0.1417648   0.09927201  33.95 0.0002409721    1.570    0.363
       421  -8.6226      7.5384     15.5065   6.0128806561e+01   7.4817216734e+01    0.1203006    0.1005039 -20.81  0.000134173    1.055    0.052
       422  -8.0058     17.3087     14.2840   5.2118362347e+01   7.4106824770e+01     0.126564   0.08114163 -13.23 0.0002312035    1.567    0.362
       423  -8.6819    112.9076    248.7870   6.8569294053e+01   8.7015209000e+00    0.1877008     0.168198 -83.20  0.001339735    1.450    0.310
       424  -9.8739     89.4729    247.2388   7.3368567700e+01   1.2122827294e+01    0.4031502   0.09471188  42.26  0.001557022    3.071    0.674
       425  -8.0082    119.6872     11.3094   9.9066648725e+00   5.3092979106e+01    0.1425737   0.09959005 -69.33 0.0007027928    1.627    0.385
       426  -9.8457     65.1692    248.9211   7.8625544524e+01   1.4936893179e+01    0.3090016    0.1107178  41.59  0.001511435    1.980    0.495
       427  -7.8869      5.7064    249.6453   9.0613034895e+01   2.1264359647e+01    0.0898342   0.08120114 -48.22 0.0007031095    1.687    0.407
       428  -9.3092    218.6584    246.6404   4.7615558698e+01  -5.0208629226e+00    0.3213621    0.1112772 -31.46  0.001592875    3.056    0.673
       429  -8.8819     63.7541     20.8602   2.9794312081e+01   6.5527214220e+01    0.2331902    0.1816037 -49.80 0.0007966725    1.628    0.386
       430  -8.9765    175.5062    247.1408   5.5637586097e+01   3.5623611815e-01    0.2236585    0.2021806 -67.03  0.001232604    1.844    0.458
       431  -8.9819    156.0226    247.9713   5.9590918712e+01   2.8751687208e+00    0.1755873    0.1298061  49.70 0.0005742792    1.651    0.394
       432  -9.5256    103.5390    246.3805   7.0301286268e+01   1.0378392396e+01    0.3463552    0.1955758 -82.88  0.001725858    3.098    0.677
       433  -8.7945     21.4946    247.9741   8.7485307016e+01   2.0028983009e+01    0.1816445    0.1153204  40.75 0.0007678313    1.242    0.195
       434 -10.2987    223.8541    243.3020   4.6224632286e+01  -5.2441367242e+00     0.454369    0.2032197 -38.18  0.002571749    2.564    0.610
