#   1 NUMBER                 Running object number                                     
#   2 MAG_AUTO               Kron-like elliptical aperture magnitude                    [mag]
#   3 X_IMAGE                Object position along x                                    [pixel]
#   4 Y_IMAGE                Object position along y                                    [pixel]
#   5 X_WORLD                Barycenter position along world x axis                     [deg]
#   6 Y_WORLD                Barycenter position along world y axis                     [deg]
#   7 A_WORLD                Profile RMS along major axis (world units)                 [deg]
#   8 B_WORLD                Profile RMS along minor axis (world units)                 [deg]
#   9 THETA_WORLD            Position angle (CCW/world-x)                               [deg]
#  10 FWHM_WORLD             FWHM assuming a gaussian core                              [deg]
#  11 ELONGATION             A_IMAGE/B_IMAGE                                           
#  12 ELLIPTICITY            1 - B_IMAGE/A_IMAGE                                       
         1 -10.8691    114.8209     60.8663   8.3648119335e+01   4.7290163888e+01    0.9693487     0.169395 -33.77  0.001982837    9.955    0.900
         2 -11.8766    189.5370     33.7628   6.2292783948e+01   3.4036263764e+01    0.8326469    0.6545058 -76.98  0.003139625    1.166    0.142
         3 -12.2792    197.6559     23.6806   5.9060421773e+01   3.3428985571e+01    0.6278155    0.6162724  -8.55  0.001452595    1.412    0.292
         4 -11.3293     39.3519     16.1360   9.1796381549e+01   6.6412189199e+01     0.314725       0.2187   9.85   0.00216196    1.202    0.168
         5  -9.5853    115.0000      3.0184   6.5640180228e+01   5.3881337999e+01    0.3020449    0.1448006  -8.69  0.001469804    3.088    0.676
         6  -8.8900    158.3367    234.3089   1.1285555731e+02   1.4568347143e+00    0.1391211     0.104307  -0.10 0.0007043165    1.680    0.405
         7  -9.8326    242.4167    249.1710   9.8667571182e+01  -1.3704646795e+01    0.2595654    0.2427561 -54.95  0.001772903    1.720    0.419
         8 -11.5343    206.5564    246.8617   1.0503412637e+02  -8.4406612836e+00    0.6301504    0.5295334  10.66  0.002672065    1.028    0.027
         9 -19.3549      9.9568    133.5531   1.3396422754e+02   4.6720744706e+01     19.26365     2.599526 -69.35   0.04606834    7.410    0.865
        10 -10.8565    167.4910    224.0465   1.0917259848e+02   1.8934381861e+00    0.4605904    0.2745467  54.40  0.001557097    2.083    0.520
        11  -8.0299     66.5045    226.4467   1.3176056621e+02   1.7971522861e+01    0.1337297    0.1130924  74.58  0.000115902    1.006    0.006
        12 -10.7123    114.8922    209.8886   1.1862288037e+02   1.4142487943e+01    0.5177189    0.2430672 -57.25  0.002104461    2.189    0.543
        13  -8.7016    163.6264    214.1664   1.0827669482e+02   4.5579354026e+00    0.1985707    0.1301184 -37.07 0.0005768705    1.646    0.392
        14  -9.4209    115.0000    200.0016   1.1697650450e+02   1.6421771114e+01    0.3990901    0.1525217 -63.48   0.00127652    3.407    0.707
        15 -10.2228    114.5194    194.0812   1.1607939870e+02   1.7910530876e+01    0.6753874    0.2382309 -41.51  0.001906744    4.471    0.776
        16  -9.3233    194.0583    192.9663   9.7711597822e+01   3.4268672559e+00    0.3331633    0.2521293  45.49  0.001716489    1.419    0.295
        17  -9.2256     59.5227    187.5063   1.2851144388e+02   2.8198855092e+01    0.2805816    0.1264696 -66.09 0.0006344915    2.037    0.509
        18  -8.1421     99.4055    180.8465   1.1749953435e+02   2.3764359147e+01    0.2077883    0.1334875 -47.95 0.0006575132    1.599    0.375
        19 -10.1949     77.6204    179.6497   1.2282664073e+02   2.7572473290e+01    0.3908761    0.2565928 -41.72  0.001817131    1.775    0.437
        20 -10.4613     81.9151    173.7593   1.2074508298e+02   2.8393397760e+01    0.4756086    0.2792285 -40.00  0.002012722    2.080    0.519
        21 -10.1812    114.4411    173.4844   1.1231533616e+02   2.2928796466e+01    0.5280958    0.2155244 -54.58  0.001862522    2.397    0.583
        22  -9.4835    109.3634    174.5034   1.1380424551e+02   2.3596363666e+01    0.2978064    0.1892326 -87.63   0.00115171    2.375    0.579
        23  -8.7773    196.1797    170.1521   9.2594863767e+01   7.7401057632e+00    0.2328105    0.2019949 -13.15  0.001234637    1.227    0.185
        24  -9.3880     78.3024    167.4200   1.2059344635e+02   3.0550882537e+01    0.2495392    0.1747899  50.43  0.000733887    1.497    0.332
        25 -10.3595     88.8490    164.4390   1.1725344975e+02   2.9637022436e+01    0.4747598    0.2888229  45.44 0.0004040388    1.708    0.415
        26 -11.9986     77.6345    159.7662   1.1940052504e+02   3.2589129587e+01    0.5467934    0.5177075 -61.15  0.001282985    1.072    0.067
        27 -12.3676     68.4984    144.3003   1.1902115523e+02   3.7833015856e+01     1.150282    0.7257903 -89.52  0.004086539    2.269    0.559
        28  -9.9656     94.5010    157.4436   1.1438575481e+02   3.0455423978e+01    0.5582364     0.303332 -38.56  0.001532801    2.249    0.555
        29 -10.4077     49.8545    156.3326   1.2636079597e+02   3.7260394558e+01    0.3575013    0.2358596  72.40   0.00172197    1.840    0.457
        30 -10.2312     49.1260    150.9338   1.2567820007e+02   3.8704475812e+01    0.3102883    0.1886394 -63.76 0.0007888371    1.440    0.306
        31 -11.9987     55.4670    145.9333   1.2303686941e+02   3.9176979664e+01    0.8907118    0.4137746 -40.33  0.003453293    2.620    0.618
        32  -8.9882    114.5377    152.2630   1.0793442854e+02   2.8142221513e+01    0.3095401    0.1520067 -57.58  0.001139512    2.114    0.527
        33  -8.7482    134.0000    148.0480   1.0194396064e+02   2.5339431261e+01    0.2672638   0.08834354 -49.41 0.0006291689    2.945    0.660
        34  -9.9193    106.8378    141.0803   1.0753603147e+02   3.2322801598e+01    0.5403308    0.2873925 -29.72  0.001793914    3.137    0.681
        35 -10.7027     94.8306    141.7065   1.1100824253e+02   3.4320646504e+01    0.3036942    0.2652457 -30.42 0.0005137727    1.229    0.186
        36 -11.3205     71.0299    135.4906   1.1651282832e+02   3.9657620205e+01    0.5048024    0.3890415  68.81  0.002540666    1.571    0.364
        37 -10.9401    114.7106     95.1942   9.3727216433e+01   4.1156280024e+01     0.707575    0.1765727 -45.28  0.002008286    4.039    0.752
        38 -10.4256    115.0000    102.4862   9.5650782452e+01   3.9592592532e+01    0.6431594    0.1868423 -44.14  0.001946302    3.416    0.707
        39  -9.1816    119.8670    130.3669   1.0148140339e+02   3.2379368571e+01    0.2779274    0.1789184 -44.85  0.001021302    1.523    0.343
        40  -9.6340    106.3486    130.7422   1.0527406204e+02   3.4907584548e+01    0.3691663    0.3048701  66.76  0.001815432    1.385    0.278
        41  -9.3334    102.2184    127.5473   1.0567209311e+02   3.6432990623e+01    0.3101717    0.2386299 -27.90 0.0006890523    1.469    0.319
        42 -12.1512     58.6873    130.8550   1.1921631716e+02   4.2499823316e+01    0.9981961    0.3764992 -62.43  0.003597296    2.677    0.627
        43  -9.7473    114.7092    117.4991   9.9683079585e+01   3.6371047163e+01    0.7110715    0.1276867 -45.25  0.001638323    5.546    0.820
        44  -9.6115    119.5878    124.6692   1.0015913267e+02   3.3759735368e+01    0.3182751    0.1439701 -43.65  0.001143605    2.210    0.548
        45  -9.7092    109.9485    119.4698   1.0150390335e+02   3.6856860777e+01     0.419619    0.1960999 -48.02  0.001181341    2.070    0.517
        46 -11.3592    114.4837    130.6558   1.0300792043e+02   3.3373258078e+01    0.9257869    0.2523349 -47.71  0.002650172    3.509    0.715
        47  -8.3353    167.8172    112.7706   8.5426118650e+01   2.5927316331e+01    0.2195703    0.1780895 -78.84 0.0006773107    1.390    0.281
        48  -9.9317    120.0926    110.0085   9.6272679532e+01   3.6943217145e+01    0.3369627    0.2030792 -60.72  0.001293154    2.049    0.512
        49  -8.6548    103.9488    111.1286   1.0106394466e+02   3.9889506976e+01    0.2239061    0.2028109  86.80 0.0004456815    1.262    0.208
        50  -8.2596    206.1057    110.3702   7.7448252041e+01   1.7935680591e+01    0.1998638    0.1350337  70.12 0.0005677306    1.722    0.419
        51  -8.5267     78.4802    232.0000   1.2983934258e+02   1.4998833632e+01    0.2787934   0.07040858  36.39 0.0008874364    3.797    0.737
        52  -8.6095    134.8169    103.4146   9.0689651550e+01   3.5219643720e+01    0.2977934     0.114014 -46.33  0.001002965    2.631    0.620
        53 -10.6520    114.7793    110.4004   9.7824636644e+01   3.7936583642e+01    0.6473749    0.2278271 -42.87  0.002106567    2.881    0.653
        54  -9.6192     71.4271    229.7679   1.3108512040e+02   1.6525145718e+01    0.2804898    0.2223268  69.29   0.00096025    1.112    0.100
        55  -8.5548    134.2184    247.4431   1.1997733617e+02   2.9461966638e+00    0.2571307    0.1099988 -66.89 0.0008732039    4.405    0.773
        56  -9.4556    165.5527     66.1512   7.4000138075e+01   3.5015673925e+01    0.3373159     0.230512 -88.22  0.001153734    1.826    0.452
        57 -11.0246    178.7767     43.1236   6.5993810399e+01   3.5293429236e+01    0.3974798    0.3399274  57.20  0.001568034    1.225    0.184
        58  -9.4605     78.9201    237.3965   1.3036901190e+02   1.3758253051e+01    0.2241444    0.2144441   9.02  0.001446435    1.385    0.278
        59  -8.1738    177.6900    237.3657   1.0927433291e+02  -2.3328250234e+00    0.1303567    0.1062982  74.58 0.0007038261    1.756    0.430
        60 -10.1206    114.7926     36.0818   7.5976360491e+01   5.0702882732e+01    0.4209182     0.109312 -29.95   0.00141277    4.521    0.779
        61 -10.4301     92.6547    235.4426   1.2722509422e+02   1.2094080451e+01    0.2867128    0.2252498 -89.55 0.0005513197    1.283    0.221
