#   1 NUMBER                 Running object number                                     
#   2 MAG_AUTO               Kron-like elliptical aperture magnitude                    [mag]
#   3 X_IMAGE                Object position along x                                    [pixel]
#   4 Y_IMAGE                Object position along y                                    [pixel]
#   5 X_WORLD                Barycenter position along world x axis                     [deg]
#   6 Y_WORLD                Barycenter position along world y axis                     [deg]
#   7 A_WORLD                Profile RMS along major axis (world units)                 [deg]
#   8 B_WORLD                Profile RMS along minor axis (world units)                 [deg]
#   9 THETA_WORLD            Position angle (CCW/world-x)                               [deg]
#  10 FWHM_WORLD             FWHM assuming a gaussian core                              [deg]
#  11 ELONGATION             A_IMAGE/B_IMAGE                                           
#  12 ELLIPTICITY            1 - B_IMAGE/A_IMAGE                                       
         1 -11.8364     76.8946     22.2426   7.6996623160e+01   6.3336143633e+01    0.5588251    0.4607419 -37.91  0.002572676    1.331    0.249
         2 -11.5020     42.2542     18.6341   9.0912462824e+01   7.1158493134e+01    0.5703536    0.3688128 -23.68  0.002209765    1.714    0.417
         3 -11.6367     30.0764      7.2182   9.1478889490e+01   7.4995028917e+01     0.364875    0.3013967  37.46  0.001543646    1.244    0.196
         4 -12.0670     35.0087     12.8419   9.1868595752e+01   7.3324926970e+01    0.4501131    0.3087052 -50.18  0.002437526    1.850    0.459
         5 -12.0654     40.2019      9.7348   8.6594173136e+01   7.2860204445e+01    0.4400938    0.2497437 -24.75  0.001351266    1.969    0.492
         6 -10.0410     88.6095      8.3124   6.6606045845e+01   6.2049547941e+01    0.2722445    0.1735395 -28.98  0.001369986    1.735    0.424
         7 -11.0507     89.0447     13.7526   6.9104412411e+01   6.1378693031e+01    0.5600461     0.377083 -73.91  0.002571299    1.940    0.485
         8 -11.0454     92.8079      9.1499   6.5975420741e+01   6.0893843696e+01    0.3325696    0.2515722  29.76   0.00116035    1.465    0.317
         9 -10.3119    155.0872     14.8213   5.7811632257e+01   4.3947640003e+01    0.2985228    0.1932899  65.27  0.001078268    1.452    0.311
        10 -10.4222    203.0499     11.9651   5.2720411450e+01   3.2592765007e+01    0.1908429    0.1511177 -65.02 0.0003096314    1.023    0.023
        11  -9.9511    118.9822     12.2778   6.2012063011e+01   5.3719461731e+01    0.2001677    0.1596756  74.32 0.0002363007    1.106    0.096
        12 -11.6223     55.6412      6.8929   7.6828452007e+01   7.0078634179e+01    0.5693696    0.4582755  52.34  0.003369304    1.165    0.141
        13 -11.0781     57.8541      2.1381   7.2929436700e+01   7.0091721157e+01    0.3174258    0.2183323 -41.02 0.0002889706    1.719    0.418
        14 -10.6662     22.2261      9.6795   9.9135760152e+01   7.5790808952e+01    0.3245231    0.2040994  19.72  0.001113022    1.569    0.363
        15  -9.7840      2.5422      2.7118   1.1330139010e+02   7.9141267250e+01    0.3605068    0.1040986  32.06  0.001474731    3.527    0.716
        16 -10.5332     10.0346      1.9791   1.0483829215e+02   7.8583625056e+01    0.3153397    0.1928381 -29.59  0.001376021    1.558    0.358
        17 -10.4301     14.9381      8.8047   1.0479783777e+02   7.6854175938e+01    0.2378198    0.1982835   5.45 0.0006558302    1.081    0.075
        18 -10.6829     11.4094      7.1772   1.0702721807e+02   7.7527406359e+01    0.3048921    0.2158602 -44.96  0.001628224    1.409    0.290
        19 -10.9595      4.2011      9.9801   1.1573916047e+02   7.7627562775e+01    0.3545322    0.2014504  17.47  0.001871322    1.717    0.418
        20 -10.4996      2.7011      6.5286   1.1539740493e+02   7.8405841203e+01    0.3846417    0.1676513   1.19  0.001737704    2.724    0.633
        21 -11.3707    151.5779      8.0086   5.6043147860e+01   4.5536044056e+01     0.356368     0.229434 -48.15  0.001867135    1.495    0.331
        22 -11.0704     70.7032      5.4328   7.0246764964e+01   6.6767391438e+01    0.3753636    0.3281469 -60.99  0.001260059    1.347    0.257
        23  -9.8879     67.2300      1.4478   6.9110875999e+01   6.7975954992e+01    0.1990388    0.1542041  49.86 0.0003273042    1.114    0.102
        24 -10.1746     64.8765      7.0184   7.3179985243e+01   6.7980821834e+01    0.2009843    0.1822435  39.81 0.0004596912    1.039    0.037
        25 -10.5080    235.4107      4.7996   4.9240687676e+01   2.6491417742e+01    0.1476271    0.1026493 -23.31  0.000520968    1.663    0.399
        26 -10.4269    107.5941      4.8809   6.1004140153e+01   5.7430120157e+01    0.2754894    0.1805294  82.49 5.866716e-05    1.446    0.308
        27  -9.9433    199.0000      3.9859   5.1008548561e+01   3.4312012193e+01    0.1946058   0.06540213 -27.00 0.0008036056    2.951    0.661
        28  -9.7712    121.1375      3.8702   5.8404863039e+01   5.3929507654e+01     0.188146    0.1480012  50.10 0.0004857909    1.308    0.235
        29 -11.2641     18.6895      2.8376   9.7291802955e+01   7.7379827302e+01    0.4498076    0.2251791  24.08  0.002201455    2.079    0.519
        30 -11.0019    130.4880      3.4950   5.6985498261e+01   5.1481787432e+01     0.291943    0.1216077  75.10  0.001195831    2.116    0.527
        31 -10.4084     90.0942      2.5225   6.3449385458e+01   6.2197414638e+01    0.2687663    0.1929634 -72.16 0.0007946028    1.603    0.376
        32 -10.3372    160.8088      2.3867   5.3393339464e+01   4.3688555265e+01    0.1950936    0.1057319  67.83 0.0009546098    1.688    0.407
        33 -10.2872    210.4903      7.5145   5.1165471940e+01   3.1398507588e+01    0.1249839   0.09862421 -63.48 0.0003350205    1.001    0.001
        34 -11.4957     80.1690      1.7556   6.5474654414e+01   6.4781945004e+01    0.3904864    0.1708694  63.81   0.00138547    1.941    0.485
        35  -9.5459    244.3117      1.6535   4.8197231629e+01   2.5081237082e+01    0.1265641   0.05623464 -55.33 0.0007046018    1.710    0.415
        36  -9.3521    187.0327      1.1702   5.1053334128e+01   3.7358884997e+01    0.1640915   0.08354586  81.04 0.0003197659    1.794    0.443
        37  -9.9443     50.4052      1.8866   7.5958717806e+01   7.1763564467e+01    0.2903169    0.1339967  42.55  0.001321662    1.947    0.486
        38  -9.6300     28.1675      1.2928   8.8509341033e+01   7.6147842474e+01    0.1689426    0.1037128  46.55 0.0004408571    1.674    0.403
        39 -11.6284      6.0983    142.1344   1.3825413523e+02   4.4882737762e+01    0.2393362    0.1620274  37.42  0.000692889    1.414    0.293
        40 -11.5225      1.7791    248.3873   1.4308761862e+02   2.1786791390e+01    0.3481603    0.2263546  72.37  0.002490297    1.395    0.283
        41 -11.8850     11.4297    244.2714   1.4100739847e+02   2.1680025368e+01    0.2964666    0.1693036  15.94  0.001568134    2.077    0.519
        42  -9.9866    215.7939    135.6243   8.0117154331e+01   1.2588566020e+01    0.2462775    0.1889092  88.10  0.001274663    2.249    0.555
        43  -9.6510    212.3623    133.7306   8.0273592028e+01   1.3467239914e+01    0.1908355    0.1476374 -33.89 0.0004742969    1.161    0.139
        44 -11.2658      8.9970    135.5217   1.3687576063e+02   4.6390031556e+01    0.2550502    0.1603581  74.10 0.0003637489    1.486    0.327
        45 -10.9666      3.0593    133.0982   1.3873306633e+02   4.7392756150e+01    0.3807823    0.1418993  32.65  0.001630211    2.415    0.586
        46  -9.9773     35.1175    130.9391   1.2732589864e+02   4.5372413880e+01    0.2230737    0.1580562 -40.59 0.0005886245    1.628    0.386
        47 -11.7205     11.4605    129.3639   1.3557443464e+02   4.7825014712e+01     0.463394    0.2018216  46.17  0.002006879    2.166    0.538
        48 -10.3241     28.9344    128.2694   1.2922336382e+02   4.6691307616e+01    0.1912978    0.1746766  51.27 0.0003427954    1.082    0.076
        49  -9.4505     20.7227    125.5474   1.3190895390e+02   4.8134112284e+01    0.1961952    0.1154161  38.84 0.0009386286    1.635    0.389
        50 -11.9891     22.9590    120.7997   1.3057252716e+02   4.9209351685e+01    0.6929427    0.2762928  58.41  0.002198715    3.040    0.671
        51 -10.2401      8.1574    121.1994   1.3612283077e+02   5.0182164250e+01    0.1913829    0.1383318  62.95 0.0004109076    1.315    0.240
        52  -9.4168    119.4483    115.5048   9.6059775303e+01   3.5501517200e+01    0.1547837    0.1514424  47.16 3.381024e-05    1.017    0.016
        53 -10.9505     72.2629    112.9975   1.1069982396e+02   4.5138588613e+01     0.259103     0.212561  44.90 0.0003094627    1.188    0.158
        54 -10.9185     65.2616    110.9237   1.1282150267e+02   4.6792197996e+01    0.4149609    0.1878036 -62.61  0.001080411    2.272    0.560
        55 -11.9184      3.7943    108.7643   1.3679746974e+02   5.3696177838e+01    0.3795892    0.3044141  29.72  0.001735569    1.328    0.247
        56 -11.3059     57.2693    108.0404   1.1525630958e+02   4.8734546101e+01    0.3653965    0.2227782  13.77  0.001506671    2.093    0.522
        57 -10.8440     20.4220    112.6918   1.3061589494e+02   5.1575404046e+01    0.2803503    0.1373032  36.77 0.0007906804    1.979    0.495
        58 -10.3596     89.9839    104.7758   1.0248733711e+02   4.4015498264e+01    0.2170717    0.1271795  38.77 0.0005482347    1.670    0.401
        59 -10.6944     18.5971    104.6272   1.3037391041e+02   5.3862995011e+01    0.2539833    0.1207616  -7.44   0.00095278    3.150    0.683
        60  -9.9562    113.5145    102.4992   9.4396131447e+01   3.9696190647e+01    0.1571876    0.1524398  60.69 5.571789e-05    1.001    0.001
        61  -9.2396    186.9999    103.2519   7.7696486915e+01   2.3332262971e+01    0.1690473    0.1213723  52.92 0.0005513184    1.487    0.327
        62  -9.5036    139.0082     99.0406   8.6569008053e+01   3.4728154530e+01    0.1839003    0.1786559 -60.41 0.0003253647    1.033    0.032
        63 -10.4151     62.1430     98.6405   1.1123696362e+02   5.0441446190e+01    0.2693776     0.209456 -75.10  0.001303217    1.376    0.273
        64 -11.0461     99.7388     95.6460   9.6770132153e+01   4.4202515872e+01    0.5523722    0.3151714  61.99  0.002010963    2.413    0.586
        65 -10.2805      3.7426     95.2636   1.3563557211e+02   5.7241062867e+01    0.2380673    0.1830282 -48.89 0.0003932196    1.289    0.224
        66  -9.9311     78.9231     94.6760   1.0375102695e+02   4.8569207219e+01    0.2160365    0.1921073  40.19 0.0002739413    1.106    0.096
        67 -11.2125     18.2109     94.9167   1.2924614146e+02   5.6468082980e+01    0.3503205    0.1922235  22.54  0.001416619    1.898    0.473
        68 -11.5875     11.1891     90.8535   1.3184530665e+02   5.8003906342e+01    0.6402022    0.2088718 -72.57  0.002397035    2.653    0.623
        69 -10.2371     29.2312     92.3662   1.2391703972e+02   5.6220478643e+01    0.3341356    0.2349717  19.76 0.0009608678    1.510    0.338
        70 -10.5879     25.0056     89.5161   1.2533034904e+02   5.7352606230e+01    0.4290515    0.2570715  69.27   0.00191862    2.033    0.508
        71 -10.8076     57.8193     91.8054   1.1132506871e+02   5.2847597466e+01    0.3044932    0.2495327 -18.57 0.0008123759    1.419    0.295
        72 -11.1316     18.5766     87.5752   1.2798244361e+02   5.8375668787e+01    0.4425645    0.3120349 -76.61  0.001921962    1.345    0.256
        73 -10.9878     76.5275     89.2874   1.0315789484e+02   5.0319397642e+01    0.2946942    0.2622193  34.89 0.0005681774    1.120    0.107
        74 -10.4966    107.8521     89.0780   9.2300595137e+01   4.3916316714e+01    0.2401916    0.2134764  82.83 0.0004099197    1.210    0.173
        75  -9.5232     43.4720     89.4817   1.1695465869e+02   5.5420264779e+01    0.3335949   0.06319211  41.52  0.000809708    5.609    0.822
        76  -9.5462     33.1940     88.1138   1.2130532503e+02   5.6944382024e+01    0.1825256    0.1047556 -63.91 0.0004306316    1.631    0.387
        77 -11.3289     54.8434     84.7737   1.1078108703e+02   5.5069095613e+01    0.3532203    0.2807155 -87.44  0.001187034    1.456    0.313
        78  -9.8314     72.9750     84.3915   1.0312546836e+02   5.2148700813e+01    0.3808598     0.259259 -17.10  0.001552591    2.208    0.547
        79 -11.5549    146.1076     83.4190   8.0536211404e+01   3.6112997460e+01    0.2641933    0.2381176 -48.23 0.0002660304    1.108    0.097
        80 -10.6672      3.9079     82.1337   1.3417128485e+02   6.0655517596e+01    0.4561045    0.2040013 -82.45  0.001871023    2.128    0.530
        81 -11.3283     64.6400     80.1697   1.0528035600e+02   5.4635121654e+01    0.5461923    0.3238824 -65.31  0.002263931    1.972    0.493
        82  -9.7727     42.2978     81.9229   1.1570505983e+02   5.7506668837e+01    0.2018729    0.1778859 -56.85 0.0004520008    1.099    0.090
        83 -10.2050     89.1026     80.5614   9.5895141410e+01   4.9867481027e+01    0.2915401    0.2209355 -71.07 0.0007533189    1.587    0.370
        84  -9.4983    124.4057     79.1657   8.4550629416e+01   4.2138171384e+01    0.2167109    0.1434958 -54.98 0.0004977806    1.652    0.395
        85  -9.6811     85.4426     78.9329   9.6699990729e+01   5.0992451611e+01    0.2358019    0.1531242 -48.25  0.001022002    1.579    0.367
        86 -10.2898    176.9743     76.9962   7.2767139730e+01   2.9954356504e+01    0.2280525    0.2124827 -63.47  0.001312673    1.005    0.005
        87  -9.9708     28.1299     77.0295   1.2139133405e+02   6.0313384166e+01    0.1995683      0.19025 -67.64  0.000333824    1.035    0.034
        88  -9.6798    170.1902     76.2263   7.3726370269e+01   3.1658101544e+01    0.2084762    0.1635378 -67.63 0.0007241432    1.347    0.258
        89 -11.0491     56.0986     75.0409   1.0747362246e+02   5.7272175234e+01    0.4241199    0.3418838  13.16   0.00130168    1.358    0.264
        90  -9.3428    160.6952     75.2986   7.5210268382e+01   3.4067022191e+01    0.1515978    0.1110623 -72.66 0.0001826213    1.588    0.370
        91 -11.8443     32.1757     73.0428   1.1843048329e+02   6.0920643250e+01     0.402756     0.232615  42.65  0.001838338    1.864    0.464
        92 -11.1472     36.3081     71.7176   1.1600244991e+02   6.0795852469e+01    0.4776637    0.3526368 -76.84  0.001517546    1.485    0.327
        93  -9.1773    136.5303     74.4636   8.0079820164e+01   4.0092921603e+01    0.1527069    0.1467712  80.31  0.000102022    1.014    0.014
        94 -10.8604     16.0123     75.6829   1.2723573260e+02   6.1648583250e+01    0.3009085    0.1929614  12.68  0.001524707    1.688    0.408
        95 -10.4171     92.6298     72.6824   9.2098013851e+01   5.0828496172e+01    0.3563804    0.2249475  50.02  0.001314616    1.559    0.358
        96  -9.4164    217.0114     72.0210   6.5884145196e+01   2.2049445437e+01    0.1601791    0.1303664 -43.87 0.0004648115    1.064    0.060
        97 -10.3244    105.9163     71.7930   8.7465730412e+01   4.7994634565e+01    0.2457249    0.2286922 -41.07 0.0004696651    1.126    0.112
        98  -9.2839     81.3160     72.6721   9.6199611335e+01   5.3232399643e+01    0.1572545    0.1223771  82.21 0.0007045097    1.676    0.403
        99 -10.8747      6.6573     75.2631   1.3193127846e+02   6.2301749231e+01    0.3314263    0.1453296 -50.08  0.001458833    2.046    0.511
       100  -9.2970     46.7996     69.3566   1.1012140350e+02   6.0029573770e+01    0.2069657    0.1372255  16.27  0.000947871    1.705    0.413
       101 -11.0321     14.0819     64.0485   1.2603493286e+02   6.4732244620e+01    0.3255363    0.2024963  84.79 0.0003298532    1.931    0.482
       102 -10.8947     34.3307     65.0572   1.1519783791e+02   6.2664522590e+01    0.3003007    0.2365478 -39.35 0.0005209015    1.238    0.192
       103 -10.9691     39.0061     62.9375   1.1210279019e+02   6.2613150391e+01    0.7027789    0.2091291 -44.45  0.001954111    3.679    0.728
       104 -10.0611    133.4874     65.5384   7.8006049081e+01   4.2453903740e+01    0.1521403    0.1455054  69.07 6.385274e-05    1.043    0.041
       105 -10.6812     75.8855     64.8237   9.5608960558e+01   5.6040527609e+01    0.2156656    0.1959007  13.50 0.0002950875    1.162    0.139
       106 -11.1782      9.9923     60.0411   1.2754888912e+02   6.5980372150e+01    0.2305068    0.1905379 -39.37 0.0003507104    1.131    0.116
       107 -11.4892      2.5141     60.0610   1.3187910698e+02   6.6328939399e+01    0.3275921    0.1850431  51.49  0.001556854    2.100    0.524
       108 -10.9000     62.6823     62.6415   1.0043117878e+02   5.9037073088e+01    0.3175214    0.2960422 -11.72  0.001751499    1.096    0.088
       109 -10.4061     65.9651     60.7210   9.8280782464e+01   5.8854602859e+01    0.2583109     0.222345 -57.76 0.0005926456    1.242    0.195
       110 -10.7988    100.6817     61.9085   8.5691562121e+01   5.1165633679e+01    0.2710338    0.2320679  71.83   0.00033645    1.222    0.182
       111 -10.8535     55.4585     60.0071   1.0283751578e+02   6.0873407028e+01    0.4083756    0.3159845  -2.76  0.001385757    1.547    0.353
       112 -11.8474     83.5662     56.8967   8.9709402399e+01   5.6046047014e+01    0.2960365    0.2630821  64.76 0.0003454355    1.172    0.147
       113 -11.8622     88.1091     53.2167   8.6647138301e+01   5.5731067175e+01    0.5607355    0.4191767  52.10  0.002421404    1.285    0.222
       114  -9.5173     71.5961     56.7272   9.4368391183e+01   5.8601632773e+01    0.1997647    0.1436469 -56.89 0.0009344856    1.570    0.363
       115 -10.4952     33.9516     54.1629   1.1204638180e+02   6.5302676385e+01    0.3625285    0.1974398 -36.46 0.0009439839    1.990    0.498
       116 -11.7116     17.2668     33.0990   1.1512296324e+02   7.1791325911e+01    0.8549643    0.3854234 -12.18  0.002962888    3.844    0.740
       117 -10.4433     25.9523     29.6605   1.0743948465e+02   7.1602325419e+01    0.2165995    0.1985449 -42.05 0.0004147064    1.168    0.144
       118 -13.4815      5.8860     50.7990   1.2812503088e+02   6.8461374121e+01      0.54826    0.3283013 -22.53 0.0007155068    1.727    0.421
       119 -11.3030     18.1905     44.6336   1.1854707234e+02   6.9121950859e+01    0.7112962    0.3964148  44.34  0.003373827    2.169    0.539
       120 -10.8956     22.9350     38.5034   1.1325305636e+02   7.0065364047e+01    0.2589046    0.2202893  33.41 0.0004167271    1.278    0.217
       121 -11.4309     26.6730     35.0798   1.0935678483e+02   7.0395150457e+01    0.3845205    0.2446763 -23.89  0.001263544    1.729    0.422
       122 -11.5479    114.8077     53.8477   7.8696528753e+01   4.9172513776e+01    0.3386783    0.3121517  75.01 0.0007558673    1.044    0.042
       123  -9.5347     48.4884     58.4357   1.0571099178e+02   6.2338927791e+01    0.1416859    0.1368215   0.19 0.0001842971    1.018    0.018
       124 -13.6589     20.0938     57.5022   1.2106615878e+02   6.5907654907e+01      0.44574    0.3873979 -64.59  0.001433227    1.135    0.119
       125  -9.7936    225.5240     53.9774   6.0825167558e+01   2.2805355301e+01    0.2009727    0.1077724 -34.65 0.0008866923    1.628    0.386
       126  -9.5391    163.0006     54.2142   6.8726045898e+01   3.6891760195e+01     0.195391    0.1135564  64.82 0.0005600788    1.698    0.411
       127  -9.7573    105.5082     52.9978   8.0975485192e+01   5.1631278796e+01     0.257746    0.1880293  54.49  0.001026349    1.295    0.228
       128 -11.9062     66.4563     52.7013   9.4999952319e+01   6.0440543594e+01    0.5992401    0.2386969  37.95  0.002124657    2.566    0.610
       129  -9.2748    144.7022     52.3485   7.1406594749e+01   4.1790989341e+01    0.1583841    0.1078169 -67.97  0.000703531    1.682    0.405
       130  -9.3371     98.2896     50.6694   8.2277537769e+01   5.3796982672e+01    0.1526608    0.1180836 -78.54 0.0002490843    1.623    0.384
       131 -11.2028     77.0394     47.5740   8.8497878998e+01   5.9248947267e+01    0.5159478    0.3642162  -0.14  0.002263105    2.106    0.525
       132  -9.4440     53.5847     48.1425   9.9207782133e+01   6.3743951480e+01    0.2005048    0.1306096 -35.34 0.0009379284    1.635    0.388
       133  -9.6408    154.5680     47.5589   6.8126521345e+01   3.9992063251e+01    0.1457324    0.1325176 -80.99 9.202147e-05    1.011    0.011
       134 -10.3157    104.0911     46.3917   7.8888516001e+01   5.3100370037e+01    0.3137874    0.2216907  24.70  0.001400015    1.861    0.463
       135  -9.7511    135.2480     46.2080   7.1267616808e+01   4.5158177182e+01    0.2059043    0.1621972 -84.74 0.0006311471    1.329    0.248
       136  -9.7589     30.5243     45.5040   1.1102223866e+02   6.7680440028e+01    0.1969552    0.1351404 -70.44 0.0006623116    1.757    0.431
       137 -10.7437     25.9618     43.4635   1.1312129947e+02   6.8648393201e+01     0.337738    0.2640204  12.66  0.001667961    1.282    0.220
       138 -10.2174    180.8138     41.4935   6.2558051389e+01   3.4320506825e+01     0.348977    0.1986088 -22.35  0.001376768    2.132    0.531
       139  -9.8241    110.8391     42.9043   7.5704445611e+01   5.1956887300e+01    0.2151337    0.1903123  41.51 0.0002816961    1.170    0.145
       140  -9.6328     94.9948     42.3185   8.0002137400e+01   5.6005481542e+01     0.208715    0.1812111  53.01 0.0007626651    1.075    0.070
       141  -9.9984     69.7812     41.8374   8.9002270326e+01   6.1849635088e+01    0.2966959    0.1797392 -16.17  0.001168386    2.633    0.620
       142 -10.3338      2.8310     42.1426   1.2822138802e+02   7.0668619404e+01    0.3317506    0.1412584 -10.05  0.001421744    2.716    0.632
       143 -10.8903    139.8262     40.6722   6.8521053577e+01   4.4772601568e+01    0.3052568    0.2291016 -87.29 0.0006444775    1.382    0.276
       144 -10.0956     36.0143     41.2779   1.0602770665e+02   6.7903560489e+01    0.2593079    0.1873292   5.81  0.001349046    1.515    0.340
       145 -12.1620    121.7381     37.4113   7.1030370899e+01   4.9955216311e+01    0.5218811    0.4391343  82.43  0.001440219    1.152    0.132
       146 -10.0580    127.7121     38.6979   7.0217006964e+01   4.8213094753e+01    0.2238388     0.176416  70.76 0.0003743938    1.186    0.157
       147  -9.3283     51.3045     39.6766   9.6727135373e+01   6.5835531183e+01    0.1358818    0.1136972  79.68 0.0003703381    1.639    0.390
       148 -10.8268      3.3815     34.9897   1.2602525063e+02   7.2309737181e+01    0.4382861    0.2193098 -38.17  0.002191459    1.799    0.444
       149 -10.9278    134.2521     34.2974   6.7382950865e+01   4.7102012688e+01    0.2497208    0.2003188  41.92 0.0004264515    1.389    0.280
       150 -10.4487     90.1102     32.6780   7.7461873397e+01   5.8690329031e+01    0.4234821    0.2668591 -63.75 0.0008874591    2.281    0.562
       151  -8.9030     50.3207     33.6380   9.4412193064e+01   6.7146776236e+01    0.1372197    0.1129379  84.99  0.000704199    1.775    0.437
       152 -10.7071    166.2533     31.1643   6.1439881340e+01   3.9230080806e+01    0.2391353    0.1974768 -57.53 0.0003867291    1.127    0.113
       153 -11.2178     39.0378     30.8739   9.9467414672e+01   6.9556007979e+01    0.3088312    0.2442384   8.98  0.000811001    1.275    0.216
       154 -11.0937     43.5231     30.4918   9.6618054113e+01   6.8903431227e+01    0.6693395    0.3318386 -34.73  0.002895638    2.241    0.554
       155  -9.5783    186.9946     30.4974   5.8867581809e+01   3.4232614849e+01     0.194112   0.09677852 -74.87 0.0008089156    2.416    0.586
       156 -10.7961      8.0979     28.7045   1.2041860670e+02   7.3461732500e+01    0.2949312    0.2178599  43.19  0.001733031    1.637    0.389
       157  -9.8225     69.8299     28.8205   8.2919879606e+01   6.4013776699e+01    0.2153633    0.1841932  21.23 0.0005048404    1.195    0.163
       158 -10.1717    147.0619     26.4727   6.2611569200e+01   4.4729636107e+01    0.2219152    0.1780767 -56.16 -9.336945e-05    1.213    0.176
       159 -10.5498     17.7633    249.2372   1.3984206790e+02   2.0189899596e+01    0.1555313    0.1206192 -24.86  0.001057754    2.073    0.518
       160  -9.4367     18.3186     26.3487   1.1148835976e+02   7.3121071488e+01    0.1412724   0.08564618 -25.20 0.0007048369    1.734    0.423
       161  -9.8194    153.7486     25.4779   6.1344072458e+01   4.3109865733e+01    0.2559154    0.1307954  78.45 0.0007409977    1.944    0.486
       162 -10.3638    113.9046     24.6104   6.7850845755e+01   5.3694984639e+01    0.2704991    0.2272515 -30.40  0.001010837    1.318    0.241
       163 -10.5235     58.7307     24.6070   8.5602456639e+01   6.7040968692e+01    0.3600568     0.217614  25.95  0.001625996    2.005    0.501
       164  -9.6735     89.5028     23.1204   7.3357682179e+01   6.0155038807e+01    0.2025362    0.1447596 -27.90  0.001018665    1.548    0.354
       165 -10.3264      1.8886     21.8773   1.2310679150e+02   7.5303370217e+01    0.2478419    0.1637701 -66.05 0.0008628507    1.513    0.339
       166 -11.0830     13.7691     21.0209   1.1261166998e+02   7.4645412654e+01    0.3107106    0.2382798  45.06  0.001400359    1.630    0.386
       167 -10.1066     20.1242     16.7941   1.0520375639e+02   7.4800897026e+01    0.2226274    0.1587852  20.89 0.0004723986    1.336    0.252
       168 -11.0019     14.4624     16.0247   1.0948195669e+02   7.5567139751e+01    0.3948776    0.1986354  27.25  0.001419726    1.934    0.483
       169 -10.1755    229.3216     26.2216   5.4255559853e+01   2.5427151974e+01    0.1698607    0.1410206 -22.29  0.001083106    1.442    0.306
       170 -10.2250     30.8368     20.5040   9.9311850724e+01   7.2703182016e+01    0.2565947    0.1701298 -32.75  0.001016309    1.507    0.336
       171  -9.7834    174.5323     20.5400   5.7403618477e+01   3.8411789027e+01    0.1373178    0.1156865 -73.21 7.281503e-05    1.020    0.020
       172  -9.3349    131.7325     20.6383   6.2997772357e+01   4.9444790130e+01    0.1414506    0.1046258  34.22 0.0006992202    1.646    0.392
       173 -10.3728    100.1332     19.0724   6.8694840965e+01   5.7945181639e+01    0.3133704    0.2188663 -61.88  0.001536518    1.682    0.405
       174  -9.8122    229.6645    248.0179   9.7117682816e+01  -4.4125921110e+00    0.1440642     0.101262  -6.67  0.000717078    1.141    0.124
       175  -9.0992     45.2674    244.3606   1.3378395133e+02   1.8284933527e+01    0.1015984   0.08778066 -20.03 0.0005299153    1.643    0.391
       176 -11.8489      6.1962    241.1091   1.4201492521e+02   2.2733196243e+01    0.2295854    0.1960326  25.45  0.001364378    1.382    0.276
       177 -10.5807      2.3372    239.6703   1.4278593560e+02   2.3336700945e+01    0.2490107   0.06727132  49.99  0.001218139    2.324    0.570
       178  -9.6686     69.0942     18.3076   7.7847443094e+01   6.5671707108e+01    0.1999247    0.1210084  63.71 0.0005968382    1.763    0.433
       179  -9.8214     63.9896     17.1181   7.9240190557e+01   6.6980855541e+01    0.3054648    0.1731293 -56.96  0.001246547    2.920    0.658
       180  -9.9966    199.5498     17.0119   5.4232768557e+01   3.2850078582e+01    0.1887303    0.1510678 -78.22 0.0003922676    1.101    0.091
       181 -11.7392    108.5198     16.2791   6.5612380344e+01   5.6070061268e+01    0.2414781    0.2112613  71.17 0.0002885825    1.017    0.017
       182  -9.7293     82.3085     17.3291   7.2781028429e+01   6.2651341308e+01    0.1479887    0.0994334  31.16 0.0002736367    1.661    0.398
       183 -10.0013     60.8073    240.9015   1.3015069688e+02   1.7172775946e+01    0.2187423    0.1316264  26.20 0.0009195016    1.483    0.326
       184  -9.5726    202.4799    240.4697   1.0067086689e+02  -5.9476476026e-01    0.1131201   0.08325086   8.36 5.016768e-05    1.005    0.005
       185 -11.0137     14.2015    238.8629   1.4026028875e+02   2.2431526824e+01    0.1808903    0.1122557  53.31 0.0004620612    1.209    0.173
       186 -10.0420     48.9656     16.1351   8.5693369683e+01   7.0276204891e+01    0.1948488    0.1819558  69.90  0.000596449    1.310    0.237
       187  -9.8082     26.9299     16.5604   9.9819195767e+01   7.3961214830e+01    0.1889379    0.1174721  30.48 0.0006467301    1.532    0.347
       188 -10.9060    231.5576     14.4358   5.1516090399e+01   2.6268128343e+01    0.1916078    0.1413082 -61.31 0.0001161098    1.076    0.071
       189  -9.8886    175.3942     14.6805   5.5658542434e+01   3.8834102122e+01    0.2162741    0.1260314 -64.14 0.0006655448    1.627    0.385
       190 -11.7808     26.4595    235.7992   1.3748850529e+02   2.1838613454e+01     0.290341    0.2451218  83.50  0.001603789    1.314    0.239
       191  -9.8339    190.5034     13.8970   5.4141704302e+01   3.5277588451e+01    0.1844307    0.1162358 -35.73 0.0006749021    1.515    0.340
       192  -9.6086    162.3107     13.0795   5.6481282247e+01   4.2276984517e+01    0.1847225    0.1583545 -73.55 0.0003702691    1.033    0.032
       193 -11.9704      4.1958    232.5132   1.4222346447e+02   2.4534489516e+01    0.3141801    0.1484266  45.44 0.0002427359    1.486    0.327
       194 -12.7794      9.9015    228.5694   1.4087306103e+02   2.4801487281e+01    0.5030539    0.3272943  80.88  0.001475827    1.483    0.326
       195  -9.0873    209.6837    229.6934   9.7851034123e+01  -9.8780471086e-02    0.1169961   0.06972456   0.51 0.0005048476    1.629    0.386
       196 -10.3323    140.2749    228.2442   1.1120358475e+02   9.0782692064e+00    0.2678688     0.143821 -41.82     0.001426    2.195    0.544
       197  -9.9189    249.1949    234.0982   9.2068338204e+01  -4.8766933571e+00    0.1557462   0.09953807  -2.29  0.000465661    1.172    0.146
       198  -9.7618    109.7085    226.6482   1.1777421945e+02   1.3549717232e+01    0.1239412    0.0921051  -5.81 0.0007028745    1.675    0.403
       199  -9.9257     33.2033    225.3561   1.3547884434e+02   2.3194909596e+01    0.3431062          nan  35.13  0.001100761    4.362    0.771
       200 -12.2286      8.1636    217.4417   1.4091857047e+02   2.7189003279e+01    0.3660887    0.2844464  75.30  0.002544186    1.214    0.176
       201 -10.6247     15.9247    213.0709   1.3895448484e+02   2.7403264967e+01    0.2738391    0.1908262  -5.06  0.001586619    2.126    0.530
       202 -10.4240     20.5958    209.9652   1.3770531531e+02   2.7623779548e+01    0.2347863    0.1227272  44.85 0.0003425223    1.472    0.321
       203 -10.8890      3.4636    205.1659   1.4163956300e+02   3.0160354744e+01    0.2246385    0.1564152  -0.28  0.001338706    1.996    0.499
       204  -9.6550    196.8536    203.8629   9.6151875705e+01   5.0103533673e+00    0.1510448    0.1407551   9.33  0.000581327    1.345    0.256
       205 -11.3203      9.5073    203.4945   1.4012715151e+02   3.0015079582e+01    0.2276047    0.1748753  50.77 0.0008428528    1.045    0.043
       206  -9.1772    123.4516    198.4747   1.1093921355e+02   1.6803801052e+01    0.1372259    0.1184331  27.55 0.0002288066    1.011    0.011
       207 -10.4802     23.0423    197.4478   1.3648176410e+02   3.0119632934e+01    0.2099876    0.1661204 -65.64  0.000485451    1.470    0.320
       208 -11.5256     13.7263    192.9947   1.3864820590e+02   3.1971990649e+01    0.2409933    0.1866404 -69.04 0.0008940707    1.459    0.315
       209  -9.3588     19.3005    192.6494   1.3719437511e+02   3.1550384161e+01    0.1421462   0.07173662  56.68 0.0007037968    1.694    0.410
       210 -10.5090      6.1801    191.7899   1.4052617840e+02   3.2878034058e+01    0.2012285    0.1335116  55.82  0.001018883    1.212    0.175
       211  -9.9536     15.4326    185.6830   1.3785904518e+02   3.3494134958e+01    0.2378088    0.1116466  87.76  0.001127668    2.112    0.526
       212 -11.5018      5.4386    167.9382   1.3976602402e+02   3.8505486195e+01    0.3243107    0.1938551  61.44  0.001291235    1.441    0.306
       213  -9.4964    226.4247    163.8286   8.3965143195e+01   6.6894164026e+00     0.170143   0.09890646 -23.82 0.0005145652    1.610    0.379
       214 -10.2213     14.5187    163.9780   1.3694114400e+02   3.8764136072e+01    0.1911773   0.08347124 -54.83 0.0008103833    2.603    0.616
       215  -9.2018     41.5055    158.0033   1.2827471872e+02   3.7651766782e+01    0.1983171    0.1014494  69.99 0.0008050578    2.273    0.560
       216  -9.5001    247.5000    155.5150   7.9286495835e+01   4.9168321800e+00    0.1176638   0.09196575 -16.95 2.723672e-05    1.030    0.029
       217 -11.1238      2.9296    153.8174   1.3985812881e+02   4.2146031154e+01    0.2978915    0.1492634  32.71  0.001481536    1.828    0.453
       218 -10.8234     23.8241    150.8600   1.3317086169e+02   4.1261322801e+01    0.2781408    0.1956706  -6.33 0.0008855193    1.872    0.466
       219 -10.7817     22.4448    143.2594   1.3297492481e+02   4.3341710179e+01    0.2585935     0.119074 -71.28   0.00101308    2.024    0.506
       220 -11.0944     12.0734    141.3253   1.3624927767e+02   4.4673623615e+01    0.2259163     0.166606 -72.71 0.0004600333    1.304    0.233
