#   1 NUMBER                 Running object number                                     
#   2 MAG_AUTO               Kron-like elliptical aperture magnitude                    [mag]
#   3 X_IMAGE                Object position along x                                    [pixel]
#   4 Y_IMAGE                Object position along y                                    [pixel]
#   5 X_WORLD                Barycenter position along world x axis                     [deg]
#   6 Y_WORLD                Barycenter position along world y axis                     [deg]
#   7 A_WORLD                Profile RMS along major axis (world units)                 [deg]
#   8 B_WORLD                Profile RMS along minor axis (world units)                 [deg]
#   9 THETA_WORLD            Position angle (CCW/world-x)                               [deg]
#  10 FWHM_WORLD             FWHM assuming a gaussian core                              [deg]
#  11 ELONGATION             A_IMAGE/B_IMAGE                                           
#  12 ELLIPTICITY            1 - B_IMAGE/A_IMAGE                                       
         1 -12.3000    239.3243     62.9584   1.1359349331e+01   2.5501832342e+01      1.72625    0.7476414 -73.13   0.00998071    2.698    0.629
         2 -11.5491    233.1237     77.2750   1.3996813188e+01   2.4338482380e+01     0.661208    0.2154456 -45.54  0.002406588    2.566    0.610
         3 -11.8492    247.9896     49.4902   8.7984536743e+00   2.6113165400e+01     2.697308    0.7813556 -67.27  0.008269052    9.960    0.900
         4  -9.5403    197.7362     16.5050   6.9366106976e+00   3.7708656454e+01    0.2824416     0.124848 -71.45  0.001766199    1.921    0.480
         5  -8.3508    218.7485     10.0918   4.6055135971e+00   3.5061579527e+01    0.1371056    0.1110841  85.02 0.0007206674    1.606    0.377
         6  -8.2368    149.3224      8.8176   9.4101028067e+00   4.7265451219e+01    0.1568242    0.1018163 -82.65 0.0004894767    1.167    0.143
         7  -8.0679    101.5097      8.0571   1.5317351637e+01   5.6940810881e+01    0.1679835    0.1216473  79.70 0.0003553533    1.064    0.060
         8  -6.8927    233.3258      5.3395   3.1561633927e+00   3.3388443265e+01   0.07473046   0.06502749 -80.36 0.0004453171    1.728    0.421
         9  -8.5401    192.3915    194.2070   3.6936606388e+01   9.3742989625e+00    0.2113105    0.1459002 -72.81  0.001209796    1.937    0.484
        10  -7.7575    249.5133    250.0116   3.5876298791e+01  -4.1223224364e+00    0.1162888   0.07459662 -62.96 0.0006636888    2.445    0.591
        11  -9.8629    218.3577    185.1871   3.1706668373e+01   8.4488809783e+00    0.3014765    0.2096034 -24.41  0.002105871    1.600    0.375
        12  -8.7743     95.0901    182.0239   5.5959878386e+01   2.3829913969e+01    0.3201535    0.2371262 -35.37  0.001090969    1.445    0.308
        13  -7.9732    245.8727    181.6929   2.7671968879e+01   6.5555950188e+00    0.1881648   0.09694574 -44.95  0.001165631    1.365    0.267
        14  -7.2303    209.2917    182.3277   3.2596292591e+01   9.8373695362e+00    0.1143009   0.07059673 -32.96 0.0007018481    1.622    0.383
        15  -8.0920     18.4716    180.4964   7.9382707062e+01   3.2938439260e+01    0.1511692    0.1399829  61.00   0.00025062    1.046    0.044
        16  -9.1564    220.4580    174.4199   2.9888010116e+01   1.0107242790e+01    0.4023257    0.2218442 -71.68  0.001564307    3.203    0.688
        17  -7.8329     33.6696    177.0811   7.4008256299e+01   3.2518671644e+01     0.209758    0.1838959 -64.95 0.0003613792    1.139    0.122
        18  -8.9221    189.5084    165.4028   3.3087512059e+01   1.5135427516e+01    0.3874678    0.2241303 -40.45  0.002121129    1.616    0.381
        19 -11.2174    196.3871    171.7900   3.2984090113e+01   1.3133679095e+01    0.4736401    0.2973638 -56.10  0.001634805    1.353    0.261
        20 -10.4116    204.8306    167.7647   3.1109276583e+01   1.2930654198e+01    0.5200359    0.3719211 -50.55  0.003579272    1.081    0.075
        21  -9.6389    230.8503    168.1543   2.7644524039e+01   1.0144192452e+01    0.3636992    0.1559287 -53.82  0.002026786    1.831    0.454
        22  -8.8421    185.2789    169.0158   3.4333118303e+01   1.4948623390e+01    0.3746908    0.1713067 -60.05  0.001488881    2.239    0.553
        23  -8.3426    221.3944    162.6738   2.8068991581e+01   1.2038272745e+01    0.2166304    0.1598265 -84.95 0.0007615435    1.856    0.461
        24  -7.5167     76.0618    162.0232   5.8330475573e+01   3.1598820413e+01    0.1742175    0.1714565  74.75  0.000319811    1.014    0.014
        25 -11.8272    238.5992    144.5631   2.3376716791e+01   1.3245253076e+01     1.979678    0.6176111 -45.36    0.0100158    2.495    0.599
        26 -10.3525    249.5518    140.4190   2.1619545535e+01   1.2764072657e+01    0.7022592    0.1791691 -49.94   0.00297054    2.707    0.631
        27 -11.2139    198.7413    108.1976   2.2520368824e+01   2.4326941086e+01    0.8422889    0.3104506  59.65  0.003925703    3.650    0.726
        28  -7.7993    220.7838    247.7713   3.9641039257e+01  -2.1084697088e+00    0.1359355    0.1188482 -87.05  0.001071065    2.051    0.512
        29 -12.0302    241.7198     80.6094   1.3777485840e+01   2.2722170479e+01    0.8441707    0.6175966 -38.59  0.006554016    1.922    0.480
        30 -10.3366    249.8076     85.7569   1.3869799669e+01   2.0966364034e+01    0.3341598    0.1542417 -48.97 0.0005782905    1.593    0.372
        31 -10.2779    245.2901    125.1070   1.9897544583e+01   1.5612641162e+01    0.3172958    0.1991732 -61.04 0.0005177073    1.250    0.200
        32 -13.3522    240.8934    116.6278   1.9115534758e+01   1.7434650269e+01      2.89711     1.193755  40.74   0.01458896    5.321    0.812
        33 -10.1150    153.5369    151.2213   3.7121074727e+01   2.2750079691e+01    0.4993941    0.3459576 -72.30  0.002706154    1.561    0.359
        34  -9.1676    149.0280    150.4806   3.7886592403e+01   2.3566220463e+01    0.3630596    0.2390167  35.71  0.001940762    1.778    0.438
        35  -8.8086     18.6294    152.0085   7.6504452143e+01   4.1039588623e+01    0.3150611    0.2073244   5.27  0.001348373    1.660    0.398
        36  -8.4872    134.4014    148.6434   4.0643745432e+01   2.6165336776e+01    0.3393574      0.12075 -53.60  0.001284881    2.518    0.603
        37  -8.7550    133.1279    141.3185   3.9607489167e+01   2.7991842183e+01    0.6659179    0.1888102 -60.96  0.001774072    5.414    0.815
        38  -8.9370    191.6593    151.7744   3.0613503390e+01   1.7448213542e+01    0.2541522     0.170446 -65.64 0.0004979628    1.453    0.312
        39  -8.8693     68.2634    143.8374   5.7771704950e+01   3.7509799354e+01    0.4753208    0.2707589  56.90  0.001772678    2.114    0.527
        40  -9.0629    156.6219    141.0578   3.4767225497e+01   2.4416602291e+01    0.2433916    0.1949574 -38.42  0.001458931    1.361    0.265
        41  -7.9843     18.2090    141.9383   7.5501015679e+01   4.3921835008e+01    0.2238723    0.1908979  62.02 0.0003716755    1.202    0.168
        42  -6.8813     60.2759    139.2814   5.9651444646e+01   3.9842843832e+01    0.1484547    0.1147308 -29.33 0.0002148669    1.503    0.335
        43 -10.5900      7.7547    137.0282   7.9025929325e+01   4.6123608023e+01    0.2990317    0.2449173  10.02 0.0002411775    1.255    0.203
        44  -9.3134    157.3219    136.2207   3.3784024356e+01   2.5303011976e+01    0.2476785    0.1950979  77.52            0    1.426    0.299
        45  -8.6908    170.0746    135.0153   3.1312094958e+01   2.3627980452e+01    0.1925857    0.1577267 -62.98 0.0003656146    1.025    0.024
        46  -8.9956    160.6680    129.1834   3.1922297517e+01   2.6206067862e+01    0.2674642    0.2082107 -83.40  0.001616072    1.328    0.247
        47 -10.4536      2.2366    121.0632   7.9532866058e+01   5.0897544637e+01    0.7364838    0.2906742 -76.39   0.00274055    2.547    0.607
        48  -7.1855     91.0073    123.9901   4.6971567729e+01   3.8946933562e+01    0.1693859    0.1591505  88.30 0.0009476585    1.006    0.006
        49 -10.6456     47.3707    120.2338   6.0889497147e+01   4.6610917991e+01     1.022075    0.4950706 -59.79  0.003241945    2.022    0.506
        50 -10.3151     31.4123    118.8705   6.6939976224e+01   4.8932241145e+01    0.5498294    0.3197398  21.21   0.00121387    1.723    0.419
        51  -7.6457     85.1642    119.3027   4.7755001304e+01   4.1043738393e+01    0.1962912    0.1723182  49.30 0.0005056672    1.121    0.108
        52 -10.2326    149.7384    144.7912   3.6752694216e+01   2.4671741306e+01    0.5389548    0.3917953 -28.70  0.002907751    1.782    0.439
        53 -11.2043     39.8750    117.8715   6.3363430579e+01   4.8193133908e+01    0.8669754    0.7657487 -57.25  0.003346008    1.146    0.128
        54 -10.2946    187.0326    109.0764   2.4218862856e+01   2.5912707582e+01    0.5054094    0.2191097 -44.68 0.0006014101    2.212    0.548
        55  -8.0121    150.1495    112.0244   3.0657627080e+01   3.1309612180e+01     0.277503    0.1381483 -52.14  0.001337559    1.798    0.444
        56  -8.1672     63.6467    112.6797   5.3424475680e+01   4.6145342619e+01    0.1518842    0.1146845 -19.48 0.0005231086    1.750    0.429
        57  -8.4594     60.3268    111.3233   5.4324559129e+01   4.6989992697e+01    0.1502873    0.1140184 -21.87  0.000477885    1.691    0.409
        58  -9.1658     55.4062    111.1163   5.6081914853e+01   4.7782748001e+01    0.2422842    0.1977956  21.75 0.0005717706    1.281    0.219
        59  -9.7484    179.0242    109.6626   2.5463015537e+01   2.7040746821e+01    0.3617495    0.2357726  58.17  0.001181944    1.739    0.425
        60  -9.8764    159.6904    104.3985   2.7532279628e+01   3.1147841627e+01    0.3375749    0.2338654 -80.12 0.0006353447    1.487    0.328
        61  -7.9698    135.0256    105.2620   3.2257557056e+01   3.5278817861e+01    0.1859452    0.1611454  71.54   0.00108686    1.152    0.132
        62  -8.1807    143.9759    103.3786   3.0125127670e+01   3.4056925759e+01    0.2325642    0.1591005 -70.53 0.0006456957    1.415    0.293
        63 -10.6024    178.0904    101.1968   2.4093914093e+01   2.8694584665e+01     0.343646    0.2619781 -54.46  0.001482505    1.213    0.176
        64 -10.3185    218.0476     96.8048   1.8444404679e+01   2.3458442111e+01    0.3400133    0.2491541  43.14  0.002416291    2.272    0.560
        65  -8.7448     60.9625     99.9087   5.1622322539e+01   4.9608907635e+01    0.2082199    0.1993649  55.76 0.0003218538    1.018    0.017
        66  -7.9548     20.1322    227.1612   8.2423098979e+01   2.0087140106e+01    0.2037327    0.1836695 -29.85 0.0003472284    1.222    0.182
        67  -8.2946    218.9836     89.2261   1.7152061071e+01   2.4508493591e+01     0.161966     0.108785 -71.15 0.0004889346    1.236    0.191
        68  -8.1595    113.1145     89.2189   3.3621836370e+01   4.2487026497e+01    0.1836534    0.1734859  80.51 0.0004222581    1.163    0.140
        69  -8.8357    227.1275     86.0652   1.5871832820e+01   2.3862296098e+01    0.1504486    0.1128043 -53.61 0.0004370313    1.299    0.230
        70  -8.4171    218.5253     82.1561   1.6077790639e+01   2.5649979065e+01    0.1493151    0.1220666 -60.44 0.0002706124    1.300    0.231
        71  -9.7793    226.1399     79.6494   1.4972255575e+01   2.4950693664e+01    0.2343891     0.164932 -52.01 0.0005238203    1.322    0.244
        72  -9.6309    183.1235     79.1718   1.9457548297e+01   3.1572454792e+01    0.3654041    0.2342287  49.39  0.002247238    2.183    0.542
        73  -8.1647    153.9304     77.1336   2.3143476583e+01   3.6993421765e+01    0.1772363    0.1446225 -79.18 0.0003130078    1.022    0.021
        74  -8.5769    177.9220     75.0395   1.9356586632e+01   3.3103543015e+01    0.1844062    0.1379983 -72.28 0.0005565012    1.041    0.039
        75  -8.4610    222.6942     71.6394   1.4031704093e+01   2.6604152056e+01    0.1668819     0.132143 -46.75 0.0007913703    1.597    0.374
        76  -8.6223    223.4855     68.4941   1.3469547820e+01   2.6941457392e+01    0.1702763    0.1330615 -44.84 0.0005884088    1.667    0.400
        77  -7.9785    196.3494     70.8272   1.6457834949e+01   3.0716189884e+01    0.1752799    0.1010952 -59.57  0.001023401    1.343    0.256
        78 -12.2788    218.4637    107.4537   2.0071879052e+01   2.1701118576e+01    0.9709772    0.7232858  61.83  0.007070434    1.688    0.407
        79  -8.1796    164.6660     64.1581   1.9008433583e+01   3.7128770050e+01    0.2085445    0.1394369  86.37  0.001320053    1.389    0.280
        80  -6.8389    107.7303     63.6750   2.8837748920e+01   4.8165795348e+01    0.1127921     0.104636  17.49  0.000260069    1.573    0.364
        81  -9.7536     74.4695    224.1475   6.7055376971e+01   1.5683292140e+01    0.2732336    0.2265921 -37.57 0.0005022555    1.230    0.187
        82 -11.7568    245.3394     92.4297   1.5198297882e+01   2.0554303354e+01     0.774115    0.5910634 -57.11  0.004082154    1.248    0.199
        83  -8.3024    196.0419     52.8871   1.3377610823e+01   3.3369227410e+01     0.157618    0.1142616 -71.18 0.0002609442    1.025    0.025
        84 -10.0349    218.5189     44.2887   1.0041753237e+01   3.0980368641e+01    0.3534107    0.1853926 -63.11  0.001393825    1.386    0.278
        85 -10.3428    223.1853     40.8349   9.1566903565e+00   3.0723746266e+01    0.2645036    0.1893106 -66.41  0.002214442    1.142    0.124
        86  -7.8037    204.6801     42.8990   1.0901985710e+01   3.3320019186e+01    0.1499632   0.09698123 -62.66 0.0005009109    1.134    0.118
        87  -7.5572    180.5322     42.4648   1.3018659415e+01   3.7425357113e+01     0.180811   0.08480062  58.98  0.001035655    2.462    0.594
        88  -6.8633     99.4848     39.5023   2.4418888920e+01   5.3558705825e+01    0.1245449    0.1027339  77.37 -0.0001121897    1.024    0.023
        89 -11.7209    233.3931    107.1117   1.8458776808e+01   1.9824113102e+01    0.7287619    0.5363391  41.14  0.001521949    2.306    0.566
        90  -7.9469     81.0065     34.9981   2.7597752264e+01   5.7957795581e+01    0.1820866    0.1527131  68.28            0    1.035    0.033
        91  -7.1640    111.6780     27.2844   1.8771073868e+01   5.2664140811e+01    0.1218041   0.07642149 -83.38  0.000211552    1.595    0.373
        92  -9.0968    214.3757     24.9654   7.2330641697e+00   3.4032296882e+01    0.1660548    0.1149561  89.72 0.0006427936    1.321    0.243
        93  -8.4284    103.1726     24.6020   1.9603632876e+01   5.4745913764e+01    0.1798238    0.1475437 -71.74 0.0002395613    1.216    0.177
        94  -8.5972     86.9764     23.8881   2.2779628861e+01   5.8178107630e+01    0.1752312    0.1540262  88.99            0    1.142    0.124
        95  -8.0388     80.8674    222.9451   6.5214774276e+01   1.5301060336e+01    0.2118584    0.1788227 -21.70 0.0004145504    1.206    0.171
        96 -10.4405    245.8198     44.3847   8.1987935427e+00   2.7052592007e+01    0.4142855    0.2076606  64.27  0.001132927    2.553    0.608
        97  -8.2350    166.8465    214.8818   4.4414315353e+01   7.9672251887e+00    0.1818203    0.1513311 -39.45 0.0005784117    1.044    0.042
        98  -7.5624    214.4897    206.9941   3.5287705321e+01   5.0342531254e+00    0.1373951   0.08652393 -68.78 0.0004076494    2.299    0.565
        99  -8.9102     19.1046    199.0337   8.0719359262e+01   2.7691264824e+01     0.225397    0.2034001  19.37 0.0002921472    1.120    0.107
