#   1 NUMBER                 Running object number                                     
#   2 MAG_AUTO               Kron-like elliptical aperture magnitude                    [mag]
#   3 X_IMAGE                Object position along x                                    [pixel]
#   4 Y_IMAGE                Object position along y                                    [pixel]
#   5 X_WORLD                Barycenter position along world x axis                     [deg]
#   6 Y_WORLD                Barycenter position along world y axis                     [deg]
#   7 A_WORLD                Profile RMS along major axis (world units)                 [deg]
#   8 B_WORLD                Profile RMS along minor axis (world units)                 [deg]
#   9 THETA_WORLD            Position angle (CCW/world-x)                               [deg]
#  10 FWHM_WORLD             FWHM assuming a gaussian core                              [deg]
#  11 ELONGATION             A_IMAGE/B_IMAGE                                           
#  12 ELLIPTICITY            1 - B_IMAGE/A_IMAGE                                       
         1 -14.6646    214.0637    128.3710   7.4794701628e+01   1.2233300064e+01     1.729886     1.027639 -37.10  0.007723696    1.618    0.382
         2  -8.9627    180.5911     14.4920   4.8165614854e+01   3.7882082352e+01    0.1380907     0.131088  62.07 8.066972e-05    1.039    0.038
         3  -9.9164    101.5115    248.1542   1.1753259173e+02   1.2012792295e+01     0.233486    0.1387048  61.31  0.001491087    1.493    0.330
         4 -12.4682     77.1126    219.5723   1.1915989829e+02   2.0281749248e+01    0.6907258    0.4785702  39.59  0.003114131    1.513    0.339
         5 -12.8423     67.6656    217.9841   1.2073328982e+02   2.1835247784e+01     1.886414    0.7234441  66.21  0.007537753    3.923    0.745
         6 -10.6387    129.3665    204.8339   1.0740087015e+02   1.4995696172e+01    0.5128192    0.4121265 -79.23  0.003157289    1.403    0.287
         7  -9.5878      5.4859    169.4631   1.2863518435e+02   3.8247603729e+01    0.1115754   0.08174769  87.26 0.0008093239    1.013    0.013
         8  -8.4907     21.6658    159.3158   1.2451110990e+02   3.9029854241e+01    0.1238433   0.06987995  70.86  0.000415965    1.690    0.408
         9  -9.2602      8.0222    157.2980   1.2723154029e+02   4.0626213358e+01    0.1507353    0.1168752  81.33 0.0003584106    1.097    0.088
        10  -9.0973     14.5925    153.5582   1.2552190840e+02   4.0904036880e+01     0.116116   0.08695161 -87.53 6.639308e-05    1.011    0.011
        11  -9.6665      8.3885    150.1653   1.2657644328e+02   4.2144129829e+01    0.1736447   0.08383267 -88.10 0.0009558822    1.757    0.431
        12 -10.1669     21.6546    142.0938   1.2282931931e+02   4.2850652880e+01    0.1845686    0.1405081  67.84 0.0003686442    1.280    0.219
        13 -13.8744    233.6987    133.4052   7.2484050678e+01   7.2600056045e+00     1.676293     1.064023   7.89  0.007355083    2.132    0.531
        14 -10.9497     36.8626    131.4124   1.1784028135e+02   4.3888150005e+01    0.2528791    0.1482152 -64.24 0.0009738726    1.406    0.289
        15 -10.7447     32.1821    129.3832   1.1875513007e+02   4.4806419558e+01    0.2206099    0.1342868 -62.87 0.0006888704    1.365    0.268
        16 -13.9669    225.9656    108.3758   6.7684988243e+01   1.3000894274e+01     1.439358    0.7185847  59.04  0.005698261    2.440    0.590
        17 -10.5443     12.9296    127.7936   1.2338598157e+02   4.6780575907e+01    0.2538573   0.08923522 -53.86  0.001178919    2.604    0.616
        18 -11.5719     24.2867    125.9948   1.2032608702e+02   4.6289425629e+01    0.2587835    0.2133807  63.17  0.000245344    1.304    0.233
        19 -10.6302     37.8743    125.8816   1.1680163725e+02   4.5071371494e+01    0.1900878    0.1492195 -55.46 0.0005350365    1.251    0.200
        20 -11.2577     67.8887    123.8253   1.0845867652e+02   4.2084158290e+01    0.3721377    0.2149747 -37.83  0.001702051    2.191    0.544
        21 -10.8034     28.3265    137.7306   1.2075729557e+02   4.3246707149e+01    0.2950679    0.1243424 -60.60  0.001274552    1.953    0.488
        22 -10.3852     76.0181    123.0110   1.0610194012e+02   4.1152564977e+01    0.2101998    0.1566821 -33.61 0.0003140857    1.601    0.375
        23 -11.4721     28.0000    125.0382   1.1924925936e+02   4.6188906384e+01    0.3372189     0.158163 -64.00  0.001497193    1.676    0.403
        24  -9.2669    143.0000    121.9935   8.8429684565e+01   2.9249114275e+01    0.2517287   0.08672685 -44.33 0.0003886688    2.861    0.650
        25 -10.6989     93.5883    121.6011   1.0105744451e+02   3.8778050940e+01     0.328326    0.1792088 -32.05  0.001245816    2.807    0.644
        26 -10.9226     98.2834    118.4583   9.9086227648e+01   3.8715924739e+01    0.4358906    0.1552564  33.53  0.001402576    3.711    0.731
        27 -11.6223     57.3435    119.5793   1.1054950224e+02   4.4419138061e+01    0.4143154    0.1684189 -52.64  0.001777141    2.149    0.535
        28 -10.5416     40.4876    121.0953   1.1538972853e+02   4.5926089600e+01    0.1901037    0.1781628  73.89 0.0003689993    1.202    0.168
        29 -10.9898     45.1998    118.9763   1.1377284840e+02   4.5934512189e+01    0.2109198    0.1820929 -47.88 0.0006725508    1.242    0.195
        30 -11.2964     11.4921    114.8388   1.2225783102e+02   4.9825465317e+01    0.2279578    0.1683292 -74.91 0.0003070833    1.030    0.029
        31 -12.7056    219.5885    117.4209   7.1074664940e+01   1.2896779174e+01     1.047669    0.6048372 -36.03  0.004608243    1.628    0.386
        32  -9.6532      1.2932    113.8194   1.2480495892e+02   5.0710620984e+01    0.1702469    0.0728258 -67.26 0.0004378254    1.687    0.407
        33 -10.6996     46.2290    113.4163   1.1253802520e+02   4.7127706404e+01    0.1709817    0.1149687  49.38 0.0009477941    1.698    0.411
        34 -11.4854    195.6872    111.0350   7.3922134622e+01   1.9454548875e+01     0.431044    0.1920653 -28.33  0.001475645    2.584    0.613
        35 -10.7418     84.0215    111.9243   1.0153096962e+02   4.2551298441e+01     0.215365    0.1968088 -59.86 0.0004247524    1.011    0.011
        36 -11.7257     36.3088    109.9996   1.1475315588e+02   4.8923744711e+01    0.2957947     0.192494  34.03  0.001386146    1.825    0.452
        37 -11.6795      7.0279    108.3580   1.2265589751e+02   5.1592406951e+01    0.4120836    0.1720248 -71.72  0.000302498    1.800    0.444
        38 -11.1239      8.9567    104.5243   1.2163698973e+02   5.2340092837e+01    0.2189572    0.1602001  76.58 3.114268e-06    1.425    0.298
        39 -11.9905     72.4349    107.1641   1.0377112090e+02   4.5367306480e+01    0.3703057    0.2562868 -29.34  0.001218288    1.783    0.439
        40 -11.9706    123.0922    104.9250   8.9027139453e+01   3.7100812476e+01    0.6489342    0.2663597 -46.54  0.002302289    2.351    0.575
        41 -11.1731     16.4448    104.3279   1.1950546486e+02   5.1879422413e+01    0.2262596    0.2045355 -74.00  0.001049073    1.175    0.149
        42 -11.1440    142.8376    103.2483   8.3515808826e+01   3.3237381321e+01     0.284796    0.2145594 -52.32  0.001108678    1.384    0.278
        43 -12.1073     84.5162     99.9822   9.8528467129e+01   4.5224898218e+01    0.4181607    0.2565711 -48.88  0.001983878    1.467    0.318
        44 -11.2751     52.7375     98.6845   1.0776628349e+02   4.9848871488e+01    0.3667985    0.1714381 -58.11  0.001248384    1.779    0.438
        45  -9.4372    201.3349    249.6716   1.0047660876e+02  -3.5294657917e+00    0.1070114   0.08292048  57.77 0.0007051913    1.723    0.420
        46 -10.4563    118.4741     99.4408   8.8759129901e+01   3.9226406642e+01    0.2861877    0.1397323 -55.02 0.0007689334    2.387    0.581
        47 -10.0678     21.5078    109.4908   1.1883179048e+02   5.0315628906e+01    0.1241997    0.0968061 -70.57 0.0008105557    1.010    0.010
        48  -9.9890     13.5055     96.9796   1.1926774487e+02   5.3760340680e+01    0.1842625   0.09382033 -69.21 0.0003871434    1.510    0.338
        49 -11.3425    146.8453     95.2942   8.0273964784e+01   3.3956701329e+01    0.3306302    0.2431846 -66.24  0.001044518    1.754    0.430
        50  -9.3652     35.3176     95.6869   1.1247845987e+02   5.2337469001e+01     0.124958   0.09041259  80.78  0.000511356    1.645    0.392
        51  -9.9183     17.3290    133.9443   1.2298300449e+02   4.5049331324e+01    0.1674618     0.121159 -77.04 0.0003311319    1.074    0.069
        52  -9.8174    116.4798     94.4722   8.7901109697e+01   4.0697491136e+01    0.1526623        0.144 -30.38  9.87313e-05    1.020    0.020
        53 -11.3649      4.8615     89.1191   1.2067134953e+02   5.6065726223e+01     0.388659    0.1725502 -42.22  0.001295461    2.306    0.566
        54 -10.2982    105.4866     90.4865   8.9838294876e+01   4.3699272744e+01    0.1510013    0.1392051 -29.96  0.000101873    1.041    0.040
        55 -10.0444     71.0346    132.6635   1.0923360225e+02   3.9588330222e+01    0.2507694    0.1736517 -56.01 0.0005081728    1.326    0.246
        56 -12.0381    124.8195     85.5899   8.3010787604e+01   4.0822903392e+01    0.5430708    0.3438298  14.48  0.002044489    2.610    0.617
        57 -10.1513    165.5006     86.4562   7.3351213694e+01   3.1244516104e+01    0.1582368    0.1518495  -0.89 0.0001551822    1.033    0.032
        58 -10.0285    129.4877     86.5327   8.2059656010e+01   3.9621281706e+01    0.1549113    0.1479925 -21.14 7.626514e-06    1.005    0.005
        59  -9.5015      1.6633     84.3331   1.2093636276e+02   5.7306918257e+01    0.1153844   0.07638106  76.82 0.0007052063    1.740    0.425
        60 -11.1565     99.9352     83.6827   8.9451418069e+01   4.6191567022e+01     0.440685    0.1324224  45.88  0.001362115    3.796    0.737
        61 -10.0440     68.5306     83.0698   9.9008015030e+01   5.1408977811e+01    0.2137033    0.1217564 -51.38 0.0003746789    1.532    0.347
        62 -10.9022     51.1828     81.5395   1.0427409779e+02   5.3941029982e+01     0.241801    0.1944529 -52.47 0.0002116644    1.048    0.045
        63 -11.4249      6.1065     80.2959   1.1888912829e+02   5.7969727166e+01    0.2812892    0.2292712  41.26  0.001209877    1.577    0.366
        64 -10.5147    104.4116     79.2647   8.6780733487e+01   4.6274177299e+01    0.2938835    0.1358627 -39.64  0.001059485    2.069    0.517
        65 -10.5332     45.7716     80.1611   1.0573026154e+02   5.4844318095e+01    0.1860909    0.1319711 -37.53 0.0004626398    1.345    0.257
        66 -10.8723    181.0031     79.0118   6.7904560979e+01   2.8750960700e+01    0.1962759    0.1884825 -23.57 0.0006361413    1.015    0.014
        67 -10.2123    160.2805     76.6291   7.1532818274e+01   3.4317854957e+01    0.1633067    0.1212883 -63.99 0.0007012563    1.695    0.410
        68  -9.7809     98.4942     76.4785   8.7664656232e+01   4.7964322386e+01    0.1482316    0.1358303 -28.97 0.0001079472    1.002    0.002
        69 -11.7472    151.3970     74.2965   7.2820610699e+01   3.6905333943e+01    0.3640501    0.2820512 -53.27  0.001678692    1.424    0.298
        70 -10.6581     44.1049     74.4579   1.0485382060e+02   5.6286479426e+01    0.2107603     0.167939 -69.86 0.0007187771    1.319    0.242
        71 -10.1161     23.4902     75.5081   1.1219427154e+02   5.7904580800e+01    0.1260429   0.09724008 -54.97 0.0001244867    1.018    0.018
        72 -11.0225    131.7063     73.2220   7.7301943358e+01   4.1729209164e+01    0.3057761     0.232381 -60.80  0.001058688    1.612    0.380
        73 -10.1162     79.2707     75.4276   9.3334492596e+01   5.1478597152e+01    0.1845325    0.1355444  50.06 0.0009436188    1.649    0.394
        74  -9.8564    138.5052     72.5261   7.5353156897e+01   4.0294850438e+01    0.1552203    0.1486978  -8.33 0.0001166496    1.002    0.002
        75  -9.9740     17.9738     69.0314   1.1269804265e+02   5.9731736391e+01    0.1517634    0.1139836 -55.99 0.0004420171    1.021    0.020
        76 -10.6323     71.3521     67.3073   9.3415275622e+01   5.4388580973e+01    0.2482796    0.2314746  19.40 0.0008204113    1.197    0.165
        77 -10.5538      5.1215     68.1794   1.1704251076e+02   6.0693615600e+01     0.186857    0.1209454 -48.56  0.001052007    1.265    0.209
        78 -11.6214    154.9227     65.6744   6.9266607709e+01   3.7555755388e+01    0.4284604    0.2751373  22.24 0.0007852666    2.121    0.529
        79  -9.6747    109.1873     64.5903   8.0577230635e+01   4.8220627460e+01    0.1992152    0.1383275  31.78 0.0004777184    1.550    0.355
        80  -9.6201     75.5522     81.4844   9.6314320392e+01   5.0744422032e+01    0.1424247     0.124292 -40.35 5.262875e-05    1.015    0.015
        81 -10.9987    159.0321     59.7570   6.6458221778e+01   3.7512079883e+01    0.2760538    0.2237982 -18.15 0.0003070685    1.277    0.217
        82 -10.2459     33.6838     60.0042   1.0468434106e+02   6.0426420173e+01    0.1809186    0.1338432 -47.54  0.000400404    1.073    0.068
        83  -9.4215    120.4706     58.4217   7.5273148071e+01   4.6931176037e+01     0.149272    0.1406613  -2.40 4.908915e-05    1.015    0.015
        84 -10.7507    201.1901     56.5920   5.7726130731e+01   2.7244519137e+01     0.220221    0.1331827  49.49 0.0009549395    1.700    0.412
        85  -9.7629     76.0303     54.3411   8.7415911784e+01   5.6233947053e+01    0.1841884    0.1696759   3.25 0.0004387051    1.128    0.114
        86  -9.9312    221.2939     52.3305   5.3593230945e+01   2.2843748939e+01    0.1446996    0.1114226  20.02 0.0001747247    1.632    0.387
        87  -9.9252    199.6650     52.3034   5.6724058424e+01   2.8256666945e+01    0.1571027    0.1110171 -65.54  0.000553131    1.663    0.399
        88 -10.3300     31.8162     52.0468   1.0305432356e+02   6.2248953344e+01    0.2169968    0.1633907 -24.89 0.0009827693    1.271    0.213
        89  -9.5528    116.1346     50.8699   7.3744024776e+01   4.9165659852e+01    0.2065793    0.1976061 -38.83  0.001156107    1.157    0.135
        90 -10.0906    152.7202     49.0412   6.4249020448e+01   4.0768445847e+01    0.2115494    0.1972649 -13.61 0.0003950981    1.067    0.063
        91  -9.0529    137.6923     48.3134   6.7349673187e+01   4.4588225782e+01    0.1499762     0.118593 -66.41  0.000374895    1.625    0.384
        92  -9.9624     93.8896     44.3733   7.7794994307e+01   5.4831399651e+01    0.2584991    0.1898303 -21.58 0.0003202878    1.291    0.225
        93  -9.0200     59.4390     45.5404   9.0120599011e+01   6.0361056700e+01    0.1330602    0.1115978 -26.53 6.645452e-05    1.032    0.031
        94  -9.8006    114.0014     43.5675   7.1608393691e+01   5.0798621344e+01    0.2099729    0.1857311 -14.49   0.00018555    1.074    0.069
        95  -9.2953     77.5281     43.5429   8.2837598827e+01   5.7935295508e+01    0.1395434    0.1187179 -12.76 0.0001374307    1.029    0.028
        96  -9.8914     68.2231     38.4155   8.4082979199e+01   6.0323732436e+01    0.1665823    0.1278019  45.49 0.0005854877    1.615    0.381
        97  -9.0276     75.2775     17.3421   7.2374300128e+01   6.2251562691e+01    0.1370204   0.08876384   7.27 0.0002588973    1.623    0.384
