#   1 NUMBER                 Running object number                                     
#   2 MAG_AUTO               Kron-like elliptical aperture magnitude                    [mag]
#   3 X_IMAGE                Object position along x                                    [pixel]
#   4 Y_IMAGE                Object position along y                                    [pixel]
#   5 X_WORLD                Barycenter position along world x axis                     [deg]
#   6 Y_WORLD                Barycenter position along world y axis                     [deg]
#   7 A_WORLD                Profile RMS along major axis (world units)                 [deg]
#   8 B_WORLD                Profile RMS along minor axis (world units)                 [deg]
#   9 THETA_WORLD            Position angle (CCW/world-x)                               [deg]
#  10 FWHM_WORLD             FWHM assuming a gaussian core                              [deg]
#  11 ELONGATION             A_IMAGE/B_IMAGE                                           
#  12 ELLIPTICITY            1 - B_IMAGE/A_IMAGE                                       
         1 -14.1962     68.4902    144.8521   1.0376576153e+02   3.7261274459e+01     4.143778     2.190985  85.77  0.004862248    3.823    0.738
         2 -13.7577    234.0912     13.8545   3.4441247586e+01   2.6247939349e+01    0.8321169    0.6762545 -39.88  0.002612347    1.266    0.210
         3 -14.4436    216.6584     30.3425   3.9824185317e+01   2.8188519056e+01     2.517296     1.490402  29.70   0.01122172    3.012    0.668
         4  -9.5492      2.3247      2.3190   8.9991177310e+01   7.4143934878e+01    0.1190641   0.06161011 -19.33 0.0005113876    1.675    0.403
         5 -11.5136     31.0162    248.2920   1.2288783569e+02   1.8879233110e+01    0.4097519    0.3252098 -49.00  0.002430538    1.875    0.467
         6 -14.8847     74.0899    247.9295   1.1499346667e+02   1.3879166024e+01     8.443052     2.815968  26.12   0.02321606    8.470    0.882
         7 -13.1815     86.4262    227.6222   1.1061639253e+02   1.6058720188e+01     1.711059    0.9316376  45.63   0.00156704    1.585    0.369
         8 -15.9430     38.0302    196.1344   1.1781160371e+02   2.8683161486e+01     8.745642     3.533096  79.94   0.03111072    3.925    0.745
         9 -13.0969     28.1341    207.9869   1.2083831762e+02   2.7136972340e+01    0.4769807    0.3475638 -50.78  0.001012947    1.742    0.426
        10 -10.9700     61.2057    234.5849   1.1634515475e+02   1.7996845133e+01    0.3009849     0.194835  81.90  0.000838461    1.546    0.353
        11 -10.9197     40.1445    234.3428   1.2035895760e+02   2.0510057166e+01    0.1879686    0.1549723  81.06 0.0003192936    1.124    0.110
        12 -10.5009     38.0053    231.0323   1.2053453098e+02   2.1390618922e+01    0.2950168    0.2004943 -58.36  0.000373382    1.762    0.432
        13 -12.3604     16.8418    216.8166   1.2363871008e+02   2.6402238178e+01    0.3055238    0.2977136 -19.10  0.001649794    1.517    0.341
        14 -10.0766     44.4957    230.4515   1.1925562066e+02   2.0781160723e+01    0.2035227    0.1523701  72.71 0.0008485448    1.111    0.100
        15 -14.3756     10.7044    207.7433   1.2428131931e+02   2.8838065016e+01     1.021203    0.7578477  81.87   0.00301703    1.055    0.052
        16 -12.3013    167.6380    224.8235   9.3225773010e+01   4.1626988013e+00    0.3796007    0.3265073 -23.75  0.001480147    1.245    0.197
        17 -11.6421    165.2312    221.2569   9.3158136674e+01   5.1558177671e+00    0.4018953    0.2154219 -40.45     0.001968    2.066    0.516
        18 -10.7187    164.5131    217.4956   9.2702392578e+01   5.9258431996e+00     0.270992    0.2454005  39.96  0.001182971    1.172    0.146
        19 -10.8964     36.7854    248.4042   1.2187888790e+02   1.8236395336e+01    0.2799664    0.2103434  58.65  0.001437385    1.074    0.069
        20  -9.8139     37.0817    223.7459   1.2020044693e+02   2.2939520596e+01    0.2456904    0.1470283  71.72   0.00134294    1.507    0.336
        21 -10.8724     30.7567    219.2313   1.2111332651e+02   2.4527692920e+01    0.3982148    0.2165499  70.91  0.001673257    1.701    0.412
        22 -14.5096      7.9671    238.2040   1.2636537184e+02   2.3046260363e+01     2.316962     1.116554 -81.15   0.01467473    1.840    0.457
        23 -10.5264    192.4860    193.8673   8.2652817804e+01   5.3966068017e+00    0.6779131    0.3346681 -59.16  0.002111631    5.261    0.810
        24  -8.7760    109.6568    193.3709   1.0108416382e+02   1.9710801968e+01    0.1500416    0.1017326  70.25 0.0007018997    1.870    0.465
        25 -12.0426     57.2567    180.1355   1.1176604836e+02   3.0148620360e+01    0.4370593    0.2890624 -36.26  0.002237387    2.073    0.518
        26 -12.0107     62.9381    174.4470   1.0967277360e+02   3.0785377095e+01    0.3145505    0.2642346 -42.92 0.0007087517    1.372    0.271
        27 -10.8844    111.4493    173.9970   9.7481654127e+01   2.3744182005e+01     0.477718    0.1855613  39.88  0.001776092    2.469    0.595
        28 -11.6328     73.3976    164.5970   1.0563330091e+02   3.1771242542e+01    0.3259953    0.2893463 -68.98 0.0005001534    1.071    0.067
        29 -12.9139     80.5057    158.0847   1.0272542623e+02   3.2352681525e+01     0.893924    0.7991729  64.42 0.0009596685    1.128    0.113
        30  -9.9063     28.6935    245.6734   1.2314653167e+02   1.9604900600e+01    0.1956416    0.1498069 -58.61  0.001002783    1.721    0.419
        31  -9.3431    137.5021    170.5182   9.0422848800e+01   1.9955567184e+01    0.1467095    0.1420454  14.97 8.389125e-05    1.009    0.009
        32 -13.4737     60.1591    160.7953   1.0852056117e+02   3.4408627098e+01    0.5471644    0.3203211 -43.11  0.001547987    1.978    0.494
        33 -11.6301     29.3217    143.5858   1.1443819203e+02   4.1881769246e+01    0.3878735    0.2846402 -50.76  0.002295086    1.360    0.265
        34 -10.8427     95.9693    143.7604   9.5869049025e+01   3.3469227643e+01    0.3172886    0.3031603 -63.60 0.0008073575    1.007    0.007
        35  -9.8058     99.1816    140.2350   9.4249125255e+01   3.3793795160e+01    0.3776425    0.2618151 -13.61  0.001618991    2.130    0.531
        36 -12.2064     83.9333    142.0965   9.8911345275e+01   3.5760182270e+01    0.3183174    0.2554988 -48.59 0.0004683262    1.206    0.171
        37 -10.8952    107.0193    131.5374   9.0139384684e+01   3.4531843778e+01    0.4446152    0.3734728  42.89  0.001436039    1.239    0.193
        38  -9.5748    124.9713    153.8456   9.0181407078e+01   2.6016696633e+01    0.2240397    0.1959035  79.04 0.0005095035    1.316    0.240
        39 -11.4155     17.1751    129.7955   1.1610453207e+02   4.6216866647e+01    0.3280529    0.2008788  41.67  0.001652099    1.842    0.457
        40 -10.1871    239.2700    126.9880   5.9579424371e+01   8.7191332518e+00    0.1839474    0.1072783 -35.83 0.0006234964    1.489    0.328
        41  -9.7438    115.3271    125.3211   8.6335672270e+01   3.4475644408e+01    0.2822165     0.192934  24.13  0.001231897    1.714    0.416
        42  -9.7286    105.7390    120.0408   8.7775041075e+01   3.7487781244e+01    0.2297281    0.2130586  16.31 0.0003596466    1.124    0.110
        43 -10.3218     95.2675    128.0237   9.2710614985e+01   3.7402353064e+01    0.3141644    0.2372664 -33.63  0.000791079    1.407    0.289
        44  -9.7109     23.8415    116.8414   1.1237497154e+02   4.8877267255e+01    0.1736577    0.1396126  81.54 0.0004046132    1.319    0.242
        45  -9.7045    168.2106    113.3810   6.9793694731e+01   2.6012381448e+01    0.2993321    0.2378078 -82.61  0.001055802    1.721    0.419
        46 -10.2350    205.0785    110.7876   6.1612770721e+01   1.8403293299e+01    0.3739311    0.2656101  36.07  0.001341327    1.570    0.363
        47  -9.6817     34.9791    111.2952   1.0795491057e+02   4.9305852739e+01    0.2609464    0.1284269  49.04  0.001138638    2.657    0.624
        48 -10.0764    244.3196    108.6812   5.4687722032e+01   1.0811687389e+01    0.1372675   0.09844594 -61.00 0.0003971129    1.663    0.399
        49  -9.6075    134.5101    103.0481   7.5223791512e+01   3.5577384272e+01    0.2400847    0.1518182 -42.08 0.0005231849    1.546    0.353
        50  -8.9399    130.5604     96.7640   7.4492811335e+01   3.7746740344e+01    0.2253554    0.1457216 -52.94 0.0009457215    1.714    0.417
        51 -10.1881    133.8179    144.5773   8.5891340579e+01   2.6471880310e+01    0.8739262    0.1928191 -52.99  0.001866596    6.729    0.851
        52 -10.3950    161.1190     82.0764   6.2733400710e+01   3.3662743148e+01    0.2433471    0.2076387  13.03 0.0007728239    1.314    0.239
        53 -10.5494     13.3705     60.2674   1.0516310979e+02   6.2726811482e+01    0.2145544    0.1800154 -53.24 0.0004197806    1.153    0.133
        54  -9.6893      2.5091     58.4708   1.0935827092e+02   6.3684395090e+01    0.1221639   0.09228349 -48.14 4.913755e-05    1.003    0.003
        55  -9.4186     32.1566     54.5063   9.5402394864e+01   6.2483974496e+01    0.1809195    0.1652322 -49.81  0.000605057    1.288    0.223
        56 -11.0277     56.9150    238.6202   1.1749899373e+02   1.7746920616e+01    0.2742093     0.172247  80.08 0.0004136339    1.572    0.364
        57 -11.8480    205.7218     38.4536   4.3082284677e+01   2.9689435644e+01    0.5937974    0.3823694  42.40  0.001952067    1.893    0.472
        58  -9.6176     34.3635    237.9182   1.2166623553e+02   2.0455498722e+01    0.1766173    0.1157779  59.00 0.0003224028    1.218    0.179
        59 -10.4925    132.4650     39.5520   5.5743352429e+01   4.7224627382e+01    0.3139142     0.246448 -78.34 0.0007986244    1.671    0.402
        60  -9.0641    133.6160     32.8790   5.3211988507e+01   4.7801467120e+01    0.2465144     0.145837 -74.39 0.0009107177    3.373    0.704
        61 -10.5833     26.7484    250.4102   1.2374523832e+02   1.8943774659e+01    0.2523765     0.139524  37.84  0.001321389    1.704    0.413
        62 -10.2201    189.6671     15.0762   3.8961688585e+01   3.6175667336e+01    0.1775142    0.1646494 -58.13 0.0008302145    1.118    0.106
