#   1 NUMBER                 Running object number                                     
#   2 MAG_AUTO               Kron-like elliptical aperture magnitude                    [mag]
#   3 X_IMAGE                Object position along x                                    [pixel]
#   4 Y_IMAGE                Object position along y                                    [pixel]
#   5 X_WORLD                Barycenter position along world x axis                     [deg]
#   6 Y_WORLD                Barycenter position along world y axis                     [deg]
#   7 A_WORLD                Profile RMS along major axis (world units)                 [deg]
#   8 B_WORLD                Profile RMS along minor axis (world units)                 [deg]
#   9 THETA_WORLD            Position angle (CCW/world-x)                               [deg]
#  10 FWHM_WORLD             FWHM assuming a gaussian core                              [deg]
#  11 ELONGATION             A_IMAGE/B_IMAGE                                           
#  12 ELLIPTICITY            1 - B_IMAGE/A_IMAGE                                       
         1 -13.1040     52.9187     74.4707   8.3128859545e+01   5.6509795578e+01    0.7754779    0.4009504 -59.06  0.001188877    2.404    0.584
         2 -10.6896     23.8472      6.7262   6.9616169075e+01   7.1494221846e+01    0.5023601     0.325276  39.45    0.0020601    1.713    0.416
         3 -10.8370     18.9178     26.5859   8.1574832059e+01   6.9355991944e+01     1.152503    0.4761132 -49.96  0.005407583    2.935    0.659
         4 -10.1703     48.4104     24.7221   6.6607411947e+01   6.5686084866e+01    0.6145121     0.403709   4.22  0.003073967    1.630    0.386
         5 -11.4076     28.3694     30.4420   7.8322855146e+01   6.7692573899e+01      1.04618    0.4738799 -33.27  0.002944062    2.132    0.531
         6 -11.0957     42.2033     15.9015   6.5304841227e+01   6.7766167665e+01    0.7184948    0.3466934  29.41  0.003600299    1.976    0.494
         7  -9.4997     30.9400     12.3018   6.8814464661e+01   6.9867269791e+01    0.4981417    0.3634309  33.28    0.0029894    1.373    0.271
         8 -10.9859     37.1506     26.5298   7.2402833647e+01   6.7131404724e+01    0.7242534    0.4658788 -56.03  0.001747795    2.873    0.652
         9 -10.7787     16.5838      3.2473   7.1740112947e+01   7.2822475693e+01    0.4911046    0.2644444   5.26  0.002773957    2.056    0.514
        10 -11.2982      8.1207     15.2786   8.2655279135e+01   7.2132846471e+01    0.5200276    0.2989945   0.86  0.001039697    1.663    0.399
        11 -12.6097     14.3789     11.3469   7.7136483050e+01   7.2056907554e+01    0.3003815    0.2216941  15.98 0.0003026133    1.229    0.186
        12 -10.2846    131.4234     22.2812   4.2260568280e+01   4.8746715679e+01     0.387907    0.2490239 -17.30  0.002060253    1.995    0.499
        13 -10.1863    165.6396      9.2281   3.3731683394e+01   4.2065057911e+01    0.4680109    0.2735084 -82.51  0.002518042    1.744    0.427
        14 -12.0703    177.0755      3.3069   3.1088946951e+01   4.0024777456e+01    0.6303604    0.2236718  60.53 0.0002799386    2.467    0.595
        15 -10.7116    153.6772     22.7918   3.8838374414e+01   4.3461330640e+01    0.3188005    0.2443017  32.71 0.0002949906    1.653    0.395
        16 -10.9685    149.9310     17.2756   3.7860087326e+01   4.4920700863e+01     0.812411    0.3460951  68.16  0.003408145    2.036    0.509
        17 -10.7237    146.3135     12.3979   3.7015287488e+01   4.6247817709e+01     0.738991    0.3840874  57.86  0.003835424    1.673    0.402
        18 -11.0977    175.8691     13.1345   3.3562733445e+01   3.9336336360e+01    0.5508581    0.4086116  84.22   0.00348801    1.138    0.122
        19 -10.6648    183.4191     12.9479   3.2726766697e+01   3.7648415079e+01     0.472652    0.2441826  75.26  0.001969388    1.693    0.409
        20 -10.5732    153.3567      5.2115   3.4133468914e+01   4.5271176075e+01    0.3672775    0.2237733  42.20  0.001721104    1.967    0.492
        21 -12.1633    160.9617      2.4328   3.2530859160e+01   4.3765099704e+01    0.4454942    0.2829831  66.70  0.000792324    1.348    0.258
        22 -10.6725     85.4087     21.8059   5.2473772700e+01   5.9119318497e+01    0.5322162    0.3263313  72.30  0.001225699    2.268    0.559
        23 -10.1179     69.6595     11.5099   5.3033555708e+01   6.3354711969e+01    0.2416458    0.1769848  40.46 0.0001421431    1.130    0.115
        24  -9.0300     75.5468     12.4312   5.1615673031e+01   6.2095126634e+01    0.2174305    0.1713966  19.02 9.924782e-05    1.233    0.189
        25  -9.8221     78.9996     11.2522   5.0137280927e+01   6.1501783043e+01    0.2573517    0.1785562 -16.06 0.0006785355    1.625    0.385
        26 -11.4217     69.2905     16.4475   5.5230921523e+01   6.2934254930e+01    0.6237004    0.3233161  47.77  0.003274827    1.648    0.393
        27 -11.9315     62.1200     16.9526   5.7890917330e+01   6.4238562135e+01    0.3947864    0.2460321  28.90 0.0002955841    1.484    0.326
        28  -9.8466    116.9960     15.0305   4.2636321031e+01   5.2820239742e+01    0.3764926    0.2026418 -35.34  0.001944695    2.084    0.520
        29 -12.5173    105.0594     20.6303   4.7034744323e+01   5.4979120661e+01    0.3006214    0.2677073 -37.79  0.000370519    1.295    0.228
        30 -10.6483    219.7585     19.1593   3.0775832648e+01   2.9118792331e+01    0.4830411    0.2894423  88.95  0.002921487    1.503    0.335
        31 -11.2406    230.8146     14.6848   2.9048672546e+01   2.7396321541e+01    0.5287126    0.2685181 -43.47  0.001643771    1.736    0.424
        32 -10.7231    166.2988     18.0121   3.5884692041e+01   4.1027246843e+01    0.3594877    0.2689536   8.02 0.0004630283    2.070    0.517
        33  -9.7531    199.6308     18.7318   3.2451110046e+01   3.3434022103e+01    0.3169914    0.1443184 -28.82  0.001527906    2.689    0.628
        34  -9.3802    125.3273     17.2373   4.1791796402e+01   5.0682437638e+01     0.581311    0.1799112  51.40  0.002292114    2.743    0.635
        35  -9.5819    128.1709     12.1069   3.9705933709e+01   5.0509074166e+01    0.3834326    0.1728653 -21.40  0.001226909    2.821    0.645
        36  -9.3492    128.2572      7.7666   3.8362324280e+01   5.0875980795e+01    0.3233025    0.1085816  60.02  0.001392677    2.289    0.563
        37 -10.1270    210.5541     14.1691   3.0508059421e+01   3.1599371174e+01    0.4114912       0.2917  15.54  0.002108038    2.990    0.666
        38  -9.7140    211.5184      9.0048   2.9363858797e+01   3.1954558636e+01    0.3244418    0.1540267 -64.64  0.001437447    1.990    0.497
        39 -10.8226    208.7409      3.5822   2.8463847028e+01   3.3098759375e+01    0.4209404    0.2663173 -70.58  0.001335624    1.325    0.245
        40  -9.8459    242.8298     14.4113   2.8171636565e+01   2.5095479619e+01    0.1750489    0.1477322 -56.22 0.0007115608    1.301    0.231
        41  -9.0953    245.3709     10.7405   2.7342950562e+01   2.5029655176e+01    0.2081867    0.1277429 -46.74   0.00125586    1.429    0.300
        42 -11.2027    132.9994     12.3823   3.9001831483e+01   4.9359524435e+01    0.2614716    0.2256532 -45.79 0.0004873268    1.307    0.235
        43 -10.9320     97.6638     12.3875   4.5800144946e+01   5.7418886048e+01    0.5007018    0.2311406  49.17  0.001018526    1.794    0.442
        44  -9.1732     98.3238      6.6655   4.3579435886e+01   5.7769259404e+01    0.3563462    0.1644446  37.54  0.001410257    2.307    0.567
        45  -9.7703    218.4530     11.0122   2.9239063759e+01   3.0299929319e+01    0.3605837    0.1787563 -61.85  0.001465756    1.792    0.442
        46 -10.1520    191.7071      8.8807   3.1001774830e+01   3.6224349259e+01    0.4111647    0.2943278 -44.39  0.002669426    1.432    0.302
        47 -10.8432    195.4490      3.7195   2.9539840682e+01   3.5923388077e+01    0.4457956    0.2723671  71.33  0.002043512    1.458    0.314
        48  -8.7930     51.2933     11.9214   5.9684651722e+01   6.6712052666e+01    0.1662194     0.133808  20.24 0.0006321859    1.017    0.017
        49  -8.6987    159.2957     10.6916   3.4854770752e+01   4.3388500292e+01    0.2585858    0.1187854 -45.18   0.00127067    2.241    0.554
        50  -9.0341     56.1045     10.4963   5.7208625160e+01   6.6007897735e+01    0.1979031    0.1458625  11.34 0.0007904264    1.287    0.223
        51  -9.5157     52.6873      7.3752   5.7046848671e+01   6.6924864063e+01    0.2810295    0.2385224  57.41  0.001612659    1.490    0.329
        52 -10.6647      6.6879      9.0871   8.0568826592e+01   7.3150155273e+01    0.3212565    0.2007117   5.72 0.0007932754    1.379    0.275
        53  -9.3218    120.3745      9.3182   4.0167537998e+01   5.2562601421e+01    0.3195273     0.168205  44.21  0.001114222    1.879    0.468
        54  -9.4143     87.8189      6.4634   4.5929705967e+01   6.0069074614e+01    0.2049291    0.1858193 -76.61 0.0005876002    1.367    0.268
        55  -9.0923     92.7383      7.9405   4.5309647680e+01   5.8885527021e+01    0.3409075    0.2010161  48.92  0.001391676    1.398    0.285
        56 -12.1974     91.8039      2.7302   4.3576275817e+01   5.9509066000e+01    0.2771345    0.2255683 -61.53   0.00180223    1.568    0.362
        57  -8.4274     37.5320      9.6159   6.4393129207e+01   6.9209501278e+01    0.1166172   0.09264279  18.21 0.0001581127    1.058    0.055
        58  -8.3341    224.2941      8.6441   2.8345918317e+01   2.9367253283e+01    0.1248247   0.06385304 -64.02 0.0007031573    1.691    0.409
        59 -10.2890    202.4353      7.0765   2.9685418888e+01   3.4079788830e+01    0.2354055    0.1974012 -49.78  0.001679359    1.306    0.234
        60  -8.7715     69.7019      1.6740   4.8832555374e+01   6.4203051833e+01    0.1844084    0.1225326  29.24  0.001129985    1.388    0.280
        61 -11.6486     74.0001      4.4093   4.8750756680e+01   6.3118614648e+01    0.5610633     0.358038  32.47   0.00335637    1.438    0.304
        62  -8.7324     79.6299      4.2819   4.7156291515e+01   6.1973573998e+01    0.2204319    0.1552907  48.72 0.0006190299    1.155    0.134
        63 -10.6102    236.5553      4.4308   2.6741986352e+01   2.7399104794e+01     0.380286    0.2919719 -82.09  0.002862011    1.123    0.110
        64  -9.0081    184.6081      5.4624   3.0879248040e+01   3.8135111747e+01    0.2252096    0.1865002  41.09  0.001061329    1.621    0.383
        65 -10.2595    106.7375      6.1257   4.1646958611e+01   5.5938279192e+01    0.3734141    0.3525433 -55.53  0.001497998    1.248    0.198
        66  -8.8369    108.9321      1.0000   3.9483974716e+01   5.5845961432e+01    0.2002183   0.05889494  65.49 0.0003978647    2.802    0.643
        67  -8.8350     64.3403      7.3121   5.2933767056e+01   6.4776187415e+01    0.1780398    0.1306529  11.82 0.0006164499    1.360    0.265
        68  -8.6971     61.7001      6.3266   5.3370898292e+01   6.5367934743e+01    0.3373482    0.2489499 -71.71   0.00188726    2.589    0.614
        69 -10.8897    250.0057      1.5557   2.5451321727e+01   2.5169109582e+01     0.185558    0.1298756 -77.71 0.0003727395    1.106    0.095
        70 -10.5991    218.2094      3.2584   2.7717420757e+01   3.1169922739e+01    0.2919157    0.2349991  53.31  0.002073381    1.695    0.410
        71 -10.0595    126.2523      2.3834   3.7030030026e+01   5.1785866961e+01    0.4659868    0.1847859  45.93  0.002087587    2.560    0.609
        72  -9.6885    119.9652      2.9024   3.8193340031e+01   5.3189948982e+01    0.2885045    0.2098081  18.41  0.001156129    1.728    0.421
        73 -10.8537    115.6805      1.9263   3.8599605231e+01   5.4245480651e+01    0.2801286    0.2242662 -41.03  0.001342886    1.465    0.317
        74  -9.1419     38.0736      4.3690   6.1553375375e+01   6.9677320776e+01    0.1860175    0.1319378   4.18 0.0006108852    1.286    0.222
        75 -10.7637     30.5338      2.2993   6.3967117292e+01   7.1041952466e+01    0.2199667    0.1859215 -28.71  0.001606332    1.570    0.363
        76  -9.4529      1.4770      9.4593   8.3985849671e+01   7.3563062651e+01    0.2001948   0.09367229 -42.80 0.0005757227    2.019    0.505
        77  -8.5689      4.6227      1.4518   7.7930251045e+01   7.4361519168e+01    0.2056275   0.08897272  20.32  0.001135167    2.175    0.540
        78  -8.9626    144.6785      2.0367   3.4350860469e+01   4.7553050225e+01    0.2354198    0.1479079 -79.99    0.0013186    1.668    0.400
        79 -10.0317    135.5452      1.6635   3.5458524927e+01   4.9697238326e+01    0.2327637    0.1458649  78.25  0.001332396    1.406    0.289
        80  -8.8490    185.7647      1.3889   2.9848961372e+01   3.8267849488e+01    0.1655564   0.09025999  67.15 0.0006795149    1.622    0.383
        81  -9.5788    248.0004      4.7669   2.6123600480e+01   2.5195305945e+01    0.1929922    0.1262956 -86.59 0.0007519766    1.279    0.218
        82  -9.0292    241.2072    124.0460   4.9921967535e+01   9.1975903372e+00    0.2205487     0.126703 -57.72  0.001076703    1.931    0.482
        83  -9.8085    201.4883    249.5684   8.0435083452e+01  -6.4369818745e+00    0.2179931    0.1701989   8.62 0.0006689922    1.051    0.048
        84 -10.3290    115.8423    248.3892   9.8142221586e+01   5.9005953725e+00    0.2650227    0.2389567 -72.40  0.001289476    1.291    0.226
        85 -10.5695     61.7430    121.1346   9.1969362245e+01   4.4432882252e+01    0.4210642      0.24076 -46.79 0.0005358712    1.657    0.397
        86 -10.2258      6.8130    122.6598   1.1076184091e+02   4.9535259808e+01    0.3287089     0.266899  -1.82  0.002024549    1.470    0.320
        87  -8.7237     84.4785    121.2383   8.4540691258e+01   4.0890522523e+01    0.3106522    0.1381021 -48.50  0.001140921    2.143    0.533
        88  -9.7608     71.9414    123.1708   8.9040080522e+01   4.2432361165e+01    0.2362022    0.2046728 -56.29 0.0002626655    1.104    0.094
        89  -9.3154     29.1599    120.7459   1.0298661518e+02   4.8295357161e+01    0.2301377     0.173754 -76.50 0.0004110076    1.293    0.227
        90 -10.4185      3.3485    109.1774   1.1008275692e+02   5.3085685591e+01    0.4428385    0.3104718  69.74  0.002501092    1.692    0.409
        91 -11.4152     21.4182    119.5061   1.0542027605e+02   4.9279930784e+01    0.5588154    0.4260328  86.77  0.003120883    1.421    0.296
        92 -10.1159     11.0121    116.0129   1.0843196514e+02   5.0926420417e+01    0.5361074    0.2633708  87.32  0.002200356    2.792    0.642
        93  -9.7530     14.0552    113.3851   1.0698128268e+02   5.1372680619e+01    0.2537827    0.2127638 -58.71 0.0005511804    1.013    0.013
        94 -11.4150     21.6358    107.2099   1.0323730854e+02   5.2331716454e+01    0.8060135    0.3221516 -63.72  0.003389582    2.123    0.529
        95 -10.3071     16.1260    108.0618   1.0537735171e+02   5.2543569125e+01    0.3704441    0.2492553 -55.27 0.0003198934    1.243    0.196
        96  -9.8066    221.5280    119.3171   5.1853706514e+01   1.3538028200e+01    0.2823918    0.2493536  30.30 0.0007721164    1.370    0.270
        97 -10.4619     45.0061    119.4887   9.7318109173e+01   4.6975274141e+01    0.3786979    0.2587638  29.46 0.0009620075    1.583    0.368
        98  -8.5456    103.9637    119.0378   7.7984804195e+01   3.7891187669e+01     0.184609     0.180268  30.97 0.0003252586    1.042    0.041
        99  -8.6142     38.4763    118.5222   9.9381050799e+01   4.7939180976e+01    0.1429324    0.1257176 -50.71 0.0001493255    1.033    0.032
       100  -9.3757     32.9358    118.0119   1.0120311815e+02   4.8629883690e+01    0.2199962     0.161185 -43.11 0.0004454856    1.290    0.225
       101  -9.5280     33.9722    114.3222   1.0015143405e+02   4.9456675145e+01    0.2545978    0.1677579 -49.89 0.0005896722    1.344    0.256
       102  -9.9764      3.6030    116.7920   1.1104805256e+02   5.1192400579e+01    0.3088276    0.2789748 -67.62  0.002038792    1.088    0.081
       103  -9.2430    239.3149    117.0052   4.8760026474e+01   1.0737789934e+01    0.2099346   0.09856538 -25.06 0.0007039636    4.197    0.762
       104  -9.4612     70.5455    116.5395   8.7975459810e+01   4.4295486134e+01    0.2738555    0.2006752  73.17 0.0006191965    1.871    0.466
       105  -8.8491     54.8096    117.5892   9.3554209284e+01   4.6255493108e+01    0.2067044    0.1321106  41.04 0.0009576115    1.702    0.412
       106 -10.3047     47.3267    114.0319   9.5390897712e+01   4.8075628480e+01    0.3887337     0.324713 -27.43  0.001264296    1.227    0.185
       107  -8.4938    162.3652    113.7350   6.1514666540e+01   2.6767497173e+01     0.203748    0.1406187 -35.86 0.0002649915    1.496    0.332
       108  -8.4631     61.7536    113.3934   9.0226081953e+01   4.6361183757e+01     0.189362    0.1425467  12.61 0.0004034139    1.510    0.338
       109  -8.7010     76.4253    111.5943   8.4812620460e+01   4.4576831391e+01    0.3069139    0.1967692 -19.47  0.001044585    2.218    0.549
       110  -9.1464     93.7618    119.1572   8.1116220248e+01   3.9767988557e+01    0.2755474    0.2446325 -17.51 0.0009862074    1.205    0.170
       111  -9.6426     37.4349    106.2556   9.7285402157e+01   5.1106194275e+01    0.3383935    0.1739433 -38.94  0.001142827    1.991    0.498
       112  -8.8852     39.9503    102.7445   9.5597203444e+01   5.1693973778e+01    0.2216236     0.169939 -33.86 0.0004822448    1.261    0.207
       113  -9.9435     44.6269     99.9767   9.3224705351e+01   5.1832518317e+01    0.4023048     0.207249  23.11  0.001243815    2.146    0.534
       114  -9.6962     39.7268     99.0656   9.4847741796e+01   5.2604536989e+01    0.2913194    0.2182942   7.02 0.0007716848    1.477    0.323
       115  -9.1730     68.1565    105.6139   8.6125304695e+01   4.7311444524e+01    0.2462542    0.1592294 -47.86 0.0002715164    1.453    0.312
       116  -8.4269     43.3777    106.1637   9.5098024383e+01   5.0479640749e+01    0.1909274    0.1289616 -72.15 0.0004394948    1.626    0.385
       117  -9.0108      8.4357    105.9621   1.0779558193e+02   5.3575495895e+01    0.2061678    0.1075036 -65.15 0.0005476394    1.580    0.367
       118  -9.5219    132.5915    104.0939   6.6082099721e+01   3.5330488187e+01    0.2531712    0.2076942  59.70 0.0003721546    1.284    0.221
       119  -8.4776    108.2219    103.9921   7.2769439377e+01   4.0506303314e+01    0.2061171    0.1253293 -46.73 0.0004221507    1.634    0.388
       120 -10.3066    101.1536    102.7052   7.4536178934e+01   4.2200547391e+01    0.3925506      0.36866  17.17 0.0008719134    1.079    0.074
       121 -10.2755    118.9134    102.8899   6.9409772159e+01   3.8533532089e+01    0.5125439    0.3186066  14.37            0    2.956    0.662
       122  -9.9702    114.3659    101.7126   7.0365069436e+01   3.9743205843e+01    0.3234891    0.2610299  75.67 0.0008333884    1.534    0.348
       123 -11.7137    117.6289     97.9582   6.8404624010e+01   3.9859053455e+01    0.3558522     0.298531  -9.78 0.0002689214    1.396    0.284
       124  -9.9686     71.2274    101.7393   8.4060361843e+01   4.7749591544e+01    0.3870731    0.1490911 -44.78  0.001369934    2.533    0.605
       125 -10.3795     52.2559    102.4328   9.0999023940e+01   5.0307454611e+01    0.2909742    0.2592684  67.40 0.0008636285    1.334    0.250
       126  -9.2255     50.8504     99.1818   9.0722490122e+01   5.1262412609e+01    0.2197361     0.195725 -37.71 0.0003163205    1.022    0.022
       127  -8.9629     33.9201    103.0516   9.7901113255e+01   5.2247466396e+01    0.2259269    0.1415907 -34.36 0.0006376724    1.624    0.384
       128  -8.7621    127.2743    101.9861   6.6897708975e+01   3.6934510703e+01    0.2085409    0.2010706 -38.46 0.0002599717    1.041    0.039
       129  -9.3719     95.1011    100.3567   7.5765205178e+01   4.3893607397e+01    0.3021945    0.2162237 -55.61 0.0001334899    1.479    0.324
       130 -10.2413     79.1254    100.9130   8.1135002897e+01   4.6646913101e+01    0.4469354    0.3654106   7.47  0.002275578    1.352    0.261
       131  -9.6921     80.3310     95.6803   7.9288873430e+01   4.7627408262e+01    0.4171949    0.3260336  56.86  0.002067596    1.523    0.343
       132  -8.6139    177.0070    101.3106   5.5428019323e+01   2.6014486237e+01    0.1954244    0.1834752  76.75  0.000392973    1.085    0.079
       133  -9.4939     12.9398     94.8568   1.0420025777e+02   5.5969514610e+01    0.3048038    0.2332157 -60.65  0.001823762    1.137    0.121
       134 -10.5360      2.3479     79.4040   1.0546485026e+02   6.0193534052e+01    0.4161984    0.2612309 -84.64  0.002240176    1.928    0.481
       135 -10.3814      9.1718     98.9844   1.0637289345e+02   5.5223828280e+01    0.7117487    0.3570545  89.03  0.002942585    2.985    0.665
       136  -9.1783      4.0493     97.8588   1.0809788732e+02   5.5792647120e+01    0.3143202    0.2515085   5.02  0.001227177    1.442    0.306
       137 -10.1445      2.1162     92.2838   1.0790392904e+02   5.7221181186e+01    0.2693125    0.2034529  50.25 0.0003946827    1.650    0.394
       138 -10.3505      2.1261     87.2826   1.0703079105e+02   5.8393202721e+01    0.4885581    0.1380277 -61.26  0.001997897    2.508    0.601
       139  -8.1794     62.7936     98.9611   8.6310912812e+01   4.9681757092e+01    0.1872725    0.1102169 -51.66 0.0002692262    1.602    0.376
       140  -9.0278     16.7559     98.8573   1.0349825566e+02   5.4742814691e+01    0.2079319    0.1524633 -46.87 0.0009671823    1.172    0.147
       141  -9.1455    149.8810     97.1159   6.0032835971e+01   3.2904200631e+01    0.2259248    0.1987484 -82.45 0.0002910187    1.218    0.179
       142  -9.7065    125.6364     96.6007   6.5849984101e+01   3.8416250062e+01    0.2920662    0.2711161 -77.53 0.0008903458    1.146    0.127
       143  -9.1034     86.9287     96.4822   7.7312368483e+01   4.6276986265e+01     0.237794    0.1991975 -44.14  0.000791243    1.173    0.147
       144  -9.3070     59.0919     96.9855   8.7135933468e+01   5.0673714324e+01    0.2249316    0.1579501 -24.24 0.0003316624    1.582    0.368
       145  -8.2787    154.6485     96.2690   5.8744670864e+01   3.1992214820e+01    0.1528395    0.1169395 -88.19   0.00057634    1.627    0.385
       146  -8.9796    135.6738     96.6824   6.3294673296e+01   3.6183369400e+01     0.154948    0.1227351   6.48  0.000704536    1.676    0.403
       147  -8.4392    111.5645     96.5053   6.9715425037e+01   4.1443326668e+01    0.1501995    0.1483645 -17.16 0.0001316731    1.009    0.009
       148 -10.4825     32.7108     92.6055   9.6042169907e+01   5.4866373680e+01     0.611422    0.2913588 -38.82  0.002664362    2.079    0.519
       149  -9.6815     22.9436     94.5663   1.0027656421e+02   5.5288907219e+01    0.3305124    0.1712516 -63.65  0.001561319    1.759    0.431
       150 -11.1546     27.0127     87.2947   9.7059434802e+01   5.6642564450e+01    0.7868915    0.4147479 -26.59  0.001215598    2.207    0.547
       151  -8.3550     57.0353    249.0007   1.1086857033e+02   1.3879421030e+01    0.1406077    0.1154284  58.52 0.0009155407    1.002    0.002
       152 -11.4586     45.1837     68.7427   8.4500208804e+01   5.8722661539e+01    0.3041224    0.2286143 -29.35 0.0002231164    1.225    0.184
       153 -10.7002     46.6063     91.0296   9.0266638477e+01   5.3697019870e+01    0.4815757    0.3345205 -82.93 0.0007568609    2.112    0.526
       154  -8.8070    139.3248     92.6540   6.1297182479e+01   3.6168476608e+01    0.1588414    0.1193782 -81.47 0.0007050121    1.743    0.426
       155 -10.4765     64.9269     75.5293   7.8822240534e+01   5.4503360572e+01    0.4941543    0.4582649 -44.92  0.002268079    1.173    0.148
       156 -10.4278     71.0023     88.4109   8.0466602264e+01   5.0802982406e+01      0.55638    0.2112653 -55.34  0.001352578    3.100    0.677
       157 -11.6446     80.8134     83.4937   7.5577991052e+01   5.0176714329e+01    0.4211021    0.3275142   7.66 0.0004212613    1.453    0.312
       158 -11.0173     73.1250     79.4227   7.7027201563e+01   5.2359748682e+01    0.6088148    0.5126988 -24.72   0.00250901    1.159    0.137
       159  -8.7787     52.5926     90.8279   8.7929163211e+01   5.2980927087e+01    0.1954025    0.1330871 -67.09 0.0009320193    1.735    0.424
       160 -11.3720     49.3833     82.8161   8.6973063960e+01   5.5197305610e+01      1.64803    0.4723603  39.38  0.005429206    3.920    0.745
       161  -8.7127    161.4115     90.1940   5.5715781359e+01   3.1613115806e+01    0.2004602    0.1351177 -52.01 0.0002766822    1.497    0.332
       162  -8.8685    113.4750     90.5056   6.7455174758e+01   4.2289547155e+01    0.2710376    0.1427487  55.98  0.001026517    2.262    0.558
       163 -10.2792     86.5282     88.8015   7.5236010176e+01   4.8020874587e+01    0.3957084    0.3345314   7.88  0.001160957    1.262    0.208
       164  -8.8965     97.8386     88.8119   7.1607030344e+01   4.5853765633e+01    0.2874386    0.1937446 -60.49 0.0003353445    1.820    0.450
       165  -9.0117     96.1426     85.1845   7.1058664646e+01   4.6937161304e+01    0.2214637    0.2009562  72.43 0.0002577647    1.274    0.215
       166  -9.2194     39.7545     88.1435   9.2192565624e+01   5.5161237918e+01     0.234107    0.2176955 -30.07 0.0007432843    1.065    0.061
       167  -9.2925      7.0191     89.1091   1.0543025225e+02   5.7699263643e+01     0.209402    0.1624196  46.22 0.0008763308    1.600    0.375
       168 -10.6551    129.3179     85.0320   6.1628269561e+01   3.9902613661e+01    0.6178839    0.3883807  20.93  0.002383719    2.614    0.617
       169 -10.7465    123.5111     86.5404   6.3562067202e+01   4.0904837128e+01    0.4224665    0.3896357  19.45  0.001231603    1.148    0.129
       170 -10.3605    118.6465     84.2781   6.4205683128e+01   4.2414806399e+01    0.3977204    0.2866807  50.01  0.001904826    1.374    0.272
       171  -9.1891     14.7059     87.0788   1.0196462152e+02   5.7679548132e+01    0.4192768    0.1601508 -35.56  0.001681964    2.804    0.643
       172 -10.3679    104.6651     85.7464   6.8620006667e+01   4.5100519406e+01    0.3495225    0.3148329 -41.85  0.001121682    1.127    0.112
       173 -10.2096    155.1261     85.2325   5.5713425122e+01   3.3970716991e+01    0.2895578    0.2669341   9.60 0.0004696006    1.272    0.214
       174  -8.6164    141.4897     75.4774   5.5994121979e+01   3.8875899379e+01    0.1957659    0.1457696 -25.98 6.153628e-05    1.560    0.359
       175  -9.0122    146.0698     70.3269   5.3537738203e+01   3.8696670829e+01    0.2421371    0.1983418 -57.81  0.001234054    1.263    0.208
       176 -10.5189    150.5682     80.3962   5.5373208758e+01   3.5899610862e+01    0.5602877    0.3180483  64.29  0.001557602    1.991    0.498
       177 -10.1293    146.0130     75.2617   5.4934834672e+01   3.7864279996e+01    0.3814245    0.3168221 -71.52  0.001540624    1.301    0.231
       178  -9.6642     65.2952     85.6062   8.1721631282e+01   5.2320508489e+01    0.3270724     0.234068  -6.18  0.001301305    1.689    0.408
       179 -10.6458    141.7281     83.4820   5.8191247260e+01   3.7374731937e+01    0.7785478     0.350244  60.08  0.001477229    2.662    0.624
       180  -9.3046    137.3099     79.2022   5.8013028668e+01   3.9174101049e+01    0.3518666    0.2041405  62.73  0.001157226    1.950    0.487
       181  -8.7612    105.5169     81.0207   6.6948214799e+01   4.5859771803e+01    0.2265947    0.1462472 -42.05 0.0009966111    1.578    0.366
       182  -8.5312     90.6109     83.5317   7.2324365034e+01   4.8351830629e+01    0.2102976    0.1857416  41.83 -2.98131e-05    1.151    0.131
       183  -9.3480     93.7282     79.0929   6.9964627167e+01   4.8635111186e+01    0.4216623    0.2649665  -9.30  0.001383961    2.732    0.634
       184  -9.4075     86.9048     83.5578   7.3546280657e+01   4.9048509692e+01    0.2570271    0.2087325 -51.75 0.0004552524    1.309    0.236
       185  -8.4168     18.4060     71.7708   9.6870219365e+01   6.0854198391e+01    0.2795162    0.1992519 -51.49 0.0008724878    1.233    0.189
       186 -10.0316     18.0041     81.0205   9.9286508847e+01   5.8829533463e+01    0.4132758    0.1977767  37.60 0.0008382958    2.530    0.605
       187 -11.0449     18.2614     77.0103   9.8233422115e+01   5.9711476159e+01    0.3465069    0.3099798 -69.26 0.0003763807    1.265    0.209
       188 -10.5005    167.9504     78.4332   5.1369532363e+01   3.2226333982e+01    0.2684243    0.2470237 -89.73   0.00030951    1.037    0.036
       189 -10.4345    169.9930     73.5681   4.9735116894e+01   3.2582379875e+01    0.3543756    0.2521864 -36.16  0.001217143    1.473    0.321
       190 -10.1837    122.9464     79.0051   6.1508691713e+01   4.2466509644e+01    0.3990549    0.2517534  55.67  0.001672814    1.628    0.386
       191  -9.1277    111.4139     77.3682   6.4139173308e+01   4.5305111746e+01    0.2903047    0.1864904 -43.57  0.001097264    1.604    0.376
       192  -9.4314     97.1939     63.9771   6.4056754992e+01   5.0729624233e+01    0.3280249    0.1854639  39.94   0.00126321    1.727    0.421
       193 -10.0441     88.7692     74.6075   7.0155850802e+01   5.0476133855e+01    0.6200604    0.3777372 -33.40   0.00281692    1.751    0.429
       194 -10.6500     94.5478     71.5400   6.7327853557e+01   4.9915181677e+01    0.5583408    0.3930088 -62.30 0.0007106952    1.908    0.476
       195  -9.1532     77.2966     62.0285   6.9893494321e+01   5.4968580172e+01    0.2567577    0.1954733  45.10 0.0005979383    1.357    0.263
       196  -9.3443     83.5213     65.4365   6.8910156881e+01   5.3193466390e+01    0.2855685    0.2486275 -59.62  0.001082596    1.383    0.277
       197  -9.7633     82.2088     62.0591   6.8215255572e+01   5.4045317234e+01    0.3174427    0.2297113  26.37   0.00115024    1.403    0.287
       198  -9.7126     87.0124     68.2268   6.8672951008e+01   5.2015031181e+01    0.2840956    0.1993339  37.94 0.0002908854    1.379    0.275
       199  -9.3203     89.5634     65.5244   6.6952442656e+01   5.2004226022e+01    0.2472167    0.2219696  17.52 0.0005990876    1.068    0.064
       200 -10.8587    178.9499     74.9761   4.8529176092e+01   3.0295406731e+01    0.3802438    0.3531654 -17.42  0.002219176    1.290    0.225
       201  -9.6039    175.0520     75.0147   4.9209357935e+01   3.1177942838e+01    0.2103176    0.1922965 -78.42 0.0002903996    1.013    0.013
       202 -10.8149     45.4382     47.8037   7.7239579217e+01   6.2633138753e+01     1.270082    0.6224725   6.25  0.004117149    4.970    0.799
       203  -9.2501     21.9828     64.5313   9.3323401161e+01   6.2098318830e+01    0.4990305    0.1788242 -37.71  0.002011603    2.745    0.636
       204  -9.8916     29.0001     75.0991   9.3176840972e+01   5.9198266194e+01    0.3550879    0.2278712 -51.86  0.001614012    1.399    0.285
       205 -11.6582     28.7894     65.4341   9.0539294884e+01   6.1272277495e+01    0.8023155     0.580287 -54.71  0.004646924    1.403    0.287
       206 -11.3651     14.5035     39.6870   8.9016502823e+01   6.7571207026e+01    0.7101986    0.4754975 -65.45  0.004036826    2.194    0.544
       207 -10.6993     45.3808     54.3769   7.9645654282e+01   6.1474848490e+01     0.945933    0.3111138  27.56  0.003391132    3.578    0.720
       208  -9.0398     34.2157     41.9255   8.0088122912e+01   6.5114834181e+01    0.3479621    0.2013565   9.91  0.001791451    1.923    0.480
       209  -9.9859     37.1705     47.7303   8.0891255073e+01   6.3741199819e+01    0.8488601    0.3357662 -29.36   0.00315005    3.539    0.717
       210 -11.1375     54.3024     61.1834   7.8284124996e+01   5.8946645596e+01    0.5575481    0.4135336  79.75 0.0003632595    2.752    0.637
       211 -11.3270     56.2916     56.7525   7.5946870025e+01   5.9463164067e+01    0.3123101    0.2740694  50.84 0.0002737346    1.440    0.306
       212 -11.4176     23.3156     47.3147   8.7276157384e+01   6.5366448344e+01    0.5407408    0.4089802 -25.69  0.001538365    1.110    0.099
       213  -9.5806     27.6895     42.8697   8.3557810802e+01   6.5712281133e+01    0.3989076    0.3533634 -65.56  0.002617029    1.646    0.392
       214 -11.5841     24.8841     55.8019   8.9352560708e+01   6.3595849499e+01    0.4506565    0.3251389 -47.27  0.001784921    1.320    0.243
       215 -11.0200     28.9118     52.0159   8.6221651033e+01   6.3913579786e+01    0.3703114    0.2069349  26.67 0.0009625906    1.813    0.448
       216  -9.1037     37.3615     76.0420   8.9922398862e+01   5.8124083062e+01     0.229716    0.1582752 -23.54  0.001155299    1.457    0.314
       217  -7.8704     12.6186     74.3036   1.0000776894e+02   6.0724737256e+01    0.1219687    0.0945562  59.26 5.608004e-05    1.781    0.439
       218 -10.3844     12.3999     66.8723   9.8284713513e+01   6.2358187495e+01     1.223682    0.4437734 -22.73  0.004058543    4.815    0.792
       219  -9.8475     15.4596     60.3793   9.5135916420e+01   6.3496868736e+01    0.3980279    0.2358917 -32.00  0.001295348    1.501    0.334
       220 -12.4783      2.4164     66.1861   1.0262532016e+02   6.3117361392e+01    0.3713244    0.2198616 -56.25 0.0003592122    1.395    0.283
       221 -11.1504      9.2118     62.7921   9.8689949837e+01   6.3439988310e+01    0.3195484     0.231816  21.47  0.000949818    1.546    0.353
       222 -11.0343      4.9863     58.9270   9.9662873929e+01   6.4511367633e+01    0.9028031    0.3636961 -22.67  0.003881695    2.987    0.665
       223 -10.4342      6.6115     51.7998   9.6927586540e+01   6.5862630407e+01    0.3118263    0.2397826 -22.26 0.0007106594    1.115    0.103
       224 -10.5252     10.6992     50.9714   9.4664240155e+01   6.5746757394e+01    0.6012635    0.2754951 -57.68  0.002995551    2.114    0.527
       225  -8.8271    111.2243     71.3068   6.2327173917e+01   4.6457011024e+01    0.3426427    0.1972128 -23.44  0.001376993    2.394    0.582
       226 -10.3716    157.2650     68.9369   5.0883107253e+01   3.6309478026e+01    0.3787681    0.2264087 -38.52  0.001750798    1.715    0.417
       227 -10.6800    140.8310     68.1780   5.4056280383e+01   4.0279210221e+01    0.3914897     0.273398 -53.67 0.0003513605    1.543    0.352
       228 -10.3576    143.7894     65.7708   5.2729597349e+01   3.9984713680e+01    0.2847065    0.2349374 -80.17 0.0004664014    1.328    0.247
       229  -9.9265    102.6486     69.5198   6.4219257308e+01   4.8614073202e+01    0.4541426    0.3689337 -12.02  0.002376269    1.392    0.281
       230  -9.8303     80.1689     70.0672   7.1579833177e+01   5.2964382516e+01    0.2411654    0.2274348  54.37 0.0004707668    1.212    0.175
       231 -10.1275     37.5183     69.2832   8.7892878632e+01   5.9540220434e+01    0.4440204    0.2215469 -44.55  0.001676963    1.783    0.439
       232  -9.1212     31.9104     47.7347   8.3322201035e+01   6.4371281246e+01    0.1924111    0.1699043  15.73 0.0005726613    1.241    0.194
       233 -10.4531    173.5045     68.8280   4.7900492556e+01   3.2551641892e+01     0.263161    0.2287659 -80.12 0.0003224956    1.098    0.089
       234  -9.8265    159.8811     78.9018   5.3048284076e+01   3.4007835579e+01    0.2246855     0.200163  32.74  0.001169246    1.286    0.222
       235  -8.7997     64.2358     69.2627   7.7084124312e+01   5.5865710308e+01    0.3145368    0.1702449  23.80  0.001358336    2.137    0.532
       236  -9.0619    119.9709     67.0326   5.8666782938e+01   4.5265700695e+01    0.2267337    0.2107442  35.56 0.0009041872    1.067    0.063
       237 -10.5618    134.9111     64.8661   5.4410194919e+01   4.2204259347e+01    0.3524691    0.3331703 -15.07  0.001135173    1.166    0.142
       238  -9.1736     75.5793     66.0843   7.1868554123e+01   5.4543251387e+01    0.2187662     0.190875  43.92 0.0006077958    1.232    0.188
       239  -9.9885    193.8619     60.7091   4.2751221657e+01   2.9200481125e+01    0.3920877    0.1868364 -41.84  0.001092738    1.963    0.491
       240  -9.4085    197.2300     59.9719   4.2115047932e+01   2.8565354598e+01    0.2184736    0.1960984 -43.68 0.0006772559    1.225    0.184
       241  -9.5568    175.4954     61.8275   4.5784466456e+01   3.3196518067e+01    0.2818758    0.2327992 -18.93  0.001560975    1.529    0.346
       242 -10.2550    152.8652     60.7492   4.9485289600e+01   3.8651374110e+01    0.5249697    0.2951903  41.56  0.002288979    2.096    0.523
       243  -9.6382     64.6359     62.1806   7.4568340184e+01   5.7146133728e+01    0.3998785    0.2092946  30.88  0.001799557    1.953    0.488
       244 -10.4893    170.2079     58.9598   4.5912596343e+01   3.4859565114e+01    0.5792439      0.33348  31.36  0.002282382    3.168    0.684
       245 -10.7952    131.0964     59.3643   5.3636862866e+01   4.3971531224e+01     0.486302    0.4310956  83.38  0.002749366    1.171    0.146
       246  -9.8282    124.8282     56.8069   5.4311559272e+01   4.5818217138e+01     0.333834    0.2391395  74.60  0.001203566    1.620    0.383
       247  -8.3240    110.4699     62.5549   5.9775161350e+01   4.8133080794e+01    0.1429578    0.1338344  36.64 9.069542e-05    1.017    0.017
       248  -9.1166     42.0385     62.0862   8.3702081124e+01   6.0452110636e+01    0.4043581    0.1828437  13.83  0.001507884    3.418    0.707
       249  -9.2603     40.1335     58.6411   8.3386852812e+01   6.1358150855e+01    0.2903253    0.1672808 -43.04  0.001489402    1.606    0.377
       250 -10.1720    161.9032     60.0300   4.7619327459e+01   3.6637598059e+01    0.3674358    0.2629158  44.09  0.001189098    1.552    0.356
       251  -9.6358     71.5281     60.5011   7.1426403288e+01   5.6277496955e+01    0.3700983    0.2195562  46.04  0.001566156    1.788    0.441
       252 -10.4721    142.5542     59.4212   5.1165560178e+01   4.1284037037e+01    0.6009005    0.1972311  50.86  0.002107203    2.846    0.649
       253  -8.6006    114.2550     60.5749   5.8131646253e+01   4.7620121358e+01    0.1932593    0.1279134  42.13 0.0002391843    1.471    0.320
       254  -9.1697    250.0176     58.4812   3.5875473878e+01   1.8084224232e+01    0.1731929    0.1283729 -55.34  0.001145574    1.078    0.073
       255  -8.6097    240.1066     57.6760   3.6664398095e+01   2.0052787232e+01    0.2915844   0.07634348  55.54  0.001099376    4.415    0.774
       256  -9.7383    136.8237     55.6382   5.1263164141e+01   4.3207546910e+01     0.364697    0.2025325 -28.32   0.00145591    2.146    0.534
       257  -9.7914     92.8573     55.1584   6.2419619226e+01   5.3095173503e+01    0.3542911    0.3056549  63.33  0.002008281    1.313    0.238
       258  -9.7463     94.0140     51.7626   6.0898755148e+01   5.3390774506e+01    0.4113793    0.2373962  61.77  0.001340846    2.209    0.547
       259  -8.3444    187.6157     55.7818   4.2450228785e+01   3.1334399840e+01    0.1287024   0.09598453  45.65 0.0002336898    1.609    0.378
       260  -9.5792    167.6548     56.4385   4.5678572935e+01   3.5833119963e+01    0.2302252    0.2054927  -6.02  0.000861597    1.431    0.301
       261  -9.9227    161.2178     54.5526   4.6269159906e+01   3.7621036540e+01    0.2646407    0.2297126 -89.58 0.0005207842    1.091    0.083
       262 -10.2191    160.1999     50.0973   4.5242862051e+01   3.8503675422e+01    0.3324982    0.2356955  52.27  0.001055699    1.415    0.293
       263  -9.6398    164.7590     46.0905   4.3423772354e+01   3.7989646970e+01     0.311902    0.2749799  64.21  0.001887144    1.134    0.118
       264 -10.5444    114.7610     47.1428   5.3676787416e+01   4.9548770897e+01    0.8673978      0.30917 -46.98  0.002481088    3.756    0.734
       265 -10.2642    122.3806     50.2955   5.2856489898e+01   4.7356558322e+01    0.6588362    0.3023465  45.20  0.002026288    2.147    0.534
       266 -11.5765    126.8527     46.4982   5.0651943974e+01   4.6861798413e+01    0.5428984    0.3885449 -67.22  0.002750222    1.755    0.430
       267  -9.9576    131.2202     45.9921   4.9552862897e+01   4.5913042364e+01    0.2100473    0.1991386  82.01            0    1.058    0.055
       268  -8.5448     82.0168     55.2168   6.5917239989e+01   5.5248265387e+01    0.1876869    0.1062194  42.94 0.0005497556    1.676    0.403
       269  -9.2269    192.4501     52.8100   4.1074000064e+01   3.0678085720e+01    0.2536708    0.1567039  50.40  0.001113206    1.844    0.458
       270 -10.1517    146.0552     52.5585   4.8491144934e+01   4.1490161262e+01      0.38551    0.2589089  81.96  0.001165745    1.727    0.421
       271  -8.8624    106.8070     52.8542   5.7612785109e+01   5.0484041786e+01    0.2099021    0.1772034  28.28 0.0004126133    1.194    0.163
       272  -9.7299     61.2787     52.1323   7.2315119709e+01   5.9479342394e+01    0.2449597    0.2004455  22.01 0.0004933582    1.134    0.118
       273  -9.4455     55.9026     45.3818   7.1935127970e+01   6.1469627901e+01    0.2191957    0.2139881 -11.59 0.0006864057    1.289    0.224
       274 -11.8707     68.8682     47.9407   6.7899673452e+01   5.8868007279e+01    0.3794533     0.312776 -57.96  0.000323904    1.632    0.387
       275 -12.5223     62.0391     44.2001   6.9059903417e+01   6.0646553072e+01    0.3707723    0.3406001   5.18 0.0004872011    1.111    0.100
       276  -9.4076    175.2507     49.7981   4.2767430954e+01   3.5026883680e+01    0.3232492     0.235136  -2.13  0.001607193    2.257    0.557
       277  -9.0737    165.7967     51.5920   4.4710371325e+01   3.6975478294e+01    0.1934015    0.1236432  76.95  0.000530293    1.626    0.385
       278 -10.9615    153.5355     47.7578   4.5754423562e+01   4.0405100897e+01    0.3830912    0.3006088  74.17 0.0008719149    1.201    0.168
       279  -9.8289    201.8312     47.2184   3.8591756609e+01   2.9389480113e+01    0.2500344    0.2197002   8.98            0    1.686    0.407
       280  -9.0908    197.1452     48.4684   3.9450511742e+01   3.0246879011e+01    0.2472521    0.1819082  75.62  0.000647012    1.290    0.225
       281  -8.6027    142.5306     49.4837   4.8290924647e+01   4.2764294156e+01    0.1385376    0.1273853  72.14 8.283812e-06    1.005    0.005
       282  -9.0416     87.0414     48.9799   6.2074853445e+01   5.5246907054e+01    0.2174514    0.1903684  27.24 0.0009207606    1.044    0.043
       283  -9.0937    182.1590     48.3590   4.1407304401e+01   3.3637759181e+01    0.2081352    0.1558988  55.25  0.000975865    1.411    0.291
       284 -10.7275     79.8421     43.1562   6.2290660615e+01   5.7544245527e+01    0.4398843    0.3226289  66.20  0.002308845    1.835    0.455
       285  -8.5166    235.0678     47.1479   3.5056008233e+01   2.2500110335e+01     0.167322    0.1129004 -66.34 0.0003951593    1.269    0.212
       286  -9.8082    145.9498     45.9126   4.6607347146e+01   4.2454001221e+01     0.307335    0.1961077 -35.71 0.0007100129    1.683    0.406
       287  -9.0950    144.4899     41.5242   4.5613930708e+01   4.3388000706e+01    0.2939062    0.1881409  63.75 0.0009755657    1.430    0.301
       288  -8.8610    207.0413     46.1443   3.7743195590e+01   2.8406596835e+01    0.1714262    0.1596935 -79.50 0.0003537082    1.194    0.162
       289  -8.7145    232.7196     51.5580   3.6167625227e+01   2.2352220512e+01     0.152032    0.1040989 -86.71 0.0003351492    1.422    0.297
       290  -9.1863    245.1710     44.8018   3.3689934847e+01   2.0876786718e+01    0.1855867    0.1295417 -67.54 0.0009373517    1.179    0.152
       291 -10.9092    106.6619     43.6246   5.4560194876e+01   5.1856387212e+01    0.5371646    0.3123491  46.68 0.0004882037    1.565    0.361
       292 -10.0503     91.9940     42.1417   5.8115499511e+01   5.5227428248e+01     0.545445    0.4113039  68.84  0.002936051    1.624    0.384
       293  -8.9683     93.3560     38.2857   5.6334588770e+01   5.5465512534e+01    0.2366149    0.1409642  33.02 0.0006461373    1.775    0.436
       294  -9.8547     94.9483     35.0838   5.4732422367e+01   5.5542340723e+01    0.4001141    0.2020473  49.49  0.001229067    1.743    0.426
       295  -8.8432    185.1804     43.9059   3.9907878422e+01   3.3558667487e+01    0.1695757    0.1507777  51.15 0.0004315609    1.332    0.250
       296  -9.8658    177.5986     43.7036   4.0891713070e+01   3.5323256541e+01    0.4017588    0.2075674  86.72  0.001691489    2.548    0.608
       297  -8.5629     86.7239     43.5531   6.0224776539e+01   5.6114993498e+01    0.1784999    0.1250527  55.69 0.0006726976    1.502    0.334
       298  -9.0807     71.3337     42.6778   6.5033394057e+01   5.9230782581e+01    0.2997556    0.1904136  -6.17 0.0007720239    2.078    0.519
       299  -9.4996     75.0388     22.9716   5.6052140459e+01   6.1100795330e+01    0.1899285    0.1650591   6.23 0.0003153358    1.146    0.127
       300 -10.1891     74.1744     35.8703   6.1433534928e+01   5.9665150639e+01    0.5404878    0.3811186   5.23  0.002102785    1.623    0.384
       301 -10.5956     80.7544     31.6671   5.7658283539e+01   5.8923024172e+01    0.5757795    0.2810492  48.49  0.001794408    1.827    0.453
       302  -9.6077     71.4600     29.5069   5.9855286342e+01   6.1015931298e+01    0.2812224    0.2355141 -25.63  0.001770823    1.302    0.232
       303  -9.8269     75.9389     27.4880   5.7564328691e+01   6.0395826194e+01    0.4259394    0.2110987  47.80  0.002075759    1.782    0.439
       304 -10.8855    227.7493     40.3000   3.4363788259e+01   2.4873552354e+01    0.4755875    0.3004693 -41.66  0.001772681    1.501    0.334
       305 -10.0663    222.6031     40.3842   3.4870825688e+01   2.5908367808e+01    0.2401054    0.1946339 -67.66 0.0005885964    1.033    0.032
       306 -10.6861    227.2136     33.0032   3.2937448493e+01   2.5924133744e+01    0.4451551    0.1656722  62.23 0.0002306945    2.692    0.628
       307 -11.6512    235.0148     29.7741   3.1640968507e+01   2.4776299342e+01      0.29547    0.2120272  63.34 0.0005337897    1.616    0.381
       308  -8.4081    196.6428     41.1854   3.7829437656e+01   3.1347494021e+01     0.165073    0.1205294 -27.73 0.0008155403    1.684    0.406
       309  -9.9400    158.3376     39.2479   4.2612124038e+01   4.0409910515e+01    0.3058631    0.2110052  71.08            0    1.337    0.252
       310  -9.7603    127.2423     39.8239   4.8490961450e+01   4.7667473110e+01    0.3600996    0.2388192  56.76  0.001505744    1.354    0.261
       311  -9.1984    131.0987     35.6788   4.6421461508e+01   4.7289828546e+01    0.2866234    0.2236955 -61.16  0.001003337    1.434    0.303
       312  -9.6393    121.1364     39.1263   4.9592111065e+01   4.9174797760e+01    0.2902037    0.2275548 -59.56  0.001301811    1.477    0.323
       313 -11.0663     40.1205     39.5270   7.6429487575e+01   6.4748581063e+01     0.215145    0.1704495 -13.43 0.0002676261    1.112    0.101
       314  -9.8467     10.7087     31.7995   8.8119890376e+01   6.9275575014e+01    0.6489232    0.1873727  26.57  0.002829076    3.325    0.699
       315  -9.7501      7.5262     39.4736   9.2600052713e+01   6.8162815620e+01    0.2348705     0.171624   1.06 0.0007604617    1.289    0.224
       316 -11.1409      5.3015     36.2686   9.2692363577e+01   6.8904861518e+01    0.4468257    0.3092437   6.07  0.001900723    1.390    0.281
       317  -9.3188    203.3164     39.0338   3.6577444056e+01   3.0164913027e+01    0.1774288     0.138236 -57.28 0.0004055393    1.161    0.139
       318  -9.6672    103.8300     38.4148   5.3517753467e+01   5.3181977882e+01    0.2788713    0.1888686 -28.80  0.001187902    1.632    0.387
       319 -10.1303    178.3395     37.1592   3.9160676302e+01   3.6009680914e+01    0.3258753    0.2314523  64.21  0.001266517    1.335    0.251
       320  -9.0577    150.3843     38.1346   4.3611331946e+01   4.2431159622e+01    0.2929876    0.1581608  64.06 0.0008369052    1.684    0.406
       321  -9.9566    137.2450     37.4886   4.5778399170e+01   4.5618524209e+01    0.3912556    0.2190032  44.58 0.0007932366    1.868    0.465
       322  -8.4942     53.2330     38.2982   7.0263102565e+01   6.3003882013e+01    0.1239334   0.08783423  -2.85            0    1.469    0.319
       323  -9.6038    240.0247     37.5103   3.2725781344e+01   2.2819714559e+01    0.2745511    0.1061739  70.88  0.001080632    2.637    0.621
       324  -8.8417    183.0333     27.7077   3.6267465870e+01   3.6097017346e+01    0.2238971    0.1562019 -65.25  0.001304073    1.356    0.263
       325  -9.1229    185.9012     35.9260   3.7892721425e+01   3.4438662493e+01    0.3847001    0.1764947 -61.33  0.001632502    2.636    0.621
       326  -9.5808    183.6945     31.6217   3.7129151729e+01   3.5475931739e+01    0.3102652    0.1644818  81.02  0.001510301    1.919    0.479
       327 -10.5233    115.6353     34.9712   4.9480449066e+01   5.0963211616e+01    0.4853155    0.3369029  57.10  0.001840598    1.289    0.224
       328  -9.3365    248.9690     36.2847   3.1770849107e+01   2.1284502051e+01    0.1641628    0.1247309 -73.48   0.00115408    1.082    0.076
       329  -9.0967    165.0290     36.2866   4.0796759080e+01   3.9213240975e+01    0.3274476    0.1488989  72.44  0.001401906    2.254    0.556
       330 -10.5303     87.6479     33.9593   5.6418831795e+01   5.7224867322e+01    0.4713719    0.2902235  24.60  0.001780994    1.913    0.477
       331  -8.8685     56.5366     35.5224   6.7808951723e+01   6.2876093524e+01    0.2046036    0.1795537  48.86 0.0005298647    1.423    0.297
       332  -8.3928     55.0000     31.9659   6.6970753268e+01   6.3635465729e+01     0.278744    0.1531766 -26.00   0.00102399    1.938    0.484
       333  -9.5675     60.8590     34.1604   6.5568369601e+01   6.2334082233e+01    0.2401903    0.1757696 -29.23 0.0004446993    1.416    0.294
       334 -10.0037     62.7031     31.3543   6.3731674665e+01   6.2392572057e+01    0.3643618    0.2980327   9.46  0.002293027    1.116    0.104
       335  -9.2463     53.0111     16.5355   6.1107663505e+01   6.5913325448e+01    0.2081504    0.1454946   0.88 5.912805e-05    1.454    0.312
       336  -9.5252     30.7452    247.8894   1.1618157293e+02   1.7236689487e+01    0.2146272    0.1392035  86.76  0.001321344    1.443    0.307
       337  -8.6511    162.7109    246.3564   8.7785339477e+01  -5.9825000597e-01    0.1203688   0.09921294  62.06 0.0007026008    1.681    0.405
       338  -9.9006     42.3493     30.5360   7.1745699909e+01   6.5814810131e+01     0.405957    0.2097704 -42.47  0.001712554    2.167    0.539
       339  -8.4606    218.9726    245.7027   7.6500869973e+01  -8.0639156332e+00    0.1919461   0.08129711  13.54 0.0007023952    4.102    0.756
       340  -8.9483      1.3925    244.2453   1.2170977701e+02   2.1013666568e+01    0.1576269   0.08526718  81.19 0.0004659663    1.585    0.369
       341  -9.8223     40.9574     21.1705   6.8274850986e+01   6.7304764519e+01    0.2524766    0.2250107  17.09 0.0008013911    1.249    0.199
       342  -8.3239     44.0118    243.7921   1.1317357521e+02   1.6551432390e+01    0.1623078   0.08682317  35.85 0.0008597764    1.698    0.411
       343  -8.9654    244.9398    242.2420   7.1292796850e+01  -1.0599238531e+01    0.1606616    0.1203094   2.44 0.0009389998    1.116    0.104
       344  -9.9037     34.4828     31.7206   7.5880267954e+01   6.6728086312e+01    0.2590495    0.1774676  22.68  0.001537439    1.337    0.252
       345  -9.5490    102.1900    240.1446   1.0014374614e+02   9.5100152233e+00    0.2734009   0.08541112 -52.94  0.001028523    3.440    0.709
       346  -9.2440    127.7509    240.5812   9.4511914390e+01   5.6258046300e+00    0.1998217    0.1075943  42.44 0.0009558733    1.698    0.411
       347  -9.7757    146.0014    242.2881   9.0754858495e+01   2.5721915240e+00    0.1924782    0.1568597  28.02  0.000943627    1.073    0.068
       348  -8.4846    188.6705    239.6905   8.1402334372e+01  -3.1668485351e+00    0.1329747   0.08729549  -2.84 0.0007040869    1.665    0.399
       349  -9.0620    208.7188     33.0503   3.4689677109e+01   2.9765597632e+01    0.2959744    0.1213295 -52.51    0.0013681    2.276    0.561
       350  -8.8581    145.6911     34.0436   4.3249662750e+01   4.4049935472e+01    0.2489547    0.1757206  66.00  0.001368323    1.268    0.212
       351 -10.5777    145.6023     29.0650   4.1839834037e+01   4.4661071535e+01    0.5096778    0.2716109  66.43 0.0009966908    1.683    0.406
       352 -12.3738    107.8033     29.0047   4.9292977764e+01   5.3451053246e+01    0.3983701    0.3121561  13.51  0.002306534    1.486    0.327
       353  -8.7483    160.6294     31.9257   4.0289676527e+01   4.0781744988e+01    0.2370763     0.155306  59.86  0.001028191    1.407    0.289
       354 -10.0344     49.6862     33.3703   6.9740704182e+01   6.4293806887e+01    0.4300542    0.2061817  23.88  0.001908187    2.494    0.599
       355  -9.7239    248.1523     30.4695   3.0753853762e+01   2.2173455729e+01    0.2188542    0.1655753 -53.43 0.0008771993    1.191    0.160
       356  -9.8494    133.8920     29.3910   4.3973321610e+01   4.7383822783e+01    0.3829136    0.2622637   8.63  0.001934707    2.190    0.543
       357  -8.6258    218.4760     30.4926   3.3209143871e+01   2.8027621201e+01    0.1229508   0.09751414 -72.88 -2.027589e-05    1.006    0.006
       358  -9.1662     93.8998     29.9750   5.3169852245e+01   5.6395675979e+01    0.2219578    0.1631929  47.80 0.0003618901    1.194    0.162
       359  -9.0423    189.9204     28.5024   3.5664991211e+01   3.4447659593e+01    0.1800639    0.1500382 -79.89 0.0005166836    1.016    0.016
       360  -9.4747    117.4031     27.5580   4.6656844027e+01   5.1431124415e+01    0.3724336    0.1557669  55.24  0.001630109    2.011    0.503
       361  -9.3844    223.1864     26.6035   3.1995660080e+01   2.7534897000e+01    0.2058101    0.1672974  56.03  0.001047318    1.592    0.372
       362 -10.1128    212.8664     26.1189   3.2809034145e+01   2.9736085640e+01    0.2755688    0.1641814  60.17 0.0008089583    1.797    0.443
       363  -8.9431    161.5987     26.6209   3.8741126307e+01   4.1176383254e+01    0.1777261    0.1390234  43.46 0.0004613165    1.484    0.326
       364  -9.7326    100.8384     26.2135   5.0006491321e+01   5.5319256372e+01    0.2928582    0.1728151  54.27 0.0008071081    1.473    0.321
       365 -10.0164    204.9675     24.2330   3.3145609206e+01   3.1644971417e+01    0.3442469    0.2500723  42.89   0.00174943    1.962    0.490
       366  -9.4425    208.5930     22.8525   3.2508801942e+01   3.1029792297e+01    0.1899007    0.1326824 -72.09 0.0003412764    1.223    0.182
       367  -8.6442     82.7968     25.7819   5.4765953642e+01   5.9217012921e+01    0.1556335    0.1415721  65.40 0.0002112049    1.270    0.212
       368  -8.9559     68.0684     25.4889   5.9395509698e+01   6.2153441934e+01    0.1867203    0.1612367   1.21 0.0005954852    1.139    0.122
       369 -10.8896      2.1081     25.2336   9.0429633251e+01   7.1052119675e+01    0.2198358    0.1499977 -32.83 0.0003281326    1.184    0.155
       370 -10.0039    247.0775     24.1773   2.9672271368e+01   2.3147074871e+01    0.1881633    0.1327378 -53.08 0.0005622189    1.203    0.169
       371  -9.5870    232.3770     23.6627   3.0664077122e+01   2.6041672234e+01    0.3566594    0.1915381 -85.90  0.002031252    1.812    0.448
       372  -8.2996    228.6810    233.7207   7.2746959220e+01  -7.4853022588e+00    0.1234698   0.07760535  -4.93 0.0002715857    1.579    0.367
       373  -9.1211    177.3560     23.6903   3.5964688079e+01   3.7857768273e+01     0.190027    0.1191714 -42.77 0.0009048667    1.608    0.378
       374  -9.7622    173.9151     23.0847   3.6228815366e+01   3.8716033395e+01    0.2978062    0.2730442  79.44  0.000912611    1.159    0.138
       375  -9.0317    221.9583    233.4826   7.3936189156e+01  -6.6129838307e+00    0.1741061    0.1079122  26.36 0.0004958267    1.542    0.352
       376  -8.9159     32.0099    232.4956   1.1485290528e+02   2.0350083352e+01    0.1868099    0.1446085  85.32 0.0004924603    1.161    0.138
       377  -8.8347    177.9208    231.0000   8.2200247824e+01  -1.5449528613e-01    0.2191543   0.06837947  34.37 0.0008067336    2.972    0.664
       378  -8.4902      3.3785    230.1560   1.2062679152e+02   2.3786233414e+01    0.1612055   0.08931743  82.90 0.0003878042    1.560    0.359
       379  -8.5460    163.3369    226.6865   8.4598967520e+01   2.8224733875e+00    0.1400283    0.1231623  10.51 0.0005305636    1.013    0.013
       380  -8.3947    161.3034    224.2984   8.4652112230e+01   3.5849492152e+00    0.1398005    0.1278602  29.64 0.0003031667    1.135    0.119
       381  -9.1062    223.9872    225.0065   7.2120470344e+01  -5.5624749210e+00    0.1897076    0.1529299  -5.63 0.0005739327    1.023    0.022
       382  -8.3274    143.4395    225.5468   8.8813595565e+01   6.1403576099e+00      0.13658    0.1234087  19.67 0.0001047699    1.009    0.009
       383  -8.9599    132.1322    225.1780   9.1321205723e+01   7.9931955204e+00    0.1833328    0.1568415  58.85 0.0004640222    1.291    0.225
       384  -8.8251    196.8581    221.7377   7.6762053923e+01  -1.3105448368e+00    0.2336531    0.1292199  -6.65 0.0009617492    2.877    0.652
       385  -8.9758     80.4885     19.0014   5.2800206407e+01   6.0434721449e+01    0.1642109    0.1231994 -16.31 0.0003457424    1.469    0.319
       386  -9.5847     89.1813    220.7179   1.0073030004e+02   1.5546213065e+01    0.2654672    0.2348319  17.17 0.0008497861    1.260    0.207
       387  -8.5366    117.5077    212.0061   9.2744408116e+01   1.3110055252e+01    0.2018296    0.1418846 -57.02  0.000585324    1.523    0.344
       388  -9.0493    242.7720    210.0882   6.6177522013e+01  -5.6195743384e+00    0.1772477    0.1461164 -32.84 0.0007572571    1.288    0.223
       389  -8.4462    230.5973    209.7746   6.8243496561e+01  -3.9995756870e+00    0.1659533    0.1074319 -41.05 0.0005455954    1.516    0.340
       390 -11.1342     62.1360     22.3684   6.0203649525e+01   6.3623708802e+01    0.2862099    0.2587652  25.90 0.0006273465    1.157    0.135
       391  -8.0598    145.3002    210.2806   8.5915383945e+01   8.9349859937e+00    0.1404521    0.1070319  -5.22 0.0002859846    1.545    0.353
       392  -8.3800    169.4869     23.4458   3.6869092197e+01   3.9698004497e+01    0.1286831    0.1083774  88.53 5.006988e-05    1.009    0.009
       393  -8.5834    123.4903     23.5451   4.4126127942e+01   5.0463173671e+01    0.1322685     0.112971  56.18 5.141038e-05    1.054    0.051
       394  -9.8425    116.9792     22.2339   4.5000026002e+01   5.2106326491e+01    0.1973396    0.1821415  10.86 0.0003421152    1.226    0.184
       395  -8.7211    194.5109    209.4740   7.5067367978e+01   1.2038760935e+00    0.1364492    0.1169655  -5.87 0.0002556496    1.027    0.027
       396  -9.8531    123.9990    205.9984   9.0235721285e+01   1.3379404745e+01    0.2029088    0.1925658  25.98  0.001164692    1.022    0.021
       397  -8.9203     11.3210     23.1852   8.4303014190e+01   7.0635337201e+01    0.1520117    0.1146221 -21.94 0.0008630505    1.101    0.092
       398  -8.8069     35.2017    201.4091   1.1154293361e+02   2.7138551374e+01    0.1847458    0.1073565  45.13 0.0007629824    1.606    0.377
       399  -9.1738    225.6343     16.2233   2.9729184551e+01   2.8257500229e+01    0.2292559    0.1592995 -51.46 0.0007398924    1.282    0.220
       400  -8.4042    221.4789    198.5146   6.7838294266e+01  -8.5801703641e-01    0.1332848    0.1087771 -14.89 -1.171262e-05    1.051    0.048
       401  -9.7202    193.1065     19.9703   3.3364120894e+01   3.4727848297e+01    0.4741302    0.1787072  56.27 0.0009872261    2.733    0.634
       402  -9.2912    195.2067     16.1587   3.2300975160e+01   3.4686620357e+01     0.234195    0.1710944  90.00  0.001048077    1.155    0.134
       403  -8.5220     96.1840    195.6031   9.5499063618e+01   2.0297159489e+01    0.1950933    0.1392593  22.43 0.0004820095    1.562    0.360
       404  -9.2293      7.2561    195.0972   1.1764715758e+02   3.1413169292e+01    0.3271651    0.1766285  32.82  0.001757846    1.914    0.478
       405  -9.1542    112.3027     20.0036   4.5230895954e+01   5.3406485846e+01    0.2320179    0.1570615  61.71 0.0008238777    1.294    0.227
       406  -8.6971    139.9570     18.5351   3.9713640028e+01   4.7132928861e+01    0.1806994    0.1674787 -49.17 0.0008651983    1.217    0.178
       407  -9.8195    238.4150     17.1351   2.8975013863e+01   2.5628811403e+01    0.1873634    0.1622326  74.62 0.0006678721    1.431    0.301
       408  -8.4636    241.9652    193.7633   6.3361705448e+01  -2.9035704080e+00    0.1445236    0.1011039  27.37 0.0004358112    1.562    0.360
       409  -8.5029     31.6861    181.3064   1.1041807051e+02   3.2477552655e+01    0.1429999   0.08992103  65.70 0.0007025601    1.623    0.384
       410  -9.8252     18.0310    174.6254   1.1330100912e+02   3.5487464331e+01    0.2761473    0.1984168 -16.23  0.001188845    1.977    0.494
       411 -10.1181     21.5796    160.1745   1.1084513821e+02   3.8839816928e+01    0.3889116    0.2297985 -17.79  0.001759054    2.654    0.623
       412 -11.0803     10.0635    166.9117   1.1466964317e+02   3.8103861968e+01    0.4528804    0.2867242  35.96  0.002505064    1.685    0.406
       413  -9.7826     15.1656    165.0613   1.1312746204e+02   3.8151921412e+01    0.2264371    0.1969265  -8.58  0.000295732    1.462    0.316
       414  -9.3161     19.5006    164.4796   1.1188917273e+02   3.7924802556e+01    0.2101502    0.1474447 -44.62 0.0006494385    1.577    0.366
       415 -11.9391     30.6812    154.4989   1.0755591519e+02   3.9447233208e+01    0.6452218    0.4432936  53.75  0.002901071    1.542    0.351
       416  -8.3947    111.5688     15.1448   4.3748494193e+01   5.4049937322e+01    0.1513101     0.118666  12.43 0.0004607186    1.520    0.342
       417 -12.1883     41.7927    162.6286   1.0542501898e+02   3.6165735013e+01    0.5367978    0.3313046  62.50 0.0005348651    1.824    0.452
       418 -10.9823     35.7860    158.6049   1.0661186506e+02   3.7862723670e+01    0.3688242    0.3148141   8.31   0.00126411    1.410    0.291
       419  -9.3707     24.4958    162.8665   1.1033463720e+02   3.7882528821e+01    0.2072099    0.1731426 -46.17 0.0006077174    1.305    0.234
       420  -8.9810     84.0543     14.0322   4.9837284471e+01   6.0192172786e+01    0.2476271    0.1664895  60.76  0.001422978    1.439    0.305
       421 -10.9052    182.1533     18.5366   3.4176734398e+01   3.7338801385e+01    0.3180098    0.2004382  63.88 0.0008605819    1.483    0.326
       422 -10.2760      8.0643    161.9700   1.1474530155e+02   3.9503905963e+01    0.1970849    0.1618633 -81.02 0.0003443358    1.026    0.025
       423 -10.8495      1.9545    157.1633   1.1595759846e+02   4.1155324302e+01    0.6551251    0.1662552 -72.71  0.002395227    3.055    0.673
       424  -9.5728    248.8645    153.9020   5.4712469085e+01   2.8257900576e+00    0.1984432    0.1508193 -23.29 0.0005270767    1.260    0.206
       425 -10.2722     15.7376    142.8799   1.1052012785e+02   4.3769683761e+01     0.319528    0.2467746 -46.77 0.0001972431    1.311    0.237
       426  -9.8454      9.0764    147.6743   1.1303208590e+02   4.3049687181e+01    0.2777806    0.1990704 -26.26  0.001516545    1.727    0.421
       427 -10.5146     19.9553    151.2816   1.1028271372e+02   4.1265919533e+01    0.5079581    0.2030777 -61.93  0.002169885    2.050    0.512
       428 -11.3007     14.3469    150.6547   1.1183567583e+02   4.1889242526e+01    0.4249927    0.2982653   7.38 0.0003948515    1.814    0.449
       429  -9.4058     45.9069    151.7500   1.0265846747e+02   3.8529357411e+01     0.235621    0.1852844 -67.59 0.0003436389    1.157    0.136
       430  -8.2247     63.0369    148.9628   9.7024367155e+01   3.7089429801e+01    0.1703313    0.1639606 -81.95 0.0003315084    1.034    0.033
       431  -9.1418     35.5357    149.0726   1.0537921373e+02   4.0366492131e+01    0.2133565    0.1254707 -68.39  0.000303044    1.518    0.341
       432 -10.0878      3.1388    146.2872   1.1459860083e+02   4.3812570852e+01    0.3437964     0.213802 -45.52  0.001444691    1.669    0.401
       433  -9.0081     38.1344    143.1864   1.0371605624e+02   4.1626493442e+01    0.2043394    0.1751866 -45.82 0.0003269787    1.181    0.153
       434 -10.2164     21.1669    140.4987   1.0856865960e+02   4.3938102366e+01    0.3810809    0.2014274 -57.30   0.00182299    1.629    0.386
       435  -9.8615     41.3997    138.7261   1.0198699847e+02   4.2434409681e+01    0.3503031    0.2172709  63.15  0.001581689    2.013    0.503
       436  -9.8528     41.3269    134.0575   1.0123015887e+02   4.3653433116e+01    0.3007881     0.228812 -70.76 0.0007212535    1.227    0.185
       437  -9.3432     41.9959    130.5124   1.0039732642e+02   4.4495839221e+01    0.2684934    0.1893882  -6.39  0.001236194    1.813    0.449
       438  -9.5327      2.4186    133.8503   1.1350122889e+02   4.6993993084e+01    0.3161565     0.190459  29.19  0.001716867    1.896    0.472
       439 -10.3825      7.9784    133.0354   1.1169640206e+02   4.6843923263e+01    0.4150684    0.2591991 -18.57  0.002147348    2.070    0.517
       440  -9.1092     15.4664    135.4736   1.0967304673e+02   4.5686176831e+01    0.2094284    0.1911035 -27.76 0.0006181597    1.240    0.193
       441 -10.5749     12.3516    135.2369   1.1061060039e+02   4.5979088466e+01    0.4785479    0.1742294 -71.40  0.001862976    2.331    0.571
       442  -9.1050    230.6796    136.9501   5.4116681851e+01   8.7143112057e+00     0.193824    0.1531758 -40.74 0.0005628501    1.074    0.069
       443 -10.0282     34.7607    135.9795   1.0365364791e+02   4.3846703425e+01    0.4058094    0.1745374 -49.84  0.001197111    2.148    0.535
       444  -8.8851    235.5243    136.6509   5.3307335997e+01   7.9467626185e+00    0.1970565    0.1277851  47.76  0.000747471    1.837    0.456
       445  -8.6424     58.4827    135.5333   9.5976988781e+01   4.1194435244e+01    0.2560103    0.1598706 -42.11 0.0005584647    1.656    0.396
       446 -10.3049     60.4611    131.1230   9.4478247670e+01   4.2066460831e+01    0.4277621    0.3469285  58.05  0.002210654    1.373    0.272
       447  -8.5933    248.7798    134.0356   5.0847224364e+01   6.2357056603e+00    0.1784617   0.08723278 -41.66 0.0004785757    1.660    0.398
       448  -9.2123     47.0548    133.0613   9.9201471996e+01   4.3261737827e+01    0.2294181    0.1651965  68.87 0.0005386641    1.669    0.401
       449  -9.9352      1.8321    139.1673   1.1425072277e+02   4.5691428858e+01    0.3414983    0.1830388 -85.40  0.001059202    1.733    0.423
       450  -9.2548      2.1711    129.9756   1.1314021983e+02   4.7982761201e+01    0.1923444    0.1875707  54.80 0.0005538816    1.212    0.175
       451 -10.4600     34.8677    126.9281   1.0212713897e+02   4.6168935036e+01    0.4813286    0.2535757 -52.82  0.001727655    1.666    0.400
       452  -9.0806     39.2454    123.1702   9.9989413124e+01   4.6677336518e+01    0.2696196    0.1763696 -43.13 0.0006355478    1.484    0.326
       453 -10.0188      6.4610    128.4725   1.1161507582e+02   4.8096115088e+01      0.29895    0.1896988  78.90  0.001559367    1.729    0.422
       454  -9.4811     18.5632    126.6652   1.0747203254e+02   4.7693043566e+01    0.3390144    0.1604004 -55.42 0.0005835098    1.765    0.433
       455  -8.0777    114.8003    126.9802   7.6809334749e+01   3.3891915041e+01    0.1991857    0.1225195 -49.08            0    1.596    0.373
       456 -10.1465     50.0119    126.7199   9.7045343535e+01   4.4541460922e+01    0.4248483    0.1856703  28.65  0.001341753    2.444    0.591
       457  -8.7209     12.5455    126.9942   1.0947636380e+02   4.8059248905e+01    0.2126094    0.1120824 -68.43  0.001025465    1.586    0.369
