#   1 NUMBER                 Running object number                                     
#   2 MAG_AUTO               Kron-like elliptical aperture magnitude                    [mag]
#   3 X_IMAGE                Object position along x                                    [pixel]
#   4 Y_IMAGE                Object position along y                                    [pixel]
#   5 X_WORLD                Barycenter position along world x axis                     [deg]
#   6 Y_WORLD                Barycenter position along world y axis                     [deg]
#   7 A_WORLD                Profile RMS along major axis (world units)                 [deg]
#   8 B_WORLD                Profile RMS along minor axis (world units)                 [deg]
#   9 THETA_WORLD            Position angle (CCW/world-x)                               [deg]
#  10 FWHM_WORLD             FWHM assuming a gaussian core                              [deg]
#  11 ELONGATION             A_IMAGE/B_IMAGE                                           
#  12 ELLIPTICITY            1 - B_IMAGE/A_IMAGE                                       
         1 -16.1068    248.5542     73.1656   4.5063234988e+00   1.8278394479e+01     7.494992     0.847241 -35.24   0.02130455    7.186    0.861
         2 -14.0500    248.0669    119.4530   1.3124945522e+01   1.2203925526e+01     1.723062    0.5598966 -50.48  0.006476021    4.802    0.792
         3 -12.8401     12.1325     24.0083   5.2198231910e+01   7.4829177983e+01    0.6702533    0.3173404 -28.62  0.002731988    2.778    0.640
         4 -10.8759     20.0297     14.3227   3.9595630589e+01   7.5548193920e+01    0.2474049    0.1742412  -9.69  0.001333903    1.646    0.393
         5 -12.5303      6.4416     11.3343   5.0391105961e+01   7.7929286615e+01    0.6813844    0.4105838 -18.17   0.00350018    1.881    0.468
         6 -11.3125     13.6965     12.8027   4.4133852262e+01   7.6750708801e+01    0.2563371    0.1800186 -14.70  0.001423249    1.544    0.353
         7 -12.2152     15.4798      7.3267   3.8558282983e+01   7.7396624800e+01    0.5008252    0.3030102  -5.88  0.001913777    2.415    0.586
         8 -11.9468     25.6678      4.1106   2.7784627462e+01   7.6064911743e+01    0.4120964    0.2437966  22.71  0.002021328    2.026    0.507
         9 -11.8317     10.1531      2.1694   3.9621407349e+01   7.9007330967e+01    0.5447094    0.2004616  30.14  0.002216812    2.772    0.639
        10  -9.8236    214.6493    239.7001   3.7599869753e+01  -5.9565158320e-01    0.1126308   0.06063375  -8.14 0.0007037384    1.692    0.409
        11 -11.8089    242.7569    246.0046   3.4125488850e+01  -3.6242001037e+00    0.3270358    0.1447452 -27.29  0.001544165    1.735    0.424
        12 -11.3821    246.9705    206.0004   2.7767359580e+01   7.7044632367e-01    0.2411486    0.1198301 -38.82  0.001484005    1.806    0.446
        13 -12.7116    248.7747    214.9055   2.8851795442e+01  -4.7925073446e-01    0.6575875     0.201351 -33.30  0.003521745    2.532    0.605
        14 -11.1572    249.1124    250.0400   3.3753346858e+01  -4.5343817853e+00    0.2766463    0.1455654  13.71  0.002102156    1.674    0.403
        15 -10.9160    249.1637    245.1688   3.3089567310e+01  -4.0069336647e+00    0.2692794    0.1100111 -21.17   0.00168566    2.105    0.525
        16 -11.8154    247.2575    239.7208   3.2615186484e+01  -3.2585949883e+00    0.3601668    0.1577003 -28.90  0.001951749    1.730    0.422
        17 -11.4973    250.0336    233.2807   3.1325104508e+01  -2.7406429549e+00    0.3468103    0.1477151 -30.65  0.002219001    1.774    0.436
        18 -11.6760    249.0888    225.5115   3.0354253731e+01  -1.7681006343e+00    0.3514393    0.1441467 -34.54  0.001930684    1.917    0.478
        19 -11.2391    225.2702    248.8045   3.7149608957e+01  -2.5857152235e+00    0.2227148    0.1193345 -23.14  0.001424239    1.461    0.316
        20 -11.7921    211.9565    248.4257   3.9238648287e+01  -1.4411426474e+00    0.3190146    0.1666803 -18.68  0.002109022    1.628    0.386
        21 -11.6979     36.6292    248.4018   7.6483548664e+01   1.6275508134e+01    0.4770858    0.1880234  41.24  0.002351554    1.923    0.480
        22 -13.1321     11.8659    216.8934   8.1188176325e+01   2.4997731792e+01    0.6719493    0.2503133  44.63   0.00292642    2.081    0.519
        23 -12.8518     15.8266    240.2812   8.1089606497e+01   1.9717742716e+01    0.6883128    0.2730687  38.90  0.003186383    1.805    0.446
        24 -12.6437      2.3165    211.0425   8.3488188223e+01   2.7057869412e+01    0.9085795    0.2829867  88.29   0.00348281    3.553    0.719
        25 -12.1168     13.9140    231.9269   8.1245912423e+01   2.1587657713e+01    0.4816025    0.2415958  51.24  0.002257857    1.677    0.404
        26 -12.5627     11.1369    225.7094   8.1709954433e+01   2.3131102164e+01    0.5063573    0.2212903  40.72  0.002480613    1.727    0.421
        27 -12.5779      6.5906    236.5636   8.3184640905e+01   2.1225574743e+01    0.6675645    0.2895832  44.50  0.003477512    1.730    0.422
        28 -11.9064     12.1204    248.8544   8.2255394129e+01   1.8338859280e+01    0.4909182    0.2009293  32.01  0.001959862    1.722    0.419
        29 -12.1978      4.7818    228.2561   8.3380547015e+01   2.3094305664e+01    0.5801863    0.2910823  54.07  0.002704637    1.680    0.405
        30 -11.6784      2.3594    220.6821   8.3765909857e+01   2.4908176674e+01    0.4510677    0.2463784  71.68  0.001760002    1.782    0.439
        31 -11.2237      3.3866    250.2536   8.4298560095e+01   1.8770127352e+01    0.3965474    0.1557187  19.48  0.001785448    2.227    0.551
        32 -12.5156      3.3844    243.3211   8.4128029511e+01   2.0119706645e+01    0.6098192    0.3185918  61.75  0.002575593    1.738    0.425
        33 -10.5019    243.5985    225.2663   3.1098010488e+01  -1.2927271543e+00    0.1829149    0.0770166 -37.56  0.001131255    2.057    0.514
        34 -11.3796    243.5412    235.7376   3.2595499985e+01  -2.5177268426e+00    0.2463434    0.1202182 -28.93  0.001350462    1.563    0.360
        35 -11.7164    244.8753    230.3940   3.1649408943e+01  -2.0023252366e+00    0.2688827    0.1327365 -22.85  0.001846323    1.559    0.358
        36 -11.3160    231.2770    235.1464   3.4334329262e+01  -1.4565905947e+00    0.2464353    0.1073799 -33.02  0.001559417    1.868    0.465
        37 -12.2369    236.7469    228.9562   3.2630031115e+01  -1.1669081583e+00    0.2954574    0.1511458 -30.41   0.00203499    1.537    0.349
        38 -10.9582    216.6691    232.4867   3.6252922334e+01   1.3564847762e-01    0.1801894   0.08058462 -36.32  0.001083459    1.969    0.492
        39 -12.5913     26.2549    229.0076   7.8032214023e+01   2.1130271229e+01     0.465661     0.193526  64.02  0.002041668    2.705    0.630
        40  -9.9852    229.4849    227.0456   3.3449321657e+01  -3.1316191978e-01    0.1564163   0.08060411 -32.70  0.001035985    1.600    0.375
        41 -11.9252     20.2546    249.1681   8.0374819095e+01   1.7594373679e+01    0.4805813    0.1932936  33.14  0.002367954    1.743    0.426
        42 -12.4809    238.7017    218.6153   3.0835533522e+01  -6.9794249804e-02     0.405651    0.1413853 -35.28  0.002274094    2.277    0.561
        43 -10.8925    227.5377    219.5055   3.2641204713e+01   8.1208859100e-01    0.2135388   0.08349623 -37.29   0.00120738    2.164    0.538
        44 -11.0163    233.3286    212.0092   3.0639402794e+01   1.2437614811e+00    0.2277237   0.09980317 -30.86  0.001166676    1.815    0.449
        45 -11.8487    239.8976    206.8471   2.8893631461e+01   1.3013809032e+00    0.2298888    0.1195641 -36.58   0.00151534    1.636    0.389
        46 -13.3846     12.1105    205.2780   8.0638510553e+01   2.7625728646e+01    0.6693976    0.3064691  48.78  0.003146852    1.846    0.458
        47 -11.2127    250.1885    200.7662   2.6528149013e+01   1.1362025539e+00    0.3061759    0.1137755 -36.94   0.00147944    2.101    0.524
        48 -12.5682    246.8836    192.9748   2.5767572074e+01   2.4276148380e+00    0.4311136    0.1907887 -44.39  0.002439974    2.484    0.597
        49 -12.2055    243.5266    200.1395   2.7347812743e+01   1.8231917012e+00    0.2967313    0.1421245 -36.82  0.001624364    1.707    0.414
        50 -12.4060      3.5319    197.1499   8.2690416841e+01   3.0208766616e+01     0.517664    0.2718951  67.38  0.002414224    1.812    0.448
        51 -12.9151      3.8878    188.4768   8.2259401380e+01   3.2291421179e+01    0.7574037    0.2771784  58.76  0.003011557    2.585    0.613
        52 -12.3724      2.0274    178.2846   8.2403667775e+01   3.4975576077e+01    0.5164095    0.2699426  81.81  0.002304212    1.895    0.472
        53 -12.1576    249.2166    184.5457   2.4119736584e+01   3.2926372627e+00    0.3405231    0.1733252 -39.58  0.001824971    1.694    0.410
        54 -12.2274    248.5032    176.4801   2.2912315749e+01   4.4186188996e+00    0.3131222    0.1603154 -36.96  0.002025164    1.529    0.346
        55 -12.2436     11.8987    184.5962   7.9712028501e+01   3.2655732199e+01    0.2821444    0.1902013  78.05  0.001478496    1.464    0.317
        56 -12.2510    242.2187    181.1529   2.4511547345e+01   4.4369839005e+00    0.2655493    0.1589895 -44.67  0.001736582    1.823    0.451
        57 -12.7077      6.7152    171.8702   8.0656381048e+01   3.6299508874e+01    0.3594407    0.2164919  83.63  0.001749778    1.641    0.391
        58 -12.4353    247.0142    168.2335   2.1747578179e+01   5.6704588180e+00    0.3641108    0.1397591 -42.86  0.001696392    2.347    0.574
        59 -11.0069      1.5784    170.2466   8.2205303946e+01   3.7072913910e+01    0.2724546    0.1659252 -82.79  0.001348441    1.617    0.382
        60 -12.6231      3.2692    165.5763   8.1450545253e+01   3.8184291907e+01    0.4438966    0.2821668  21.36  0.002232183    1.534    0.348
        61 -14.7499    240.8804    123.0920   1.4587544100e+01   1.2636446655e+01     1.975805    0.3654492 -44.43  0.006372224    5.451    0.817
        62 -14.5818    247.3881    145.2773   1.7791050212e+01   8.7471950269e+00     1.654033    0.5982649 -47.67   0.00756158    3.262    0.693
        63 -11.2739     27.2666    248.6646   7.8709578014e+01   1.7077574515e+01     0.318904    0.1283604  36.44  0.001613288    1.762    0.433
        64 -12.9632      3.2050    128.2629   7.9286433197e+01   4.8377183567e+01    0.5690377    0.2736051 -89.14  0.002331666    2.069    0.517
        65 -10.9272    230.5663    141.2641   1.9189525316e+01   1.1381897809e+01    0.2253041   0.08826867 -41.00  0.001120014    2.047    0.511
        66 -12.4953    234.0940    134.5772   1.7512210358e+01   1.1893316578e+01    0.3711421    0.1528275 -42.97  0.001671604    2.009    0.502
        67  -9.8245    198.6673    135.3300   2.2662098878e+01   1.6804377736e+01    0.1224304   0.09448333 -65.73 0.0007051999    1.722    0.419
        68 -10.5063    221.2723    128.0393   1.7943153759e+01   1.4606538108e+01    0.1789539    0.1269655 -37.30 0.0009555973    1.128    0.114
        69 -11.2971    228.1025    124.6727   1.6416932229e+01   1.4143777603e+01    0.2128675    0.1274434 -42.79 0.0008885707    1.375    0.273
        70 -13.2991      3.4589    144.9497   8.0280687339e+01   4.3730986615e+01    0.7127794    0.3899812  53.75  0.003214425    1.752    0.429
        71 -11.0025    194.3666    246.6202   4.1996367779e+01   3.3962796544e-01    0.2537194   0.07868706 -37.30  0.001255512    2.962    0.662
        72 -12.3086    230.6956    115.2260   1.4299799802e+01   1.5154363724e+01     0.364143    0.1178514 -43.90  0.001637805    2.550    0.608
        73 -12.4170      5.1248    110.2879   7.6988870366e+01   5.3319605466e+01    0.3668724    0.1633282 -65.88  0.001475185    2.026    0.507
        74 -12.4234    248.8444    133.0390   1.5471518724e+01   1.0248984154e+01     1.108794    0.1908451 -41.14  0.004013045    4.399    0.773
        75 -10.4687    222.4231    104.2401   1.3134337481e+01   1.7983959479e+01    0.1765642   0.08842013 -45.06 0.0009512953    1.651    0.394
        76 -12.1729    234.5790    146.3211   1.9578604725e+01   1.0142747110e+01    0.2768312    0.1543244 -38.83  0.001343602    1.420    0.296
        77 -12.3694      1.9185     94.6290   7.6927119009e+01   5.7863069487e+01    0.5165718    0.1793965 -74.05  0.001865474    2.593    0.614
        78 -12.5692      4.2488    136.9610   7.9482681175e+01   4.5890676453e+01    0.5116732    0.2426862  79.58  0.002052974    2.209    0.547
        79 -12.5140      3.0087     77.4741   7.4218105952e+01   6.2513823831e+01    0.8489828          nan -58.39  0.002135077    5.400    0.815
        80 -13.0559      3.3134    153.8565   8.0838405713e+01   4.1311708113e+01     0.671378    0.2413097 -75.95  0.002527485    2.613    0.617
        81 -12.8275      2.8254     50.7621   6.9427151346e+01   6.9474541353e+01    0.5891897    0.2662625 -63.03  0.002581583    2.005    0.501
        82 -12.0386    233.9734    245.1659   3.5315916513e+01  -2.8542860745e+00     0.340866    0.1539623 -25.43  0.002120878    1.767    0.434
        83 -11.8418      1.5736     25.1015   6.2550866689e+01   7.5569879629e+01    0.4327011    0.1487307 -65.30   0.00169921    3.082    0.676
        84 -11.0499     44.7461    244.8518   7.4343068586e+01   1.6187953984e+01    0.2681215    0.1018345  42.48  0.001248574    2.098    0.523
        85 -11.7949    225.7705    241.4591   3.6066949276e+01  -1.7575160832e+00    0.2629841     0.121216 -28.95  0.001703624    1.758    0.431
        86 -12.2629     29.4073    240.4152   7.7814097895e+01   1.8501797571e+01    0.4763928    0.1813875  47.36  0.002229813    2.180    0.541
        87 -11.4762    240.0762    239.6585   3.3647557475e+01  -2.6982902376e+00     0.197059     0.107199 -24.32  0.001194636    1.372    0.271
        88 -10.2527    220.0000    238.9745   3.6633511731e+01  -9.6932086776e-01    0.1573629    0.0486436 -39.11  0.000797857    2.911    0.656
