#   1 NUMBER                 Running object number                                     
#   2 MAG_AUTO               Kron-like elliptical aperture magnitude                    [mag]
#   3 X_IMAGE                Object position along x                                    [pixel]
#   4 Y_IMAGE                Object position along y                                    [pixel]
#   5 X_WORLD                Barycenter position along world x axis                     [deg]
#   6 Y_WORLD                Barycenter position along world y axis                     [deg]
#   7 A_WORLD                Profile RMS along major axis (world units)                 [deg]
#   8 B_WORLD                Profile RMS along minor axis (world units)                 [deg]
#   9 THETA_WORLD            Position angle (CCW/world-x)                               [deg]
#  10 FWHM_WORLD             FWHM assuming a gaussian core                              [deg]
#  11 ELONGATION             A_IMAGE/B_IMAGE                                           
#  12 ELLIPTICITY            1 - B_IMAGE/A_IMAGE                                       
         1 -14.7530    158.9150     44.5373   8.3708206156e+01   3.9715986392e+01     1.383866     1.080982 -25.34  0.003792577    1.343    0.256
         2 -14.7521    171.2041     12.4844   7.0852597330e+01   4.0223583006e+01     1.419344     1.169321  46.73  0.004875648    1.284    0.221
         3 -13.4254    188.9636     13.3292   6.9177569184e+01   3.5305588841e+01    0.7684518    0.4705043 -61.90  0.003387273    1.690    0.408
         4 -11.1269     55.3359      6.3326   9.6932372117e+01   7.0764462754e+01    0.1429071   0.09675978  11.91  0.000705215    1.737    0.424
         5 -10.3556     30.4203    199.6486   1.4812260325e+02   3.1336695627e+01    0.1242458   0.09625229 -84.04 0.0004212232    1.412    0.292
         6 -20.3193     82.0449    180.9432   1.3496917204e+02   2.8715055854e+01     14.13167     6.877615 -69.52   0.07016636    2.386    0.581
         7 -13.4427    145.9977    189.6433   1.2169755829e+02   1.7106325105e+01    0.6038873    0.4838767  43.23  0.003236085    1.106    0.096
         8 -11.0051    218.3007    179.3166   1.0610122383e+02   6.4855150346e+00    0.1261215   0.07938541  11.38 0.0002539956    1.617    0.381
         9 -11.3261    150.8388    239.9925   1.2712725535e+02   9.2555845349e+00    0.1822524    0.1597785  46.55 0.0005220716    1.327    0.247
        10 -12.3585    165.6703    172.3030   1.1480123346e+02   1.6462667940e+01    0.2739108    0.2127921  65.85  0.001534671    1.722    0.419
        11 -12.2581    230.1530    167.1068   1.0189880883e+02   6.0414590034e+00    0.3222665    0.1563569 -38.91  0.001620317    2.448    0.591
        12 -12.3571    167.7078    239.8652   1.2405921397e+02   6.9004174656e+00    0.2059024    0.1496158  28.01 0.0003839202    1.066    0.062
        13 -13.4744    163.8489    157.3410   1.1247333673e+02   1.9225427240e+01    0.4471953    0.3141493  42.71  0.001200718    1.273    0.214
        14 -15.0070    134.2566    147.1565   1.1725634103e+02   2.6701059547e+01     1.504812    0.7120111 -55.92  0.005799327    2.658    0.624
        15 -15.2103    143.5912    143.9454   1.1441072403e+02   2.5509062405e+01     1.146903    0.7971954 -68.63  0.005463978    2.031    0.508
        16 -12.8527    134.5869    109.0711   1.0885804682e+02   3.4220216997e+01     1.204588    0.1946208 -45.43  0.002704815    6.589    0.848
        17 -13.9062    135.3432    130.0500   1.1353392211e+02   2.9841493047e+01    0.9453757    0.3632402 -45.89  0.003438291    2.830    0.647
        18 -12.4709    135.0085    120.2746   1.1144022542e+02   3.1867276612e+01    0.4860074    0.2294015 -50.46  0.001608444    2.365    0.577
        19 -11.3716     29.1285    156.8214   1.4601819723e+02   4.0144858651e+01    0.2749167    0.1906809 -75.63  0.001302454    1.439    0.305
        20 -10.1525      4.2213    157.6536   1.5239964789e+02   4.2077822773e+01    0.1492684    0.1196863 -35.88   0.00102913    1.812    0.448
        21 -11.9972    161.4875    239.2273   1.2510374811e+02   7.8496072955e+00    0.3288545    0.1485063  34.57   0.00137181    1.621    0.383
        22 -11.2619     17.3686    154.1487   1.4891002935e+02   4.1791713388e+01    0.1980494    0.1897834  82.52 0.0006033049    1.290    0.225
        23 -11.5329     18.6455    149.2708   1.4830400762e+02   4.2752961107e+01    0.3731475    0.2254042  62.51  0.002238787    1.382    0.276
        24 -12.8056    153.5958    152.4315   1.1377567614e+02   2.2022314829e+01    0.3498496    0.2542512  87.12  0.001639482    2.333    0.571
        25 -11.1269     28.4134    238.3810   1.5007032084e+02   2.4855736316e+01    0.1234607   0.08472084  82.17 0.0002130303    1.467    0.319
        26 -10.9571    192.2286    153.0249   1.0588183816e+02   1.4543283751e+01    0.1968648    0.1586903 -66.78  0.000843795    1.927    0.481
        27 -13.2176    174.0420    149.3806   1.0877426677e+02   1.8584280517e+01    0.5125805    0.3685262 -52.07  0.002684772    1.754    0.430
        28 -12.2013     21.7291    236.6059   1.5123965821e+02   2.5794832471e+01    0.1726919    0.1211536  68.82  0.001402886    1.235    0.190
        29 -12.2389     27.5019    145.5867   1.4566790408e+02   4.2787108761e+01    0.3577649    0.3225438  34.36 0.0009537329    1.292    0.226
        30 -10.7955     26.0445    138.9867   1.4558575554e+02   4.4417500999e+01    0.2024936    0.1748808  75.42 0.0005640106    1.072    0.067
        31 -12.3135    174.3875    141.0669   1.0699111104e+02   1.9882764166e+01    0.2696319    0.1958503  47.62 0.0005845106    1.336    0.251
        32 -10.3548    146.0583    245.5747   1.2859165314e+02   9.2345872310e+00    0.1362379    0.1284764   9.08  0.000639257    1.379    0.275
        33 -11.0381     18.2765    220.7111   1.5140688758e+02   2.8753705437e+01    0.1154064   0.09217246  76.47  0.000356783    1.284    0.221
        34 -10.6291    218.3530    220.1409   1.1267182513e+02   1.9317117528e+00    0.1290844   0.09837551 -30.40 0.0005286406    1.722    0.419
        35 -13.2637    160.5751    128.1611   1.0715498317e+02   2.4958334676e+01    0.4376608    0.3815669 -44.70  0.001806769    1.256    0.204
        36 -13.3538     39.0374    123.7936   1.4029084086e+02   4.6710580714e+01    0.3619597    0.3245406 -19.01  0.001296198    1.445    0.308
        37 -11.6398     23.9033    217.2266   1.5019033139e+02   2.8815193919e+01    0.1567096    0.1230566  69.32 0.0005883473    1.195    0.163
        38 -11.6524    210.0053    243.5304   1.1725954041e+02   7.5371748852e-01    0.1677854   0.07624719  34.77  0.000883645    1.593    0.372
        39 -13.0397     11.8945    205.9340   1.5222554125e+02   3.1939663661e+01    0.4892244    0.2292091  24.78  0.002861829    2.350    0.574
        40 -10.9828    167.6578    112.6700   1.0193976687e+02   2.6185016595e+01    0.2961713    0.2209826 -84.73  0.001329274    2.069    0.517
        41 -10.8663    205.4484    110.1592   9.4007330066e+01   1.8308322724e+01    0.3031054    0.1900736  39.77 0.0009400719    1.591    0.371
        42 -12.0387     26.3475    106.2315   1.4248942859e+02   5.2143730517e+01    0.3572348    0.2527674  -0.67  0.001530627    1.915    0.478
        43 -12.5622     40.7708     94.3968   1.3568383689e+02   5.3683629235e+01    0.4853486    0.3965466 -31.18  0.001936131    1.469    0.319
        44 -12.0466     12.7738    241.8215   1.5299093321e+02   2.5813358274e+01    0.1558691    0.1164206  61.68  0.001342954    1.181    0.153
        45 -11.3240    140.3466    194.0344   1.2351564313e+02   1.7336397517e+01    0.3144839    0.1130301 -44.75  0.001329634    3.515    0.715
        46 -11.6636      6.1523     89.1095   1.4809483049e+02   5.7686117247e+01    0.5003812    0.2165602 -15.42   0.00200088    3.977    0.749
        47 -12.9772    139.3348    200.6400   1.2462717961e+02   1.6458165665e+01    0.6018511    0.2649169  42.76 0.0008580763    1.821    0.451
        48 -10.8493    142.8350     80.8762   9.8997555533e+01   3.7836859702e+01    0.2368996    0.2138109  14.29   0.00050622    1.212    0.175
        49 -14.4323    147.7617     59.9980   9.1213107923e+01   4.0292757773e+01     1.372658      1.07041  -5.08  0.001188659    1.570    0.363
        50 -11.7117    150.7192     36.4633   8.2424873253e+01   4.3080257770e+01     0.673325    0.3366906  86.10  0.002108677    3.360    0.702
        51 -10.9845    163.5011    248.0631   1.2573466863e+02   6.5439548665e+00     0.169821    0.1115376 -52.51  0.001185548    2.383    0.580
        52 -13.1098    162.5846     35.9014   8.0106895481e+01   3.9900737735e+01    0.4716182    0.4375069  47.11 0.0008433966    1.104    0.094
        53 -10.9840     13.5135     59.9530   1.4150439633e+02   6.4388837039e+01     0.209973    0.1616426  50.31 0.0004336229    1.419    0.295
        54 -11.1796    135.4237    196.1772   1.2484727340e+02   1.7789585502e+01     0.237191    0.1993718  62.42  0.001215253    1.322    0.244
        55 -10.9208     15.5750    246.7801   1.5261425745e+02   2.4786969469e+01     0.147258   0.06807218  73.60  0.001013877    1.914    0.478
