#   1 NUMBER                 Running object number                                     
#   2 MAG_AUTO               Kron-like elliptical aperture magnitude                    [mag]
#   3 X_IMAGE                Object position along x                                    [pixel]
#   4 Y_IMAGE                Object position along y                                    [pixel]
#   5 X_WORLD                Barycenter position along world x axis                     [deg]
#   6 Y_WORLD                Barycenter position along world y axis                     [deg]
#   7 A_WORLD                Profile RMS along major axis (world units)                 [deg]
#   8 B_WORLD                Profile RMS along minor axis (world units)                 [deg]
#   9 THETA_WORLD            Position angle (CCW/world-x)                               [deg]
#  10 FWHM_WORLD             FWHM assuming a gaussian core                              [deg]
#  11 ELONGATION             A_IMAGE/B_IMAGE                                           
#  12 ELLIPTICITY            1 - B_IMAGE/A_IMAGE                                       
         1 -12.6306    227.8796      8.2574   3.1203481520e+01   2.8502014499e+01    0.8512396    0.4001807 -35.14  0.004628977    2.141    0.533
         2 -12.1957    237.7589      7.1387   3.0280383957e+01   2.6604341304e+01    0.6786609    0.3215777 -36.92  0.003609323    2.037    0.509
         3 -12.2961    249.2318     12.9629   3.0614548948e+01   2.3688364815e+01    0.7919565    0.3805453 -34.07   0.00423235    2.175    0.540
         4 -11.5984    242.5054     17.3566   3.1925285459e+01   2.4502180101e+01    0.3602719    0.2218472 -72.53  0.001111352    1.400    0.286
         5 -11.5067    247.0742      2.2337   2.8753287441e+01   2.5292152865e+01    0.6994896    0.2215761  76.85  0.003333363    2.970    0.663
         6 -12.2743    238.4838     24.1314   3.3568189552e+01   2.4503367035e+01    0.6373286    0.4153749 -13.71  0.002869519    2.784    0.641
         7 -11.8270    236.9689     16.3023   3.2130960313e+01   2.5735541342e+01    0.3675088    0.2669962 -34.42  0.001639782    1.574    0.365
         8 -11.6874     29.9561     20.3300   7.8507912557e+01   6.8847046083e+01    0.4921499    0.2902035 -41.31  0.002902185    1.786    0.440
         9 -11.9300    111.8029     18.9339   4.9382981123e+01   5.4042022960e+01    0.4349519    0.4018945  80.81  0.001186088    1.171    0.146
        10 -11.2374    149.8676     18.5250   4.2141859157e+01   4.5158487762e+01    0.3201084    0.2850397 -89.99 0.0005478187    1.077    0.071
        11 -10.7523    158.6180      7.1915   3.7709502540e+01   4.4203215710e+01    0.3010259    0.2177879  46.78  0.001070845    1.488    0.328
        12 -11.9873    154.7066     16.1709   4.0742223349e+01   4.4249506290e+01    0.5327604    0.3308409  -9.75  0.002153975    2.334    0.572
        13 -11.6816     56.7003     13.8572   6.3705310327e+01   6.5744804053e+01    0.5704036    0.4076282   6.27  0.003547213    1.360    0.265
        14 -10.9677    101.5818     15.8621   5.0665425973e+01   5.6640691383e+01    0.3229502    0.2270016  31.20 0.0005670576    1.432    0.302
        15 -10.8291     24.5853     14.6362   7.8656450873e+01   7.0294622827e+01    0.4088633    0.2476063 -14.09  0.002471332    1.598    0.374
        16 -10.4547     19.4913      3.5867   7.5982461998e+01   7.2347735251e+01    0.2896463    0.1265054  27.57  0.001188825    2.127    0.530
        17 -11.9131     13.4825      6.7464   8.0969343282e+01   7.2587347585e+01    0.5338891    0.5092931 -19.98  0.004218923    1.652    0.395
        18  -9.0789     20.0029     15.3621   8.1422091038e+01   7.0699715289e+01    0.2229736    0.1414147 -29.06 0.0004637791    1.380    0.275
        19  -9.7146     19.4754     11.0079   7.9674248311e+01   7.1373135906e+01    0.2144369    0.1421613 -36.58 0.0009836511    1.537    0.349
        20 -11.1341      4.6995      7.0375   8.6331165330e+01   7.3352786054e+01    0.2806022    0.1759731   1.76 0.0006541282    1.402    0.287
        21 -11.0711      4.8052      2.6560   8.4131309190e+01   7.3964809205e+01     0.338544    0.1757493   8.63  0.002011612    1.881    0.468
        22 -10.4406     11.1705     15.2387   8.6263163157e+01   7.1578211740e+01    0.3016474     0.181294  -4.46   0.00100738    1.577    0.366
        23 -12.8424    184.4558     11.8379   3.5879943183e+01   3.7689239062e+01     1.152782    0.5550935  47.24  0.005371442    2.595    0.615
        24 -11.3018    197.6684      2.2269   3.2339680044e+01   3.5653182058e+01     0.593039    0.1427563  74.90  0.002130322    3.898    0.743
        25 -10.9999    206.1526     13.5288   3.4116827158e+01   3.2592586937e+01    0.3622385    0.1750668 -88.02  0.001738057    2.215    0.549
        26 -10.9506    195.0746     12.6187   3.4968697050e+01   3.5174664012e+01    0.2152592    0.1859471 -37.33 0.0008225911    1.357    0.263
        27 -12.3063    122.6358     11.0477   4.4472172072e+01   5.2330457442e+01    0.5341311    0.3033209  50.99  0.001236953    1.532    0.347
        28 -10.6813    127.7217      4.8289   4.1544748978e+01   5.1699777735e+01     0.255408    0.2300775  86.15 0.0006970821    1.129    0.114
        29 -12.0607    217.1737      8.3719   3.2051862159e+01   3.0748909463e+01     0.478343    0.2805239 -69.11  0.002208723    1.532    0.347
        30 -11.5706    210.1417      9.1413   3.2797798581e+01   3.2188559203e+01    0.4385749    0.2423202 -61.56  0.001241771    1.667    0.400
        31 -11.4748    212.5834      5.7775   3.1870517541e+01   3.2011490327e+01    0.3561155    0.2420787 -25.82  0.001540496    1.867    0.464
        32 -10.3881     48.0503      8.3335   6.4612822723e+01   6.7801741471e+01    0.2256579    0.1551319 -18.40 0.0005163086    1.444    0.307
        33 -10.3217     23.8506      7.9790   7.5847315634e+01   7.1275604295e+01    0.2642831    0.1641905  16.51 0.0006865746    1.435    0.303
        34  -9.3728    102.0191      1.5309   4.5283827677e+01   5.7832312199e+01     0.241221     0.110383  66.49 0.0004698774    2.056    0.514
        35  -9.6265     79.0924      5.9502   5.2727096474e+01   6.2339645003e+01    0.2566093    0.1786374  25.41  0.001551137    1.381    0.276
        36  -9.7921     69.4982      5.6613   5.5521651212e+01   6.4259099557e+01    0.4346826    0.1306241 -28.99  0.001822137    3.485    0.713
        37  -9.3363     39.8481      5.2186   6.6641210761e+01   6.9426791681e+01     0.265253    0.1167997  37.95 0.0009349208    1.996    0.499
        38  -9.2066    175.4507      4.4537   3.5017555057e+01   4.0510538753e+01    0.1250488    0.1032569  88.81 2.229044e-05    1.006    0.006
        39 -11.1417     90.5707      3.0086   4.8473884467e+01   6.0204316215e+01     0.280259    0.2317657  70.79 0.0004370345    1.302    0.232
        40 -10.1893     84.6142      1.3355   4.9313385290e+01   6.1597719691e+01    0.2827902    0.1065103  60.46 0.0005770163    2.433    0.589
        41  -9.1035     93.4564     10.2320   5.0561995112e+01   5.8952458693e+01    0.1476882    0.1182603 -38.98 0.0005214688    1.489    0.328
        42 -10.8355    155.4902     10.4643   3.9028122272e+01   4.4632897391e+01    0.2559688     0.203207  71.61 0.0006748556    1.083    0.076
        43 -10.0213    138.3465      1.9976   3.8996662584e+01   4.9448592068e+01    0.3968136    0.1603174  79.33  0.001417011    2.851    0.649
        44  -8.3614     30.6787      2.2898   6.9470998437e+01   7.1077635476e+01   0.09502829   0.08958995  30.96 0.0004679182    1.604    0.377
        45 -10.3376    105.7557      3.5568   4.5231995995e+01   5.6837048481e+01    0.2779722    0.1898193  80.98  0.001568215    1.652    0.395
        46  -9.8797     32.0084    113.6300   1.0457781103e+02   4.9477226111e+01    0.1747936    0.1650271 -32.74 0.0008795236    1.129    0.115
        47 -11.0516     45.3236    113.3610   1.0004248653e+02   4.8184955341e+01    0.3080344    0.1886919  12.99   0.00145603    2.032    0.508
        48  -8.5372      1.2904    111.6795   1.1444853496e+02   5.2173557855e+01    0.1226826   0.08499736  72.28 0.0001949431    1.604    0.376
        49 -10.2538    100.0011    109.5552   8.1375041933e+01   4.0869396368e+01    0.3267166    0.2572865   7.03 0.0008389232    1.563    0.360
        50 -10.1430     21.2368    110.0746   1.0760956721e+02   5.1263661928e+01    0.2168731    0.1892782  39.87 0.0006438174    1.317    0.241
        51  -9.0575     28.7811    109.3914   1.0492443775e+02   5.0805681610e+01    0.1665545    0.1257804  -5.90 0.0004523029    1.569    0.363
        52 -10.9183      6.1431    108.0835   1.1238452974e+02   5.2766632019e+01     0.285434    0.1969425 -78.24 0.0006244014    1.307    0.235
        53 -10.2356      9.2298    103.4130   1.1066316781e+02   5.3701133387e+01    0.2661477    0.2087633  25.67  0.001005513    1.503    0.335
        54 -10.6885     88.1361    105.6965   8.4067568634e+01   4.3902929761e+01    0.2602758    0.2328272 -42.49 0.0002370962    1.081    0.075
        55 -10.8276     79.3911    103.5808   8.6357011747e+01   4.5866640743e+01    0.3992511    0.2759318  13.18  0.001054613    1.822    0.451
        56  -9.4983     71.8170    103.6465   8.8894017001e+01   4.7043376694e+01    0.2003485    0.1318855  42.63 0.0005594714    1.632    0.387
        57  -9.3658     45.4299    102.2114   9.7695799308e+01   5.0877771926e+01    0.1929541    0.1276273 -71.20 0.0005095082    1.618    0.382
        58 -10.8191     53.5037     98.2489   9.3924822865e+01   5.0856768537e+01    0.4120659    0.2004953 -56.82   0.00177789    1.900    0.474
        59 -10.1891     97.1744     98.3158   7.9261648722e+01   4.3941465075e+01    0.3251711    0.1996184  50.25  0.001148468    1.803    0.445
        60  -9.1972    147.9855     96.2286   6.4798139951e+01   3.3646715198e+01    0.2044256     0.191823  55.91 0.0002808503    1.064    0.060
        61 -10.8203     69.3343     96.0976   8.7822131988e+01   4.9170883674e+01    0.2964046    0.2107693  41.15  0.001001134    1.507    0.336
        62 -10.2070    116.5726     93.5458   7.2174799658e+01   4.1100231496e+01    0.2601383    0.2433598  72.17  0.001388308    1.144    0.126
        63  -9.3557     46.2381     94.4488   9.5647170705e+01   5.2620066395e+01    0.1756535    0.1280469  39.78  0.000387279    1.539    0.350
        64  -8.7556      1.2534     94.3039   1.1208853486e+02   5.6290762454e+01    0.1269357   0.07172953 -47.55 0.0001922829    1.507    0.336
        65 -10.0276     16.4367     95.2738   1.0676416462e+02   5.5163548398e+01    0.2099764    0.1910912  62.75  0.000442136    1.291    0.225
        66  -8.8694    109.3152     92.3690   7.3929746677e+01   4.2848120299e+01    0.1590436    0.1193374  -5.71  0.000703653    1.779    0.438
        67 -10.4908     57.7159     89.4254   9.0203045995e+01   5.2344913952e+01    0.3441699    0.1941326  52.92  0.001448742    2.546    0.607
        68 -10.2977     86.2978     88.9906   8.0132017275e+01   4.7969662759e+01    0.2643535    0.2048302  64.78 0.0009024704    1.659    0.397
        69  -8.7387     75.7252     89.3122   8.3783979465e+01   4.9696444333e+01    0.1373152    0.1154653  86.12 0.0002458253    1.557    0.358
        70 -10.0184     47.7020     89.0371   9.3795773380e+01   5.3698359603e+01    0.1922004    0.1600496 -47.15 0.0002411822    1.089    0.082
        71 -10.9934    121.0543     87.5343   6.9213775977e+01   4.1375687727e+01    0.3863885     0.291942  28.70 0.0003415243    1.470    0.320
        72 -10.8588     34.2046     89.6180   9.9004636441e+01   5.5014685885e+01    0.3615056    0.2066351  19.35  0.001800408    1.968    0.492
        73  -9.5473    131.7615     86.6130   6.6116421698e+01   3.9202269482e+01    0.2395559    0.1995523 -30.01 0.0005796057    1.273    0.214
        74 -10.6584    102.1065     85.9474   7.4229519207e+01   4.5635292228e+01    0.3444353    0.3026711 -28.73  0.001252796    1.148    0.129
        75 -11.6469     76.0533     83.1918   8.1922773707e+01   5.0968189445e+01    0.4556036    0.3195666  49.46  0.000375945    1.640    0.390
        76 -11.4764     80.0219     81.0060   7.9908570469e+01   5.0760810269e+01    0.3901799    0.2888945 -63.68  0.001927627    1.653    0.395
        77 -10.1331     28.8692     85.3254   1.0007419300e+02   5.6495426372e+01    0.2533854    0.2299119  18.08 0.0007427614    1.239    0.193
        78 -10.6610     65.8441     83.1072   8.5520776494e+01   5.2591774547e+01    0.4309014    0.2088633 -57.23  0.001751491    2.305    0.566
        79 -10.0616     45.5309     83.7351   9.3268977008e+01   5.5151147012e+01    0.2251431    0.1903894 -77.23 0.0007210385    1.403    0.287
        80  -9.7257    134.9159     83.0132   6.4291724702e+01   3.9185549731e+01    0.2130171    0.2095108 -60.74  0.001178757    1.030    0.029
        81 -10.9108    112.6066     81.3864   6.9773100447e+01   4.4400239124e+01    0.2863402    0.2608149  54.64 0.0001752629    1.129    0.114
        82 -11.0234     53.5865     80.7004   8.9387384315e+01   5.4829840200e+01    0.4208876    0.2571708  23.82  0.001398656    1.764    0.433
        83  -9.6033     21.8992     80.8404   1.0179811507e+02   5.8095131995e+01    0.2974807    0.1320064 -45.22   0.00139269    1.915    0.478
        84 -10.9085    104.4212     78.6445   7.1344290002e+01   4.6637209543e+01    0.3748271     0.280126 -38.37  0.001285091    1.353    0.261
        85 -10.5206    109.1805     73.5117   6.8364477382e+01   4.6633199402e+01    0.4767137    0.2975452  -5.61  0.001622304    3.051    0.672
        86 -10.2592     85.6944     79.4700   7.7529491086e+01   5.0079240423e+01    0.2544447    0.2280128  55.13 0.0002834482    1.254    0.203
        87  -9.9379     30.9926     80.0014   9.7996948661e+01   5.7505911768e+01    0.1986832     0.166986 -37.81 0.0003439952    1.036    0.035
        88  -9.2978      6.9779     80.4943   1.0761890299e+02   5.9168980624e+01    0.1605042    0.1205638   5.66 0.0004421912    1.519    0.342
        89  -9.9859     98.8950     76.2414   7.2291634964e+01   4.8219208427e+01    0.2364353    0.1621088  17.90 0.0005012063    1.860    0.462
        90 -11.2333     78.6149     74.8230   7.8513386647e+01   5.2270687789e+01    0.2876839    0.2526694  -3.59 0.0005364288    1.132    0.116
        91 -10.6650     74.5590     75.4714   8.0135376609e+01   5.2824998643e+01    0.2729956    0.2493322   0.54 0.0004660968    1.052    0.049
        92  -9.8602     50.0795     76.3782   8.9522860933e+01   5.6214288860e+01    0.2578655    0.1297193  18.40  0.001096686    2.456    0.593
        93  -9.9276      4.5409     75.5230   1.0763716362e+02   6.0415441633e+01    0.2444394     0.147229 -51.99 0.0007746485    1.308    0.236
        94  -9.9079      1.8329     73.1823   1.0828244388e+02   6.1070199393e+01    0.1824971    0.1490134 -47.40  0.000382708    1.032    0.031
        95 -10.4291    103.9579     72.7857   6.9675364926e+01   4.7857281746e+01    0.2266875    0.2044744 -30.64 0.0002904092    1.121    0.108
        96 -10.0537     45.5100     73.0359   9.0369856721e+01   5.7487889824e+01    0.2074858    0.1209176 -50.52 0.0006107244    1.577    0.366
        97  -8.6387     25.2330     73.6830   9.8775084088e+01   5.9414956519e+01     0.114495   0.09623135 -87.85  0.000160005    1.502    0.334
        98 -10.8955     64.0539     70.7647   8.2505287866e+01   5.5447490946e+01    0.3550024      0.26032  26.52  0.001781674    1.384    0.278
        99 -11.7209    137.1122     69.5429   5.9834973408e+01   4.1127346230e+01    0.3799987    0.2728007  46.56 0.0004205543    1.364    0.267
       100 -10.4955    101.3704     68.1529   6.8987787014e+01   4.9247245809e+01    0.2577269    0.2148009 -77.29 0.0006264554    1.571    0.363
       101 -12.0139     97.3439     69.4001   7.0622510560e+01   4.9831168518e+01    0.3090011      0.29091 -53.30   0.00043172    1.168    0.144
       102  -9.7582     34.1506     69.6896   9.4046230933e+01   5.9449435431e+01    0.2574635    0.1323259 -33.20 0.0008689388    2.000    0.500
       103  -9.9830     26.8283     69.5471   9.7060723560e+01   6.0172790735e+01    0.1990889    0.1726135  47.59  0.001072054    1.457    0.314
       104  -8.7438     17.6871     70.7213   1.0118795714e+02   6.0655733202e+01    0.1306027   0.07811941 -32.81 0.0002408268    1.566    0.361
       105 -10.0422    155.2146     68.0345   5.5417685107e+01   3.7133048343e+01    0.4046862    0.2440569 -69.62 0.0008581545    2.523    0.604
       106  -9.9090    121.3479     68.7477   6.3525736929e+01   4.4857042365e+01    0.2598181    0.1982003 -24.78  0.001292355    1.460    0.315
       107 -11.0811     89.9971     67.4733   7.2340549112e+01   5.1625530813e+01    0.3044265    0.2602903   5.65  0.001677582    1.207    0.172
       108 -10.2718     63.0747     65.0583   8.1061298253e+01   5.6728812702e+01    0.3310781    0.2612778  89.15  0.001693777    2.096    0.523
       109  -9.4280     59.4630     66.5172   8.2913356027e+01   5.6979937379e+01    0.2162821    0.1669127  53.43 0.0006718138    1.677    0.404
       110  -9.5467     40.1543     67.1591   9.0841179996e+01   5.9341100953e+01    0.1846858    0.1580717 -33.73 0.0004482837    1.044    0.042
       111 -11.0130     43.1305     63.2174   8.8421144228e+01   5.9802772155e+01    0.3592309    0.3100644  81.27  0.002140584    1.683    0.406
       112 -10.5735    110.0992     64.1220   6.5141008773e+01   4.8132219945e+01    0.4194058    0.3398524 -71.94  0.002155341    1.585    0.369
       113  -9.5537     70.4706     66.1972   7.8674067686e+01   5.5339569918e+01    0.2448122    0.1888588  49.28 0.0008399243    1.511    0.338
       114  -9.5021     66.9853     63.0243   7.8920092286e+01   5.6510497929e+01    0.1863979    0.1720837  -4.01 0.0003136749    1.041    0.040
       115  -9.8827      3.7207     65.1209   1.0584373698e+02   6.2733416360e+01    0.2026942    0.1921659 -80.43 0.0006863075    1.281    0.219
       116 -10.9497      3.9245     59.6739   1.0452839588e+02   6.3879930433e+01    0.2507557    0.1597648 -42.14 0.0005063257    1.258    0.205
       117  -9.6935     32.7545     63.7545   9.2953447763e+01   6.0832170631e+01    0.2307157    0.1476503 -40.13  0.001275479    1.359    0.264
       118  -9.3430     50.7598     59.7630   8.4179348603e+01   5.9519525394e+01    0.1593221    0.1546752  41.74 0.0003694536    1.288    0.224
       119 -11.1176     95.1549     57.1589   6.7271273758e+01   5.2442814933e+01    0.4923497    0.3047899 -17.22   0.00217873    2.169    0.539
       120 -10.4951     59.3268     58.4816   8.0328044788e+01   5.8549949854e+01    0.3676607    0.2730322 -12.63  0.002028004    1.401    0.286
       121  -8.8484    103.5890     58.5619   6.5199525247e+01   5.0467063680e+01    0.1400317    0.1319967  22.02 6.078804e-05    1.010    0.010
       122 -10.1779    149.7434     56.1951   5.3154030787e+01   4.0326800246e+01      0.46394    0.2355493 -63.94  0.001566891    3.661    0.727
       123  -9.0884     34.5166     57.4979   9.0306899488e+01   6.1914303177e+01    0.1283464    0.1097603 -24.54 8.954497e-05    1.019    0.019
       124  -9.6102    112.1066     55.6835   6.1846555397e+01   4.9106154625e+01    0.2196572    0.1914087 -52.35 0.0003163782    1.274    0.215
       125 -10.5455     80.4294     54.8488   7.1291853300e+01   5.5677793844e+01    0.4411422    0.2445648  28.85  0.001773331    2.022    0.505
       126  -9.9951     81.4910     50.5243   6.9401284890e+01   5.6205954544e+01     0.275482    0.1920842 -48.43  0.001010207    1.673    0.402
       127 -10.3535     84.7081     48.3483   6.7544260073e+01   5.5946621163e+01    0.2607754    0.2262042 -78.39 0.0009467251    1.602    0.376
       128 -10.3976     85.3593     45.2949   6.6227711352e+01   5.6298098866e+01    0.2419705    0.2177992  33.34 0.0007543863    1.084    0.078
       129  -9.5478    205.8219     52.8748   4.3185130699e+01   2.7679327216e+01    0.3182208    0.1849078  82.82    0.0015236    1.954    0.488
       130  -9.9750    106.2247     49.8257   6.1513564481e+01   5.1307199718e+01    0.3057262    0.2421688 -84.26 0.0009736283    1.762    0.432
       131  -9.0582     64.9717     51.5379   7.5723379746e+01   5.8924826933e+01    0.1899646    0.1249041  34.53 0.0003976584    1.486    0.327
       132 -10.1364    113.3297     49.7917   5.9574625769e+01   4.9754625680e+01    0.4059867    0.1716185  59.25  0.001497057    2.733    0.634
       133 -10.4742     61.2739     43.0308   7.4020043721e+01   6.0949929450e+01    0.3161696    0.2307902 -28.36   0.00182019    1.330    0.248
       134 -10.7992     63.3532     37.0337   7.0899977592e+01   6.1547062150e+01    0.4171364    0.2127595 -44.34  0.001594288    2.256    0.557
       135  -9.4490     55.4642     50.0322   7.8920662425e+01   6.0658834770e+01    0.2186951    0.1621652  -7.16 0.0005463939    1.377    0.274
       136 -10.0253     58.6895     47.8781   7.6845319429e+01   6.0548231893e+01    0.2402202    0.1904045  19.95 0.0006046785    1.192    0.161
       137  -9.4790     49.2832     49.3641   8.1229474078e+01   6.1655137287e+01    0.2180498    0.1670558  -9.14 0.0006359012    1.253    0.202
       138  -9.0358    211.4977     49.3709   4.1665519181e+01   2.6919275818e+01    0.1311794    0.1104029 -77.48 -0.000312434    1.048    0.046
       139 -10.3947     95.3988     47.9678   6.4023265633e+01   5.3876831632e+01     0.367727    0.2138331 -22.35  0.001286158    2.099    0.524
       140 -10.6857     26.4228     48.3586   9.1017097205e+01   6.4503374214e+01    0.3509315    0.2031183  16.81  0.001937696    1.796    0.443
       141  -9.1918    233.0426     48.2497   3.9019187526e+01   2.2487263196e+01    0.1691008    0.1375695 -71.65 0.0001853398    1.049    0.047
       142  -9.6058    169.7575     47.6537   4.7112517875e+01   3.6797360013e+01    0.2450704    0.2096491  43.16   0.00140222    1.310    0.237
       143  -9.1209     89.0079     48.0440   6.6038900333e+01   5.5155071205e+01     0.163378    0.1478401  22.30  0.000294934    1.011    0.011
       144 -10.7255    136.0635     46.3785   5.3065862858e+01   4.5024148395e+01    0.3482475    0.2344635  66.80  0.001595495    1.496    0.332
       145 -11.3962    142.2662     43.7602   5.0982566651e+01   4.3918827341e+01    0.4493531    0.3473457  23.83  0.002374723    1.598    0.374
       146 -10.0582     30.6409     43.7722   8.7493131895e+01   6.4929293435e+01    0.3941144    0.2399777  52.53  0.001888592    3.071    0.674
       147 -10.4718    166.9563     43.1427   4.6347120858e+01   3.8090772518e+01     0.355735    0.3016636  -5.40  0.002025504    1.519    0.342
       148 -10.9291    108.9711     43.3949   5.8573277244e+01   5.1659442714e+01    0.2712925     0.233876  57.24 0.0003835218    1.152    0.132
       149 -10.3147    162.7249     52.5518   4.9653986677e+01   3.7771856102e+01    0.2998464    0.2437132 -35.88  0.001228123    1.316    0.240
       150 -10.4304     69.2946     41.7669   7.0492666734e+01   5.9807906314e+01    0.2893423    0.2008742  66.30  0.001108215    2.470    0.595
       151  -9.9634     56.6209     41.6711   7.5354017667e+01   6.1902468864e+01    0.2236851    0.1491287  36.21  0.000180998    1.488    0.328
       152 -10.0996     36.2464     38.2874   8.2879807505e+01   6.5259330547e+01    0.2072432     0.166387 -10.37 0.0004758604    1.057    0.054
       153  -9.9753     34.0892     34.8426   8.2556094284e+01   6.6094301081e+01    0.3131472    0.1647232  36.31  0.001370443    2.069    0.517
       154  -9.0512    181.7831     38.1019   4.2786633833e+01   3.5241339416e+01    0.1638395    0.1037889 -39.88 0.0004797307    1.597    0.374
       155 -10.4683     41.4645     44.4365   8.2817023052e+01   6.3555569699e+01    0.3080123    0.2268781 -65.96  0.001304473    2.131    0.531
       156  -9.0774     84.5181     38.5392   6.4009548432e+01   5.7464722419e+01    0.1900647    0.1257152 -44.07 0.0006211405    1.756    0.431
       157  -9.5483     82.7042     35.7134   6.3531508712e+01   5.8218191047e+01    0.1721014    0.1628553  86.72 0.0002019544    1.357    0.263
       158  -9.8089     48.6472     37.2865   7.6972296219e+01   6.3793179096e+01      0.23916    0.1857187 -62.51  0.001167309    2.035    0.509
       159 -10.0037    127.3668     36.6227   5.1873596407e+01   4.8390102628e+01    0.2669168     0.218359  49.56  0.001301014    1.128    0.113
       160 -10.4782     67.9926     35.6347   6.8603416714e+01   6.0959510123e+01    0.3338233    0.2163655  53.39  0.001163287    1.881    0.468
       161  -9.5826    102.2266    247.6038   1.0453398696e+02   8.9936502230e+00    0.2196789    0.1574756 -87.66  0.001287973    1.702    0.412
       162  -9.9372    206.3295    228.7958   8.0374631804e+01  -3.3595108920e+00    0.2415257    0.1121913 -48.09  0.001106845    2.705    0.630
       163 -12.7079     76.4112    219.1774   1.0700850863e+02   1.8422129320e+01     1.052373    0.7228087  18.16  0.002817054    1.885    0.470
       164 -12.4983     67.8288    217.4669   1.0875698854e+02   1.9969235499e+01    0.7926319    0.5967219  46.88  0.003521882    1.194    0.162
       165 -12.3489     59.3661    210.5755   1.0996133534e+02   2.2613384217e+01    0.9127945    0.5490926  68.71  0.004673802    1.732    0.423
       166 -11.7951    239.3461     32.4914   3.5172837397e+01   2.3292789232e+01     0.472165    0.2763357  72.17  0.002572144    1.697    0.411
       167 -10.3580    179.1030    216.2590   8.3720695118e+01   2.8519239740e+00    0.3145791    0.2304646  86.14  0.001464242    2.816    0.645
       168  -9.4154    155.7225    214.6172   8.8445204522e+01   6.9545573596e+00    0.1946228    0.1175521  43.16 0.0009408537    1.595    0.373
       169  -9.1011    216.2213     34.6396   3.7819333163e+01   2.7866163158e+01    0.1689744    0.1051821  62.69 0.0005918377    1.632    0.387
       170  -9.6342     99.1202     33.8809   5.7905335090e+01   5.5097182512e+01    0.1845305    0.1758816  79.03 0.0002775619    1.212    0.175
       171  -9.6258    193.5521     33.4921   4.0106019172e+01   3.3092982710e+01    0.2401276   0.09834019  56.46 0.0009460151    2.388    0.581
       172 -10.8706    115.1034     31.9926   5.3130269329e+01   5.1803217511e+01     0.301937     0.227305  29.27 0.0004914669    1.416    0.294
       173  -9.9628    150.9628     31.1238   4.5624967772e+01   4.3471189160e+01     0.248968     0.174038  19.43  0.001241902    2.061    0.515
       174  -9.0605    120.6633     32.2986   5.1946424520e+01   5.0492383267e+01     0.135034    0.1033402 -80.30 0.0004948468    1.656    0.396
       175 -10.6304     79.0980     31.1938   6.2972215534e+01   5.9531939596e+01    0.2303542    0.2106038 -42.33  0.000459868    1.327    0.247
       176  -9.2534     21.0049     30.6885   8.7351691687e+01   6.8191668768e+01    0.1628598    0.1268616  -5.49 0.0003898794    1.107    0.097
       177  -9.4852    124.9974     30.3536   5.0351910047e+01   4.9724617900e+01     0.196722    0.1586678  57.35 0.0006997671    1.112    0.100
       178  -9.3276    229.7544     28.9843   3.5299445935e+01   2.5698843155e+01    0.1676621    0.1340924 -65.63 0.0002905698    1.044    0.042
       179 -10.3859    216.3969     27.8831   3.6315051126e+01   2.8676304268e+01    0.2443614     0.218352  40.24  0.001438849    1.534    0.348
       180 -11.0907    182.6302     26.8834   3.9827614538e+01   3.6440200099e+01    0.5286411    0.2758648  49.00  0.001684856    2.171    0.539
       181 -10.4382    109.6192     29.2929   5.3522191146e+01   5.3370097615e+01    0.4258776    0.1535666  53.64  0.001697584    2.380    0.580
       182 -10.8598     47.7162     28.3571   7.3743341260e+01   6.5294401606e+01    0.2645606    0.1949382  33.79 0.0005113446    1.357    0.263
       183 -10.6764     15.5614     28.2933   8.9246492809e+01   6.9094501300e+01    0.3583387    0.1986184 -15.95  0.001977218    1.855    0.461
       184 -11.2161    249.4712     24.5127   3.2787653288e+01   2.2281151320e+01    0.4295377    0.1826759 -49.48  0.002293445    1.885    0.469
       185 -10.3157    207.0431     26.0580   3.6847630791e+01   3.0954611081e+01    0.2550666    0.1661045 -43.62   0.00107746    1.476    0.322
       186 -10.0391     80.5868     26.1536   6.0505130730e+01   5.9887956103e+01    0.2329155    0.2100983  83.06  0.001170148    1.479    0.324
       187  -9.0843      2.4559     27.4983   9.6022425384e+01   7.0209026319e+01    0.1147322   0.08764733 -27.43 0.0001332776    1.013    0.013
       188  -9.9360    121.7874     25.9278   4.9580496842e+01   5.0989010645e+01    0.2420319    0.1740747  59.30 0.0006233415    1.242    0.195
       189  -9.4900     35.0635     25.7466   7.8379702873e+01   6.7414160689e+01    0.1683174    0.1314317   7.40 0.0004069194    1.107    0.097
       190 -11.5223    227.3947     23.2147   3.4307385881e+01   2.6895995629e+01    0.3821929    0.2154285  85.84  0.001445734    1.709    0.415
       191 -10.8973    222.1709     20.1440   3.4117430518e+01   2.8362748447e+01    0.2085926    0.1558704  87.19 0.0007939184    1.189    0.159
       192  -9.4949    161.3261    210.3277   8.6509116423e+01   6.8484193976e+00    0.2227839     0.158557  -0.69  0.001105269    1.767    0.434
       193 -10.7608    164.5641     21.8750   4.0916732658e+01   4.1288636187e+01    0.3402911    0.2212445  46.11  0.001792805    1.688    0.408
       194 -10.7183    141.6600     21.6544   4.4407933891e+01   4.6781975195e+01    0.2523255    0.2223382  69.37 0.0004086783    1.003    0.003
       195 -10.4986    139.3728    197.8549   8.9344338740e+01   1.3097329401e+01    0.4130378    0.2393987  28.52  0.001831237    1.824    0.452
       196  -9.3024    107.9934     14.9889   4.8846989345e+01   5.5302255882e+01    0.1917953    0.1666777  59.60 0.0003213353    1.082    0.076
       197  -9.1847      1.5105     22.4913   9.4738680846e+01   7.1136608135e+01    0.1128287   0.08684657 -24.71 0.0008102935    1.035    0.033
       198  -9.2505     98.7425     23.7636   5.4302907488e+01   5.6412476256e+01    0.1686098    0.1505153 -89.68 0.0006016672    1.363    0.266
       199 -11.8795    130.3945    204.9400   9.2599735774e+01   1.3128735401e+01    0.8856757    0.6500778  67.05   0.00446649    1.679    0.404
       200 -11.4850    140.3691    203.0178   8.9981721190e+01   1.1844808303e+01    0.4918063     0.339055  14.58  0.002355103    1.781    0.438
       201 -11.2172    180.4855    205.9816   8.1651776085e+01   4.4882593440e+00    0.4997856    0.2569941  54.37  0.001936621    3.160    0.684
       202  -9.8257     51.2227     18.9180   6.8168368701e+01   6.6042308800e+01    0.2314458    0.1504212 -38.81  0.001005066    1.785    0.440
       203  -9.3118    119.7152     18.9385   4.7680290627e+01   5.2230425779e+01    0.1706321    0.1651888  39.97 0.0005442264    1.112    0.101
       204 -11.9100    161.1268    202.0977   8.5139350504e+01   8.4822292495e+00    0.5017066    0.3231575 -25.01  0.002348688    1.937    0.484
       205  -9.5337    221.6592    186.3167   6.9854711902e+01   1.3288581413e+00    0.1217511    0.1076033 -81.46  0.000704861    1.709    0.415
       206  -8.8097      1.0000    185.0067   1.2113028372e+02   3.4614202926e+01    0.2021016   0.05727746 -77.91 0.0008044117    2.956    0.662
       207 -10.5448    100.9971    175.9872   9.5058802881e+01   2.4620058692e+01    0.2051246    0.1964436  67.85  0.001154767    1.009    0.009
       208 -10.9138    215.6765    156.3458   6.4973814311e+01   7.6764493305e+00    0.3291378    0.2629245  71.39  0.001762346    1.757    0.431
       209 -10.0925     25.4177    152.6891   1.1217518233e+02   4.0344789218e+01    0.3162182    0.1725684  72.58  0.000813874    2.143    0.533
       210 -10.0451      2.7714    153.0403   1.1830769233e+02   4.2059841997e+01    0.3430365    0.1731085 -39.08  0.001659278    2.578    0.612
       211  -8.7146      9.6491    151.7630   1.1637007297e+02   4.1878463725e+01    0.1192908   0.08669648 -42.30 0.0003154318    1.570    0.363
       212  -8.9837     39.8016    145.6066   1.0718326151e+02   4.0705691471e+01    0.1733808    0.1225815  44.21 0.0003316097    1.490    0.329
       213  -9.2432     72.8457     15.8115   5.8795349164e+01   6.2593447795e+01    0.1519206    0.1478274  57.12 0.0003815943    1.306    0.234
       214  -9.4282     39.4939     15.9767   7.1957930904e+01   6.8189045287e+01    0.1773838    0.1325546  20.88 0.0003614876    1.166    0.142
       215  -9.1970      2.1676    143.6303   1.1762644138e+02   4.4381429599e+01    0.1437665    0.1169054 -16.36 0.0001057714    1.583    0.368
       216  -8.6937     94.3020    142.2696   9.0609867226e+01   3.4005802929e+01     0.146861    0.1184842 -17.60 0.0002435596    1.529    0.346
       217  -8.9442     53.0164    141.9950   1.0273540785e+02   4.0116107716e+01    0.1631388    0.1545724  48.02 0.0004287577    1.135    0.119
       218  -9.0889     36.3962    141.8269   1.0764519758e+02   4.2011572300e+01    0.1983957    0.1065454 -57.26 0.0004191222    1.650    0.394
       219  -9.8663     85.1144     14.1248   5.4338290261e+01   6.0328374388e+01    0.1991251    0.1490216  32.76 0.0005439591    1.197    0.165
       220 -10.9767     21.9432    141.9244   1.1187948363e+02   4.3331029323e+01      0.21455    0.1976028  54.72 0.0002842929    1.195    0.163
       221  -9.1444     15.5087    140.9973   1.1361988569e+02   4.4082545255e+01    0.1970739    0.1106604 -74.71 0.0005310489    1.520    0.342
       222 -11.0035     29.3490    138.2546   1.0923553245e+02   4.3592471329e+01    0.2959862    0.2098353 -66.23 0.0004167261    1.222    0.182
       223  -9.8285    214.6491    139.6891   6.1637098206e+01   1.0947888319e+01    0.1430006    0.1075142  -1.36 0.0007045017    1.720    0.419
       224  -8.9872      1.3748    134.2314   1.1694161956e+02   4.6714908982e+01    0.1686147    0.1002965 -84.79 0.0002847972    1.476    0.322
       225  -8.9977     71.3642    131.2212   9.5198749276e+01   4.0386864732e+01    0.1998965    0.1347443 -70.41 0.0004351436    1.557    0.358
       226 -11.1802    236.9360    129.5602   5.5800232076e+01   8.7003184545e+00    0.4417054    0.2917137  34.99  0.002327277    1.873    0.466
       227 -10.5493     24.1574    125.5138   1.0902992072e+02   4.7230284569e+01    0.2359708     0.193558 -71.31 0.0003545092    1.059    0.056
       228  -9.7891     12.9428    125.3093   1.1249261661e+02   4.8143797691e+01    0.2218837    0.1493176 -82.34 0.0005816329    1.361    0.265
       229  -9.3651     52.5863    123.7642   9.9660458198e+01   4.4761286491e+01    0.2063848    0.1301465 -75.14  0.000953489    1.707    0.414
       230  -9.2068     31.0257    123.9948   1.0662521849e+02   4.7003335984e+01     0.166046    0.1364819 -66.44 0.0003400745    1.062    0.059
       231 -10.3497     75.1021    122.5267   9.2215214084e+01   4.1990947284e+01    0.3826045    0.2115008  43.49  0.001237363    1.926    0.481
       232 -10.8976    214.0112    121.6934   5.7812129376e+01   1.4398633079e+01    0.1894602    0.1877127 -57.43  0.000655703    1.094    0.086
       233  -9.5824     61.0803    120.5775   9.6287200605e+01   4.4473582247e+01    0.3161863    0.2044675  -2.85   0.00100341    2.305    0.566
       234  -9.0279     98.5139    117.5026   8.3814139838e+01   3.9286405032e+01    0.1523052    0.1467384 -31.34 5.428179e-06    1.038    0.037
       235  -9.7078     25.9737    116.4890   1.0706657337e+02   4.9309158081e+01    0.1826566    0.1334046  21.09  0.001028847    1.579    0.367
       236  -9.3968      1.9117    116.1424   1.1479621280e+02   5.1067020243e+01    0.1781939    0.1460988  84.50  0.000286418    1.221    0.181
       237 -11.3189    234.8078    110.4406   5.2087603229e+01   1.2387115151e+01    0.7560483    0.4971617 -79.43  0.003615413    2.318    0.569
       238  -9.5059     11.4129    115.0710   1.1161812733e+02   5.0752030196e+01    0.2277282    0.1614342 -28.70  0.001015378    1.587    0.370
