#   1 NUMBER                 Running object number                                     
#   2 MAG_AUTO               Kron-like elliptical aperture magnitude                    [mag]
#   3 X_IMAGE                Object position along x                                    [pixel]
#   4 Y_IMAGE                Object position along y                                    [pixel]
#   5 X_WORLD                Barycenter position along world x axis                     [deg]
#   6 Y_WORLD                Barycenter position along world y axis                     [deg]
#   7 A_WORLD                Profile RMS along major axis (world units)                 [deg]
#   8 B_WORLD                Profile RMS along minor axis (world units)                 [deg]
#   9 THETA_WORLD            Position angle (CCW/world-x)                               [deg]
#  10 FWHM_WORLD             FWHM assuming a gaussian core                              [deg]
#  11 ELONGATION             A_IMAGE/B_IMAGE                                           
#  12 ELLIPTICITY            1 - B_IMAGE/A_IMAGE                                       
         1 -13.6610    220.2365      8.5930   3.5891346024e+01   2.9280210674e+01     1.353544    0.9728722  55.65  0.006002151    1.574    0.365
         2 -14.1937    194.7558     38.3685   4.6121654024e+01   3.1787875674e+01     1.971143     1.328935  15.50  0.009009494    2.392    0.582
         3 -12.1329     49.0087    248.5413   1.2057863646e+02   1.6876904551e+01    0.1870392    0.1345481  87.36 0.0005288189    1.271    0.213
         4 -11.4309    248.7654    246.2959   8.3432989422e+01  -1.1464246331e+01     0.596893    0.1835016 -30.79  0.002737453    3.338    0.700
         5  -9.6019     56.5109    209.5670   1.1600356366e+02   2.3610458643e+01     0.329659     0.163801  86.32  0.001136236    2.403    0.584
         6 -10.5318     28.8666    209.7422   1.2157155070e+02   2.6803537259e+01     0.163932    0.1215541  68.41  0.000416731    1.091    0.083
         7  -9.4173     42.5810    208.8539   1.1877816452e+02   2.5456895446e+01     0.223362    0.1232875  65.57 0.0002806468    1.677    0.404
         8 -11.0331     65.9168    207.0814   1.1379758277e+02   2.2916313930e+01    0.2648292    0.1814118 -89.76 0.0003466904    1.405    0.288
         9 -11.0977     64.8060    203.2265   1.1362678923e+02   2.3893104688e+01    0.1948698    0.1569689  61.03 0.0004002434    1.102    0.092
        10  -8.9402     93.4170    205.6767   1.0774965683e+02   1.9285944450e+01    0.2409026    0.1939759  11.62 0.0008777696    1.721    0.419
        11 -19.1735      6.4871    109.0256   1.1709399424e+02   5.2050491662e+01     16.72222    0.7269698 -70.88   0.02763331   16.101    0.938
        12 -10.4848     30.0569    205.2734   1.2100344120e+02   2.7621457667e+01    0.2826806     0.115538  49.80  0.001007183    2.125    0.529
        13 -10.9890    193.1394    195.1458   8.4673724501e+01   4.2372309651e+00    0.8325271     0.442655 -62.01  0.002750404    4.883    0.795
        14 -11.3795     52.6603    200.2977   1.1591250929e+02   2.6089123213e+01    0.2351691    0.1550081  61.08 0.0005469082    1.362    0.266
        15 -12.3459     54.4170    196.7914   1.1518465419e+02   2.6642249320e+01    0.4635075    0.2686636 -49.04  0.001794928    2.175    0.540
        16 -10.0981    204.8046    200.1866   8.3325209663e+01   1.3771370043e+00    0.1945401    0.1461031   2.19  0.001017606    1.359    0.264
        17 -11.6486    133.0435    194.9548   9.7429801236e+01   1.5018458944e+01    0.3024171    0.2673491 -70.48  0.001075047    1.219    0.180
        18  -9.6253     38.3324    199.1603   1.1881924748e+02   2.8031303677e+01    0.1579892    0.1150279  78.39 0.0002421722    1.144    0.126
        19  -9.7433     59.4760    220.3338   1.1640201706e+02   2.0996081157e+01     0.295963    0.1963194  23.66  0.001677335    2.090    0.522
        20  -9.1215     81.5179    194.2675   1.0891730021e+02   2.3529688297e+01    0.2732742    0.1960457  73.50  0.001505787    1.399    0.285
        21 -11.2111    149.4835    188.1895   9.2604791760e+01   1.3453184694e+01    0.5232194    0.3546558 -69.66   0.00231139    2.015    0.504
        22  99.0000     52.7208    220.4009   1.1774042499e+02   2.1834956663e+01    0.3981449    0.1381506  59.18  0.001142741    3.361    0.702
        23  -9.1098     49.0439    217.2868   1.1819987294e+02   2.2923993766e+01    0.2357843    0.1787643   9.24  0.001411019    2.219    0.549
        24  -9.2346    167.8930    231.6234   9.5925609439e+01   2.3925810289e+00    0.1889554    0.1634324  -6.92  0.001222737    1.244    0.196
        25 -18.1058     16.4822    242.3718   1.2580577682e+02   2.1659358930e+01     6.830963      5.99125 -69.78   0.05586256    1.590    0.371
        26 -10.8254    143.3067    179.2410   9.2346804102e+01   1.6443451742e+01    0.3042596    0.2418835 -54.56 0.0009014009    1.323    0.244
        27  -9.9740    188.0796    176.3820   8.2012469479e+01   8.5434660412e+00    0.3348659     0.318788 -75.49  0.001567779    1.281    0.220
        28  -9.3580    149.0812    176.5337   9.0517629572e+01   1.5930480072e+01    0.2343112    0.1963729 -60.42 0.0003988236    1.296    0.228
        29 -10.0700    146.8428    172.8027   9.0303715345e+01   1.7143342081e+01    0.2856748     0.219679 -79.67 0.0009440829    1.699    0.412
        30  -9.0939     36.9106    176.1728   1.1696404774e+02   3.3377971414e+01    0.3197616    0.1240511  46.10  0.001449025    2.456    0.593
        31  -9.9868     55.7435    174.4881   1.1238226666e+02   3.1577225736e+01    0.2928413    0.1815598  59.69  0.001385623    1.618    0.382
        32  -9.4144     84.0550    173.6764   1.0546067441e+02   2.7858547534e+01    0.1888896    0.1699284  59.75 0.0003703169    1.098    0.089
        33 -10.2052     46.0291    172.9524   1.1449739580e+02   3.3109924115e+01    0.3433821    0.2867141  35.09  0.001266898    1.404    0.288
        34  -9.4140     58.2234    228.2621   1.1734000612e+02   1.9568778758e+01    0.1462988    0.1018162  65.10 0.0002506429    1.193    0.162
        35  -8.9439    194.0252    171.3307   7.9749118986e+01   8.3628025959e+00    0.2056228     0.176158  29.51  0.001131033    1.148    0.129
        36  -9.7251    185.6163    169.7899   8.1158708209e+01   1.0262412534e+01    0.2512368    0.1821952 -46.93 0.0008237361    1.453    0.312
        37 -10.2057    138.0448    169.6196   9.1726271747e+01   1.9500508421e+01     0.336171    0.2464568  37.19  0.001067372    1.360    0.265
        38  -9.8740    239.8680    169.3672   7.0730703468e+01   4.6560762187e-01    0.1819612    0.1156584  26.36 0.0004807934    1.701    0.412
        39  -9.1085    187.5485    163.0302   7.9316032430e+01   1.1188885504e+01    0.2257869    0.1404659 -41.02 0.0005926929    1.585    0.369
        40 -11.5590     94.4254    151.2400   9.9041907859e+01   3.1586393128e+01    0.6639637    0.5644764 -29.88  0.002657104    1.384    0.278
        41 -10.7771    133.8550    145.3643   8.7678776311e+01   2.5758342709e+01     1.199426     0.309973 -54.13  0.002876082    5.387    0.814
        42  -9.4001    187.4620    151.4788   7.6779968192e+01   1.3463050747e+01    0.1497007    0.1405687 -12.07 0.0001981728    1.009    0.009
        43  -8.7847    112.5817    150.7129   9.4216938544e+01   2.8565754222e+01    0.2091165    0.1424043 -65.30 0.0008959087    1.568    0.362
        44  -9.1919    174.8553    149.1640   7.8944036617e+01   1.6519242766e+01    0.2296715     0.209763 -75.69 0.0006512416    1.268    0.211
        45  -8.5317    109.6114    147.8088   9.4391745615e+01   2.9792129832e+01     0.205134    0.1401269 -66.46 0.0003276239    1.571    0.363
        46  -9.6468     90.1973    213.0572   1.0934589856e+02   1.8233157076e+01    0.2574817    0.1583281  53.32 0.0009019192    1.479    0.324
        47 -10.7153    106.2796    137.4522   9.3082710650e+01   3.2871144657e+01    0.5520198    0.3474706 -33.35  0.002320629    1.986    0.496
        48 -10.5137    105.9132    130.8391   9.1708446098e+01   3.4524203923e+01    0.4177556    0.3228377 -62.56     0.001182    1.298    0.229
        49 -11.6747     94.2977    137.3054   9.6312684278e+01   3.4994326489e+01    0.2965845    0.2623233 -38.18 0.0006415287    1.198    0.165
        50 -10.4331    135.7228    129.2311   8.3438128302e+01   2.9057808677e+01    0.7442302    0.1374998 -49.17  0.001622197    5.995    0.833
        51  -9.2648    160.8781    128.1033   7.7061642554e+01   2.3920520104e+01    0.2490354    0.2193475 -73.20 0.0009397409    1.282    0.220
        52 -10.7030    119.8638    123.2243   8.6100402630e+01   3.3665981965e+01    0.5014341    0.3145155 -23.33   0.00191658    2.390    0.582
        53 -10.3443    101.4835    124.7100   9.1522471140e+01   3.6794578669e+01    0.2829348    0.2403664 -18.98 0.0004469935    1.366    0.268
        54 -10.4198    113.9509    128.9859   8.9088608207e+01   3.3466206722e+01    0.3392777    0.2868407 -14.05  0.001023287    1.407    0.289
        55  -9.4129    109.5703    118.1747   8.7666480388e+01   3.6849099210e+01    0.2452697    0.2137272  42.73 0.0002954472    1.202    0.168
        56  -9.9863    231.2427    113.8011   5.9830061324e+01   1.1472532271e+01    0.2776135    0.2500263 -23.72 0.0007255888    1.073    0.068
        57  -9.0018    167.8552    112.7515   7.1541870577e+01   2.5574095002e+01    0.3129709    0.2021929 -64.58  0.001230909    2.140    0.533
        58  -9.9956    134.6010    105.0265   7.7412590915e+01   3.4682156347e+01    0.6195398    0.1466761 -44.34  0.001614123    4.100    0.756
        59 -11.3679    118.3789    109.9795   8.3095643365e+01   3.7007960869e+01    0.6299663    0.4629561  68.96  0.002493079    1.777    0.437
        60  -9.4277    205.5926    110.1131   6.3285824790e+01   1.7564365803e+01    0.2713224    0.2193948  42.85 0.0007017659    1.335    0.251
        61  -9.6475     64.9198     99.8746   9.6622893717e+01   4.8584356133e+01    0.2719606    0.1942871  24.15 0.0008769601    1.616    0.381
        62 -11.6746     52.3409     91.1698   9.8680214684e+01   5.2250957804e+01     0.508497    0.2286567 -53.06  0.002204527    1.874    0.466
        63  -8.5218    184.3402     77.2828   5.8508607732e+01   2.8405842906e+01    0.1511719    0.1176552  22.06 0.0007012731    1.630    0.387
        64  -9.1668     65.9124     70.8038   8.8117560834e+01   5.4957054787e+01     0.207889    0.1694518 -19.00 0.0003617837    1.202    0.168
        65 -10.7380     71.8994    245.6884   1.1624112709e+02   1.4487286235e+01    0.3703778    0.1649761 -70.94   0.00195925    2.462    0.594
        66 -12.8568    179.0919     52.7210   5.2479117363e+01   3.3639402872e+01    0.7436118    0.6615816  35.42 0.0008004514    1.245    0.197
        67 -10.1019    184.5776    212.2327   8.9480046161e+01   2.8077385757e+00    0.2479793    0.1515313  46.29  0.001257922    1.687    0.407
        68  -9.4047    189.6729     14.9432   4.0445264475e+01   3.5813837834e+01    0.1837686    0.1637336 -57.47 0.0006230292    1.117    0.104
        69  -9.7971     80.2225     15.0931   6.1380896677e+01   6.1497201710e+01    0.2320911     0.178465  51.69 0.0007219857    1.375    0.273
        70 -10.9076     62.6540    250.4666   1.1830029205e+02   1.4832444748e+01    0.2187437    0.1066492  47.73  0.001272604    1.610    0.379
