#   1 NUMBER                 Running object number                                     
#   2 MAG_AUTO               Kron-like elliptical aperture magnitude                    [mag]
#   3 X_IMAGE                Object position along x                                    [pixel]
#   4 Y_IMAGE                Object position along y                                    [pixel]
#   5 X_WORLD                Barycenter position along world x axis                     [deg]
#   6 Y_WORLD                Barycenter position along world y axis                     [deg]
#   7 A_WORLD                Profile RMS along major axis (world units)                 [deg]
#   8 B_WORLD                Profile RMS along minor axis (world units)                 [deg]
#   9 THETA_WORLD            Position angle (CCW/world-x)                               [deg]
#  10 FWHM_WORLD             FWHM assuming a gaussian core                              [deg]
#  11 ELONGATION             A_IMAGE/B_IMAGE                                           
#  12 ELLIPTICITY            1 - B_IMAGE/A_IMAGE                                       
         1 -15.9170    149.3321    123.5837   9.9145661216e+01   2.7669769475e+01     3.772291     2.837028  37.33   0.01741896    1.415    0.294
         2 -15.1144     10.7799     20.9038   1.1321171995e+02   6.8910529336e+01     1.895425    0.9246521 -18.83   0.01101288    2.065    0.516
         3 -12.9400     41.8471     42.4870   1.0799449649e+02   6.2607100933e+01    0.5540649    0.3147481   8.35  0.001999641    2.092    0.522
         4 -11.8858     32.5307      4.0768   9.6439365021e+01   6.8870252478e+01    0.4203766     0.195218  29.11  0.001873236    1.954    0.488
         5 -12.6936     83.7484     22.5471   8.5915815639e+01   5.8975495832e+01    0.4670603    0.3455909  45.48  0.001191264    1.308    0.235
         6 -11.8403     63.7198     17.3053   9.0261104737e+01   6.3012030023e+01    0.4605428    0.2485323  45.45  0.002192992    1.857    0.461
         7 -13.4849    121.2258      9.1871   7.1928068203e+01   5.2621635170e+01     2.732563    0.8848922  67.64  0.009387035    3.984    0.749
         8 -13.2363     73.4098      2.6677   8.1249524669e+01   6.2796475743e+01    0.8838306    0.4560435  50.07  0.004993676    1.743    0.426
         9 -12.3012     75.4946     13.3510   8.4874995813e+01   6.1441134980e+01    0.4266522    0.3192078  16.87  0.001104173    1.177    0.150
        10 -13.7788     96.2152      3.3207   7.5408691509e+01   5.8405388062e+01     1.242149    0.4418663  55.67  0.005658703    2.335    0.572
        11 -12.3311     82.0286     13.9824   8.3171196972e+01   6.0196408182e+01    0.3262915    0.2773249  50.74 0.0007086751    1.320    0.243
        12 -13.6514     86.8576     11.5755   8.0888158032e+01   5.9522644881e+01     0.878055    0.7461625 -75.44  0.004409728    1.813    0.448
        13 -10.9632    138.2086      5.4686   6.7638571674e+01   4.9110764708e+01    0.3056715    0.1125678  67.07  0.001270369    2.478    0.596
        14 -14.7489    201.6393    128.6872   8.8942567267e+01   1.4736564695e+01     2.504579      1.82049 -15.54   0.01123277    1.839    0.456
        15 -13.1573    195.3153    159.2327   9.7193715205e+01   9.8815698716e+00     1.010383     0.467267  42.36  0.003862812    2.230    0.552
        16 -13.6274    195.6788    150.2031   9.5106842587e+01   1.1656469161e+01     1.148321    0.9211569  56.87  0.005728588    1.337    0.252
        17 -12.5164    170.5764    157.9880   1.0226595488e+02   1.5397510517e+01    0.4513886    0.3486339  46.68  0.002166251    1.295    0.228
        18 -12.0482     74.9271    158.1688   1.2589350392e+02   3.3472596471e+01     0.336693     0.190315 -57.19  0.001558554    1.621    0.383
        19 -11.4485    221.0323    156.2017   9.1445958866e+01   5.2232843752e+00    0.4951585    0.3072686  27.04  0.002165985    2.095    0.523
        20 -12.9003     58.7155    145.2573   1.2792619194e+02   3.8846254838e+01    0.7074028    0.4876614  85.72  0.003028221    1.664    0.399
        21 -14.1850     50.8525    143.2122   1.2967667407e+02   4.0310101027e+01     1.011844    0.6585746  50.29  0.001811818    1.698    0.411
        22 -12.8350    215.9161    139.6840   8.8746265390e+01   9.4673923521e+00     1.000056     0.690177  36.13  0.004740912    1.643    0.391
        23 -10.6095     23.6829    148.6613   1.3746968338e+02   4.1839714305e+01    0.1290043   0.08062186 -46.72 0.0007048685    1.705    0.413
        24 -11.7732     28.7408    141.4499   1.3522405435e+02   4.3074306644e+01    0.2208959    0.1178847  35.26  0.001151043    2.128    0.530
        25 -11.8508    194.0832    248.8292   1.1435586446e+02  -6.1998933232e+00    0.2465968    0.1970735  43.69  0.001554646    1.250    0.200
        26 -11.4162    121.9289    127.3461   1.0703487208e+02   3.2667826891e+01    0.3438336    0.3275239  43.59  0.001536366    1.082    0.076
        27 -12.4620     27.9189    125.8578   1.3311698531e+02   4.6813934332e+01    0.2813367    0.2283438  78.60   0.00136926    1.335    0.251
        28 -12.4081    132.2433    103.3743   9.8174636283e+01   3.5815346543e+01    0.3362697    0.3010546   9.39 0.0006658355    1.250    0.200
        29 -12.3622     44.2836     98.0484   1.2290457918e+02   5.1583629630e+01    0.4437834    0.3133932 -29.81  0.002136594    1.469    0.319
        30 -12.3274    188.8549     94.6437   8.3102290887e+01   2.4360190239e+01    0.4060176     0.310353 -66.42  0.001228372    1.416    0.294
        31 -11.9662    101.4421    114.4443   1.0947348537e+02   3.9578210622e+01    0.3051047    0.2525112  85.59  0.001532473    1.472    0.321
        32 -11.1780     54.9780     94.9856   1.1874300675e+02   5.1036214535e+01    0.3160039    0.2280934 -29.77  0.001133531    1.407    0.289
        33 -11.7393     39.5101     92.9910   1.2330186767e+02   5.3184752931e+01    0.2238573    0.1814102  49.14 0.0008407589    1.535    0.349
        34 -11.3670     74.9029     88.7916   1.1072300218e+02   4.9639573464e+01    0.3090963    0.2523506  -0.29  0.001726401    1.339    0.253
        35  -9.3702    109.2980     86.6614   9.9711935035e+01   4.4030637266e+01     0.145815    0.1182958 -82.99  0.000703331    1.659    0.397
        36 -10.7844     53.8031     84.3858   1.1643541244e+02   5.3437594938e+01    0.1756838    0.1225297  10.48 0.0007063406    1.671    0.402
        37 -10.8423    128.8103     82.5633   9.3222076291e+01   4.0734616112e+01    0.2988635    0.2283587 -80.00 0.0008220884    1.808    0.447
        38 -11.3625     48.6537     61.9334   1.1182519646e+02   5.8461642892e+01    0.4058315     0.244524  52.91  0.001793265    2.887    0.654
        39 -13.4650     23.3024     77.0663   1.2508394816e+02   5.7994078091e+01     0.761427    0.4044552 -20.78  0.003889426    2.341    0.573
        40 -13.5847     31.7087     79.6734   1.2278100643e+02   5.6747965528e+01     0.837285     0.426904 -32.74  0.004204399    2.031    0.508
        41 -14.5088     40.1191     69.7859   1.1721824620e+02   5.7921620232e+01     2.007521    0.5732149  29.49  0.007909441    3.780    0.735
        42 -12.5212    115.0091    106.8839   1.0372314849e+02   3.8668063009e+01    0.3102124     0.224409  51.97 0.0008246807    1.475    0.322
        43 -13.0598     59.4756     70.8349   1.1069440243e+02   5.5430186035e+01    0.5079431    0.4257954  76.88  0.002958869    1.827    0.453
        44 -12.3490      2.0997     73.9567   1.3181024569e+02   6.0010739459e+01    0.7097538    0.1635548 -62.30  0.002857327    3.285    0.696
        45 -11.3973     66.6278     76.3998   1.0990917548e+02   5.3367279055e+01    0.2550878    0.2028649 -20.82 0.0008902728    1.213    0.176
        46 -11.9185     76.6244     70.9334   1.0495993681e+02   5.2914075385e+01    0.3180092    0.2167773 -22.88  0.000722811    1.558    0.358
        47 -10.1693    250.2047     74.2241   6.8815787034e+01   1.3994085910e+01    0.1851693    0.1294036 -60.75 0.0005723483    1.292    0.226
        48 -11.1496    144.6351     73.8957   8.6816616790e+01   3.8717629836e+01    0.2461194    0.1951318  42.08 0.0003676255    1.258    0.205
        49 -12.7286     96.9437     71.8597   9.8878585921e+01   4.9232532579e+01    0.6189346    0.3302356  33.48  0.001517151    2.034    0.508
        50 -12.2765     55.1228     67.0829   1.1108479721e+02   5.6708455867e+01    0.3409492    0.2810043  36.15  0.001115631    1.410    0.291
        51 -10.4930    120.3038     73.3274   9.2714246033e+01   4.4278513573e+01    0.1491044    0.1131457   7.87 0.0007034012    1.647    0.393
        52 -11.7147    134.1777     70.9650   8.8454047260e+01   4.1635314227e+01    0.4477642     0.180496  40.16  0.001534344    2.872    0.652
        53 -11.5620     83.3774     68.4132   1.0199573269e+02   5.2273206648e+01    0.2266001    0.2220393   6.51  0.000691763    1.164    0.141
        54 -12.0220    132.1142     65.2287   8.7239649017e+01   4.3074145708e+01    0.2698075    0.2488731  37.13 0.0002734839    1.046    0.044
        55 -10.5329    214.1628     62.2815   7.0907709710e+01   2.3908322469e+01    0.2372891    0.1927912 -32.16 0.0009702253    1.404    0.288
        56 -10.9380    167.9925     63.5256   7.8914865252e+01   3.4858735597e+01    0.3848692   0.09329491  47.73  0.001043128    4.475    0.777
        57 -13.1344     34.6168    135.7385   1.3283128891e+02   4.3861132966e+01     0.361717    0.2284608  33.75  0.001868366    1.834    0.455
        58 -12.4663    125.5721     57.4455   8.6465640022e+01   4.5790833505e+01    0.3183981    0.2480814  43.65 0.0001335796    1.212    0.175
        59 -10.5117     32.3238     56.6406   1.1629108435e+02   6.1180004877e+01    0.1609889    0.1443417 -86.57  0.000775052    1.679    0.404
        60  -9.6951    174.6999     56.3106   7.5705888005e+01   3.4343843021e+01    0.1471959    0.1064168 -74.63 0.0003583401    1.603    0.376
        61 -13.0288     67.6542     52.6743   1.0206117514e+02   5.7512201413e+01    0.6035134    0.4109147 -32.72  0.002665315    1.375    0.272
        62 -11.7461    210.8616     54.2236   6.9470630713e+01   2.5916750742e+01    0.2197382     0.208321  87.47 0.0003048083    1.150    0.130
        63 -10.5258    137.2773     55.6688   8.3119433292e+01   4.3412211344e+01    0.2268802    0.1411406  57.57 0.0003695799    1.565    0.361
        64 -10.9395    133.2415     53.6446   8.3436396630e+01   4.4644564351e+01    0.2733754    0.2304686  53.71 0.0009783807    1.125    0.111
        65 -10.6904     57.6820     54.9111   1.0631856012e+02   5.8563529815e+01    0.1835997    0.1445315 -32.31  0.001135806    1.169    0.144
        66 -11.1666     92.8800     52.9574   9.3996763791e+01   5.3198586493e+01    0.2160182     0.179061  29.99 0.0003468361    1.139    0.122
        67 -11.7436    145.5462     50.9702   7.9882606871e+01   4.2176243587e+01    0.2824171    0.2625084  55.83 0.0005932882    1.002    0.002
        68 -12.5568      2.8789     46.1219   1.2488803227e+02   6.5303493182e+01    0.4871402     0.360256 -42.10  0.002365174    1.088    0.081
        69 -10.5787    244.3429    246.6837   1.0462933319e+02  -1.3552714209e+01    0.1029908   0.09473798  53.82 0.0007048432    1.713    0.416
        70  -9.7361     95.2684     49.3254   9.2057073036e+01   5.3305198925e+01    0.1352597   0.09776545   6.37 0.0001929183    1.572    0.364
        71 -12.9053     42.4179     47.6748   1.0955651435e+02   6.1691378249e+01    0.4143829    0.2886316  30.34 0.0009725257    1.568    0.362
        72 -11.8932    187.6160    233.2463   1.1310836953e+02  -2.6443303764e+00    0.2558721    0.1494487  47.29  0.001276891    1.693    0.409
        73  -9.9432    176.3366     45.7065   7.2584887725e+01   3.5483144195e+01     0.145653    0.1021532 -77.53 0.0003975562    1.645    0.392
        74 -11.8910    156.8972     43.8380   7.5523525142e+01   4.0464447011e+01    0.2429245    0.2306112  22.56 0.0004715814    1.168    0.144
        75 -10.1472    102.8269     43.1931   8.7806328571e+01   5.2710474395e+01    0.1864453    0.1458456  16.70 0.0006461582    1.298    0.230
        76  -9.8517    232.6420     40.8518   6.3751314253e+01   2.2827155005e+01    0.1758319     0.102542 -51.29 0.0001319354    1.557    0.358
        77 -10.2072    197.0905     41.2124   6.8259383166e+01   3.1061248355e+01    0.1938828    0.1563889  75.77   0.00110606    1.121    0.108
        78 -10.5872    217.9496     38.5270   6.4926121583e+01   2.6492168385e+01    0.1925117    0.1188104  69.87 0.0003687961    1.504    0.335
        79 -12.9668     70.0117     35.3710   9.5099942559e+01   5.9756868336e+01    0.6257884    0.3754015  17.35  0.003281275    1.871    0.465
        80 -11.2871     82.1059     34.3844   9.0802101923e+01   5.7834510348e+01    0.3448485     0.247115 -14.40  0.001457684    1.405    0.288
        81 -12.0467     79.4573     30.1761   9.0082104140e+01   5.8843652297e+01    0.3497864    0.2263469 -21.65  0.001207318    1.565    0.361
        82 -11.5407     76.1873     31.5992   9.1654412335e+01   5.9231050706e+01    0.2279334    0.1675896 -20.98 0.0007243825    1.332    0.249
        83 -11.9265     41.9891     33.4401   1.0466329595e+02   6.3982666556e+01    0.3577956    0.2436668 -23.77  0.002022848    1.264    0.209
        84 -10.8504    176.4886     33.4674   6.9319016975e+01   3.7062092222e+01    0.2254645    0.1983102  74.28 9.000782e-06    1.025    0.024
        85 -10.9459    141.0046     31.5848   7.5001479908e+01   4.5803681905e+01    0.1966618    0.1880814 -24.20  0.001233963    1.168    0.144
        86 -10.7974     79.9027     47.8594   9.6308690946e+01   5.6304975422e+01    0.2011845    0.1585442   1.26 0.0004343525    1.235    0.190
        87 -11.3922    200.6422    210.9801   1.0658513893e+02  -1.1149448938e+00    0.2808478     0.220335 -64.10  0.001495743    1.730    0.422
        88 -10.2554     22.9533     27.2940   1.1021778711e+02   6.6924407979e+01    0.1543009    0.1161503 -12.73 0.0004729031    1.041    0.039
        89 -10.5098    242.4974     23.6284   5.9190634733e+01   2.2936546015e+01    0.3064238    0.1391004 -72.88  0.001343643    2.661    0.624
        90 -11.0122     41.2035    199.6068   1.3925447025e+02   2.8142766345e+01    0.1542086    0.1220544  26.91  0.000952689    1.709    0.415
        91  -9.7879    209.5112     18.4296   6.1360091023e+01   3.0981701302e+01    0.1295383      0.10613 -88.96 3.729037e-05    1.010    0.010
        92 -11.2396    211.9055    197.4608   1.0176502194e+02  -7.4148392282e-01    0.3513006    0.2188996  17.88  0.001594005    2.054    0.513
        93 -11.3747    186.9121    194.8235   1.0634404933e+02   4.4319613074e+00    0.3469667    0.3117463  56.38  0.001676339    1.199    0.166
        94 -10.8800    229.6038    190.8829   9.7058996552e+01  -2.7333176959e+00    0.2654079    0.2030929  44.89  0.001472076    1.434    0.303
        95 -11.8302     33.8558    177.4717   1.3849315848e+02   3.4061005145e+01    0.2791129    0.2289196 -22.33  0.001727656    1.833    0.454
        96 -11.9215    202.6910    171.0001   9.8221638846e+01   6.0063917415e+00    0.4664043     0.269634  59.59  0.001883722    2.376    0.579
        97 -11.5326      3.0450    171.2481   1.4460252227e+02   3.8377911827e+01    0.2037486    0.1410198  45.94  0.001358113    1.595    0.373
        98 -12.5695    212.2698    165.2957   9.5092805539e+01   5.2116286202e+00    0.6805228    0.4607333   7.72  0.002947512    2.208    0.547
