#   1 NUMBER                 Running object number                                     
#   2 MAG_AUTO               Kron-like elliptical aperture magnitude                    [mag]
#   3 X_IMAGE                Object position along x                                    [pixel]
#   4 Y_IMAGE                Object position along y                                    [pixel]
#   5 X_WORLD                Barycenter position along world x axis                     [deg]
#   6 Y_WORLD                Barycenter position along world y axis                     [deg]
#   7 A_WORLD                Profile RMS along major axis (world units)                 [deg]
#   8 B_WORLD                Profile RMS along minor axis (world units)                 [deg]
#   9 THETA_WORLD            Position angle (CCW/world-x)                               [deg]
#  10 FWHM_WORLD             FWHM assuming a gaussian core                              [deg]
#  11 ELONGATION             A_IMAGE/B_IMAGE                                           
#  12 ELLIPTICITY            1 - B_IMAGE/A_IMAGE                                       
         1  -9.8217    249.7605      3.2547   4.5352281244e+01   2.4720605955e+01    0.2382585    0.1568601 -82.52  0.001550953    1.230    0.187
         2  -7.5277    191.3042    249.3210   1.0480145997e+02  -5.9252422467e+00    0.1267002    0.0929704   7.92 0.0005447065    1.633    0.388
         3  -9.7748    248.6705    248.9113   9.3986801985e+01  -1.4798153098e+01    0.3720083    0.2402932  -3.43  0.002202712    1.662    0.398
         4 -10.6107    243.3479    245.6620   9.4397469455e+01  -1.3589056536e+01     0.494126    0.2903236   4.09  0.002552032    2.204    0.546
         5  -8.6807    203.0509    250.5825   1.0274443054e+02  -8.0614351979e+00    0.3285158    0.1071205  37.51  0.001305775    2.772    0.639
         6  -8.1562    184.6255    250.8254   1.0632340679e+02  -5.0447938518e+00    0.2526574   0.08411089  38.98 0.0009945618    2.658    0.624
         7  -9.3095    167.4372    250.0001   1.0953380707e+02  -1.9887873882e+00    0.3418308      0.19025  25.24  0.001566598    2.365    0.577
         8  -8.0998    138.4863    250.4949   1.1521829659e+02   2.8717989822e+00    0.1286196     0.110096  51.18 0.0008100732    1.047    0.044
         9  -9.5953     73.8737    250.0677   1.2722655086e+02   1.3189609502e+01    0.3361864    0.1403324  44.16  0.001678223    2.105    0.525
        10  -9.5436     50.5194    249.7468   1.3125928736e+02   1.6442029889e+01     0.313794    0.1857082  41.88  0.001925336    1.761    0.432
        11  -8.7314     13.5928    247.7967   1.3713034042e+02   2.1187941077e+01    0.1870445    0.1002919  61.05 0.0006535454    1.491    0.329
        12  -9.3993      9.6306    248.8481   1.3780584470e+02   2.1408441992e+01    0.3103286    0.1432242 -77.42   0.00193883    1.784    0.439
        13  -8.4708     10.0301    244.5096   1.3748385469e+02   2.2192861849e+01    0.1495566   0.08635909  51.22  0.001022748    1.578    0.366
        14  -9.1322    151.5378    249.3213   1.1253076380e+02   8.5433852085e-01    0.2229538    0.1488116  26.02  0.001176384    1.785    0.440
        15  -9.0888    145.3226    249.5757   1.1377307574e+02   1.8729794323e+00    0.2616063    0.1048998  45.94  0.001123288    2.137    0.532
        16  -9.3526     89.3642    249.6078   1.2438350876e+02   1.0991139330e+01    0.2439654   0.09480894  46.50  0.001133039    2.163    0.538
        17 -10.4474     63.9120    248.3422   1.2882756571e+02   1.4924198413e+01    0.4253469    0.1979363  41.47  0.002249602    2.079    0.519
        18  -9.3915     36.2443    249.0808   1.3359219146e+02   1.8359520827e+01    0.3756118     0.115573  50.00  0.001827853    2.617    0.618
        19  -8.7041     26.2425    249.1635   1.3522127181e+02   1.9522878344e+01    0.2195758   0.09260637  61.58  0.001006975    2.050    0.512
        20  -9.2330     19.7620    248.9266   1.3623542561e+02   2.0299922803e+01    0.1968015     0.101926  61.17  0.001254339    1.554    0.356
        21  -9.2288      4.2694    248.8843   1.3862383319e+02   2.1955996909e+01    0.2410374    0.1114211  51.07  0.001018427    1.833    0.454
        22  -9.5571    232.7572    244.8123   9.6197055201e+01  -1.1893431089e+01    0.4314362    0.2430834   1.70  0.001954821    2.865    0.651
        23  -9.1262    218.5670    245.9026   9.9035408276e+01  -9.8505561129e+00    0.2967887    0.1931784  -6.76  0.001213152    1.968    0.492
        24  -8.9358    210.9882    246.4005   1.0055558891e+02  -8.7123884363e+00    0.2473072    0.1872109  -4.97  0.001043868    1.455    0.313
        25  -8.2689    187.5552    246.2111   1.0504238738e+02  -4.7942123218e+00    0.1669413    0.1202246 -26.20 0.0009404868    1.674    0.403
        26  -9.4309    157.3449    245.6134   1.1086990980e+02   5.0508804623e-01    0.2506731    0.1839688   6.55  0.001320598    2.040    0.510
        27  -9.3755    105.2302    246.5771   1.2109589600e+02   9.0989458926e+00    0.1719876    0.1123292  36.62 0.0009467752    1.654    0.395
        28  -9.3875    177.2762    243.7719   1.0667400736e+02  -2.6295175014e+00    0.4047386    0.2450701   8.45  0.001654474    3.351    0.702
        29  -8.5639    163.4489    244.3837   1.0948898644e+02  -3.3801850687e-01    0.2194471    0.1878485  -3.44  0.001193969    1.449    0.310
        30 -10.0139    139.3973    245.6263   1.1439139926e+02   3.5974678519e+00    0.3292559    0.1138719  37.99  0.001255574    2.875    0.652
        31  -9.7610     82.9975    244.4695   1.2501876505e+02   1.2946050679e+01    0.3244145    0.1066259  41.39  0.001371721    2.772    0.639
        32  -8.9212     44.1435    244.1885   1.3189410766e+02   1.8339577019e+01    0.2676213    0.1168381  49.31    0.0014631    1.954    0.488
        33  -9.1517     29.2099    243.7986   1.3436506842e+02   2.0218253324e+01    0.2044583   0.07925355  68.47 0.0009524127    2.808    0.644
        34  -9.1151     20.9805    244.5024   1.3575115925e+02   2.1015198653e+01    0.1565082   0.08830797  50.88 0.0008685165    1.589    0.371
        35  -9.3863    225.5291    241.6806   9.7015121942e+01  -1.0317821020e+01    0.3439544    0.2136216 -20.84  0.001558076    1.853    0.460
        36  -8.5857    192.1409    242.7423   1.0359894171e+02  -5.0068923060e+00    0.2547469    0.1649477  24.64    0.0013463    1.632    0.387
        37  -8.7666    115.0037    243.2199   1.1882555458e+02   8.1564535709e+00    0.1779043   0.09275185  43.83 0.0008774973    1.694    0.410
        38  -9.0637    197.6752    245.9342   1.0303562167e+02  -6.4524444769e+00    0.3691539    0.2309117  -6.18  0.001728374    2.640    0.621
        39 -10.0047      3.5962    242.7759   1.3837723380e+02   2.3183161224e+01    0.4192268    0.1674343  72.42  0.002278862    2.334    0.572
        40  -8.5020    170.1262    240.5628   1.0759229802e+02  -8.3433885737e-01    0.2395475    0.1678853  -1.78  0.001178658    2.278    0.561
        41  -9.8995     15.6890    240.5101   1.3633658572e+02   2.2368167504e+01    0.2648646    0.1168357  67.09  0.001492211    2.021    0.505
        42  -9.4380    241.0037    239.2694   9.3727990418e+01  -1.2335399443e+01    0.3644746    0.1972314  -8.00  0.001592338    3.064    0.674
        43  -8.3232    214.0817    239.6816   9.8848816046e+01  -8.1794383821e+00    0.1846103    0.1464585  25.97 0.0009077211    1.116    0.104
        44  -8.3468     38.1741    240.4111   1.3261088315e+02   1.9822479649e+01    0.1643805   0.08132098  55.03 0.0009429424    1.719    0.418
        45 -10.3620      9.3328    239.6104   1.3729189805e+02   2.3210776548e+01    0.2689767    0.1782583 -83.40  0.001963447    1.238    0.192
        46  -9.2031     70.7663    239.0816   1.2672241850e+02   1.5797863478e+01     0.263733    0.1640035  41.40  0.001528546    1.658    0.397
        47  -8.3786    220.3199    238.3058   9.7425448388e+01  -8.9774559976e+00    0.1928682    0.1312968   2.21 0.0007783818    1.754    0.430
        48  -9.2594    183.8198    236.7162   1.0426686025e+02  -2.5625155671e+00    0.3047765    0.1746137 -28.02   0.00139743    2.480    0.597
        49  -8.8127    195.1691    237.0345   1.0207705788e+02  -4.5822683637e+00    0.2429009    0.1703672  16.37  0.001278162    1.630    0.386
        50  -8.5637    175.9991    237.3334   1.0592103687e+02  -1.2992081767e+00    0.2219064    0.1013054  24.76 0.0007052229    4.387    0.772
        51  -9.9082    133.9965    235.0298   1.1400265610e+02   6.5209837934e+00    0.2662582     0.185576 -66.21 0.0005114308    1.599    0.375
        52  -8.9995    230.4167    234.7698   9.4908974294e+01  -1.0042807699e+01    0.2600532    0.2021213  -8.98  0.001076892    1.272    0.214
        53  -8.8423    206.7121    235.4980   9.9563899533e+01  -6.2918982870e+00    0.2586733    0.2023807   7.31  0.001487766    1.350    0.259
        54  -8.6213    237.9283    234.5096   9.3464806517e+01  -1.1170160331e+01    0.2394149    0.1577294 -16.33  0.001346915    1.633    0.388
        55  -8.7377     93.5035    235.6468   1.2207215087e+02   1.3103324340e+01    0.2219822     0.107266  43.43  0.001077264    1.888    0.470
        56  -9.5399      6.3283    235.6587   1.3752294427e+02   2.4286931405e+01    0.2201217    0.1189114  70.45 0.0008013933    1.487    0.328
        57  -8.0089    221.7623    233.9148   9.6395751328e+01  -8.5277318016e+00    0.1566647    0.1035535 -34.42 0.0008660671    1.578    0.366
        58  -8.0597    162.3247    234.3274   1.0819207500e+02   1.6588109441e+00    0.1322668    0.1038046   5.60  0.000400377    1.695    0.410
        59  -7.5412    170.3449    233.3246   1.0641866868e+02   4.1362727800e-01    0.1354264    0.1028176   6.98 0.0007050398    1.739    0.425
        60  -7.8245    176.3269    232.3327   1.0505554045e+02  -4.7287001563e-01    0.1351764    0.1024977   5.17  0.000705146    1.714    0.417
        61  -9.8035    245.8849    229.9675   9.1200895752e+01  -1.1700821372e+01    0.3685504    0.1533742 -24.92  0.001419004    3.605    0.723
        62  -9.2073    215.9814    230.0374   9.6829101703e+01  -6.9584453954e+00     0.370538    0.2178661   2.30  0.001552675    3.012    0.668
        63  -8.3374    207.5129    230.4793   9.8550032062e+01  -5.6037692598e+00    0.2110039    0.1200732 -29.70 0.0008804374    2.078    0.519
        64  -8.0560    216.7803    235.3852   9.7601262783e+01  -7.9466291669e+00    0.1824427     0.108155  28.65 0.0009362611    1.642    0.391
        65  -8.1971    225.5003    230.4680   9.5082989703e+01  -8.5915971148e+00    0.1291232    0.1111708  10.34 0.0001761252    1.030    0.029
        66  -8.5389    194.9694    230.0539   1.0094844569e+02  -3.3661968469e+00    0.2110659    0.1549218   6.20 0.0008603859    1.671    0.402
        67  -9.3873    233.2657    250.4292   9.7044833781e+01  -1.2767873947e+01    0.2436876    0.1019352  33.61  0.001151122    2.200    0.545
        68  -9.1848    235.8139    227.4788   9.2612590420e+01  -9.7714934261e+00    0.3459938     0.185542 -28.22  0.001714213    2.024    0.506
        69  -8.6179    229.7693    226.7040   9.3607725202e+01  -8.6866898048e+00    0.3005398    0.1543262 -25.94  0.001370835    2.385    0.581
        70  -9.6364     11.1386    226.2887   1.3612921652e+02   2.5665182273e+01    0.2212854    0.1016727  76.42  0.001219342    2.032    0.508
        71  -8.9102    223.6394    225.1636   9.4496816428e+01  -7.4391624879e+00    0.2524186    0.1778625  -2.80 0.0009913939    1.657    0.397
        72  -8.5082    212.0674    225.8092   9.6846063732e+01  -5.6022838399e+00    0.2476234    0.1609923 -11.52  0.001196187    2.082    0.520
        73  -8.4957    199.0510    225.6681   9.9384716935e+01  -3.3242812562e+00    0.2388894    0.1784556 -11.25  0.001003419    1.614    0.380
        74  -9.8011      6.0797    229.6760   1.3718572472e+02   2.5492073178e+01    0.2147335    0.1108407  78.17  0.001003664    1.602    0.376
        75  -8.7364    206.3306    223.4769   9.7559225531e+01  -4.2192372944e+00    0.2540753     0.163603 -34.99  0.001319786    1.660    0.398
        76  -8.9322    217.0479    221.1207   9.5041187308e+01  -5.6653140227e+00    0.3110751    0.1930098 -35.97   0.00142127    1.669    0.401
        77 -10.3051      3.0489    220.1646   1.3706498664e+02   2.7694299420e+01    0.3790252     0.193666  71.94   0.00234173    1.682    0.406
        78  -8.5707    232.4582    220.0419   9.1898260896e+01  -8.0562054103e+00    0.2861935    0.1172408 -34.52  0.001199899    2.618    0.618
        79  -7.8760    180.4836    221.4891   1.0240875676e+02   7.5218537711e-01    0.1377598    0.1246989  24.12 0.0008089043    1.086    0.079
        80  -9.5617    241.0753    218.3194   8.9975828256e+01  -9.1641632033e+00     0.426981    0.2316536 -20.90  0.001976021    2.332    0.571
        81  -9.2960    226.5279    218.3916   9.2720985058e+01  -6.8088994682e+00    0.5026471      0.23263 -23.92  0.001852991    3.603    0.722
        82  -8.2918    202.1856    219.7861   9.7726174173e+01  -2.8495450813e+00    0.1875233    0.1520897  -6.61 0.0009427711    1.359    0.264
        83  -8.5389    211.0206    217.1508   9.5501644097e+01  -3.9455852421e+00    0.3039232    0.1682913 -25.89  0.001074602    2.352    0.575
        84  -9.9437    248.2866    215.9834   8.8225193777e+01  -9.9248673569e+00    0.3944414    0.2540691 -15.04  0.002119386    1.718    0.418
        85  -7.9723    193.6579    216.6696   9.8884570429e+01  -7.5989651002e-01     0.142557    0.1047628   3.58 0.0007051224    1.747    0.428
        86  -9.1309      7.2374    216.2137   1.3608884076e+02   2.8102474583e+01    0.1611882   0.09695601  76.06 0.0007361043    1.348    0.258
        87  -8.7344    221.4100    213.7501   9.2850780107e+01  -5.1613112306e+00    0.3143757    0.1992974 -10.03  0.001463084    2.214    0.548
        88  -8.9442    233.0952    212.2324   9.0337972488e+01  -6.8791534251e+00    0.2973577    0.1734602 -24.17  0.001434588    1.965    0.491
        89  -8.4660    235.4982    207.0658   8.8916301088e+01  -6.4133089569e+00    0.2481181    0.1219017 -35.75 0.0008693264    2.026    0.506
        90  -8.8671      1.8953    212.1875   1.3672225846e+02   2.9430823085e+01    0.1786981    0.1099566  75.15  0.001037487    1.314    0.239
        91  -9.3845    216.2877    208.5523   9.2880616534e+01  -3.3640686654e+00    0.4376079    0.2281367 -32.52  0.001948207    2.140    0.533
        92  -8.3486    225.3467    206.8457   9.0801217155e+01  -4.6495924668e+00    0.1933402     0.116962 -29.69 0.0007943331    1.754    0.430
        93  -8.3802    205.9934    206.9730   9.4625160910e+01  -1.2316482631e+00    0.2242509      0.16463  -1.55  0.001127182    1.713    0.416
        94  -8.8233    247.4888    205.7950   8.6464334076e+01  -8.1632107574e+00    0.2555348    0.1835649   3.26  0.001210091    1.539    0.350
        95  -8.6643    240.3749    205.6859   8.7746982127e+01  -6.9902729771e+00    0.2399546    0.1580412 -27.67   0.00128027    1.504    0.335
        96  -8.4934    229.2987    205.1199   8.9718380871e+01  -5.0314765805e+00    0.2735765    0.1117281 -35.04  0.001083816    2.636    0.621
        97  -8.8076      7.4870    205.5079   1.3526553414e+02   3.0305718409e+01    0.1156661   0.08295634  86.61 9.653894e-05    1.031    0.030
        98  -8.2110    197.4507    203.5079   9.5704044500e+01   9.9031957437e-01    0.2563641    0.1279718 -33.42   0.00102972    2.448    0.591
        99  -8.1319    186.0000    204.0039   9.8158165573e+01   3.0511711406e+00     0.228395   0.08112574 -46.37 0.0008039807    2.953    0.661
       100  -8.4465    235.6844    201.4501   8.7812142475e+01  -5.4882582095e+00    0.2388117     0.153136 -19.56  0.001180525    1.801    0.445
       101  -8.7849    249.9370    200.0571   8.4929850831e+01  -7.6097003171e+00    0.3022037    0.1690489 -26.07  0.001458087    1.922    0.480
       102  -9.3720    244.2423    198.7195   8.5704684492e+01  -6.4558368943e+00    0.3098815    0.1930156 -26.58  0.001509887    1.643    0.391
       103  -9.6946    237.5687    196.3237   8.6471607499e+01  -4.9223688977e+00    0.4072261    0.2428001   8.40   0.00170497    2.793    0.642
       104  -8.2043    202.5876    196.1892   9.3262587664e+01   1.4193049250e+00    0.1994526    0.1311169 -31.20 0.0009435921    1.673    0.402
       105  -7.6195    193.3533    193.2940   9.4599270654e+01   3.7459765614e+00    0.1474898     0.112026   5.30 0.0004333978    1.684    0.406
       106  -9.2758    247.3545    191.0083   8.3644758093e+01  -5.6562412411e+00    0.3439317    0.2071159 -15.91  0.001584426    2.203    0.546
       107  -8.3839    232.0638    191.9404   8.6647305668e+01  -3.1931651747e+00     0.219903    0.1590405  -5.36   0.00112218    1.665    0.400
       108  -9.8230    224.1332    190.5114   8.7879076672e+01  -1.5140418786e+00    0.3928736    0.1855511 -42.24  0.001677547    2.076    0.518
       109  -7.6368    199.2992    190.3176   9.2790119840e+01   3.1845674187e+00    0.1447104    0.1118298  -1.85 0.0006256767    1.616    0.381
       110  -9.0047    242.8999    187.7286   8.3808191147e+01  -4.3317851057e+00    0.3509595    0.1634678 -26.40  0.001331309    2.986    0.665
       111  -7.9285    193.6707    186.6660   9.3233848328e+01   5.0045565329e+00    0.1505046    0.1145185  -0.81 0.0007052008    1.724    0.420
       112  -8.4647    249.5011    183.4861   8.1782521353e+01  -4.7128343922e+00    0.2391579    0.1164728 -30.83  0.001026307    2.198    0.545
       113  -8.4912    182.9957    183.7878   9.4915803702e+01   7.7062066589e+00    0.2173149    0.1613288 -24.97 0.0007426086    1.614    0.380
       114  -8.3582    215.5057    189.4524   8.9353632203e+01   2.7239803930e-01    0.2679214    0.1267724 -31.99  0.001029998    2.564    0.610
       115  -7.9687    211.2984    181.3243   8.8561520791e+01   2.6273745503e+00    0.1455194    0.1112299  -3.60 0.0002930345    1.628    0.386
       116  -8.5143    235.5179    179.9817   8.3622489158e+01  -1.6438630626e+00    0.1994571    0.1140464 -20.05  0.000809953    2.510    0.602
       117  -7.9532    203.5056    182.5162   9.0375248210e+01   3.9057095243e+00    0.1434768    0.1381664  -0.49  0.000234352    1.019    0.018
       118  -8.1357    219.4468    176.0649   8.5882511686e+01   2.0795429484e+00    0.2052751    0.1203549 -20.74 0.0008077935    2.519    0.603
       119  -9.0662    229.8350    184.5724   8.5608824486e+01  -1.4581813399e+00     0.440254    0.1818715 -42.45  0.001762071    2.335    0.572
       120  -8.4187    183.3207    174.3337   9.2936649043e+01   9.6180043256e+00     0.153108    0.1196361  -2.65 0.0007049586    1.701    0.412
       121  -9.4084    199.2572    171.2383   8.8935455588e+01   7.0188883069e+00    0.2781762    0.2447446  23.21  0.000438076    1.202    0.168
       122  -8.6167    179.3233    169.3228   9.2764909353e+01   1.1503690940e+01     0.153446    0.1213414  -1.78            0    1.681    0.405
       123  -7.5672    205.3065    176.3553   8.8754970410e+01   4.7760119815e+00    0.1510065    0.1141429  -4.92 0.0007041619    1.720    0.418
       124  -7.6700    205.6526    167.6721   8.6881126466e+01   6.4510283892e+00    0.1533201    0.1164831   0.42 0.0007049688    1.755    0.430
       125  -8.0585    192.3175    163.3523   8.8721441295e+01   1.0074204983e+01    0.1555627    0.1201748  -3.97 0.0006651476    1.740    0.425
       126  -8.0990    212.5505    162.4845   8.4405367379e+01   6.1027501864e+00    0.1454895    0.1394318 -29.00 0.0001679688    1.017    0.016
       127  -8.8238    245.6282    157.1765   7.7143223555e+01   7.1888146729e-01     0.206983    0.1206432 -32.77 0.0009519866    1.729    0.422
       128  -7.8904    250.3047    156.6409   7.6227877833e+01  -3.7509003890e-02    0.1389519    0.1046138 -69.29 0.0007039369    1.725    0.420
       129  -8.5950    197.1279    155.8009   8.6091314179e+01   1.0646934457e+01    0.2106266    0.1829413  -0.60   0.00107319    1.347    0.257
       130  -8.0797    206.3056    153.3398   8.3685485324e+01   9.2329205940e+00    0.1517327    0.1187457  -4.16 0.0004040646    1.680    0.405
       131  -9.4958    179.1902    153.0004   8.9300174170e+01   1.5050942165e+01    0.2269618    0.1760882  19.51 0.0007464958    1.621    0.383
       132  -8.3498    250.0028    150.2421   7.4961725987e+01   1.1932559473e+00     0.172572    0.1184831  46.91 0.0008867774    1.616    0.381
       133  -8.1056    197.6712    148.6710   8.4416991197e+01   1.2018055742e+01    0.1545931    0.1216931  -0.19 0.0007051236    1.709    0.415
       134  -8.5877    190.3425    147.3002   8.5640665933e+01   1.3876995349e+01    0.1542461     0.122915   4.29 0.0007036906    1.674    0.402
       135  -8.5908    234.8533    144.9387   7.6470312052e+01   5.0842749644e+00    0.2379054    0.1632227 -16.27  0.000906051    2.006    0.501
       136  -8.2740    223.6242    145.1305   7.8552777625e+01   7.3022666102e+00    0.2159602    0.1315225 -32.58 0.0009449557    1.767    0.434
       137  -8.9285    247.5082    142.9882   7.3874500584e+01   3.0032816975e+00    0.2021844    0.1171361 -21.58 0.0008106225    2.603    0.616
       138  -8.7096    243.7087    138.6146   7.3595508239e+01   4.5498839309e+00    0.2660285    0.1634778 -33.38  0.001248541    1.662    0.398
       139  -8.1277    230.3004    139.3544   7.6084688374e+01   7.0713714496e+00    0.1458175    0.1135953  -6.82 0.0007037548    1.702    0.413
       140  -9.0477    217.3052    135.3766   7.7597443239e+01   1.0546918458e+01    0.3284056    0.2230034 -17.19  0.001407758    2.143    0.533
       141  -8.4274    192.6662    136.6639   8.2757686734e+01   1.5610855222e+01    0.1564891    0.1237498   1.26  0.000705208    1.741    0.426
       142  -8.8810    248.6704    133.4802   7.1692750888e+01   4.5480458340e+00    0.2804706    0.1616398 -39.72  0.001095724    1.594    0.373
       143  -8.4421    225.5609    132.7102   7.5490504358e+01   9.3375855821e+00    0.2950886    0.1368317 -37.18  0.001138459    2.218    0.549
       144  -8.8607    232.5349    129.9691   7.3658269045e+01   8.4247777813e+00    0.3072059    0.2390444 -18.84  0.001558408    1.571    0.363
       145  -9.2894    178.0007    131.7516   8.4747338628e+01   1.9889233755e+01    0.2127636    0.1320572  48.28  0.000899035    1.630    0.387
       146  -9.6091    247.5562    128.4340   7.0813124358e+01   5.7005739696e+00    0.3356524    0.2441649 -19.43  0.001670597    1.756    0.431
       147  -8.6535    191.6642    128.3240   8.1047359077e+01   1.7569641080e+01     0.160098    0.1201758 -83.77 0.0007051023    1.714    0.417
       148  -8.6875    219.8566    126.2781   7.5102360172e+01   1.1800925996e+01    0.3711387    0.1934748 -28.67  0.001373872    2.668    0.625
       149  -9.8820    239.2825    121.2219   7.0626427934e+01   8.7011037262e+00    0.5829164    0.2515088 -35.16  0.002202915    2.564    0.610
       150  -8.9191    227.2258    123.5197   7.3173746822e+01   1.0769998313e+01    0.3566798     0.164534 -39.40  0.001410126    2.115    0.527
       151  -9.6511    246.9892    117.5604   6.8607810091e+01   7.8212815534e+00    0.3888143     0.179878 -44.56  0.001654567    1.936    0.484
       152  -9.4571    231.1742    112.9819   7.0178121722e+01   1.1938387819e+01    0.3647734    0.2029398 -42.06  0.001629786    1.687    0.407
       153  -8.5020    186.3305    113.3294   7.8609379589e+01   2.1845456226e+01    0.1542031    0.1240759   7.00 0.0004987233    1.715    0.417
       154  -8.8322    219.0017    115.4060   7.2817949469e+01   1.4100962048e+01    0.2932155    0.2087998 -27.29  0.001018284    1.670    0.401
       155  -9.4897    240.8669    107.6731   6.7458261846e+01   1.0883907039e+01    0.3666291    0.1962173 -36.63  0.001616693    1.909    0.476
       156  -9.3896    247.7818    106.0038   6.6044140180e+01   9.7637702306e+00    0.2019521    0.1690992 -52.55 0.0009897295    1.068    0.064
       157  -8.7649    230.1101    102.3530   6.8011245829e+01   1.4141561231e+01    0.2828169    0.1671126 -29.37  0.001217786    2.125    0.529
       158  -8.8907    242.3601     97.4301   6.5035325639e+01   1.2419706338e+01    0.2864945    0.1626142 -45.07  0.001352516    1.602    0.376
       159  -8.6297    248.4747     96.9813   6.4042736563e+01   1.1228716540e+01    0.2046943   0.09950241 -59.55 0.0008094306    2.489    0.598
       160  -9.6899    120.4323     62.9473   8.0461066438e+01   4.5806868321e+01    0.2413224    0.1890502  43.59 0.0002157076    1.225    0.184
       161  -9.4621    250.4267     55.3067   5.5212058366e+01   1.7679150937e+01    0.2358601    0.1206919 -37.27  0.001131693    2.077    0.519
       162  -9.3128    249.4864     39.0010   5.2092613280e+01   2.0252233836e+01    0.1868552   0.07949825 -58.87  0.000557834    2.482    0.597
       163  -8.3036    250.3132     35.0329   5.1235897470e+01   2.0626692024e+01    0.1732905    0.1080412 -12.78 0.0007046825    4.312    0.768
       164  -9.7037    245.0286     26.5079   5.0124186349e+01   2.2883927451e+01    0.1898121    0.1061466  71.36  0.001043275    1.626    0.385
       165  -9.0853    250.2390     20.0130   4.8386866448e+01   2.2615310677e+01    0.1521123   0.09194152 -44.34 0.0008891942    1.639    0.390
