#   1 NUMBER                 Running object number                                     
#   2 MAG_AUTO               Kron-like elliptical aperture magnitude                    [mag]
#   3 X_IMAGE                Object position along x                                    [pixel]
#   4 Y_IMAGE                Object position along y                                    [pixel]
#   5 X_WORLD                Barycenter position along world x axis                     [deg]
#   6 Y_WORLD                Barycenter position along world y axis                     [deg]
#   7 A_WORLD                Profile RMS along major axis (world units)                 [deg]
#   8 B_WORLD                Profile RMS along minor axis (world units)                 [deg]
#   9 THETA_WORLD            Position angle (CCW/world-x)                               [deg]
#  10 FWHM_WORLD             FWHM assuming a gaussian core                              [deg]
#  11 ELONGATION             A_IMAGE/B_IMAGE                                           
#  12 ELLIPTICITY            1 - B_IMAGE/A_IMAGE                                       
         1 -14.5242     68.2922    144.3566   9.6697253417e+01   3.7468856966e+01     4.951704     2.711238  78.72  0.002907777    3.742    0.733
         2 -13.9224    226.4005     25.7969   3.2762750791e+01   2.6970532357e+01    0.9291881    0.8455791  76.53  0.002573077    1.336    0.251
         3 -14.3242    209.7612     40.2658   3.7493618301e+01   2.8661959478e+01     1.696199      1.46553   1.45  0.007768497    1.714    0.416
         4 -12.8489    247.7841      4.9050   2.7193432002e+01   2.5134941183e+01    0.5779163    0.3440747 -56.97  0.003899399    1.294    0.227
         5 -11.2685    193.5104    195.7110   7.5032464133e+01   3.8612641855e+00    0.9933167    0.5203781 -64.46   0.00274584    6.713    0.851
         6 -15.6313      5.8380    183.5239   1.1874374004e+02   3.4211949748e+01     10.92484     1.239934 -75.26   0.02809834    6.778    0.852
         7 -15.2289     40.7966    190.7365   1.1092260359e+02   2.9045430028e+01     2.912451     1.554412  71.11   0.01312614    2.147    0.534
         8 -10.9808     55.6697    192.2449   1.0739053857e+02   2.6889507472e+01    0.3098916     0.233344  88.49 0.0009506936    1.279    0.218
         9  -9.9362    146.9827    187.0827   8.3670151198e+01   1.3644887286e+01    0.3727485    0.2392982 -83.72  0.001359773    3.218    0.689
        10  -9.2070     80.9532    183.4862   9.9713880254e+01   2.5581910579e+01    0.2058092    0.1412413  35.23 0.0003288812    1.473    0.321
        11  -8.5220     74.6649    182.3349   1.0119252543e+02   2.6788573258e+01    0.1565119    0.1036337  68.23 0.0007052104    1.741    0.425
        12  -9.8464     99.3731    180.8714   9.4467044722e+01   2.3352077015e+01    0.2668478    0.2170625  27.02 0.0005982408    1.306    0.234
        13 -10.2434    187.0408    175.3030   7.2330289422e+01   8.9455804048e+00    0.3426792    0.2325473 -47.01  0.001501205    1.472    0.321
        14 -12.1744     59.7216    174.1692   1.0400047661e+02   3.0905382918e+01    0.4506814    0.3092771 -33.59  0.002154015    1.886    0.470
        15 -12.0812     65.0032    169.1259   1.0182405961e+02   3.1495690512e+01    0.3819689    0.2851481 -37.06 0.0005638128    1.570    0.363
        16 -10.3296     86.8727    173.2236   9.6500231086e+01   2.7254489763e+01    0.4637099    0.3063431  11.35  0.001991538    2.138    0.532
        17 -13.5834     62.1934    155.6812   1.0049508876e+02   3.5356699061e+01    0.5494164    0.3657449 -37.73   0.00140565    1.746    0.427
        18 -12.7681     82.6315    153.6573   9.4204299686e+01   3.2918888947e+01     1.345322    0.6598796 -53.41   0.00535583    1.913    0.477
        19 -12.4523     75.0945    159.9534   9.7506262281e+01   3.2435814895e+01     0.600088    0.5253643   8.50 0.0003981261    1.334    0.251
        20 -15.1537      9.4857    207.9543   1.1961404240e+02   2.8140922043e+01     1.431984     1.125713 -60.25  0.009022336    1.453    0.312
        21  -9.2057     43.0830    164.4954   1.0723012252e+02   3.5414741618e+01    0.1925109    0.1391736  30.51 0.0006833318    1.524    0.344
        22 -11.3751     32.5582    156.6934   1.0916206182e+02   3.8547839063e+01    0.4417542    0.2909966  71.70 0.0007589833    1.642    0.391
        23  -9.6130    174.9153    149.1401   6.9298641967e+01   1.6674855924e+01    0.2293594    0.2081524 -75.30 0.0006334304    1.260    0.206
        24 -10.6646    133.5912    144.3960   7.8084558214e+01   2.6044325153e+01      1.13931    0.2719739 -54.56  0.002334101    6.944    0.856
        25 -10.4138     29.4055    143.2538   1.0829616506e+02   4.2330813178e+01     0.424276    0.2827916 -28.55  0.002133908    1.882    0.469
        26 -12.4920     85.1971    138.8935   9.0494036240e+01   3.6306730010e+01    0.3306054    0.2847787 -44.82 0.0004383935    1.140    0.122
        27 -10.9906    107.2947    130.4314   8.2027030720e+01   3.4542079914e+01    0.5181698    0.3488712  27.91  0.001938433    1.677    0.404
        28 -10.1219    135.7109    130.1743   7.4155462242e+01   2.8947348115e+01    0.3711455    0.1371513 -44.98  0.001191283    2.644    0.622
        29 -12.5822     82.8273    215.5783   1.0363483928e+02   1.7667552396e+01    0.6908295    0.5147709  83.55 0.0004782544    1.444    0.307
        30 -10.5127     48.0804    169.6933   1.0654523351e+02   3.3499843369e+01    0.3634018    0.3009369  17.60  0.001225249    1.443    0.307
        31 -10.9567     98.5201    139.3201   8.6629800210e+01   3.3935704752e+01    0.6056069    0.3945756 -14.58   0.00229961    2.534    0.605
        32  -9.4946     96.7150    125.3689   8.3945734662e+01   3.7736589411e+01    0.2511336    0.1741179 -33.38 0.0002339592    1.600    0.375
        33 -10.0168    230.0000    166.9661   6.2409206693e+01   3.2600778599e+00    0.2284226   0.06705767 -41.03 0.0008023402    2.942    0.660
        34  -9.4087    115.5701    124.2081   7.8132771708e+01   3.4444664736e+01    0.2264534    0.1445271 -37.63 0.0009349323    1.655    0.396
        35 -16.8412     21.5330    243.0617   1.1932730115e+02   1.9312367403e+01     8.472199     2.972273  23.63   0.03301907    4.558    0.781
        36  -9.9149    105.9867    118.8686   7.9557786041e+01   3.7588564053e+01     0.223728    0.2149991 -25.56 0.0002840637    1.038    0.037
        37  -9.1028     77.2783    112.4327   8.6921827970e+01   4.4230508507e+01     0.193173    0.1425907  47.11 0.0006841283    1.496    0.332
        38 -10.0742    205.5151    110.2611   5.4332826940e+01   1.8272100889e+01    0.2774152    0.2343841  43.89 0.0008807644    1.343    0.255
        39  -9.1506    156.0400    111.1006   6.4338690848e+01   2.8785951454e+01    0.2418366    0.1845982 -76.36  0.000524068    1.657    0.396
        40  -9.0380    110.5409    167.0721   8.9008343232e+01   2.4860765170e+01    0.2290773    0.1503019 -58.73  0.001005131    1.543    0.352
        41  -9.3557     47.8139    146.1849   1.0320303410e+02   3.9634265164e+01    0.1991878    0.1583715 -42.53 0.0005030334    1.313    0.238
        42 -11.8993    248.6481    102.2828   4.6273916393e+01   1.1421532461e+01    0.3651148    0.2110192 -28.33    0.0018127    1.983    0.496
        43 -11.7111    246.2912     94.3369   4.4932596354e+01   1.3146154518e+01    0.5971133     0.198484  46.49  0.002224054    4.401    0.773
        44 -11.1311     53.1585     91.9083   9.0124336229e+01   5.2637818965e+01    0.4398549    0.2169729 -52.05  0.001384418    1.825    0.452
        45  -9.3252     48.3210     92.7018   9.2146018127e+01   5.3060057003e+01    0.1347092    0.1102205  71.75 0.0002597686    1.621    0.383
        46 -10.6742    249.6092     85.1911   4.2668913658e+01   1.4011492234e+01    0.1839097    0.1065809 -33.61 0.0009575371    1.724    0.420
        47  -9.6114    161.2667     83.5677   5.5878033293e+01   3.3004568753e+01    0.1979193     0.139973  45.30  0.000460155    1.492    0.330
        48  -8.9427    184.4869     77.4301   4.9939557291e+01   2.8730476746e+01    0.1403075    0.1332583 -72.30 0.0001448814    1.054    0.051
        49  -9.7521    122.0912    198.6505   9.1731231682e+01   1.5373513438e+01    0.2832326    0.2070896 -78.85  0.001357105    1.732    0.423
        50  -9.8280     36.4463     63.3880   8.8605627373e+01   6.0885352194e+01    0.2315278    0.1813213  37.08 0.0006566998    1.521    0.342
        51 -11.5572     13.2153     59.9010   9.8011256792e+01   6.3718595542e+01    0.2989304    0.2645637  61.91 0.0005016619    1.579    0.367
        52 -12.6611    218.9675     32.5670   3.4857542967e+01   2.7683462157e+01    0.4760167    0.3716648  58.57  0.001114217    1.511    0.338
        53 -13.2093     31.3299    199.8359   1.1408269346e+02   2.7881094797e+01    0.4673432    0.3643382 -45.11  0.001449957    1.591    0.372
        54 -13.6922    201.4224     46.3113   3.9848593992e+01   2.9679862083e+01     1.217392    0.7215592  44.57  0.003650636    2.258    0.557
        55 -10.0690    110.9851    203.3159   9.5181099529e+01   1.6145046236e+01    0.2041941    0.1737253  41.45 0.0003999666    1.115    0.103
        56 -10.1068     18.4484     55.1037   9.4163649530e+01   6.4306137766e+01    0.2455566    0.1607558  33.32   0.00110196    1.831    0.454
        57 -11.1353      3.8602     49.6993   9.9604196966e+01   6.6411412746e+01    0.3695634    0.1747604  24.55  0.001964165    2.356    0.576
        58  -9.6944    131.9456     38.9577   4.8848060486e+01   4.6943554203e+01    0.2087409     0.185369 -89.50 0.0005891682    1.174    0.148
        59 -10.2366     39.7441     58.0436   8.5419541066e+01   6.1570800568e+01    0.2134263    0.1784804  22.85 0.0005109313    1.280    0.219
        60 -10.6655    198.1967     24.0163   3.5003677692e+01   3.3238350691e+01    0.2546115    0.2142521 -41.16  0.001022154    1.313    0.239
        61  -9.4754    189.4976     15.0017   3.3780345639e+01   3.6197464349e+01    0.1711741    0.1160393 -38.54 0.0005976475    1.539    0.350
