#   1 NUMBER                 Running object number                                     
#   2 MAG_AUTO               Kron-like elliptical aperture magnitude                    [mag]
#   3 X_IMAGE                Object position along x                                    [pixel]
#   4 Y_IMAGE                Object position along y                                    [pixel]
#   5 X_WORLD                Barycenter position along world x axis                     [deg]
#   6 Y_WORLD                Barycenter position along world y axis                     [deg]
#   7 A_WORLD                Profile RMS along major axis (world units)                 [deg]
#   8 B_WORLD                Profile RMS along minor axis (world units)                 [deg]
#   9 THETA_WORLD            Position angle (CCW/world-x)                               [deg]
#  10 FWHM_WORLD             FWHM assuming a gaussian core                              [deg]
#  11 ELONGATION             A_IMAGE/B_IMAGE                                           
#  12 ELLIPTICITY            1 - B_IMAGE/A_IMAGE                                       
         1 -15.0751    105.8852    108.8989   2.9122831846e+02   5.9151005173e+00    0.0880333   0.06804564 -75.35  0.009684165    1.441    0.306
         2 -15.3360     85.0013     66.2415   2.9125766273e+02   6.5301688172e+00    0.1895112   0.07838374 -29.96  0.008883417    5.497    0.818
         3 -15.3025    119.4441     54.6605   2.9076429000e+02   6.4680374335e+00   0.07741971   0.04723035  -4.46  0.001893759    2.140    0.533
         4 -15.1344     57.3905     74.6229   2.9164830727e+02   6.5901135206e+00   0.09454808   0.06331245 -55.72  0.002634554    1.545    0.353
         5 -15.1816    122.5956     36.7182   2.9062729172e+02   6.6584237327e+00   0.07018957    0.0411017   3.99  0.004286016    2.108    0.526
         6 -15.6274      7.0785     69.9308   2.9225205771e+02   6.9306382117e+00   0.07855238   0.05286686 -65.28  0.004217197    1.587    0.370
         7 -14.7705    166.4783     30.1723   2.9004348005e+02   6.4831166081e+00   0.05185516   0.03946806  18.49  0.003024315    1.267    0.211
         8 -14.0488    187.1897     12.8232   2.8969032065e+02   6.5656153898e+00   0.05549673   0.03795167 -33.25  0.004269659    1.658    0.397
         9 -12.8726    195.0097     23.3836   2.8965033598e+02   6.3981764634e+00   0.03728733   0.01929362 -71.50  0.002688638    2.259    0.557
        10 -15.2044     42.4869      8.4697   2.9147560267e+02   7.4435073580e+00    0.0974839   0.07273986 -43.07   0.01058161    1.418    0.295
        11 -13.7942      8.0787      3.2317   2.9187794675e+02   7.6998453140e+00   0.06949967   0.03660658  41.66  0.004915356    1.853    0.460
        12 -14.1015     25.2858     31.7932   2.9181753957e+02   7.2704474851e+00   0.05593638    0.0376066  78.56  0.005443713    1.956    0.489
        13 -14.3628     24.9970     14.0540   2.9172487100e+02   7.4781175196e+00   0.04701132   0.02761128  31.42  0.004575409    1.556    0.357
        14 -15.1379      8.4495     29.4414   2.9201550617e+02   7.3933715838e+00   0.06869019   0.04159205  39.54  0.006751035    1.575    0.365
        15 -15.1615     13.7391     20.4988   2.9190078423e+02   7.4672159444e+00   0.06036174   0.04313635 -32.74  0.005781817    1.559    0.359
        16 -15.0447    146.1801     30.7847   2.9030031696e+02   6.5923337341e+00   0.07775063   0.03938841  21.52  0.006886272    1.929    0.481
        17 -13.1528     56.1505     27.7013   2.9140910674e+02   7.1423965962e+00   0.02924727   0.01683958  25.46  0.001850173    1.617    0.382
        18 -13.7913    232.1341      2.4500   2.8907303381e+02   6.4275484925e+00    0.0825685   0.03379453  13.55  0.005227634    3.287    0.696
        19 -13.8249    215.2349      9.5973   2.8932279060e+02   6.4418848944e+00   0.04339939   0.02491491  19.62  0.002717288    1.725    0.420
        20 -14.4359    215.3628     20.7922   2.8938229957e+02   6.3112939369e+00   0.05831721    0.0264168 -62.92  0.004984521    2.297    0.565
        21 -14.1370    218.8315     15.1724   2.8930836778e+02   6.3565403234e+00   0.04369786   0.03148592  -8.12   0.00365054    1.609    0.379
        22 -12.4284     97.0364     28.2198   2.9090054158e+02   6.9031945290e+00   0.02796032   0.01461026 -66.21   0.00225841    2.070    0.517
        23 -15.8027     99.7186     12.7860   2.9078301562e+02   7.0670776849e+00   0.07956839   0.04229954  20.86  0.003251552    1.844    0.458
        24 -12.2314    202.3518     10.8539   2.8949036219e+02   6.5013656400e+00   0.01632956   0.01244265 -37.05  0.001020234    1.415    0.293
        25 -12.2382    162.6244      8.7284   2.8997470378e+02   6.7540926972e+00   0.01966397    0.0101203  33.48  0.001789617    1.759    0.431
        26 -11.8069    125.9431      8.7021   2.9043289490e+02   6.9645384824e+00   0.01327112   0.01018097 -50.47  0.001389017    1.361    0.265
        27 -12.4770    121.2211      4.2975   2.9046792783e+02   7.0426760091e+00   0.02467226   0.01008033  40.72  0.001978448    2.353    0.575
        28 -14.2072    189.7829     26.8268   2.8973433858e+02   6.3882325398e+00   0.07990758    0.0395939  70.56   0.00538828    4.186    0.761
        29 -11.4317     67.9317      3.4851   2.9113004931e+02   7.3564546684e+00   0.01599384   0.01116606 -42.31   0.00166251    1.532    0.347
        30 -12.0716     26.5699      3.8693   2.9164986969e+02   7.5874317484e+00   0.01388614   0.01129049  13.40 0.0008330589    1.205    0.170
        31 -13.6439    222.7417     21.3548   2.8929335490e+02   6.2623411632e+00   0.04065297   0.01991007 -47.45  0.001431137    2.166    0.538
        32 -12.3644     80.8994      1.9337   2.9095934926e+02   7.3005012479e+00    0.0309062    0.0116798  18.80  0.002232329    2.947    0.661
        33 -11.0987     62.4850      1.5122   2.9118747932e+02   7.4104011967e+00   0.01262463  0.009000042  29.38 0.0007325197    1.299    0.230
        34 -11.1383     59.3295      1.6888   2.9122793141e+02   7.4263307565e+00   0.01133562   0.01018342  -2.37  0.001272021    1.127    0.113
        35 -11.8649    153.6142      8.0946   2.9008379699e+02   6.8131060700e+00   0.01304949  0.009623799  15.67 0.0005858237    1.338    0.253
        36 -11.7471    198.8508    183.2653   2.9047244992e+02   4.5187658856e+00    0.0137522  0.008340695  19.17  0.001318706    1.626    0.385
        37 -13.2009     57.3073    246.8481   2.9258046885e+02   4.5869751785e+00     0.045639   0.02863825   1.91  0.004295065    1.907    0.476
        38 -12.4276     16.0877    197.5287   2.9282876036e+02   5.3951390271e+00   0.03473106   0.01244284 -47.30  0.002569861    3.025    0.669
        39 -14.0113     27.5832    246.3501   2.9294830730e+02   4.7616872411e+00   0.05502585    0.0401578 -69.87  0.005899992    1.494    0.331
        40 -13.4181     10.5701    210.5844   2.9296793330e+02   5.2745017947e+00   0.04953805   0.03379975  18.60  0.005119029    1.429    0.300
        41 -12.5851     24.4874    217.2451   2.9283020372e+02   5.1179899157e+00   0.03523048    0.0249059  58.56  0.003641936    1.603    0.376
        42 -13.8128     25.6219    227.7618   2.9287269694e+02   4.9891531130e+00   0.04618858   0.02198383 -49.25  0.004017001    2.184    0.542
        43 -13.6406     20.3698    224.4243   2.9292022416e+02   5.0578130556e+00   0.02810081   0.02392619  -1.77  0.001529215    1.213    0.176
        44 -11.8645      2.8777    249.8916   2.9327531746e+02   4.8606589916e+00   0.01999722   0.01178244  27.76  0.001935166    1.562    0.360
        45 -14.2780      9.1313    245.7411   2.9317505196e+02   4.8734964574e+00   0.04962968   0.03283713  43.09  0.003152566    1.488    0.328
        46 -11.5055    109.4467    183.5265   2.9158831894e+02   5.0267713692e+00   0.01742588  0.008849095   6.87  0.001379568    2.624    0.619
        47 -13.3381     86.4863    180.5852   2.9185883829e+02   5.1919135122e+00   0.03900783   0.01572883  41.88  0.003088348    2.446    0.591
        48 -12.4979    194.7118    177.3990   2.9049216586e+02   4.6106625544e+00   0.01693579   0.01507552  54.29   0.00116819    1.163    0.140
        49 -12.6987    131.8357    172.8363   2.9125117355e+02   5.0233175597e+00   0.02141835   0.01969693  16.99  0.002578405    1.036    0.035
        50 -13.6684    124.0367    166.6308   2.9131482438e+02   5.1400386365e+00   0.03420666   0.02379905 -88.04  0.003466113    1.778    0.437
        51 -11.4132    177.3998    167.2339   2.9065270579e+02   4.8279466898e+00   0.00918054  0.006708046 -84.00 0.0007303245    1.618    0.382
        52 -11.4010     27.7552    158.7464   2.9247389840e+02   5.7802096671e+00   0.01683607   0.01165018 -63.89  0.001547951    1.532    0.347
        53 -12.3386     24.8300    156.1732   2.9249652948e+02   5.8267661842e+00   0.02524712   0.01706153 -18.98  0.002483926    1.801    0.445
        54 -12.8929    122.5074    155.3949   2.9127300864e+02   5.2794614753e+00   0.02704889   0.01690753 -50.80  0.002693134    1.658    0.397
        55 -12.8616    111.8058    155.8147   2.9140881112e+02   5.3356761743e+00   0.03194487   0.01666373  57.52  0.002628263    2.576    0.612
        56 -12.5821     77.6284    157.2010   2.9184287303e+02   5.5144537460e+00   0.02953361   0.01557002  31.63  0.001342919    1.717    0.418
        57 -13.2275     74.2973    153.5211   2.9186454264e+02   5.5762425557e+00   0.03691173   0.02542718  11.73  0.002958377    1.502    0.334
        58 -11.4532    155.3868    157.6067   2.9087489018e+02   5.0658308356e+00   0.01463347  0.003746287  37.66  0.000957074    3.345    0.701
        59 -11.6716     55.3322    156.3723   2.9211673709e+02   5.6510466208e+00   0.02007985   0.01184619   3.35  0.001465688    2.092    0.522
        60 -13.0716    208.5715    154.6377   2.9019587927e+02   4.7958482796e+00   0.03524874   0.01901682  25.52  0.003261661    1.726    0.420
        61 -12.1940     85.7654    153.2716   2.9172003359e+02   5.5137952054e+00   0.02658521   0.01572214 -48.28  0.002565276    1.770    0.435
        62 -11.7681     41.7579    154.2669   2.9227484656e+02   5.7527530989e+00   0.01924089   0.01135208  64.60  0.001696676    2.306    0.566
        63 -12.1483    103.5053    149.8758   2.9148021807e+02   5.4521264222e+00   0.01871444   0.01383348 -35.27  0.001519303    1.477    0.323
        64 -12.1155      6.3983    147.9229   2.9268218247e+02   6.0273883893e+00   0.02372702    0.0187026  57.68  0.002621558    1.374    0.272
        65 -11.4567     38.5781    145.8429   2.9226902481e+02   5.8688436594e+00   0.01169569   0.00911113   7.53 0.0006908595    1.316    0.240
        66 -11.5278     44.5937    145.1773   2.9219029820e+02   5.8423842686e+00    0.0126123  0.009440111  11.53 0.0005675185    1.351    0.260
        67 -11.4966    149.2435    140.9353   2.9086103347e+02   5.2948228004e+00   0.02017111   0.01160682  46.17  0.001888238    1.795    0.443
        68 -11.6647     88.9316    140.3593   2.9161058051e+02   5.6459492882e+00   0.01834199   0.01384062 -27.13  0.001498785    1.478    0.323
        69 -10.7642     39.4594    136.4900   2.9220745047e+02   5.9726480601e+00   0.01379137  0.006000812  28.85 0.0008589592    2.057    0.514
        70 -13.0736     42.7507    139.5736   2.9218301546e+02   5.9180599923e+00   0.04881273   0.01248546 -54.77  0.003322731    3.525    0.716
        71 -11.6185     47.2011    134.7912   2.9210156191e+02   5.9483863722e+00   0.02797953  0.009256314 -57.77  0.002105423    2.881    0.653
        72 -10.9635     56.6234    137.7083   2.9199966069e+02   5.8608387115e+00   0.01257518  0.008457031   7.59  0.001133303    1.613    0.380
        73 -12.3331    246.1281    134.6792   2.8961963797e+02   4.8123323311e+00   0.02020223    0.0106513  52.30  0.001736328    2.246    0.555
        74 -13.6823    231.5526    133.4186   2.8979425653e+02   4.9106309106e+00   0.03481683   0.02277048  32.21  0.003558132    1.409    0.290
        75 -13.1077    223.5877    128.5016   2.8986670424e+02   5.0134585534e+00   0.03008981   0.01714975  45.99  0.002812239    1.810    0.447
        76 -11.4015     61.0788    133.8756   2.9192327245e+02   5.8800637769e+00   0.01600454   0.01020225  37.31 0.0007044117    1.473    0.321
        77 -11.7573    137.0459    133.1607   2.9097101201e+02   5.4549685524e+00   0.01645458  0.009971431  12.70  0.000967323    1.764    0.433
        78 -12.8688    133.0210    129.2296   2.9099990032e+02   5.5236857977e+00   0.04246393   0.01544227 -58.95  0.003323051    2.685    0.628
        79 -12.3544    110.7184    131.8622   2.9129254350e+02   5.6204746098e+00   0.02697611   0.01894537 -11.09  0.002725213    1.687    0.407
        80 -12.9429    109.9433     96.0556   2.9110792495e+02   6.0412500871e+00   0.01815431   0.01427322  65.14  0.000358197    1.439    0.305
        81 -13.3176     84.6257    115.5860   2.9153009887e+02   5.9586369979e+00   0.05291157   0.02626588   7.48  0.004157343    2.705    0.630
        82 -14.1106     90.2115    109.1983   2.9142569464e+02   6.0010629562e+00   0.06676548   0.04014341   1.36  0.006051975    2.074    0.518
        83 -14.4940    104.8764    123.1343   2.9131814198e+02   5.7553254089e+00    0.1032177   0.04483446  19.71  0.008275194    2.384    0.581
        84 -10.1652     11.4520    134.4195   2.9254613873e+02   6.1558238140e+00  0.006831726  0.006285022  31.88 0.0001184992    1.036    0.035
        85 -10.7511     57.9791    128.5029   2.9193290676e+02   5.9602070933e+00   0.01059481  0.009186409 -65.40 0.0008022535    1.232    0.188
        86 -13.1564     62.3415    102.7442   2.9173888799e+02   6.2349606296e+00   0.05806288   0.02725858 -69.57  0.004888806    2.443    0.591
        87 -14.0334     48.1282     96.5338   2.9188286541e+02   6.3880851784e+00   0.07296206   0.05249907  37.63  0.007810413    1.316    0.240
        88 -14.2413     28.3478    123.1703   2.9227423770e+02   6.1907513125e+00    0.1085387   0.02138751 -50.14  0.006300942    4.891    0.796
        89 -12.7528      4.1107    119.8662   2.9255924835e+02   6.3667791493e+00   0.03468607   0.02165192  19.54  0.002205158    1.565    0.361
        90 -15.2959     17.0921    109.5035   2.9234098900e+02   6.4136486997e+00   0.08610792   0.06221462  46.49  0.006887147    1.400    0.286
        91 -14.1656      2.5288     96.7905   2.9245429054e+02   6.6441455349e+00   0.05754842   0.02878703 -69.08  0.004501114    2.249    0.555
        92 -15.4833     26.1841     94.5884   2.9214663433e+02   6.5354729903e+00    0.1002606   0.06626525  21.58    0.0102375    1.445    0.308
        93 -11.8962    180.8389    121.0963   2.9035921197e+02   5.3446026003e+00   0.01735275   0.01105011  16.73  0.001216615    1.578    0.366
        94 -13.3414    170.7583    241.9932   2.9114066329e+02   3.9966099726e+00   0.02979129   0.02078759   6.96    0.0030532    1.541    0.351
        95 -10.6630    192.6833    117.3397   2.9019110730e+02   5.3203870196e+00  0.007303542  0.004890309  56.90 0.0007048575    1.706    0.414
        96 -12.6240    176.3763    111.3852   2.9036206580e+02   5.4830335776e+00    0.0176718   0.01619604 -21.83   0.00211798    1.133    0.117
        97 -12.2028     46.2392    109.4513   2.9197643643e+02   6.2486096307e+00   0.02325722    0.0169452 -40.54  0.001806485    1.470    0.320
        98 -12.3641    121.0824    111.5899   2.9105316782e+02   5.7970152126e+00    0.0181166  0.009737156  41.01  0.001625334    1.797    0.444
        99 -11.4011     64.3155    134.6591   2.9188708987e+02   5.8525207480e+00   0.01587935  0.009171928 -69.23   0.00149184    1.921    0.480
       100 -12.9280    137.2997     96.3784   2.9076808846e+02   5.8811420576e+00   0.02204562   0.01832711  86.34  0.001467231    1.374    0.272
       101 -12.8871    134.8814    103.2096   2.9083539332e+02   5.8155671847e+00   0.04436301    0.0145279  28.50  0.002591515    2.651    0.623
       102 -13.3432    122.8524    102.2401   2.9098030407e+02   5.8956021175e+00   0.02561287   0.02190715   5.28  0.002964074    1.176    0.150
       103 -12.2291    249.1313     99.6718   2.8939161816e+02   5.2016535140e+00   0.01198359   0.00983148  88.20  0.001338262    1.398    0.285
       104 -12.3126    127.8639     95.9360   2.9088348931e+02   5.9402415799e+00   0.01972201  0.008407744  34.99  0.001643554    2.096    0.523
       105 -11.3118     76.0302     95.7705   2.9153003479e+02   6.2380611873e+00   0.01008853  0.009770805 -61.38 0.0002258599    1.101    0.091
       106 -13.7481    188.5525     84.3789   2.9006327085e+02   5.7270387418e+00   0.06906647   0.02843622  26.21   0.00174083    2.227    0.551
       107 -14.8382    160.8914     80.5288   2.9038743199e+02   5.9303020902e+00   0.08698394   0.05246787 -22.84   0.00139701    2.196    0.545
       108 -14.6690    170.5208     77.0762   2.9024847379e+02   5.9152458734e+00   0.05176742   0.03751478  13.62  0.005013448    1.388    0.280
       109 -11.8747     89.6268     87.5100   2.9131532966e+02   6.2565657348e+00   0.02295141   0.01050389  35.32   0.00197822    1.973    0.493
       110 -13.2436    134.9543     79.6692   2.9070655002e+02   6.0887562875e+00   0.04363126   0.02207075  19.60  0.002814729    1.992    0.498
       111 -12.1507    125.5448     86.7208   2.9086237899e+02   6.0606109566e+00   0.02493569   0.01647834  19.05  0.002526306    1.477    0.323
       112 -12.7614    132.6959     86.1224   2.9076982973e+02   6.0266763898e+00   0.01979433    0.0142813  28.68  0.001316246    1.285    0.222
       113 -10.5132     79.0255     87.4985   2.9144773487e+02   6.3171612368e+00     0.010469  0.006369854  25.64  0.000476957    1.530    0.347
       114 -11.3030    185.0220    124.0447   2.9032308287e+02   5.2863690484e+00    0.0127953  0.009219843  40.96 0.0004479691    1.341    0.254
       115 -12.5480    241.8160     83.8270   2.8939637614e+02   5.4276614337e+00   0.02465317   0.01196074  27.63  0.002032245    1.880    0.468
       116 -13.2339    238.1075     80.3017   2.8942335728e+02   5.4899022605e+00   0.03500601    0.0147236  34.21   0.00291764    2.110    0.526
       117 -10.7261     98.2473     84.1784   2.9118953644e+02   6.2461013987e+00   0.00966259  0.007429441  50.72  0.000478799    1.351    0.260
       118 -11.6928     41.1756    250.0889   2.9279900143e+02   4.6409679903e+00   0.01262578  0.009444136 -55.75  0.001365304    1.393    0.282
       119 -13.8622    132.1450     66.8838   2.9067211045e+02   6.2533907496e+00   0.06467723   0.03945554  25.08  0.005563416    1.532    0.347
       120 -14.4916     95.6774    236.3337   2.9204548534e+02   4.4908908350e+00   0.07946791   0.04149481  51.52  0.006862056    2.237    0.553
       121 -12.3735    147.0118    238.5282   2.9141767218e+02   4.1725451970e+00   0.01721474   0.01296972  83.36 0.0009472979    1.603    0.376
       122 -13.7485    111.8513     41.3650   2.9078685114e+02   6.6658843457e+00   0.03624405   0.02238463 -25.11   0.00178385    2.061    0.515
       123 -12.2656    144.5178    233.0474   2.9141909358e+02   4.2505322196e+00   0.03247208   0.01087934 -51.77  0.002416991    2.948    0.661
       124 -11.6263    122.4632    181.6262   2.9141568175e+02   4.9745922100e+00    0.0249839   0.01214062  62.26   0.00179918    3.474    0.712
       125 -12.0340      5.7659     50.9125   2.9216547457e+02   7.1591331546e+00   0.01706035   0.01346285 -28.48  0.001301175    1.380    0.275
       126 -13.8927    198.5741     70.7193   2.8986389972e+02   5.8282039638e+00    0.0496358   0.02977329   3.54  0.003496299    2.037    0.509
       127 -11.8338    219.5144     74.9955   2.8962612124e+02   5.6583276085e+00   0.01828638   0.01464484 -57.22  0.001364518    1.310    0.237
       128 -12.4531    216.9844     79.6846   2.8968320422e+02   5.6184072961e+00   0.02036177    0.0171245 -32.52  0.001683931    1.264    0.209
       129 -12.9124    210.6104     77.1115   2.8974864158e+02   5.6848840688e+00   0.03112515   0.01906417  53.46  0.002265695    1.850    0.460
       130 -12.0794    113.8072     80.7055   2.9097629133e+02   6.1976078992e+00   0.01789787   0.01747551  57.48  0.001499397    1.076    0.070
       131 -11.7574     91.1592     80.0375   2.9125561748e+02   6.3346881807e+00   0.02017153   0.01427999 -21.41  0.002056658    1.657    0.396
       132 -12.5527     41.8379     77.1626   2.9185652918e+02   6.6490994511e+00   0.01534284   0.01462821 -51.62 0.0004859965    1.109    0.098
       133 -13.1042     39.6441     67.7851   2.9183312629e+02   6.7705867229e+00   0.05656633   0.02576969  16.83  0.004559039    2.407    0.585
       134 -14.4389    101.4016     50.2978   2.9096603889e+02   6.6218203211e+00   0.04747154   0.02819324  37.80  0.002376583    1.580    0.367
       135 -11.6806    158.1936     64.1470   2.9033195930e+02   6.1360722458e+00   0.01818608   0.01032988 -82.36   0.00159649    2.359    0.576
       136 -11.7170    100.4528     64.6878   2.9105610993e+02   6.4600385430e+00   0.01716356   0.01275092 -35.30  0.001376859    1.467    0.319
       137 -13.4458     79.2303     60.2665   2.9129735324e+02   6.6325224906e+00   0.03428528   0.02434556 -29.36   0.00354887    1.601    0.375
       138 -13.9760    177.9048     57.4257   2.9004933928e+02   6.1011605596e+00   0.03776189   0.02943228  65.84  0.002363611    1.462    0.316
       139 -12.4378     39.1244     60.3955   2.9179955758e+02   6.8594319239e+00   0.01890795   0.01310899  46.85  0.001960799    1.470    0.320
       140 -12.4135     24.5416     60.2143   2.9198097926e+02   6.9444318608e+00   0.01490274   0.01339379 -60.25 0.0006931977    1.180    0.152
       141 -13.1437    249.1218     50.9426   2.8912605656e+02   5.7673341937e+00   0.03598437   0.01914857 -53.27  0.001351909    1.919    0.479
       142 -11.9580    230.5021     55.1362   2.8938091891e+02   5.8257432753e+00   0.02335606   0.00948282  31.70  0.001912014    2.164    0.538
       143 -12.5964     64.8047     50.7071   2.9142581163e+02   6.8258343063e+00   0.02512925   0.01869321  48.05  0.002709224    1.374    0.272
       144 -12.6807     69.4124     49.2424   2.9136023673e+02   6.8165953582e+00   0.04284602   0.02129281  64.41  0.003115661    3.483    0.713
       145 -10.7398     23.2980     50.0251   2.9194130102e+02   7.0699122949e+00  0.009083792  0.009025828  84.11  0.000498154    1.075    0.070
       146 -14.0043    159.2673     44.4374   2.9021123875e+02   6.3588311910e+00   0.06733108   0.02990134  12.47  0.005035155    2.900    0.655
       147 -13.3115     57.4094    203.7372   2.9234669443e+02   5.0880766302e+00   0.04987137    0.0200488 -70.70  0.003778368    3.038    0.671
       148 -13.0301     53.0472    214.3070   2.9245814247e+02   4.9898873285e+00   0.02978765   0.01655191  51.97  0.002672523    2.066    0.516
       149 -13.6198     67.9234    222.9337   2.9231916344e+02   4.8048623747e+00   0.04129189   0.02934928 -26.10  0.004258573    1.621    0.383
       150 -14.4630    217.5644     41.9110   2.8947006525e+02   6.0535946641e+00   0.07565787   0.03560481  16.68  0.005761188    2.330    0.571
       151 -12.9119    139.5103     21.6577   2.9033392408e+02   6.7364909774e+00   0.02864945   0.01362583  23.75 0.0007078263    1.996    0.499
       152 -13.6915      9.0422     42.9134   2.9208112859e+02   7.2334936394e+00   0.06336364   0.03513362  49.32    0.0057669    1.979    0.495
       153 -13.1155     34.1691     33.0342   2.9171310725e+02   7.2055385662e+00   0.03782906   0.01541474  43.18  0.002982247    2.501    0.600
       154 -14.5820     62.9190    214.8903   2.9233816765e+02   4.9269404978e+00   0.06680025   0.04644782  41.35  0.007010435    1.394    0.283
       155 -13.8234     98.7807    216.8897   2.9190176967e+02   4.6994342135e+00   0.03079288    0.0235183 -55.00  0.003390248    1.366    0.268
       156 -13.5344     94.4880    218.7578   2.9196538532e+02   4.7021653293e+00   0.01987262   0.01769766  56.87  0.001706494    1.174    0.148
       157 -11.8230     85.2941    215.9757   2.9206499408e+02   4.7869200394e+00   0.01658309  0.009732084  25.85  0.001592003    1.583    0.368
       158 -11.7848    185.4852    213.5149   2.9080300499e+02   4.2435616101e+00   0.01193874  0.006849268 -84.05  0.001037088    2.372    0.578
       159 -11.1654    157.4975    213.4748   2.9115143329e+02   4.4040360544e+00  0.006859888  0.006378368  30.15 0.0008100257    1.024    0.024
       160 -11.6878     86.2858     49.5317   2.9115083067e+02   6.7170104072e+00   0.01237474   0.01187401  24.74 0.0005461976    1.026    0.025
       161 -13.4476    205.2258     40.2605   2.8961493166e+02   6.1436404870e+00   0.04063281   0.01662912  42.10  0.003239498    2.418    0.586
       162 -11.6347     25.7913     42.9194   2.9187157232e+02   7.1383133767e+00   0.01039181  0.008966601 -24.76 0.0004690552    1.226    0.184
       163 -11.6973     66.6731     38.6926   2.9133718982e+02   6.9547754861e+00   0.01177957   0.01028434  38.18 0.0005990607    1.103    0.094
       164 -13.0165     75.7882     37.5634   2.9121705270e+02   6.9159297672e+00   0.02891745    0.0176923  -0.72 0.0008177072    2.053    0.513
       165 -12.1502     70.6667     36.5598   2.9127565246e+02   6.9567890667e+00   0.01583964    0.0132294  -2.88  0.001003187    1.251    0.200
       166 -11.4686    136.8321    211.1168   2.9139619759e+02   4.5495064791e+00   0.01057582   0.00908772  54.32 0.0007797566    1.211    0.175
       167 -12.8110    242.5668     36.0531   2.8912646904e+02   5.9777954411e+00   0.04091778   0.01387076  30.13  0.003103023    2.537    0.606
       168 -11.2240    245.4637     31.5133   2.8906559736e+02   6.0137879149e+00   0.01437284  0.009407258 -48.34 0.0009136747    1.600    0.375
       169 -12.4702    105.0734     35.6656   2.9084056687e+02   6.7708132403e+00   0.02509301   0.01155785 -53.08   0.00216741    2.191    0.543
       170 -10.8754     39.5322    211.0925   2.9260938253e+02   5.1041306011e+00   0.01743968  0.005549814  37.67  0.001260915    2.791    0.642
       171 -12.5521     47.4603     32.0960   2.9154170492e+02   7.1408266824e+00   0.02181753   0.01393796 -12.87  0.001772387    2.011    0.503
       172 -11.4563     51.3315     36.4548   2.9151694223e+02   7.0681574676e+00   0.02015187   0.00671206  22.32   0.00141077    3.025    0.669
       173 -13.0743    211.3975     33.2513   2.8949972960e+02   6.1895277508e+00   0.03919058   0.02048785  10.55  0.002514248    2.296    0.564
       174 -11.7559     80.2604    208.4275   2.9208699556e+02   4.9034219933e+00     0.017743  0.008892515  48.11  0.001512691    2.195    0.544
       175 -11.6322     72.2356    206.4587   2.9217644961e+02   4.9720292516e+00   0.01353947   0.01320487   9.65  0.001672999    1.042    0.040
       176 -10.7174    149.9199    206.5334   2.9120826551e+02   4.5280653743e+00    0.0106783  0.006459441  22.50  0.001023422    1.576    0.366
       177 -11.9668     45.2434    197.5664   2.9246517228e+02   5.2290784575e+00   0.02243673    0.0142639 -71.60  0.002219183    1.765    0.433
       178 -10.9175     88.6670     31.1003   2.9102086138e+02   6.9175253854e+00   0.01412076  0.007475596 -47.10  0.001104409    2.001    0.500
       179 -12.5045     41.8667    201.1408   2.9252658691e+02   5.2066775524e+00   0.01552848   0.01285047 -14.85  0.001326691    1.300    0.231
       180 -12.7626     39.4172    195.1242   2.9252468979e+02   5.2906192315e+00   0.02648801   0.02285641  55.51  0.002209022    1.212    0.175
       181 -11.5767     70.7190     16.9580   2.9116844807e+02   7.1841447837e+00   0.01224042  0.009203026  31.49 0.0003967696    1.236    0.191
       182 -10.5958    200.4865     15.4264   2.8953858789e+02   6.4590408402e+00   0.01044909  0.009296441 -86.23 0.0007545435    1.239    0.193
       183 -10.9473    212.5721    200.2416   2.9039372210e+02   4.2428540793e+00  0.009787215  0.006066614 -50.14 0.0009524814    1.676    0.403
       184 -10.8177     60.0510     15.4891   2.9129393793e+02   7.2620008355e+00   0.01057268    0.0063962  24.62 0.0004653441    1.548    0.354
       185 -11.4656     76.4666     23.8466   2.9113400468e+02   7.0713771248e+00   0.01733396  0.009077334  35.14  0.001586248    1.745    0.427
       186 -13.0445    164.4821    194.7532   2.9096296239e+02   4.5818413404e+00   0.03608116   0.02107015  89.31  0.003138901    2.485    0.598
       187 -13.4096     29.9893    169.8513   2.9250596350e+02   5.6382971568e+00   0.04686644   0.03293288 -17.40  0.003117548    1.688    0.408
       188 -13.5690     22.4529    181.0712   2.9266058741e+02   5.5505341349e+00   0.03711536   0.03083208  10.91  0.003058647    1.191    0.160
       189 -11.7010     45.4492     36.5057   2.9159081013e+02   7.1010464736e+00   0.01385625   0.01214277 -32.56 0.0007164521    1.199    0.166
       190 -14.9202      8.3548    183.5165   2.9284974449e+02   5.6020931948e+00   0.06833012   0.05934783  24.85  0.008026241    1.079    0.073
       191 -15.1303     15.4483    175.3957   2.9271741060e+02   5.6563470922e+00    0.1320858   0.08306107  72.88    0.0112889    2.184    0.542
       192 -12.6895    201.3941    191.7320   2.9048672774e+02   4.4057763187e+00   0.01950369   0.01662594 -27.98   0.00171794    1.246    0.198
       193 -10.6169    107.6006    193.2021   2.9166370472e+02   4.9247374507e+00  0.009754745  0.006018931 -50.65  0.000947596    1.680    0.405
       194 -10.4818     81.2574    193.3924   2.9199332059e+02   5.0726903831e+00   0.01031049  0.005688064  34.85  0.000953596    1.661    0.398
       195 -12.3003    100.6430    185.6863   2.9170982219e+02   5.0518607033e+00   0.01139419  0.008375931  -3.94  0.000715273    1.527    0.345
       196 -12.3495     48.7462    180.9479   2.9233175039e+02   5.4025518919e+00    0.0294819    0.0161443 -52.09  0.002689702    1.873    0.466
