#   1 NUMBER                 Running object number                                     
#   2 MAG_AUTO               Kron-like elliptical aperture magnitude                    [mag]
#   3 X_IMAGE                Object position along x                                    [pixel]
#   4 Y_IMAGE                Object position along y                                    [pixel]
#   5 X_WORLD                Barycenter position along world x axis                     [deg]
#   6 Y_WORLD                Barycenter position along world y axis                     [deg]
#   7 A_WORLD                Profile RMS along major axis (world units)                 [deg]
#   8 B_WORLD                Profile RMS along minor axis (world units)                 [deg]
#   9 THETA_WORLD            Position angle (CCW/world-x)                               [deg]
#  10 FWHM_WORLD             FWHM assuming a gaussian core                              [deg]
#  11 ELONGATION             A_IMAGE/B_IMAGE                                           
#  12 ELLIPTICITY            1 - B_IMAGE/A_IMAGE                                       
         1 -16.9792    149.0360    144.7969   1.0649269873e+02   2.3117807880e+01     12.52631     5.060899  58.10   0.03452432    4.245    0.764
         2 -15.3273     69.4965     19.3664   9.0450617023e+01   6.1914961049e+01     1.679917    0.9596277  39.56  0.006848677    1.597    0.374
         3 -14.9362     71.3573     45.3177   9.9765268848e+01   5.8173914774e+01     1.700498     1.137774 -34.05  0.007755284    1.431    0.301
         4 -14.3994     83.7441     38.6067   9.3339066889e+01   5.7057727633e+01     1.508234    0.5872466 -41.75  0.006221638    2.949    0.661
         5 -12.1334      2.1328     36.0878   1.2327122051e+02   6.7171616827e+01    0.6375583    0.1414427 -52.58  0.002758376    3.336    0.700
         6 -12.0064     18.6918     22.3912   1.1123931537e+02   6.8102845800e+01     0.335936    0.2532919 -38.25  0.001897632    1.421    0.296
         7 -13.1906     15.2512     14.1967   1.0942490800e+02   6.9555047408e+01    0.5185757    0.4337453   8.50  0.002917298    1.399    0.285
         8 -14.9885    101.6041      3.7150   7.5524789579e+01   5.7346763329e+01     2.006849    0.5340896  58.64  0.007698705    3.260    0.693
         9 -12.8061    100.7899    231.8347   1.3244242599e+02   1.3154811371e+01    0.3368323    0.2014743 -77.53 0.0006155241    1.899    0.473
        10 -12.4519    233.2261    248.9380   1.0953522741e+02  -1.1894546711e+01    0.4258389    0.2111241  27.21  0.002220849    1.922    0.480
        11 -12.8296    227.3204    246.7605   1.1023617458e+02  -1.0717433142e+01     0.672515    0.3268296  13.90  0.002626218    3.866    0.741
        12 -19.4549     36.4649    138.3106   1.3420194254e+02   4.3188750661e+01     18.85588     3.243027 -65.55   0.05304273    5.214    0.808
        13 -11.9941      7.6984    227.8986   1.4908926144e+02   2.6245758520e+01    0.1640074     0.157292  12.64  0.001262272    1.838    0.456
        14 -12.0982    142.6992    209.3465   1.2064790993e+02   1.0349550267e+01    0.6686345    0.3000998  55.43  0.002529962    2.670    0.626
        15 -10.7179     86.9995    224.6762   1.3430419357e+02   1.6775264907e+01      0.18621    0.1451697  58.56 0.0007443307    1.123    0.109
        16 -11.9812     70.2284    206.3680   1.3554043267e+02   2.3174581399e+01    0.4090227    0.2425134 -44.27  0.001512497    2.462    0.594
        17 -12.0561     11.2554    206.9301   1.4707344584e+02   3.0171095444e+01     0.294015     0.246571  77.30  0.002001937    1.237    0.191
        18 -14.7234     96.6297     91.0460   1.0650725613e+02   4.5620260524e+01     2.190174     1.272608  32.41  0.008762924    1.933    0.483
        19 -14.6980    119.0154    105.0485   1.0412576099e+02   3.8342529862e+01     2.373329     1.390618  38.18   0.01005829    1.831    0.454
        20 -15.2571    146.3238    109.3834   9.8323075731e+01   3.1502929146e+01     1.753106     1.472594 -70.37  0.005763836    1.318    0.241
        21 -16.4724    177.5237    163.7756   1.0429609984e+02   1.2840000062e+01      4.57956      2.99304 -88.14   0.01658645    3.064    0.674
        22 -15.4491    148.8363    167.9012   1.1160267340e+02   1.7981920965e+01      2.50383     1.026739  39.42  0.008745755    2.581    0.613
        23 -12.4402    139.5069    248.4649   1.2705316324e+02   3.6253826620e+00    0.3547663    0.2597652 -87.90  0.002069548    1.740    0.425
        24 -11.9394     95.8483    226.3169   1.3274896874e+02   1.5049828839e+01    0.2243583    0.1622558 -87.19 0.0007698744    1.385    0.278
        25 -10.6525     87.9760    177.7883   1.2771446307e+02   2.6982329684e+01    0.3688184    0.1563671 -44.06  0.001314932    3.294    0.696
        26 -10.7097     90.6027    173.1530   1.2634655752e+02   2.7647954227e+01    0.2900997    0.1467988 -50.47 0.0006861847    2.026    0.506
        27 -13.4807    248.2989    169.6391   9.1801893104e+01  -2.3538956395e+00    0.7375385    0.4048503 -42.83  0.003517886    1.750    0.429
        28 -10.9882    121.6768    168.7623   1.1814925089e+02   2.3182565034e+01    0.6062367    0.3332629  70.14  0.002062285    3.278    0.695
        29 -10.8936     83.4868    170.8202   1.2765510771e+02   2.9333086354e+01    0.2944022    0.1639147  55.56  0.001322509    1.938    0.484
        30 -10.2129     96.5686    163.4870   1.2323264828e+02   2.8948352332e+01    0.1452716    0.1325864 -80.23 0.0001334619    1.022    0.022
        31 -12.2567     99.8192    157.6263   1.2133857462e+02   2.9787840015e+01    0.4736091     0.371014  82.87  0.001208125    1.388    0.280
        32 -11.6138    102.2099    153.5895   1.1995499855e+02   3.0332835414e+01    0.3680665    0.2975186  27.01  0.001353413    1.472    0.321
        33 -14.8082    243.0455    144.7966   8.7373509286e+01   2.9576622172e+00     1.517357     1.063329 -73.18  0.007070611    2.210    0.548
        34 -13.0734    216.6127    150.9389   9.3462613316e+01   7.1325448165e+00    0.3758279    0.3114215 -54.49   0.00196687    1.274    0.215
        35 -13.5769    219.7447    141.4379   9.0724470659e+01   8.2935390593e+00    0.7780188    0.3622146 -49.49  0.002960059    2.311    0.567
        36 -15.8632    122.3821    138.5855   1.1161965299e+02   3.0091775822e+01     2.206619     1.997711 -83.20  0.009637685    1.127    0.113
        37 -11.3024     62.8993    216.6925   1.3816252579e+02   2.1981665787e+01    0.2330283    0.1585894  77.87  0.001163644    1.308    0.236
        38 -12.7808    187.7202    138.9410   9.6444647379e+01   1.5793996284e+01     0.777815    0.4894619 -58.05  0.003229669    1.863    0.463
        39 -12.5519     99.8755    140.6964   1.1790947731e+02   3.3818744134e+01    0.4724604    0.3073331  48.44 0.0004961929    1.619    0.382
        40 -14.2426    173.4044    132.5359   9.7976900718e+01   2.0378692268e+01     1.496722     1.056802  56.40  0.006721639    1.494    0.331
        41 -12.7399    199.6080    132.3962   9.2462844083e+01   1.4454633662e+01    0.8606036     0.584634 -34.55   0.00389985    1.496    0.332
        42 -15.1750    224.7186    126.3080   8.6345202715e+01   1.0100232582e+01     1.471138    0.8302813 -49.19  0.006367348    1.763    0.433
        43 -11.8953    179.2549    121.5777   9.3997340004e+01   2.1324461897e+01    0.3154467    0.3023597 -52.79  0.001223127    1.022    0.021
        44 -11.7439     93.4483    202.3453   1.3013362391e+02   2.0507460622e+01    0.3513641    0.2402071  38.09  0.001069356    1.570    0.363
        45 -12.3089    237.1809    116.8043   8.2070527753e+01   9.1974545145e+00    0.3083867    0.2116702 -70.78  0.001433573    1.894    0.472
        46 -15.9114    164.4301    187.9134   1.1212663550e+02   1.0520406513e+01     6.742779     1.876898  48.74   0.01945619    3.987    0.749
        47 -14.6178    102.3092    122.9623   1.1325140932e+02   3.7556030216e+01     1.765379    0.9819009  56.36  0.007070711    2.303    0.566
        48 -12.3761      2.4908     97.9921   1.3724149025e+02   5.5019463687e+01    0.2707827    0.1848626 -73.40  0.001367674    1.278    0.218
        49 -13.9693      3.1048     92.0844   1.3606492194e+02   5.6253594762e+01     1.050647    0.4579743 -73.34  0.004853406    2.243    0.554
        50 -11.8448     89.2273     75.5910   1.0413969521e+02   5.0002397246e+01    0.4224678    0.3717009 -80.23  0.002177851    1.491    0.330
        51 -13.5959    205.7047     92.1914   8.1440132743e+01   2.0761155664e+01    0.7812138    0.3589463  59.62  0.002982831    2.322    0.569
        52 -10.8459    249.5280     71.5092   7.0137960949e+01   1.4287405023e+01     0.136415    0.1171176 -62.35 0.0002249011    1.014    0.014
        53 -11.2483     99.6670     67.8939   9.8596255225e+01   4.9508146525e+01    0.3191718    0.2404556 -38.81  0.001259903    1.313    0.239
        54 -11.9594     80.1122    194.6237   1.3195812255e+02   2.4328839814e+01     0.566105    0.3029468  41.43  0.002732158    1.870    0.465
        55 -12.8924     85.8416     58.4209   9.9654457713e+01   5.3664102108e+01    0.5421719    0.5144444 -47.33  0.002165902    1.262    0.208
        56 -11.7364     86.9713    239.5776   1.3596581325e+02   1.3812206255e+01    0.2287351    0.1636929 -79.13 0.0004587762    1.391    0.281
        57 -11.2148     65.5799    213.8423   1.3732876277e+02   2.2215648072e+01    0.2399336    0.1663637  55.42 0.0006104074    1.298    0.230
        58 -13.5695    116.2808    230.8967   1.2926953341e+02   1.0777735459e+01    0.5124674    0.3626046  75.40  0.002866917    1.502    0.334
        59 -11.5501      4.8168     48.7892   1.2591926228e+02   6.4783963844e+01    0.4525125    0.1608852 -56.69  0.002268931    2.367    0.578
        60 -11.3810    154.6057    214.3245   1.1896983347e+02   7.1500504228e+00    0.3150696    0.1930931  63.68  0.001414943    2.089    0.521
        61 -12.1249    167.5041     45.2899   7.5663151305e+01   3.7714923884e+01    0.2800073    0.2477678  69.21 0.0007823087    1.047    0.045
        62 -11.9908    144.5114    232.0149   1.2379282743e+02   5.6654852300e+00    0.2796148    0.1326518 -59.87  0.001214573    2.703    0.630
        63 -13.3548    180.8788     30.8292   6.9517167357e+01   3.6291374735e+01    0.5652817    0.4844857  37.20  0.003325281    1.344    0.256
        64 -12.8362    185.0452     24.3704   6.7230051501e+01   3.6036362423e+01    0.4377954    0.4168247  54.50  0.001116839    1.189    0.159
        65 -11.5415     13.4896    231.5262   1.4835362218e+02   2.4931688971e+01    0.2586282    0.1625728  25.32  0.001596168    2.689    0.628
        66 -11.4234     17.7634    229.3674   1.4749656944e+02   2.4903305042e+01    0.1713255    0.1421009  49.44 0.0007738276    1.507    0.337
