#   1 NUMBER                 Running object number                                     
#   2 MAG_AUTO               Kron-like elliptical aperture magnitude                    [mag]
#   3 X_IMAGE                Object position along x                                    [pixel]
#   4 Y_IMAGE                Object position along y                                    [pixel]
#   5 X_WORLD                Barycenter position along world x axis                     [deg]
#   6 Y_WORLD                Barycenter position along world y axis                     [deg]
#   7 A_WORLD                Profile RMS along major axis (world units)                 [deg]
#   8 B_WORLD                Profile RMS along minor axis (world units)                 [deg]
#   9 THETA_WORLD            Position angle (CCW/world-x)                               [deg]
#  10 FWHM_WORLD             FWHM assuming a gaussian core                              [deg]
#  11 ELONGATION             A_IMAGE/B_IMAGE                                           
#  12 ELLIPTICITY            1 - B_IMAGE/A_IMAGE                                       
         1 -13.8424    230.9154     12.4094   3.6355408582e+01   2.6421708514e+01     1.462862     1.035403  25.08  0.002635733    2.240    0.554
         2 -13.5125    203.3121     37.4431   4.5441879521e+01   2.9918860292e+01     1.456701     1.130756   8.44  0.005924232    1.742    0.426
         3 -13.3339    210.9143     32.3584   4.3179218993e+01   2.8733006036e+01     1.073663    0.7571824 -55.01  0.003922321    1.360    0.265
         4 -12.8169    218.2026     25.2351   4.0584922800e+01   2.7875896877e+01    0.6611304    0.4809671  43.67  0.001488838    1.675    0.403
         5 -10.6935      2.2118      4.7410   9.4105301232e+01   7.3785580866e+01    0.4225717   0.05923441 -47.84  0.001484859    5.038    0.802
         6  -9.8196    124.2108      4.6227   4.7552657097e+01   5.3065897508e+01    0.2591308    0.1961241 -69.18 0.0009538907    1.682    0.406
         7 -11.4892     63.0455    237.9259   1.1848451585e+02   1.7398148909e+01    0.2920317    0.1867019  82.91 0.0005395545    1.527    0.345
         8 -15.1866     89.4521    246.7286   1.1431757374e+02   1.2302738598e+01     8.843004     2.468248  32.75   0.03031463    4.843    0.794
         9 -13.3752     20.0554    221.2364   1.2524241565e+02   2.5497015102e+01     1.007261    0.4393691  62.75  0.005582537    1.987    0.497
        10 -14.8975      7.1926    240.0442   1.2840275378e+02   2.3192688058e+01      1.85193     1.303192 -84.63    0.0145696    1.345    0.257
        11 -14.4916      9.1201    207.3950   1.2646694184e+02   2.9311693933e+01     1.186723     1.125328 -51.78  0.006811849    1.566    0.361
        12 -13.2326     30.7330    209.5730   1.2248622139e+02   2.6752026131e+01    0.6160325    0.4183158 -50.24  0.001044094    1.994    0.499
        13 -15.9260     36.0998    191.8346   1.2000795431e+02   2.9959548517e+01     8.994338     3.240784  83.70   0.02832791    5.545    0.820
        14 -10.8926    193.1321    193.5831   8.5546878577e+01   4.8655651851e+00    0.6707695    0.3868896 -55.36  0.002922082    2.605    0.616
        15 -11.4268     74.7422    165.4468   1.0800767512e+02   3.1292496584e+01    0.3041004    0.2483315 -54.09 0.0003012365    1.270    0.213
        16 -12.9814     57.0994    129.7408   1.0701872628e+02   4.2292619342e+01     1.984272    0.6715178 -74.87  0.004488681    7.800    0.872
        17 -13.2814     68.2003    144.1780   1.0637217826e+02   3.7328370392e+01    0.8830982    0.5954238  87.90  0.002344784    1.730    0.422
        18 -13.3203     61.7598    161.8422   1.1075159702e+02   3.3881742930e+01    0.5080701    0.2963691 -45.52  0.001363697    1.985    0.496
        19  -9.0329    159.4699    163.4907   8.6818407891e+01   1.6959600075e+01    0.1484539    0.1437432  20.11 4.560639e-05    1.027    0.027
        20 -10.8815     37.5649    215.6054   1.2159787243e+02   2.4779425754e+01    0.2507328    0.1489537  66.92 0.0008696837    1.451    0.311
        21  -8.8918    174.6870    149.3107   8.0234946667e+01   1.6799279039e+01    0.1490005    0.1244533 -88.27 0.0003100083    1.630    0.387
        22 -10.2422    134.0000    146.9561   8.9402952234e+01   2.5610012082e+01    0.7661757    0.1354678 -51.02  0.001639895    6.672    0.850
        23 -10.2817     96.7043    144.0576   9.8582276709e+01   3.3090218903e+01    0.3011138    0.2940794 -49.35 0.0008959357    1.073    0.068
        24  -9.7843     99.8060    140.7864   9.7080655469e+01   3.3359296087e+01    0.3156188    0.2323671 -11.46   0.00142904    1.964    0.491
        25 -11.7627     32.4968    143.7289   1.1590299407e+02   4.1485544169e+01    0.4367616    0.2955155  -9.51  0.002324871    2.312    0.568
        26 -12.1923     84.8477    142.7340   1.0155775029e+02   3.5298395702e+01    0.2995226    0.2503089 -52.58 0.0003796284    1.163    0.140
        27  -8.8814     72.2218    188.4011   1.1168985604e+02   2.6341275858e+01    0.1706856     0.109315  50.82 0.0003046209    1.464    0.317
        28 -10.6219    183.8126    215.9166   9.1455198208e+01   2.7400899949e+00    0.2510885    0.1652671  57.32   0.00124505    2.137    0.532
        29 -11.2859     73.2148    135.0657   1.0336350308e+02   3.8881859899e+01    0.3460129    0.2184141  51.77  0.001406742    1.768    0.434
        30  -8.7273    162.3999    167.5050   8.6985680278e+01   1.5554285629e+01     0.145907    0.1406117   4.74 7.816754e-05    1.024    0.024
        31 -10.6861    107.1433    131.6478   9.3094298339e+01   3.4269117392e+01    0.4743587     0.371978  48.91  0.002056441    1.337    0.252
        32 -10.8853     22.5009    132.9662   1.1725063729e+02   4.4955998084e+01    0.2337474    0.1678362  73.32 0.0005174291    1.423    0.297
        33 -11.2986     18.5374    130.5301   1.1803559686e+02   4.5852355374e+01    0.2394306    0.1805178  35.86  0.001041427    1.558    0.358
        34  -9.9666    159.5014    129.5093   7.9007415757e+01   2.4168270469e+01    0.3567799    0.1357846 -29.88  0.000810571    5.823    0.828
        35 -10.5814     95.6098    128.4757   9.5628672837e+01   3.7041455462e+01    0.3117145    0.2447861 -27.07  0.001045067    1.474    0.321
        36  -9.7170    115.2573    125.8259   8.9493163016e+01   3.4143022868e+01    0.2860528    0.2049373   6.16 0.0009326607    2.009    0.502
        37  -9.9367    135.1967    122.8030   8.3381138830e+01   3.0843772701e+01    0.3589993    0.1197557 -51.59  0.001024148    3.489    0.713
        38 -12.9643     40.0081    234.2061   1.2243600105e+02   2.0862300387e+01    0.9134677    0.3789626  77.39  0.004371676    2.899    0.655
        39  -9.7035    106.0254    120.2349   9.0735700702e+01   3.7185657909e+01    0.2189467    0.1956814 -15.64 0.0003454798    1.215    0.177
        40  -9.5028    168.0276    113.0260   7.2773079817e+01   2.5709846816e+01    0.2583152    0.1988227 -77.41  0.001129883    1.791    0.442
        41 -13.0557     80.5313    158.2597   1.0542195677e+02   3.2181506509e+01     1.528698      0.81041  60.37  0.002170284    2.453    0.592
        42  -9.8755    205.1723    110.6079   6.4458208553e+01   1.7746705239e+01    0.3410796    0.2606069  29.15  0.001216874    1.477    0.323
        43  -9.9250    134.4311    103.2505   7.8359845684e+01   3.5320283553e+01    0.3041379    0.1511229 -38.60 0.0008176327    2.035    0.509
        44  -9.4504     24.8631     82.8159   1.0841877102e+02   5.6766885998e+01    0.1893597    0.1414382 -45.75 0.0003071068    1.138    0.122
        45  -9.2927    160.5080     81.5035   6.5608914047e+01   3.3638492372e+01    0.1552351    0.1510777  -0.02 0.0002176846    1.026    0.025
        46 -10.9919     13.5323     60.2431   1.0765731687e+02   6.2587759375e+01    0.2292094    0.1909452 -55.88 0.0004910746    1.143    0.125
        47  -9.9844     40.0738     58.5285   9.6174855761e+01   6.0785370230e+01    0.2442767    0.2012614  55.42  0.001462063    1.731    0.422
        48 -13.4427     88.3896    228.1096   1.1270109530e+02   1.5841159948e+01     1.211653    0.6722794  58.68 0.0007968805    1.746    0.427
        49 -13.7420      3.5709    180.6639   1.2597273244e+02   3.5429948981e+01     2.044339    0.4926983 -79.58 0.0009863806    3.564    0.719
        50 -12.0540     52.6666    241.3480   1.2064294414e+02   1.8050653001e+01     0.354016    0.2205039 -55.39  0.001349738    2.101    0.524
        51 -11.8452     59.1475    181.2508   1.1383758943e+02   2.9667070174e+01    0.4017693    0.2624707 -39.71  0.002078938    2.125    0.529
        52 -11.0262    135.7684     42.4921   5.8716065010e+01   4.6059748025e+01    0.3574449    0.2768127 -84.79 0.0005218369    1.711    0.416
        53  -9.9537    189.4932     15.0159   4.1108067550e+01   3.5936587628e+01    0.1910082    0.1308958 -29.84 0.0005979465    1.554    0.357
        54 -11.8389     64.7522    175.4598   1.1182107589e+02   3.0286585677e+01    0.3037324    0.2480133 -44.70  0.001096835    1.461    0.315
