#   1 NUMBER                 Running object number                                     
#   2 MAG_AUTO               Kron-like elliptical aperture magnitude                    [mag]
#   3 X_IMAGE                Object position along x                                    [pixel]
#   4 Y_IMAGE                Object position along y                                    [pixel]
#   5 X_WORLD                Barycenter position along world x axis                     [deg]
#   6 Y_WORLD                Barycenter position along world y axis                     [deg]
#   7 A_WORLD                Profile RMS along major axis (world units)                 [deg]
#   8 B_WORLD                Profile RMS along minor axis (world units)                 [deg]
#   9 THETA_WORLD            Position angle (CCW/world-x)                               [deg]
#  10 FWHM_WORLD             FWHM assuming a gaussian core                              [deg]
#  11 ELONGATION             A_IMAGE/B_IMAGE                                           
#  12 ELLIPTICITY            1 - B_IMAGE/A_IMAGE                                       
         1 -10.0549    231.4373     16.1890   6.0557281773e+01   2.6191574683e+01    0.2677829    0.2192349 -25.57  0.001182457    1.614    0.380
         2  -9.0153    190.0417     14.6453   6.4647358465e+01   3.6188357664e+01    0.2243875    0.1709767 -60.04   0.00129299    1.316    0.240
         3  -7.9132     17.3711     14.2292   1.0996049208e+02   6.9553242240e+01     0.139991   0.08724774 -42.54 0.0006350373    1.698    0.411
         4  -8.3799     90.8021      8.9824   8.1056122570e+01   5.9463919014e+01    0.1819388    0.1330327 -52.12 0.0009305709    2.000    0.500
         5  -8.7880      6.1375      8.8071   1.1295777944e+02   7.1218551478e+01    0.1766625    0.1088583  39.30  0.001150765    2.703    0.630
         6 -10.6389    246.4684      4.9555   5.6977371300e+01   2.4145695690e+01    0.4687642    0.3505859  61.76  0.002282087    1.555    0.357
         7  -8.6625     33.4208      5.5135   9.9081243775e+01   6.8953195968e+01    0.1987218    0.1547655 -52.51  0.001308477    2.513    0.602
         8  -8.3159     79.0343      3.7793   8.2252822794e+01   6.2145967555e+01     0.211143    0.1269616 -45.36  0.001142398    2.517    0.603
         9  -8.4123     55.6668     10.1656   9.2479258893e+01   6.5434231028e+01     0.161019    0.1302992 -27.38 0.0006228506    1.442    0.306
        10  -9.2419    235.9583      1.5019   5.7106657412e+01   2.6841390961e+01    0.2743503   0.08897168  67.32  0.001209529    2.620    0.618
        11  -8.2424     62.2679      1.4101   8.6413642280e+01   6.5255581529e+01    0.1402197    0.1006169  48.45 0.0004072337    1.523    0.344
        12  -7.8105     39.3088      1.6519   9.4892154103e+01   6.8625106058e+01   0.09284536   0.08522905 -30.07 0.0007044258    1.707    0.414
        13  -8.8944    232.8009    247.2063   1.0950630961e+02  -1.1652434074e+01    0.1707732    0.1476093  25.90 0.0006432138    1.209    0.173
        14  -9.4985     65.3842    249.4378   1.4101839589e+02   1.5169551431e+01    0.2751681    0.1531091  64.13 0.0009446117    1.507    0.336
        15  -9.2011    147.2103    246.0373   1.2543836883e+02   2.7474481552e+00    0.3076518    0.1990902  84.20  0.001269025    2.439    0.590
        16  -8.9609    119.9961    245.3566   1.3057015331e+02   7.4978083421e+00    0.3150038     0.187406  78.39  0.001553613    2.273    0.560
        17  -9.5251     52.7706    249.7503   1.4322437286e+02   1.6828147558e+01    0.2307384    0.1483277  63.55 0.0005539896    1.189    0.159
        18 -10.0644    224.1022    244.3359   1.1060647783e+02  -9.9354288234e+00    0.4283233    0.2453091 -45.58  0.001739554    2.244    0.554
        19  -8.7716     10.3867    245.5762   1.4990066072e+02   2.2678338334e+01    0.2129419   0.06945431  87.18 0.0009480856    3.409    0.707
        20  -9.7575    248.6673    242.6779   1.0593407096e+02  -1.3408569758e+01    0.2808735    0.2173708 -48.33  0.001275256    1.932    0.482
        21  -9.2799    248.0604    235.2845   1.0476738733e+02  -1.2365528574e+01     0.331836    0.2082561 -40.97  0.001496539    1.887    0.470
        22  -9.0978     46.0090    244.7088   1.4399686342e+02   1.8667480330e+01    0.1650943    0.1150347  63.37 0.0005590447    1.128    0.113
        23  -8.6131    201.9773    243.4231   1.1456272823e+02  -6.2321465487e+00     0.214723    0.1731862 -61.51  0.000909915    1.764    0.433
        24  -9.0125    169.0082    243.4845   1.2087142159e+02  -6.1043373231e-01    0.1763621    0.1730702  82.34 0.0005124959    1.194    0.162
        25  -8.3293    159.5115    244.5459   1.2285939323e+02   8.6660481400e-01    0.1895795    0.1034503  49.30 7.755317e-05    1.625    0.385
        26  -9.4617    160.1645    240.4903   1.2214990298e+02   1.4311996244e+00    0.3769561    0.2518388 -86.58   0.00144259    2.530    0.605
        27  -8.3730    139.3312    244.6596   1.2677284016e+02   4.3420981709e+00    0.1343909   0.08865245  68.72 0.0007051569    1.745    0.427
        28  -8.2427     77.5008    242.9994   1.3827009858e+02   1.4652422622e+01    0.1733851   0.08721185  82.42 0.0008102329    2.512    0.602
        29  -8.8811    194.3476    240.3035   1.1551099845e+02  -4.4808499239e+00    0.3223255    0.1995727 -59.98  0.001551815    2.549    0.608
        30  -9.3938    182.7993    240.1251   1.1769948145e+02  -2.4674938385e+00    0.3764906    0.2651974  62.70  0.001508204    1.790    0.441
        31  -7.9515    153.4098    242.1924   1.2370907622e+02   2.3255911421e+00    0.1621948    0.1229424 -74.49  0.000937806    1.670    0.401
        32  -8.5891    135.2434    242.5760   1.2728949984e+02   5.4117520236e+00    0.1789984    0.1100469  36.92 0.0008022216    1.577    0.366
        33  -7.9510     88.3891    242.2371   1.3618525219e+02   1.3159504484e+01    0.1647096    0.1038812 -87.20 0.0005452384    1.657    0.397
        34  -9.2324     30.0294    242.0475   1.4650960824e+02   2.1146976223e+01    0.1983979    0.1292037  55.71 0.0005360502    1.314    0.239
        35  -9.4313      3.3488    240.8294   1.5075158951e+02   2.4304084229e+01    0.2272341    0.1312531  82.82 0.0006875647    1.255    0.203
        36  -7.8151     62.2682    241.6752   1.4090429515e+02   1.7085585294e+01    0.1237847   0.07089927  71.95 0.0002548235    1.570    0.363
        37  -9.4013     37.8088    241.1570   1.4513655273e+02   2.0382153562e+01    0.1840084    0.1169482  72.67 0.0007062529    1.206    0.171
        38  -9.1936    241.1761    238.7554   1.0658594772e+02  -1.1802098226e+01    0.4184333     0.210089 -13.31  0.001854197    3.117    0.679
        39  -8.4253    209.0464    238.5947   1.1244768009e+02  -6.6973928229e+00    0.1924496    0.1707223 -43.99 0.0006827704    1.398    0.285
        40  -7.9295    146.2739    239.6343   1.2474349524e+02   4.0165685166e+00    0.1301042   0.09322044  73.99 0.0006275885    1.668    0.401
        41  -8.8090    135.8856    238.9997   1.2669103012e+02   5.9409739501e+00    0.2162309     0.139829  68.98  0.001121125    1.796    0.443
        42  -8.7046    125.7659    239.5935   1.2874447616e+02   7.5742390173e+00    0.1848494    0.1016067  51.90 0.0005500905    1.574    0.365
        43  -8.2411     83.9896    239.2240   1.3669718701e+02   1.4410953116e+01    0.1754124    0.1314233  60.71 0.0004117225    1.087    0.080
        44  -8.5889     52.9999    239.0187   1.4233045203e+02   1.8859502766e+01    0.1978345    0.1059453  70.25 0.0005572401    1.676    0.403
        45  -9.1511     19.2873    238.5577   1.4806483140e+02   2.3049383537e+01    0.2096955    0.1414292  76.41  0.000605068    1.050    0.047
        46  -9.2209    108.5658    234.5150   1.3146846504e+02   1.1424291885e+01    0.3859176    0.2033268  60.42  0.001105908    1.909    0.476
        47  -8.2845     71.9634    238.7620   1.3888184485e+02   1.6282036888e+01    0.1550228   0.08812623  45.78 0.0002770387    1.578    0.366
        48  -8.6679    217.3786    236.1689   1.1048271500e+02  -7.7152996350e+00    0.2072807    0.1902388  15.52 0.0007891568    1.148    0.129
        49  -9.3808    213.8508    232.0451   1.1044319865e+02  -6.5260956950e+00    0.3042964     0.248722  87.24  0.001334363    2.082    0.520
        50  -7.8983    189.4982    237.4727   1.1598923575e+02  -3.2093515858e+00    0.1296421    0.1111082  35.76  0.000287557    1.038    0.037
        51  -9.0555    230.9646    237.0353   1.0812882389e+02  -1.0008453800e+01    0.2428997    0.1768748 -41.66 0.0008344766    1.658    0.397
        52  -9.0829    203.3283    235.0012   1.1293477429e+02  -5.1997444883e+00    0.2845562    0.2157922 -74.04  0.001549077    2.255    0.556
        53  -9.7070    175.6600    233.3263   1.1802628990e+02  -1.0556910782e-01    0.4675148    0.2578183 -60.80  0.002129331    2.737    0.635
        54  -8.4123    170.3848    236.1080   1.1949520877e+02   3.6516061271e-01    0.1659728    0.1248178 -66.99 0.0006360358    1.740    0.425
        55  -8.8466     94.2022    233.8222   1.3417802154e+02   1.3884829107e+01    0.4754508    0.2132165  74.70  0.001547188    5.007    0.800
        56  -8.8235     78.8482    234.5367   1.3718517300e+02   1.6103936127e+01    0.2403912    0.1384643  87.51 0.0008201636    1.872    0.466
        57  -8.1639      7.3312    235.2988   1.4982105868e+02   2.4955618252e+01   0.09254818   0.07509227 -68.87 0.0005236118    1.644    0.392
        58  -8.4639    122.6844    234.1716   1.2865072918e+02   9.1114036082e+00    0.2029387     0.148181  81.62  0.000687408    1.491    0.329
        59  -9.0447     68.1921    232.3831   1.3897299271e+02   1.8088055808e+01     0.405665    0.1792239  69.81  0.001751511    2.849    0.649
        60  -9.8886     61.5221    228.3065   1.3983408079e+02   1.9849075576e+01    0.4131048     0.160615  51.47  0.001327778    2.204    0.546
        61  -8.4224    194.6633    232.8899   1.1424805305e+02  -3.3822527964e+00    0.1689736    0.1622565  25.00 0.0006822753    1.147    0.128
        62  -9.2488    235.9015    231.1784   1.0621906031e+02  -9.9656888945e+00    0.2929551    0.2138989   5.72 0.0009056445    1.324    0.245
        63  -9.2010    186.5596    230.9456   1.1550472558e+02  -1.6468116078e+00    0.3184249    0.2349182  86.76  0.001303809    2.299    0.565
        64  -8.0750    157.6125    232.2192   1.2143027897e+02   3.3138177634e+00    0.1634128    0.1272365 -37.50 0.0004881465    1.558    0.358
        65  -9.0028    140.7776    230.6427   1.2456538781e+02   6.6102609231e+00    0.5050298    0.2136292  59.02  0.001776892    3.575    0.720
        66  -8.0017      1.5427    231.0176   1.5051936774e+02   2.6367125578e+01     0.162856   0.06036323  78.01  0.000808533    2.577    0.612
        67  -9.2671    246.5543    229.2041   1.0396386064e+02  -1.1326306321e+01    0.2874774     0.189291 -31.84  0.001106911    1.535    0.348
        68  -9.1749    151.3423    229.0177   1.2220505157e+02   5.0164118946e+00    0.3335411    0.2048982  88.72  0.001360866    3.183    0.686
        69  -9.5573    148.6929    224.6730   1.2208605433e+02   6.2983798629e+00    0.4568037     0.407745  73.43   0.00175705    1.141    0.123
        70  -8.6916     32.7112    230.2105   1.4522119748e+02   2.3156985745e+01    0.1873344    0.1187915  61.05 0.0003599809    1.280    0.219
        71  -8.3427    107.2820    238.4258   1.3218343525e+02   1.0886432509e+01    0.1875507    0.1284448  68.73  0.001073709    1.378    0.274
        72  -8.7434    162.1622    228.0695   1.1988525491e+02   3.2297542049e+00    0.2515657    0.1782518  56.48 0.0009022701    1.408    0.290
        73  -9.0922    127.9362    227.4493   1.2670154202e+02   9.4851002948e+00    0.2662965    0.1835974  77.12 0.0009882855    1.684    0.406
        74  -8.0251     99.3748    234.2460   1.3322569454e+02   1.2976357511e+01     0.170698    0.1105901 -83.33 0.0005417545    1.670    0.401
        75  -9.9634     49.1958    227.6982   1.4206481755e+02   2.1622705946e+01    0.3707407    0.2173737  53.15  0.002033306    1.463    0.316
        76  -8.9532    206.0391    225.9361   1.1087889075e+02  -4.2584982687e+00    0.2625005    0.1794547 -61.27 0.0009870733    2.259    0.557
        77  -8.0682    199.9977    226.1903   1.1208896157e+02  -3.2453247394e+00    0.1738739    0.1452364 -65.38 0.0008062332    1.620    0.383
        78  -8.2313    178.0315    227.0000   1.1654210470e+02   5.4027965169e-01    0.2260568   0.06813084  42.13 0.0006799698    2.916    0.657
        79  -8.4219      6.1015    226.1290   1.4949783313e+02   2.6875568758e+01    0.1540034    0.1171033  85.50 0.0004294496    1.171    0.146
        80  -8.7657    180.6217    224.3901   1.1559621083e+02   5.1890285550e-01    0.2346044    0.1936295  86.68 0.0006999577    1.620    0.383
        81  -8.7890     94.1973    224.3195   1.3308145106e+02   1.5791293488e+01    0.3578292    0.1862051  70.98  0.001586182    2.430    0.589
        82  -8.2417     74.9466    225.3233   1.3697908664e+02   1.8544383058e+01    0.1767201    0.1345516  62.49 0.0004112176    1.106    0.096
        83  -8.7937    216.4131    222.9385   1.0837370602e+02  -5.5723724075e+00    0.2788018    0.1910943 -48.83  0.001272244    1.805    0.446
        84  -8.7047    173.0051    223.3090   1.1694309797e+02   2.0969826983e+00    0.2673809     0.191595 -69.51 0.0008733546    1.921    0.479
        85  -8.4124    113.7702    224.0176   1.2910554098e+02   1.2613948370e+01      0.15974     0.107958 -64.87 0.0004255777    1.584    0.369
        86  -8.6922    104.8036    223.8017   1.3089115006e+02   1.4167578968e+01    0.3131976    0.1811322  74.29  0.001470517    2.129    0.530
        87  -9.0226    239.2621    222.1251   1.0399873524e+02  -9.2072143568e+00    0.2418617    0.2140741 -56.91 0.0008005168    1.628    0.386
        88  -9.3773     53.6034    234.5084   1.4184503216e+02   1.9671064097e+01    0.1753936    0.1382803  61.93 5.519384e-05    1.187    0.157
        89  -9.2582    225.5840    221.5756   1.0640792997e+02  -6.9068539738e+00    0.2480818    0.1884036   9.85 0.0008486655    1.290    0.225
        90  -9.2539    192.3866    221.3253   1.1274157717e+02  -1.0903949718e+00    0.2984633    0.2431017 -86.43 0.0009264582    1.789    0.441
        91  -9.2858    159.5636    220.8195   1.1926611551e+02   5.0223677070e+00    0.3877284    0.2236218  62.93  0.001075762    2.312    0.567
        92  -8.6133     54.9305    221.6702   1.4045561037e+02   2.2112211212e+01    0.1893228    0.1460794 -79.38 0.0004535261    1.246    0.197
        93  -8.4263     19.0510    221.3601   1.4698419702e+02   2.6491859339e+01    0.2100392    0.1113133  74.21 0.0007692641    1.577    0.366
        94  -9.1231    120.7372    219.6222   1.2708288388e+02   1.2292333185e+01    0.4763945    0.2328017  65.80  0.001797748    3.125    0.680
        95  -8.4536     82.7789    220.6697   1.3493204383e+02   1.8332380004e+01     0.253871    0.1416952  81.48  0.001177474    2.122    0.529
        96  -7.6447     27.4940    221.4832   1.4549871477e+02   2.5533943162e+01     0.116722   0.08726987  81.30 0.0008100374    1.044    0.042
        97  -8.1084    202.7511    220.5394   1.1057252745e+02  -2.8148895291e+00     0.176585    0.1181191  48.42 0.0004890243    1.523    0.344
        98  -9.7373    132.9285    216.2290   1.2406038717e+02   1.0800515769e+01    0.5092681    0.2796924  75.07  0.001868764    3.473    0.712
        99  -7.9827     43.7883    220.5936   1.4245317672e+02   2.3775604359e+01    0.1627202    0.0893818  55.01 0.0003241991    1.567    0.362
       100  -8.4130    210.0320    218.8173   1.0885763048e+02  -3.8192792819e+00    0.2218024    0.1662698 -53.58 0.0006702507    1.700    0.412
       101  -8.5194    154.2490    219.0129   1.2006794522e+02   6.3433390016e+00    0.1872329     0.173631  61.44  0.000478947    1.065    0.061
       102  -7.9114      1.4656    219.4989   1.4988642156e+02   2.8650975060e+01    0.1119951   0.07679143  80.86 7.690386e-05    1.012    0.012
       103  -8.6076    248.6577    218.2259   1.0160951562e+02  -1.0114631361e+01    0.2320321    0.1502727  66.64 0.0009551545    4.285    0.767
       104  -8.1868    108.3463    217.6580   1.2937044232e+02   1.4830289639e+01     0.217724    0.1394522  73.01  0.001056833    1.718    0.418
       105  -8.6276     51.6338    217.6455   1.4070787085e+02   2.3390962819e+01    0.2510417     0.128572  70.81 0.0006889608    1.954    0.488
       106  -8.8672    169.2760    216.3853   1.1654948281e+02   4.0354118063e+00     0.295673    0.2256997 -80.07 0.0009175712    1.776    0.437
       107  -8.7059    142.8058    216.5004   1.2204249538e+02   8.9414164756e+00    0.2586388    0.1767449 -78.44 0.0008706558    1.907    0.476
       108 -10.2845     72.3664    212.3436   1.3608128609e+02   2.1655411780e+01    0.7695875    0.3332037  58.59  0.003376801    2.405    0.584
       109  -8.2503     61.9957    217.2665   1.3866774572e+02   2.2078315087e+01    0.1868754    0.1111404  78.88 0.0006917677    1.624    0.384
       110  -9.8647     34.1942    214.8738   1.4375791437e+02   2.6135667812e+01    0.3476132    0.2267096 -85.79  0.001326102    1.254    0.202
       111  -8.8799     40.2740    215.8237   1.4269979939e+02   2.5208961875e+01    0.1993149    0.1439038  32.50  0.001252203    1.852    0.460
       112  -8.4829     12.9193    216.0664   1.4770093364e+02   2.8218022991e+01    0.1693512    0.1240914  83.60  0.000422483    1.050    0.048
       113  -8.5857    232.2129    214.5056   1.0389040052e+02  -6.9328350777e+00    0.2231847    0.1718874 -29.15 0.0007040643    1.301    0.231
       114  -8.1000    154.3981    215.2434   1.1943078224e+02   7.0337444457e+00    0.1813154    0.1318006 -69.29 0.0006121973    1.670    0.401
       115  -7.9760     86.9761    215.4759   1.3347853494e+02   1.8775335892e+01    0.1873898   0.08834076  60.68 0.0005565914    2.287    0.563
       116  -8.1489    185.4387    214.2832   1.1290098810e+02   1.3988770510e+00     0.172308    0.1337992 -59.50 0.0006606971    1.573    0.364
       117  -8.6971     92.9906    213.9939   1.3206280051e+02   1.8136071552e+01     0.282101    0.1706168  72.02  0.001197089    1.786    0.440
       118  -8.2809    224.6611    212.5746   1.0493684926e+02  -5.3596984353e+00    0.2209589    0.1186808 -39.22 0.0008828986    1.933    0.483
       119  -9.3583    213.8243    212.1254   1.0691257977e+02  -3.4002561975e+00    0.3112004    0.2623613  67.88  0.001449787    1.597    0.374
       120  -8.7808    161.8460    212.5967   1.1744522323e+02   6.1407813705e+00    0.2508511    0.1854012 -78.72 0.0008508918    1.806    0.446
       121  -7.7850    106.4846    212.9714   1.2912533902e+02   1.6123521768e+01    0.1828376    0.1079964  86.81 0.0005997992    2.283    0.562
       122  -8.9006    204.3559    210.8544   1.0851806260e+02  -1.4892867883e+00    0.2745852    0.2259265 -77.25 0.0008208613    1.762    0.433
       123  -8.5568    204.5719    206.2377   1.0762115579e+02  -7.3829982003e-01     0.259131    0.1352396 -39.19 0.0006801302    2.026    0.506
       124  -9.6592    175.4913    210.3955   1.1424393274e+02   3.9714403603e+00    0.4379829     0.313409  61.59  0.001513929    1.611    0.379
       125  -9.0821    147.8483    210.8912   1.2009327935e+02   9.1099191277e+00    0.3052628    0.2552638  77.72  0.001138283    1.277    0.217
       126  -7.8894      4.0293    212.0002   1.4899395817e+02   2.9929134119e+01    0.1327292   0.09421682  81.10  0.000341766    1.022    0.022
       127  -8.2629    192.4703    210.5464   1.1082025672e+02   7.5142393482e-01    0.2172479    0.1322741 -56.05 0.0006554681    2.133    0.531
       128  -8.7031    116.1078    210.5208   1.2675582745e+02   1.4978284131e+01    0.2850699    0.1908601  82.76 0.0006262582    1.775    0.436
       129  -8.3042     99.0167    210.7812   1.3039449095e+02   1.7838415717e+01    0.2389615     0.128918  64.80   0.00106604    2.094    0.523
       130  -8.9967    236.7087    208.7297   1.0198737993e+02  -6.7917654619e+00    0.2971677    0.2123204 -52.80 0.0009754899    1.887    0.470
       131  -8.0435    237.4648    204.5082   1.0104836466e+02  -6.2611393062e+00    0.1917685    0.1139378  28.02 0.0001162183    1.731    0.422
       132  -8.2819     85.8548    209.7940   1.3301456349e+02   2.0167113374e+01    0.2695308    0.1516885  80.80  0.001230413    2.198    0.545
       133  -8.8819     45.2932    209.8101   1.4119861813e+02   2.5870816555e+01     0.209313    0.1526192  31.05  0.001283713    1.848    0.459
       134  -8.2169    138.9906    208.1732   1.2153070432e+02   1.1314306111e+01    0.2238438    0.1763067  71.85 0.0005913221    1.324    0.245
       135  -8.3478    135.6807    208.7036   1.2232025741e+02   1.1820676261e+01    0.2721982    0.1787304  51.35  0.001298861    1.394    0.282
       136  -8.0716    126.5528    208.7377   1.2427088808e+02   1.3486501873e+01    0.1820711    0.1298522 -77.82 0.0007504198    1.587    0.370
       137  -9.1387     25.9027    208.6157   1.4479808550e+02   2.8400499810e+01    0.2452372    0.1640487 -84.26 0.0005793359    1.202    0.168
       138  -9.3843    246.2732    207.2149   9.9978163411e+01  -8.1237175087e+00    0.2775855    0.2020441 -22.08 0.0006033554    1.293    0.227
       139  -9.3570    250.0759    202.0939   9.8329323801e+01  -7.9591696372e+00    0.3525492    0.1743028 -35.85  0.001117355    1.930    0.482
       140  -8.9476    169.0556    208.1067   1.1517468883e+02   5.6261556123e+00    0.2107685     0.189265  44.23 0.0003565726    1.017    0.017
       141  -7.7467    156.6558    208.3064   1.1780720198e+02   7.9543474610e+00     0.145658    0.1055548  72.09 0.0007042543    1.692    0.409
       142  -9.2726     99.3158    206.1589   1.2970830237e+02   1.8784174078e+01    0.3655391    0.2239855  82.39  0.001329585    1.987    0.497
       143  -9.1489     79.5939    206.2749   1.3388491927e+02   2.1897140148e+01    0.2851964    0.1665825  55.91 0.0008974567    1.573    0.364
       144  -9.2117     12.7458    204.0130   1.4689099298e+02   3.0749362456e+01    0.2720198     0.145672 -80.83  0.001171632    1.475    0.322
       145  -9.3977    194.9512    203.6478   1.0905406140e+02   1.5142117067e+00    0.3657331    0.2521367 -51.63  0.001110824    1.671    0.402
       146  -9.4871    192.3758    197.3942   1.0839540378e+02   3.1480909401e+00    0.3654788    0.2788927 -63.34  0.001143833    1.656    0.396
       147  -9.0767    183.8158    204.2132   1.1142328867e+02   3.5310589445e+00    0.3365414    0.2537564  75.03 0.0009711897    1.833    0.454
       148  -8.7668    179.2529    203.9709   1.1231922354e+02   4.4522970552e+00    0.2489331    0.1779684  49.61 0.0004545809    1.356    0.263
       149  -8.8048    131.3105    204.3982   1.2257307477e+02   1.3521795457e+01    0.3149887    0.2000481  70.88 0.0009821459    1.971    0.493
       150  -8.0757    109.0195    205.2628   1.2750726645e+02   1.7332738177e+01    0.2013251     0.137906  85.62 0.0006635069    1.643    0.391
       151  -8.7078     90.4097    205.3002   1.3148549276e+02   2.0424418904e+01    0.3202136    0.1136257  40.04  0.001248466    2.734    0.634
       152  -8.1975     56.1918    205.1815   1.3857586379e+02   2.5471258415e+01     0.184964    0.1205898  78.44 0.0007371508    1.387    0.279
       153  -9.6011    163.7598    203.0279   1.1539204134e+02   7.6272358680e+00    0.4124821    0.2881997  70.65 0.0009710153    1.858    0.462
       154  -8.4467    122.0096    204.0477   1.2452659699e+02   1.5296552431e+01     0.192956    0.1735367  -4.00 0.0003952337    1.518    0.341
       155  -8.9716    140.4525    201.1461   1.2006367285e+02   1.2488732446e+01    0.3840083    0.2399481 -84.18  0.001061624    2.523    0.604
       156  -9.1331    242.9803    200.9394   9.9366377430e+01  -6.6227814612e+00    0.2840177    0.1765421 -43.69 0.0009003883    1.750    0.429
       157  -8.3600    210.8679    202.1231   1.0561023810e+02  -1.1868807974e+00    0.1956906    0.1857665  80.40 0.0005227638    1.303    0.232
       158  -8.6853     79.7501    201.1118   1.3320991492e+02   2.3012863952e+01    0.2947745    0.1621269 -89.73  0.001057976    2.218    0.549
       159  -7.6213    222.0000    201.0779   1.0326728186e+02  -3.0270959541e+00    0.2126399   0.07465895 -40.14 0.0007958662    2.897    0.655
       160  -8.6543    237.0155    198.7933   1.0002958078e+02  -5.2785880338e+00    0.2907776    0.1693959 -52.11  0.001246448    2.341    0.573
       161  -8.6282    177.0454    199.4133   1.1194155506e+02   5.7465063502e+00    0.2513816    0.1980379 -66.52 0.0005414396    1.535    0.349
       162  -9.4704    149.6106    198.6989   1.1765985799e+02   1.1240965683e+01    0.4505243    0.2973696  86.96  0.001544618    2.377    0.579
       163  -8.8095    123.9005    199.3778   1.2338288171e+02   1.5953665516e+01    0.2673249    0.1890487 -84.95 0.0007722799    1.652    0.395
       164  -9.2501    112.7943    198.5492   1.2568930611e+02   1.8133245421e+01    0.4530543    0.2611362  77.86  0.001832902    2.604    0.616
       165  -9.0083    105.5520    199.0051   1.2734500511e+02   1.9295601457e+01    0.2528327    0.1880051  51.11  0.000444502    1.250    0.200
       166  -8.9370     88.5342    198.4236   1.3097065746e+02   2.2244746329e+01    0.3269084    0.1965568 -87.60  0.001528851    1.912    0.477
       167  -8.2228    202.1152    197.8264   1.0651374142e+02   1.2036205170e+00    0.2043289    0.1862159  70.82 0.0005580409    1.307    0.235
       168  -9.4722     61.6070    197.3040   1.3659109373e+02   2.6487410450e+01     0.397754    0.1919902  70.12   0.00170082    2.591    0.614
       169  -9.7693     52.8081    197.2836   1.3842734939e+02   2.7663454262e+01    0.2723827    0.2288429  88.14  0.001787715    1.097    0.089
       170  -7.6198     83.6884    197.2936   1.3186913413e+02   2.3260478119e+01    0.1410656   0.09107295  72.36 0.0003281526    1.592    0.372
       171  -8.6173    215.8432    195.7459   1.0341257112e+02  -1.0011335310e+00      0.24325    0.1781865 -66.48 0.0008343981    2.058    0.514
       172  -8.1435    132.9672    195.9474   1.2082711710e+02   1.5006419752e+01    0.2300894    0.1648868  79.59 0.0006128132    1.670    0.401
       173  -8.7027    224.2898    194.2920   1.0151239952e+02  -2.2961969210e+00    0.2558444    0.1776729 -47.03 0.0008199756    1.599    0.375
       174  -8.9840    185.3759    194.8442   1.0934693527e+02   4.9912223860e+00    0.2589183      0.22017  80.88 0.0007192016    1.450    0.310
       175  -9.2572     43.9290    193.6619   1.3988314030e+02   2.9586604362e+01    0.4015587    0.1866717  76.69  0.001742359    2.708    0.631
       176  -9.0319    245.5114    193.6345   9.7492254027e+01  -5.8928470126e+00    0.2327954    0.2044663  85.32 0.0008574701    1.733    0.423
       177  -7.6827    230.5764    194.4807   1.0037154669e+02  -3.4534654061e+00    0.1328176    0.1215664  -3.53 9.251951e-05    1.040    0.038
       178  -8.7079    160.8329    194.1234   1.1441103567e+02   9.9839402275e+00     0.228761    0.1884297  77.71 0.0007925919    1.383    0.277
       179  -8.6687     77.1278    194.0929   1.3287240195e+02   2.4985039656e+01    0.2390364    0.1715585  65.73 0.0005160477    1.286    0.222
       180  -8.8288     24.1513    193.3114   1.4385649882e+02   3.1897478170e+01    0.3853033    0.1413121  68.85  0.001461517    3.941    0.746
       181  -8.5940      5.8026    194.2801   1.4747777600e+02   3.3480289363e+01    0.1805458    0.1202436  51.78  0.001055536    1.502    0.334
       182  -8.3849    198.9749    191.5577   1.0592517235e+02   2.9510632433e+00    0.2186364    0.1850356 -38.17 0.0004181555    1.223    0.182
       183  -8.7834    172.3572    191.9905   1.1153927650e+02   8.1255712141e+00    0.2606691    0.1992242  70.17  0.000803264    1.582    0.368
       184  -9.0916    139.6359    190.9321   1.1848453176e+02   1.4811118488e+01    0.4007849    0.2505667  74.65  0.001288058    2.351    0.575
       185  -8.2858    117.9785    192.2727   1.2354991100e+02   1.8589194056e+01    0.2001072    0.1750876  64.69 0.0004298792    1.043    0.042
       186 -10.4693     92.2963    189.0424   1.2881487611e+02   2.3759401183e+01    0.9041815    0.3218948  53.83  0.003095984    3.377    0.704
       187  -7.9435    179.2614    191.6549   1.1001271447e+02   6.8168492401e+00    0.1407791    0.1141485 -88.84 0.0004457231    1.599    0.375
       188  -8.5391     17.0751    191.5204   1.4509892403e+02   3.3009409121e+01    0.1577287    0.1034709  48.07 0.0007887102    1.566    0.361
       189  -8.9275    148.5282    189.2928   1.1621619497e+02   1.3423774361e+01    0.2640014    0.1451371 -57.59  0.001098036    2.026    0.506
       190  -9.2759    155.9177    187.6080   1.1427255925e+02   1.2311821896e+01    0.3734029    0.2125573 -58.22 0.0008956761    2.012    0.503
       191  -8.8913    129.1842    188.5924   1.2041492453e+02   1.7324009545e+01    0.3014004    0.2126198  89.50  0.001064487    1.758    0.431
       192  -9.7216    121.0501    187.0466   1.2198969537e+02   1.9191646155e+01    0.5557216    0.2970088 -75.85  0.002070896    2.878    0.653
       193  -8.1195     71.1065    189.1348   1.3354490826e+02   2.7003119468e+01    0.1851254    0.1342795  70.41 0.0003787987    1.281    0.219
       194  -8.6102     34.3189    188.1161   1.4131056738e+02   3.1951108050e+01    0.3097025    0.1409498  79.05  0.001356155    2.700    0.630
       195  -8.5630    242.6166    188.1829   9.6928333577e+01  -4.5198761424e+00    0.1871411    0.1162831 -26.93 0.0009426509    1.599    0.375
       196  -8.1394    237.2100    188.4293   9.7951966303e+01  -3.6180934822e+00    0.1809822    0.1530052 -17.20 0.0006083438    1.099    0.090
       197  -8.6536    216.4773    188.0293   1.0176183212e+02   2.3587961223e-01    0.2440805    0.1958386  60.48  0.000835983    1.520    0.342
       198  -8.9171    191.4316    187.6591   1.0669493002e+02   5.1697034199e+00    0.2943878    0.2353729  88.25 0.0009850861    1.724    0.420
       199  -8.7774    164.8875    187.1686   1.1222688108e+02   1.0601753659e+01    0.3114226    0.2093434 -67.61 0.0007312565    1.915    0.478
       200  -9.3871     54.5788    186.8302   1.3687198597e+02   2.9798857306e+01    0.4136709    0.2130444  79.13  0.001379306    2.382    0.580
       201  -8.4613     49.9713    188.4974   1.3805554439e+02   3.0006423622e+01    0.1743758    0.1180337  45.61 0.0004010844    1.521    0.343
       202  -7.7319    230.5219    187.4778   9.8989757091e+01  -2.2642780049e+00    0.1335586    0.1262872  -8.00 0.0008084079    1.086    0.079
       203  -9.0372    109.4148    186.1371   1.2448666957e+02   2.1506558546e+01    0.3848692    0.2419061  80.52  0.001264441    2.096    0.523
       204  -8.6697     28.2809    187.1041   1.4245794549e+02   3.2837110182e+01    0.1916085    0.1544809  65.73 0.0006268556    1.212    0.175
       205  -8.5779    249.3074    185.5788   9.5226724554e+01  -5.2395477174e+00    0.2277897    0.1464479 -44.83 0.0006232732    1.649    0.394
       206  -8.8053    210.1233    184.3889   1.0226785174e+02   2.1079273859e+00    0.2308639    0.1866991 -25.38 0.0004110279    1.260    0.207
       207  -8.4253    202.8669    185.0632   1.0384762730e+02   3.3994917789e+00    0.2111842    0.1961061  86.20 0.0004969212    1.276    0.216
       208  -8.6981    182.9700    185.1171   1.0795383254e+02   7.3616447758e+00    0.2244409    0.1985835  86.37 0.0007262836    1.320    0.242
       209  -9.0449     66.5166    184.6363   1.3397635455e+02   2.8693092096e+01    0.2950923    0.1705101  77.51   0.00109282    1.986    0.496
       210  -8.3807    224.0704    183.5022   9.9394954769e+01  -3.8932526648e-01    0.2148226    0.1755284 -32.75 0.0006221243    1.194    0.163
       211  -8.1753    197.1341    184.1152   1.0481643989e+02   4.7127166321e+00    0.1949874     0.175484 -83.72 0.0006737939    1.335    0.251
       212  -8.8899    174.2984    183.6528   1.0950817693e+02   9.4148644387e+00    0.2962492    0.2317567  84.47 0.0008120171    1.669    0.401
       213  -7.9663    143.5058    184.5160   1.1645827668e+02   1.5443963585e+01    0.1485611    0.1383717  66.54 0.0001915278    1.002    0.002
       214  -9.1157     44.2141    182.1554   1.3858090382e+02   3.2160320792e+01    0.3260404     0.175303  81.96  0.001074767    2.028    0.507
       215  -7.5820      1.3493    183.7051   1.4755231913e+02   3.6146998323e+01    0.1201383    0.0646035  70.02  0.000703239    1.677    0.404
       216  -8.2373    240.4865    181.4422   9.5952564301e+01  -3.0278986743e+00    0.2477115    0.1182865 -47.88  0.001036953    2.413    0.586
       217  -8.1700     60.1236    181.9083   1.3505043913e+02   3.0201895058e+01     0.206448    0.1514529  76.55 0.0004201908    1.254    0.203
       218  -9.3412     25.7210    179.1121   1.4221880654e+02   3.4900416066e+01    0.6117886    0.2354406  80.96  0.002090497    4.640    0.784
       219  -9.1337    147.4267    180.6788   1.1485408477e+02   1.5498726073e+01    0.3410779    0.2364768  72.83  0.001056655    1.831    0.454
       220  -8.6726    137.5953    179.5273   1.1687138797e+02   1.7708735924e+01    0.3289554    0.2122781  80.78  0.001111274    2.336    0.572
       221  -8.0787    114.7403    180.5718   1.2233062036e+02   2.1819721403e+01    0.2042521    0.1273393  54.84 0.0005825692    1.597    0.374
       222  -9.2367    191.4201    178.3840   1.0482500194e+02   6.9750347078e+00     0.282714    0.2471813  84.93 0.0004204498    1.372    0.271
       223  -9.4648    248.3526    176.6344   9.3585752860e+01  -3.6070769330e+00    0.4474178    0.2635634 -48.91   0.00191259    1.925    0.481
       224  -8.5334    204.8872    178.0269   1.0200481770e+02   4.3237575529e+00    0.2186012    0.2001489 -80.89 0.0007434649    1.295    0.228
       225  -7.9138    169.2883    178.6457   1.0959586284e+02   1.1473100704e+01    0.1517995    0.1179004  89.32 0.0006836778    1.674    0.403
       226  -8.5947    129.3115    177.4946   1.1840195665e+02   1.9782011857e+01    0.3253828    0.2184477  75.12 0.0009529621    1.908    0.476
       227  -8.5948    100.1451    178.0472   1.2530448709e+02   2.4987121192e+01    0.4344795     0.139438  49.32   0.00142734    3.336    0.700
       228  -8.9409     35.7285    176.6015   1.3981026451e+02   3.4409064148e+01    0.4464242    0.1854782  82.71  0.001583285    4.065    0.754
       229  -8.2836    231.4360    177.0611   9.6699689704e+01  -6.3095588524e-01    0.2096835    0.1288073 -39.72 0.0005239523    1.573    0.364
       230  -8.2621    217.4005    177.2151   9.9377469707e+01   2.0096525331e+00    0.1949036    0.1307627 -50.10 0.0004891378    1.639    0.390
       231  -9.2837    183.1248    176.2115   1.0611967410e+02   9.1132239162e+00    0.2963429     0.236598 -59.62 0.0006464747    1.390    0.280
       232  -8.6115     89.0584    176.8257   1.2770198005e+02   2.7117094554e+01    0.3051364    0.1911703  82.14  0.001171938    1.956    0.489
       233  -9.9732     57.4303    173.4527   1.3456426279e+02   3.2530985413e+01    0.7731474    0.3480735  83.97  0.002481842    4.601    0.783
       234  -8.2912     12.9669    176.9659   1.4468015280e+02   3.6611921076e+01     0.194334    0.1086384  71.55 0.0006903654    1.695    0.410
       235  -9.2427    158.9377    175.1745   1.1118777478e+02   1.4346365446e+01      0.43001    0.2737035  74.44  0.001231474    2.474    0.596
       236  -9.3208    104.5796    174.9438   1.2374242728e+02   2.4942746256e+01    0.5454596    0.2597881  62.42  0.001874454    3.153    0.683
       237 -10.7260     75.8528    170.2992   1.2980643006e+02   3.0706640931e+01     1.239578     0.450014 -73.72  0.003640918    4.677    0.786
       238  -8.1664    224.4872    174.5055   9.7463492509e+01   1.1346437968e+00    0.1395039    0.1318889 -12.29 0.0001274408    1.030    0.029
       239  -9.6919    175.9512    172.1366   1.0681503912e+02   1.1443833362e+01    0.4068879    0.2419853 -40.40  0.001205881    1.775    0.437
       240  -8.0535    142.8910    172.8279   1.1436975424e+02   1.8145811773e+01    0.2088788    0.1739139  83.58 0.0004788157    1.303    0.233
       241  -8.6452    194.2321    172.4104   1.0300045974e+02   7.5771051465e+00    0.2130576    0.1391277  54.80 0.0009542893    1.674    0.403
       242  -8.7609    134.6568    172.1743   1.1615373639e+02   1.9941773405e+01    0.2528564    0.2190694  53.77  0.000803409    1.114    0.102
       243  -9.4804    121.3526    170.3446   1.1894023673e+02   2.2946161917e+01    0.4515774    0.2759452 -76.04  0.001177905    2.145    0.534
       244  -8.9587     45.1712    171.3034   1.3709236493e+02   3.4557016137e+01    0.3328279    0.1854802  86.24  0.001078291    1.942    0.485
       245  -8.7550    230.5222    170.3467   9.5469821439e+01   7.2918528203e-01    0.2311003    0.2266062  22.41 0.0006854379    1.120    0.107
       246  -8.6555    198.3362    170.4225   1.0173731802e+02   7.1217744733e+00    0.2408586     0.178383 -63.89 0.0006640704    1.677    0.404
       247  -8.7407     20.2372    170.6467   1.4255210714e+02   3.7357870323e+01    0.2000251    0.1453672  77.85 0.0004747361    1.210    0.173
       248  -8.2500    237.1704    169.8162   9.4150652899e+01  -4.2679420146e-01    0.2017276     0.185339 -55.58  0.000601319    1.245    0.196
       249  -8.4915    205.6155    169.9322   1.0016221945e+02   5.7236358450e+00    0.2798552    0.1752897 -54.54  0.000827882    1.865    0.464
       250  -9.1099    167.4040    168.8386   1.0800164136e+02   1.3937898312e+01    0.3779954    0.2643855  87.24 0.0008948399    2.185    0.542
       251  -8.5887    149.8023    169.6990   1.1215458446e+02   1.7430258120e+01    0.2759797    0.1939089 -81.95 0.0008108673    1.930    0.482
       252  -9.0660    111.5142    168.5936   1.2096699208e+02   2.5188439665e+01    0.4665448    0.2629187 -57.81   0.00173218    1.749    0.428
       253  -8.6522     39.0547    170.3648   1.3836435901e+02   3.5478886857e+01    0.2275467    0.1002473  43.06  0.001094387    2.303    0.566
       254  -8.5474    250.5230    172.9392   9.2455016405e+01  -3.3693948274e+00    0.1928914    0.1556385 -28.34 0.0004782061    1.121    0.108
       255  -8.4193     88.5297    168.5635   1.2649771543e+02   2.9154449273e+01    0.2516318    0.1301822 -73.48 0.0009942017    2.255    0.557
       256  -8.2980    218.7808    168.5735   9.7298021566e+01   3.3324132876e+00     0.185928    0.1383909  56.59  0.000434117    1.541    0.351
       257  -8.9788    191.9258    166.5672   1.0223780371e+02   9.2251982006e+00    0.3245701    0.2096791 -47.78 0.0006647332    1.587    0.370
       258  -9.0474    185.0582    166.6605   1.0370318697e+02   1.0656099796e+01    0.2589562    0.2071548 -60.72 0.0006233527    1.381    0.276
       259 -10.0282     95.1120    163.1781   1.2397658918e+02   2.9352566822e+01    0.8132439    0.4309008  79.11  0.002568769    4.150    0.759
       260  -9.1890     20.8403    166.5065   1.4200060281e+02   3.8242850538e+01    0.3352586     0.131483  56.88  0.001031088    2.966    0.663
       261  -9.7813    136.5464    164.4016   1.1417298357e+02   2.1334040965e+01    0.6042784     0.316035  61.64   0.00216127    2.659    0.624
       262  -7.9994    234.1115    165.1615   9.3721323425e+01   9.7303191945e-01    0.1871251    0.1609211 -56.08 0.0005200153    1.310    0.236
       263  -8.6354    159.5097    164.4538   1.0885212632e+02   1.6556110988e+01    0.2696367    0.2045139  82.51 0.0007217691    1.677    0.404
       264  -8.8651     63.1666    164.6257   1.3198649880e+02   3.3856227919e+01     0.264669    0.1900807 -85.83 0.0006490027    1.310    0.237
       265  -8.5413     60.6554    160.3264   1.3195770357e+02   3.5215967034e+01    0.2841818    0.1605346  86.40  0.001237325    2.250    0.556
       266  -9.4084     33.6709    163.6662   1.3879827497e+02   3.7620079983e+01    0.4825861    0.2036241  59.59  0.002053605    2.991    0.666
       267  -8.0815    240.0100    164.4899   9.2525909402e+01  -2.0409372590e-02    0.1912624    0.1369266  43.97 0.0004914572    1.493    0.330
       268  -8.6323    212.8697    163.6127   9.7376440743e+01   5.4557925114e+00    0.2722689    0.2041169 -46.46  0.000586102    1.346    0.257
       269  -8.3505    246.0533    163.2590   9.1213093796e+01  -9.2270825564e-01    0.1804058    0.1734769 -10.35 0.0004849045    1.095    0.087
       270  -8.4915    204.8924    162.7789   9.8770465729e+01   7.2615090905e+00    0.2700569    0.1898832 -68.09 0.0006197308    1.974    0.494
       271  -8.0816    127.6717    163.2973   1.1606861985e+02   2.3358395428e+01    0.1571526    0.1151739  78.44 0.0007026915    1.635    0.388
       272  -9.2366      3.2601    162.3864   1.4542418091e+02   4.0682048067e+01     0.359804    0.1603412  61.14  0.001853974    2.453    0.592
       273  -8.8919    177.5229    160.8141   1.0406129763e+02   1.3483551497e+01     0.288332    0.2348287 -87.58 0.0009192278    1.508    0.337
       274  -8.6772    151.7446    160.9453   1.0989121124e+02   1.8973852155e+01    0.2780713    0.2090002 -71.56 0.0007184641    1.538    0.350
       275  -8.5105    227.3075    159.1766   9.3681159485e+01   3.3822953665e+00    0.2641223     0.181368 -54.08  0.001002643    1.641    0.391
       276  -9.8575    105.4517    157.8200   1.2043519022e+02   2.8834486817e+01    0.5082708    0.3369237 -85.43  0.001291604    1.912    0.477
       277  -8.9170    100.1463    156.3000   1.2147056548e+02   3.0134433907e+01     0.308969    0.2128111  87.97 0.0009738908    1.782    0.439
       278  -9.0128     84.4964    159.5457   1.2596282652e+02   3.1951914290e+01    0.2431475    0.2088563  81.22 6.176915e-05    1.105    0.095
       279  -9.8448     81.6908    154.8355   1.2584649201e+02   3.3521469824e+01    0.5317638    0.3065679  81.54  0.001510884    2.692    0.629
       280  -8.2318    236.8527    158.8416   9.1883846879e+01   1.5808926667e+00    0.1914657    0.1628758 -58.40 0.0006221443    1.328    0.247
       281  -8.2801    128.2658    159.1082   1.1508145478e+02   2.4213939697e+01    0.2858967    0.1880982  70.47 0.0008654711    1.959    0.490
       282  -8.4879    196.6626    158.1315   9.9420889919e+01   9.9208096263e+00    0.2512936    0.2102022  65.82 0.0007640228    1.335    0.251
       283  -8.6332    188.0779    157.7143   1.0111646496e+02   1.1851181008e+01    0.2632231    0.2078067 -57.39 0.0006622422    1.355    0.262
       284  -9.1245    167.5818    157.4369   1.0551872353e+02   1.6355801037e+01     0.359614    0.2602069  82.84  0.001222872    1.926    0.481
       285  -9.7054    250.2576    157.9224   8.9374939121e+01  -7.6787735907e-01    0.3354204    0.1717098 -37.06  0.000789303    1.778    0.438
       286  -9.0288     42.4424    157.4908   1.3596121340e+02   3.8113134174e+01    0.2185919    0.1849488 -84.40 0.0005459058    1.041    0.040
       287  -8.4181    217.8831    156.5600   9.4875516916e+01   5.7740332288e+00    0.2922084    0.1792578 -54.75  0.001007042    1.904    0.475
       288  -8.8026    157.5776    156.3252   1.0754830986e+02   1.8760060592e+01    0.2788514    0.2167725 -71.60 0.0007791981    1.470    0.320
       289  -9.3144    119.3789    155.1404   1.1644898547e+02   2.6880608007e+01    0.3988487    0.2769984 -88.45  0.001387297    1.873    0.466
       290  -9.0636    116.2018    152.6055   1.1672155435e+02   2.8087104689e+01    0.2514292    0.2280495 -23.00 0.0002655478    1.325    0.245
       291  -9.1077     49.4391    155.2047   1.3394848090e+02   3.7844359647e+01    0.3589836    0.2085551  77.81  0.001706377    2.095    0.523
       292  -8.9215    241.5991    154.4168   9.0103803215e+01   1.4635946829e+00    0.3627647    0.2463642  79.29  0.001585713    2.660    0.624
       293  -7.8101    204.5771    155.5039   9.7236479796e+01   8.7589509032e+00    0.1475412    0.1428794 -41.87 0.0001686101    1.030    0.029
       294  -8.5109    144.6344    155.0838   1.1030537218e+02   2.1792653737e+01     0.250062    0.1914911 -74.81  0.001155696    1.498    0.333
       295  -9.7757     67.8428    153.8495   1.2916813569e+02   3.5792545218e+01     0.433809    0.2534426  75.19  0.001429765    2.313    0.568
       296  -9.6172    132.7932    153.0484   1.1271721858e+02   2.4711537160e+01    0.4653304    0.3120353  73.44  0.001301827    1.995    0.499
       297  -8.9437    133.7828    148.2048   1.1142864453e+02   2.5631641728e+01    0.3602905    0.2530584 -32.60  0.001305699    1.748    0.428
       298  -8.6521    151.6606    152.5354   1.0809100967e+02   2.0876924592e+01    0.2763528    0.1450733 -49.02 0.0009392427    1.917    0.478
       299  -9.6612     28.7587    150.3601   1.3832802846e+02   4.1215423584e+01    0.5805559    0.2525339  65.76   0.00230196    3.577    0.720
       300  -8.6178     19.7498    152.4105   1.4071622773e+02   4.1574718667e+01    0.1885887    0.1159157  72.21 0.0007778633    1.690    0.408
       301  -9.4624    248.9082    149.4303   8.7796084710e+01   9.6173942324e-01    0.3560004    0.1784499 -42.17 0.0007315594    1.820    0.451
       302  -8.4835    243.0275    150.2357   8.8958849816e+01   1.9357957712e+00    0.2544063    0.1613709 -49.26 0.0007650596    1.611    0.379
       303  -8.8046    189.4124    150.2220   9.9157421007e+01   1.3107750980e+01    0.2836465     0.220528 -73.92 0.0007523442    1.594    0.373
       304  -8.0149    182.3950    151.2255   1.0087650201e+02   1.4442652083e+01    0.2184197    0.1430608 -55.96 0.0005575633    1.676    0.403
       305  -8.7041     98.1943    150.6698   1.2088489643e+02   3.1821551592e+01    0.3142911    0.2149675 -85.44  0.001175003    1.769    0.435
       306  -7.8866    237.2812    150.3329   8.9971884979e+01   3.0331446164e+00    0.1421141    0.1078771  -5.55 0.0003448848    1.611    0.379
       307  -8.1572    212.8770    149.8552   9.4348453883e+01   8.1069845934e+00    0.1951886    0.1737309 -75.07 0.0003322358    1.272    0.214
       308  -7.9764    162.3168    150.6702   1.0520711464e+02   1.8981607808e+01    0.1616377    0.1234952  89.93 0.0004003199    1.682    0.406
       309 -10.4727     62.1136    135.5889   1.2751747167e+02   4.0946369380e+01    0.5481183    0.3835814  24.29  0.002065513    1.796    0.443
       310  -8.8363     53.5066    149.5003   1.3208977393e+02   3.8711012280e+01    0.2996788    0.1837671  52.11  0.001189206    1.758    0.431
       311 -10.3599     54.8307    144.6124   1.3098154923e+02   3.9715324695e+01    0.8386654    0.4473206  86.40  0.003256259    2.868    0.651
       312 -11.4802     69.4754    139.9771   1.2634753398e+02   3.8898253125e+01       1.7157     0.594027 -47.54  0.006082207    3.070    0.674
       313  -9.9993     73.0450    129.4261   1.2335560124e+02   4.0913229623e+01    0.4596948    0.2407151 -71.78  0.001246968    2.311    0.567
       314  -8.2580    198.9295    148.9429   9.6901755525e+01   1.1285401808e+01    0.2334054    0.1841948 -79.79 0.0005626331    1.622    0.383
       315  -9.7153     88.4751    144.9805   1.2228725417e+02   3.4818328028e+01    0.4291738    0.2751676 -80.52  0.001321824    1.885    0.470
       316  -9.7948     39.6249    147.8174   1.3532380435e+02   4.0705016511e+01    0.4726785    0.2417518  73.94  0.001827583    2.832    0.647
       317  -8.6113    233.3757    147.8178   9.0108800633e+01   4.2661994470e+00    0.2536319    0.1680672 -32.04 0.0005155908    1.482    0.325
       318  -8.2486    223.2553    146.9612   9.1745964360e+01   6.4880532657e+00    0.2053325    0.1803321 -34.71   0.00042141    1.082    0.076
       319 -10.2316    149.0747    145.0880   1.0703267206e+02   2.3112816758e+01    0.5791664    0.3871931 -87.77  0.001913015    2.382    0.580
       320  -9.5130    139.0154    145.3116   1.0950704107e+02   2.5209791450e+01    0.4282728    0.2924919 -68.37  0.001373799    1.724    0.420
       321 -10.3545    106.5430    143.9240   1.1737894971e+02   3.1951777444e+01    0.8173518    0.4823219 -80.09   0.00238556    2.639    0.621
       322  -9.2029     78.0618    146.9075   1.2535860630e+02   3.5983853224e+01    0.2998557    0.1873979  78.02  0.001015557    2.174    0.540
       323  -9.2073     13.5353    146.4365   1.4150163035e+02   4.3471880224e+01    0.3204062    0.1646691  62.55  0.001220175    2.262    0.558
       324  -7.8467    206.5487    146.5078   9.4826143050e+01   1.0117856396e+01    0.1494488    0.1440044 -51.03 0.0001835401    1.032    0.031
       325  -8.1222    175.6409    146.2863   1.0121907940e+02   1.6987634044e+01    0.2409525    0.1821426 -86.53 0.0006568998    1.759    0.431
       326  -9.0662     32.5734    145.0782   1.3670116832e+02   4.2076462386e+01    0.2859541    0.1571445  69.45  0.001388046    2.269    0.559
       327  -8.2088    240.2066    145.2018   8.8348076222e+01   3.3880513431e+00    0.2053238    0.1681954 -38.39 0.0004304977    1.120    0.107
       328  -8.6696    242.7648    143.0420   8.7442849176e+01   3.2757378775e+00     0.272715    0.1851152 -11.12 0.0005335648    2.021    0.505
       329  -9.6961    124.9171    142.6672   1.1241349132e+02   2.8724181317e+01    0.5143737    0.3317925 -81.25   0.00133271    2.309    0.567
       330  -9.0294    247.0300    144.0214   8.6943805714e+01   2.2738400093e+00    0.2132074    0.1855184 -39.17 0.0004845499    1.052    0.050
       331  -9.3976     90.6783    148.3665   1.2236799577e+02   3.3643482284e+01    0.3224761    0.2415925  84.31  0.001182502    1.495    0.331
       332  -8.8796    165.6238    144.1511   1.0296595438e+02   1.9682598770e+01     0.266205    0.2119355  63.61 0.0006648878    1.339    0.253
       333  -9.2883      2.8336    142.1200   1.4355891046e+02   4.5257327873e+01    0.3096675    0.1590798  76.90   0.00134307    2.166    0.538
       334  -8.3013    182.0399    141.9690   9.8826531146e+01   1.6471888267e+01    0.2428388    0.1882091 -81.30 0.0004990731    1.635    0.388
       335  -8.6124    250.4970    141.0132   8.5726591171e+01   2.1427081944e+00    0.2122454    0.1245118 -39.38 0.0004904785    1.525    0.344
       336  -9.0173     46.0243    140.7475   1.3264627762e+02   4.1674953120e+01    0.2954767    0.1650865  46.32  0.001474548    1.971    0.493
       337  -9.9626     23.0619    138.5757   1.3821147885e+02   4.4479051815e+01    0.4856811    0.2977457  56.08   0.00233971    1.841    0.457
       338  -8.6131    228.8951    138.9200   8.8926964976e+01   6.8317510752e+00    0.2162141    0.2075521 -44.83 0.0007922384    1.036    0.035
       339  -8.6243    172.1947    138.4139   1.0014515355e+02   1.9452430155e+01    0.3205215    0.2311906 -79.63  0.000840699    1.896    0.473
       340  -8.8496    114.5458    138.3220   1.1410104570e+02   3.1781891683e+01     0.436157    0.2885775  69.98   0.00157129    2.001    0.500
       341  -8.9670    112.8125    133.4358   1.1345759739e+02   3.3264283353e+01     0.394307    0.2635809  77.53  0.001073552    2.175    0.540
       342  -7.9911    207.5427    138.0512   9.2693209647e+01   1.1576547240e+01    0.2126427    0.1255774 -62.34 0.0008062568    2.363    0.577
       343  -8.6460    197.7607    137.5307   9.4508919032e+01   1.3855348375e+01    0.3060996    0.1911157 -58.01 0.0009927596    1.872    0.466
       344  -8.4193     93.5567    137.7924   1.1950490731e+02   3.5700628725e+01    0.2775052    0.1810866  75.82 0.0009787269    2.152    0.535
       345  -8.8538     80.6636    137.6869   1.2292742222e+02   3.7805416081e+01     0.203565    0.1639844  81.58 0.0009096398    1.335    0.251
       346 -10.3013     83.4228    133.0159   1.2124238992e+02   3.8494501356e+01    0.5438785     0.325073 -69.09  0.001404997    1.801    0.445
       347  -9.4779     39.1243    136.4019   1.3377161139e+02   4.3449860269e+01    0.2492898    0.1754505  82.10  0.001009117    1.519    0.342
       348  -8.8217    250.7608    130.1340   8.3324739906e+01   4.0146644177e+00    0.4342699    0.1163605 -38.09  0.001367612    3.448    0.710
       349  -9.2390    248.4487    135.3268   8.4824236231e+01   3.5450326552e+00    0.3727587    0.2089048 -48.10 0.0008141421    1.728    0.421
       350  -8.4487    246.6836    130.2366   8.3993689810e+01   4.8007395523e+00    0.2139838    0.1794942 -55.09 0.0005413223    1.180    0.152
       351  -8.0027    187.5665    135.5125   9.6132201337e+01   1.6573034160e+01    0.1551638    0.1489912 -68.28 4.329655e-05    1.031    0.030
       352  -8.1243    237.5408    133.7824   8.6281639099e+01   6.0019372091e+00    0.2043772    0.1245124 -50.31 0.0009303741    1.646    0.392
       353  -8.5397    179.2679    133.6537   9.7457894643e+01   1.8857122907e+01    0.2945024    0.1829766 -54.48 0.0007448103    1.729    0.422
       354 -10.1514    132.1498    131.1512   1.0793643374e+02   2.9908560287e+01    0.5652477    0.3426782 -68.48  0.001110434    2.233    0.552
       355 -10.3928     98.1741    130.2186   1.1663853352e+02   3.6707632120e+01    0.6510316    0.2661765 -55.51  0.001776735    2.372    0.578
       356 -10.1128     12.8755    129.0402   1.3955548351e+02   4.7494334864e+01    0.5366305    0.2618842  85.99  0.002511101    2.613    0.617
       357  -7.8291    204.5428    130.4889   9.1508142381e+01   1.3745898410e+01    0.1543671    0.1434685 -67.40 0.0002433335    1.084    0.078
       358  -8.5411    150.7822    136.3937   1.0460542057e+02   2.4697071021e+01    0.4895513    0.3152307  13.29  0.001691536    3.109    0.678
       359  -8.8261    168.4425    129.7483   9.8903406332e+01   2.2174242657e+01    0.3017326    0.2392719 -87.46 0.0009034496    1.535    0.348
       360  -9.5568    152.8597    128.9532   1.0231787229e+02   2.5891954293e+01    0.4537834    0.2694469 -57.45 0.0009901193    1.883    0.469
       361 -10.8341     44.9736    123.7644   1.3009424838e+02   4.5795971714e+01      1.03292    0.5419518  81.48  0.003841984    3.834    0.739
       362  -7.9067      1.6671    130.3046   1.4254644640e+02   4.7988529135e+01    0.1166853   0.07439186  74.64 0.0007037928    1.661    0.398
       363  -8.1750    211.4399    129.2225   8.9890854400e+01   1.2450609117e+01    0.2169156    0.1353127 -52.52 0.0006529091    1.668    0.401
       364 -10.3017     60.1709    125.5011   1.2616257826e+02   4.3593278976e+01    0.6764877    0.3942161  80.57  0.002516348    2.925    0.658
       365  -9.4742     36.5413    115.2339   1.3095743247e+02   4.8640195154e+01    0.2485764    0.1890973  59.82  0.001013588    1.554    0.357
       366 -10.0554    117.9464    125.5153   1.1025617972e+02   3.4109678485e+01    0.5203074    0.3553072  87.08  0.001360065    2.233    0.552
       367  -8.0009    228.3763    125.2431   8.5914962343e+01   9.5032554427e+00     0.211169    0.1266709 -48.59 0.0007311202    1.614    0.381
       368  -8.6746    179.2510    124.8167   9.5314010047e+01   2.0719128500e+01    0.2904532    0.2285981 -75.94 0.0006799172    1.501    0.334
       369 -10.3603     28.3796    122.3888   1.3446579780e+02   4.7753097346e+01    0.7040932    0.3502127  83.02  0.002797011    3.583    0.721
       370  -8.2092    162.6296    136.4007   1.0183087665e+02   2.2051412792e+01    0.2339702    0.1839505 -87.73 0.0008211596    1.565    0.361
       371  -7.9697    188.5277    124.0319   9.3165971833e+01   1.8721325266e+01     0.222957    0.1298396 -63.41 0.0008080147    2.402    0.584
       372  -8.8286    135.3467    123.8686   1.0535854214e+02   3.0884097301e+01    0.4144866    0.2329625 -53.00  0.001655891    1.822    0.451
       373  -9.4798    130.8300    118.6297   1.0519756139e+02   3.3025843936e+01    0.4984911     0.333335 -78.18  0.001425404    2.240    0.554
       374  -8.1595      5.4809    124.4782   1.4088070964e+02   4.9045800684e+01    0.1192505   0.09136441 -75.17 0.0001051764    1.040    0.038
       375  -8.5119    172.0720    121.7009   9.6106087386e+01   2.3048231463e+01    0.2648019    0.2098261 -59.66 0.0004245696    1.315    0.240
       376  -9.2232    158.5789    121.5445   9.9130375535e+01   2.6212326759e+01    0.3338032    0.2418167 -72.91 0.0008647172    1.740    0.425
       377  -9.5315     71.0877    119.7382   1.2189414613e+02   4.3479021142e+01     0.387722    0.2325466 -74.07  0.001077093    2.021    0.505
       378  -9.6512    141.5413    118.5994   1.0248405635e+02   3.0706783855e+01    0.4481789    0.2963903 -71.81  0.001205353    2.100    0.524
       379  -8.5290    232.0000    119.0057   8.3871798732e+01   9.8834581300e+00    0.2505522   0.07784989 -39.51 0.0008076298    2.979    0.664
       380  -9.1540     20.6948    118.8310   1.3602718490e+02   4.9216277078e+01    0.2388021    0.1655362  36.24  0.001054025    1.734    0.423
       381  -9.7351      3.0840    117.5663   1.4062544854e+02   5.0743580204e+01    0.4036111    0.2099647  73.92  0.002057113    2.594    0.615
       382  -9.0312     59.3469    115.6841   1.2442807056e+02   4.5995321860e+01    0.4707199    0.2685167 -19.18  0.001831118    3.476    0.712
       383  -7.6949    185.6384    116.2581   9.1841872626e+01   2.0984306128e+01    0.1589246    0.1215545 -89.74 0.0002758368    1.627    0.385
       384 -10.2058    109.0807    113.3241   1.0964288644e+02   3.8622959863e+01    0.7890843    0.3363124 -53.49  0.002401852    2.418    0.586
       385  -7.9326    193.0151    115.5044   9.0155583194e+01   1.9396309414e+01    0.2233463      0.15371  57.02 0.0004940063    1.501    0.334
       386  -8.8856    143.0374    131.7048   1.0535884464e+02   2.7451091553e+01    0.3137647    0.2429292 -73.28  0.000821992    1.486    0.327
       387  -7.9467    167.4519    114.5384   9.5321426214e+01   2.5636358992e+01    0.1590338    0.1504458 -81.23 0.0002676202    1.050    0.048
       388 -10.3902    133.8127    109.8368   1.0216117023e+02   3.4321974062e+01     0.777567    0.3316581 -52.33  0.002629605    2.599    0.615
       389 -10.0706     92.8291    111.3288   1.1370867284e+02   4.2022657040e+01    0.9111374    0.3788706 -50.34  0.002390378    2.237    0.553
       390  -9.8654     78.9992    112.6096   1.1801314450e+02   4.3969110044e+01    0.4738619    0.3281998  84.28  0.001747999    2.141    0.533
       391  -9.3439     51.2758    113.3052   1.2630037850e+02   4.7519641874e+01    0.2714674    0.2191999  65.28 0.0005900605    1.453    0.312
       392  -9.7317    121.9196    112.7949   1.0603502197e+02   3.6192084756e+01    0.3270086    0.2734617  62.18 0.0007500885    1.280    0.219
       393  -8.7534     28.1933    113.7593   1.3309675905e+02   4.9745834043e+01    0.3049075   0.09528467  29.50  0.001280329    3.592    0.722
       394  -8.3097    174.6984    112.0688   9.3094903715e+01   2.4433167404e+01    0.2511047    0.1833092 -58.39 0.0005244098    1.459    0.315
       395  -8.3310    159.2971    111.9565   9.6510486643e+01   2.8091304094e+01    0.2241301    0.1968878 -51.65  0.000489592    1.129    0.114
       396 -10.5731     66.5495    109.7625   1.2102302997e+02   4.6416468845e+01     0.639496    0.3679719 -60.77  0.002141389    1.653    0.395
       397  -9.4439     14.2144    111.5219   1.3671257821e+02   5.1354920722e+01    0.3011196    0.1813089  51.87  0.001332925    2.080    0.519
       398  -9.4372      8.5115    110.0059   1.3809029244e+02   5.2080379021e+01    0.2953545    0.1530955  53.95  0.001559011    2.600    0.615
       399 -10.4943    248.6114    107.8732   7.8754221678e+01   8.3795722869e+00    0.4325432    0.3032045 -57.88  0.002230885    1.421    0.296
       400 -10.4226    248.5202    102.5047   7.7576888955e+01   9.3360354749e+00    0.3978771    0.3101694 -62.32  0.002186032    1.254    0.203
       401  -8.1306     44.5223    109.4631   1.2752360185e+02   4.9148827746e+01    0.1306396    0.1113754 -60.90 0.0001572979    1.028    0.027
       402  -7.9361    189.3701    108.2415   8.9067391760e+01   2.1703933078e+01    0.2256691    0.1380993 -51.22 0.0006418352    1.671    0.402
       403  -9.1582    139.9200    104.7356   9.9257851335e+01   3.4063534041e+01    0.3406267    0.2586194 -72.75 0.0007280982    1.612    0.380
       404  -8.8019     78.6658    105.3567   1.1637590793e+02   4.5668030453e+01    0.3490992    0.2232053 -11.38  0.001192479    2.700    0.630
       405 -10.4656     45.6302    102.5758   1.2576446289e+02   5.0586765254e+01     0.648569    0.3881651  73.91   0.00281514    3.105    0.678
       406 -10.7032     22.8839    102.8889   1.3274524361e+02   5.2630844259e+01    0.6621897    0.3767691  78.84  0.002615365    2.892    0.654
       407  -8.3123    166.5135    104.1024   9.2815985501e+01   2.8008497473e+01    0.2353213    0.1526229 -45.52 0.0008911931    1.533    0.348
       408  -8.9855      6.9953    103.2266   1.3749647594e+02   5.3671000939e+01    0.2368572    0.1549248  63.85  0.001055728    1.968    0.492
       409  -9.6509    128.4254    102.2610   1.0152524567e+02   3.7113861844e+01    0.3274027    0.2621261 -69.84 0.0007548608    1.435    0.303
       410  -9.4808    150.6031    103.2000   9.6236344599e+01   3.1944853074e+01     0.443488     0.273739 -62.59  0.001532051    2.093    0.522
       411 -10.5502    108.8032     98.8576   1.0591629132e+02   4.1859582015e+01    0.6441971     0.484416  80.98   0.00172697    1.871    0.466
       412  -8.7281    107.3955     92.8248   1.0464009213e+02   4.3405135953e+01     0.426454     0.254932  22.28  0.001692257    2.479    0.597
       413  -8.0971    159.5750    100.9698   9.3543135851e+01   3.0294466830e+01     0.235944    0.1515922 -43.98 0.0004743324    1.552    0.356
       414  -9.2467     82.1303    100.1367   1.1402831875e+02   4.6290136230e+01    0.3376737    0.2311266 -69.95 0.0008805362    1.805    0.446
       415  -9.1883     94.9669     97.0166   1.0938926715e+02   4.4819727542e+01    0.3090448    0.2025838 -55.90 0.0005515988    1.574    0.365
       416 -10.1873     63.9662     95.9618   1.1854186811e+02   4.9852281503e+01    0.4888243       0.3117 -82.84  0.001641211    2.651    0.623
       417  -7.9241    227.3505     95.3226   7.9125103688e+01   1.5220130593e+01    0.1441247    0.1167104  14.45 0.0007048448    1.749    0.428
       418  -8.1572    151.3441     95.3107   9.3912095724e+01   3.3375193121e+01     0.159062    0.1245552  12.97 0.0007045502    1.702    0.412
       419  -9.3203     56.6080     94.9522   1.2060627674e+02   5.1013295974e+01    0.2742404    0.1895933  45.46  0.001140542    1.719    0.418
       420  -8.0980    164.8209     94.0392   9.0496764582e+01   3.0415568771e+01    0.2520626    0.1679101 -65.46 0.0004234571    1.895    0.472
       421  -9.3321    139.1551     92.5474   9.6093278840e+01   3.6743945298e+01    0.3737836    0.2700021 -78.88 0.0009657607    1.948    0.487
       422  -8.1212    176.3799     93.2385   8.7818980907e+01   2.7765198883e+01    0.2236775    0.1383108 -51.45 0.0004904844    1.684    0.406
       423  -9.7994    124.4333     90.8785   9.9404907460e+01   4.0328073797e+01    0.4067909    0.3235584 -64.97 0.0009551503    1.443    0.307
       424  -9.2008    120.0452     93.0000   1.0118375392e+02   4.0822978083e+01    0.3563141      0.21474  40.66  0.001546399    1.717    0.418
       425  -9.1223     46.7791     92.3361   1.2311041372e+02   5.2720810266e+01    0.3487583    0.2090275  12.73  0.001771993    2.223    0.550
       426  -9.6550      4.9931     92.3904   1.3633907045e+02   5.6136614190e+01    0.3117643    0.2023416  45.22  0.001388547    1.999    0.500
       427  -7.8431    157.6507     91.8062   9.1487328647e+01   3.2571903621e+01    0.2216603    0.1388869 -50.80 0.0004094787    1.675    0.403
       428  -9.5519     34.8136     89.9899   1.2642908564e+02   5.4434682006e+01     0.411197     0.245761 -84.22  0.001719822    2.633    0.620
       429  -9.2740     23.3552     90.2813   1.3018141467e+02   5.5350654540e+01    0.2666487     0.210225   2.64  0.001146009    1.528    0.346
       430  -8.2354    151.1615     89.1810   9.2251279601e+01   3.4623207822e+01    0.2136479    0.1779392 -69.56 0.0004183211    1.329    0.248
       431 -10.0296     86.2360     86.1887   1.0900450016e+02   4.8595728696e+01    0.5457945    0.3495399 -61.31  0.001427874    1.898    0.473
       432  -8.4228     15.5076     86.5013   1.3194689282e+02   5.6732462835e+01     0.193797    0.1014781 -72.79 0.0009200857    1.992    0.498
       433  -8.5473     70.9623     86.2092   1.1378693026e+02   5.0967657579e+01    0.1744463    0.1095181  34.54 0.0006273584    1.733    0.423
       434  -9.8645     48.4693     84.3872   1.2062152384e+02   5.4231336881e+01    0.4092088    0.2857497  81.25  0.001645312    2.466    0.595
       435  -9.6352    104.7683     83.4393   1.0268731098e+02   4.5819388242e+01    0.4342088    0.3070163 -71.79 0.0008813939    2.082    0.520
       436  -8.6477    105.2783     77.3967   1.0073307950e+02   4.6895164001e+01    0.3572943    0.2302126  23.91  0.001601713    1.947    0.486
       437  -8.1351    157.9617     84.2524   8.9316350653e+01   3.3938292457e+01    0.2094412    0.1985992  65.46 0.0002756825    1.031    0.030
       438  -9.0321    140.9144     83.0590   9.2951800389e+01   3.8188581859e+01    0.3833574    0.2074039 -48.69  0.001442368    1.976    0.494
       439  -8.6061     29.9474     91.9573   1.2842023035e+02   5.4446273416e+01    0.1890442    0.1409282  88.34  0.001124075    1.704    0.413
       440  -9.8720      9.7871     81.0693   1.3273856984e+02   5.8243984946e+01    0.3289537     0.194422  74.12  0.001667283    3.044    0.672
       441  -9.6969     24.5238     80.4262   1.2768283695e+02   5.7344706735e+01    0.3776565     0.227811 -81.45  0.001401226    2.405    0.584
       442  -8.7388    249.7770     80.9988   7.2649206502e+01   1.2720302295e+01    0.1893033    0.1022621 -40.51 0.0004765646    1.675    0.403
       443  -8.4375    150.1899     80.8956   9.0128041708e+01   3.6421143556e+01    0.2363867    0.2030021 -74.12 0.0008362238    1.286    0.222
       444  -8.8013    119.1187     80.1130   9.7686186579e+01   4.3570292872e+01    0.3115717    0.1931877 -62.94 0.0008752562    2.343    0.573
       445  -8.7654     74.6320     80.6493   1.1105499204e+02   5.1567112088e+01    0.2621553     0.198104 -63.52  0.000856699    1.565    0.361
       446  -8.2519    166.5450     79.9184   8.6247670970e+01   3.2649068168e+01    0.2206323    0.1512209 -36.87 0.0004797251    1.514    0.339
       447  -8.4957    184.1643     78.5395   8.2362404258e+01   2.8552237265e+01    0.2413959    0.1800845 -33.92 0.0006320617    1.430    0.301
       448  -9.1324     65.2288     78.2318   1.1341628911e+02   5.3410479111e+01    0.3361062    0.2018233 -57.57  0.001259145    1.817    0.450
       449  -9.7753     63.3949     73.6250   1.1269465144e+02   5.4576676065e+01    0.3898832    0.2241738 -57.79  0.001239674    1.999    0.500
       450  -7.9905    146.9821     77.9690   9.0028647344e+01   3.7717250475e+01    0.1767759    0.1745231  76.27 0.0009689443    1.014    0.014
       451  -9.2332    128.1427     75.5040   9.3920070808e+01   4.2481910286e+01    0.3502986     0.226095 -56.41 0.0008002325    1.879    0.468
       452  -7.8688    157.2816     76.6603   8.7320015800e+01   3.5490116887e+01    0.1552411    0.1168163 -73.11 0.0004978756    1.627    0.385
       453  -8.2260    140.4090     75.2919   9.0802527423e+01   3.9739873638e+01    0.2073993    0.1394281 -49.72 0.0009367954    1.592    0.372
       454  -9.6641     82.3954     72.7069   1.0621911648e+02   5.1902476600e+01    0.4202366    0.2674001 -61.72  0.001191355    2.183    0.542
       455  -8.4107    163.7382     73.8179   8.5129255526e+01   3.4419236259e+01    0.2119209    0.1736767 -77.87 0.0006474144    1.362    0.266
       456  -8.8990    115.4589     72.8226   9.6471478864e+01   4.5695855094e+01    0.2660881    0.1383837 -44.04 0.0007997163    1.962    0.490
       457  -8.2271     42.5067     72.5549   1.1954091382e+02   5.7300858263e+01    0.2101094    0.1135276 -62.65  0.000964582    2.163    0.538
       458  -7.6317    175.2798     72.6789   8.2481503444e+01   3.1770586009e+01    0.1537881     0.113368 -72.26 0.0005858268    1.584    0.369
       459  -8.7751    105.9078     71.8272   9.8840857732e+01   4.7812645116e+01    0.2481283    0.1820845 -67.12 0.0005056055    1.898    0.473
       460  -9.3339     95.0445     71.2622   1.0186010857e+02   4.9978745440e+01    0.3370566    0.2148076 -50.43 0.0009262577    1.707    0.414
       461  -9.5425     51.4928     69.8247   1.1564681407e+02   5.6834380788e+01    0.3716861    0.2332118 -66.34  0.001351416    2.222    0.550
       462  -9.1744     29.0055     70.4974   1.2374259811e+02   5.8999493835e+01     0.297686    0.1471508 -24.09  0.001258134    2.664    0.625
       463  -8.7739     16.6626     70.0986   1.2801461456e+02   6.0038085381e+01    0.2204572    0.1744013  86.74  0.001021693    1.744    0.426
       464  -8.7661    157.3658     69.8063   8.5337069309e+01   3.6666455098e+01    0.1984363    0.1447866 -25.45 0.0004155341    1.571    0.364
       465  -8.9468    147.0919     68.3963   8.7196228579e+01   3.9377909972e+01    0.2799193    0.2147796 -48.13 0.0006710527    1.366    0.268
       466  -8.5762    138.6955     66.4189   8.8557365574e+01   4.1686307197e+01    0.2575491    0.1741759 -50.67  0.000659621    1.635    0.388
       467  -8.8318    121.8326     66.2283   9.2714239570e+01   4.5508618665e+01    0.3066255    0.1961847 -53.09 0.0008804844    1.864    0.463
       468  -9.8555    240.3151     64.5460   7.0207419085e+01   1.7451283730e+01     0.273507    0.2312001 -67.63 0.0003814753    1.021    0.021
       469  -8.8191     37.3095     64.2613   1.1907880824e+02   5.9452838020e+01    0.2651163    0.1921163  88.89 0.0009668156    2.590    0.614
       470  -8.7725     65.2753     63.0917   1.0884566630e+02   5.6314341165e+01    0.4304918    0.2163354   9.12  0.001369765    5.316    0.812
       471  -9.3147     97.8622     61.2081   9.7801748174e+01   5.1243538806e+01    0.3668478     0.272921 -64.39  0.001385362    1.904    0.475
       472  -8.0884     87.3540     63.3038   1.0168762607e+02   5.2789357497e+01    0.1421467    0.1014027   1.69 0.0007040168    1.709    0.415
       473  -8.0371    158.1542     62.1214   8.2946977539e+01   3.7748644187e+01    0.2032192     0.169998 -75.03 0.0003801323    1.319    0.242
       474  -8.9484    110.0152     63.8454   9.5157499371e+01   4.8403604013e+01    0.2811014    0.1967247 -43.46 0.0006574315    1.486    0.327
       475  -9.6067     73.2266     59.5307   1.0501373649e+02   5.5775546514e+01    0.3930024    0.2164524 -50.50  0.001122371    2.059    0.514
       476  -8.0266    146.7979     59.0516   8.4472969769e+01   4.0982779909e+01    0.1890278    0.1162622 -36.32 0.0005714787    1.699    0.411
       477  -7.9385     89.2929     59.6758   9.9896213495e+01   5.3077813937e+01    0.1271165    0.1096477 -76.94 0.0004372294    1.617    0.381
       478  -9.9330     23.3669     56.4901   1.2203699084e+02   6.2173230380e+01    0.3765824    0.2589071 -84.64   0.00205972    2.730    0.634
       479  -9.4323      7.5259     57.1527   1.2820944379e+02   6.3149946357e+01    0.2705978    0.1811342 -82.65   0.00127435    2.228    0.551
       480  -8.0818    130.6071     57.7936   8.7845809223e+01   4.4954808643e+01    0.1978863    0.1317639 -46.71 0.0005656337    1.645    0.392
       481  -9.3790    119.0600     55.3934   8.9990235938e+01   4.7890252844e+01     0.451688    0.2129018 -44.84  0.001615738    2.379    0.580
       482  -9.5269     54.3181     55.7000   1.1030103443e+02   5.9113412644e+01    0.3175145    0.2076837 -55.07  0.001170433    1.826    0.452
       483  -8.1099    139.8127     56.5637   8.5287353305e+01   4.3025178200e+01    0.1979293    0.1370022  66.77 0.0004370258    1.573    0.364
       484  -8.9942     44.1967     55.7085   1.1398830471e+02   6.0319521806e+01    0.2069773    0.1510373 -50.84 0.0007788264    1.425    0.298
       485  -8.0584    152.6561     54.2915   8.1791327503e+01   4.0310191705e+01    0.1483211    0.1114321 -80.65 0.0005070738    1.657    0.396
       486  -8.6388    105.5231     53.2524   9.2951226210e+01   5.1050089345e+01    0.2125072    0.2017451  13.73 0.0006742031    1.049    0.046
       487  -9.5112     92.3902     50.5830   9.5880911691e+01   5.4003120257e+01    0.3844796    0.2158832 -48.62  0.001423179    2.190    0.543
       488  -7.6947    163.5461     48.4759   7.7928576732e+01   3.8502919612e+01    0.1435723     0.132873  60.62 0.0008079484    1.046    0.044
       489  -8.6710    120.8712     47.4037   8.6919051236e+01   4.8702307614e+01    0.2146267    0.1861079 -42.19 0.0004348384    1.257    0.205
       490  -8.4229    112.2787     47.0313   8.9016227967e+01   5.0601763384e+01    0.1882173    0.1726789 -22.38  0.000533164    1.131    0.116
       491  -8.9315     82.0468     46.4831   9.7670902428e+01   5.6483207844e+01    0.2314703    0.1750195 -46.39 0.0006742951    1.542    0.351
       492  -8.5034     45.0597     44.6669   1.1000849114e+02   6.2127758831e+01    0.1943447    0.1475502 -42.02  0.000535354    1.332    0.249
       493  -9.4552     16.5695     44.5968   1.2119716590e+02   6.4852274610e+01    0.2108712    0.1690083 -68.39 0.0008678742    1.700    0.412
       494  -8.5542    133.0296     43.7635   8.2827151968e+01   4.6482106659e+01    0.2440581    0.1870508 -62.94 0.0007403179    1.627    0.385
       495  -9.0035     57.9856     42.6717   1.0450750992e+02   6.0803239130e+01    0.2982914    0.1658395 -53.43  0.001429786    2.644    0.622
       496  -8.3179    129.8569     49.3648   8.5355832003e+01   4.6410644457e+01    0.1889977    0.1782687 -58.74 0.0005395482    1.170    0.145
       497  -9.2915     69.5370     41.7213   1.0009958025e+02   5.9255311359e+01    0.3011537    0.2059181 -50.29  0.001017347    1.896    0.472
       498  -9.8458      5.1493     41.9072   1.2504277251e+02   6.6082359313e+01    0.3172509    0.1848523 -69.37  0.001837978    2.421    0.587
       499  -8.7484    105.9810     41.2623   8.8745005838e+01   5.2727313384e+01    0.2743816    0.1767119 -40.87 0.0007174958    1.708    0.414
       500  -8.2279    206.2670     41.5558   6.9243034665e+01   2.8896288301e+01    0.1886326    0.1194129  57.37  0.000646968    1.558    0.358
       501  -7.9356    140.2850     41.6475   8.0555213902e+01   4.5079751494e+01    0.1405804     0.106616 -69.67 0.0003471746    1.662    0.398
       502  -8.3761     36.8408     41.0540   1.1192815555e+02   6.3636830950e+01    0.1667271    0.1444386 -31.12 0.0005538281    1.231    0.188
       503 -10.1050    136.8483     38.6559   8.0355099333e+01   4.6282946692e+01    0.3036532    0.2465946  82.01 0.0001389961    1.395    0.283
       504  -8.5835     95.3323     38.0355   9.0604391442e+01   5.5282736266e+01    0.2125099    0.1845908  83.74 0.0007654219    1.618    0.382
       505  -8.0497     80.6372     36.8419   9.4642361555e+01   5.8135484144e+01    0.1726005    0.1117723 -41.16 0.0004495467    1.721    0.419
       506  -8.3613    200.8463     35.8278   6.8555597334e+01   3.0996950144e+01    0.1979323    0.1727578  67.72 0.0005272038    1.151    0.131
       507  -8.1758    125.8522     35.8012   8.1894774218e+01   4.9173248830e+01    0.1742238    0.1584382 -88.51 0.0004149548    1.273    0.214
       508  -8.7203    111.9237     35.1989   8.5081258657e+01   5.2297052216e+01    0.2279073    0.1838701 -55.67 0.0007648641    1.565    0.361
       509  -9.5045     26.0582     35.5875   1.1435848244e+02   6.5588122460e+01    0.2201965    0.1854812 -48.28 0.0007974136    1.473    0.321
       510  -8.0093     88.3383     34.6653   9.1453111400e+01   5.7053229067e+01    0.1210046    0.1044734 -76.45 0.0007051668    1.749    0.428
       511  -8.9118     48.4977     33.5130   1.0465218581e+02   6.3453905726e+01     0.206312    0.1744042 -32.77 0.0006603911    1.318    0.242
       512  -8.1955    119.4261     33.5141   8.2647429552e+01   5.0889953679e+01    0.1321415    0.1228779  39.71 0.0001166077    1.048    0.046
       513  -8.5337     60.6246     32.7561   9.9875385912e+01   6.1904827669e+01    0.1953208    0.1771859 -53.28 0.0006710203    1.594    0.373
       514  -9.0568     72.0786     31.4697   9.5419014842e+01   6.0307984094e+01    0.2146868    0.1649825 -42.33 0.0007180817    1.576    0.365
       515  -9.3025     12.9153     30.2505   1.1805269149e+02   6.7533565556e+01    0.2464279    0.1379237 -55.35 0.0009480668    2.061    0.515
       516  -8.1251    101.4944     29.5075   8.5818162339e+01   5.5164073131e+01    0.1286795    0.1169985  27.82 0.0008098786    1.061    0.057
       517  -8.3967    208.8699     27.4912   6.5504967011e+01   3.0117930898e+01    0.1987328    0.1701837  56.04 0.0006247734    1.313    0.238
       518  -8.7840     81.5178     27.6503   9.0919806483e+01   5.9188456030e+01    0.2126981     0.189973  86.79 0.0007982891    1.696    0.410
       519  -8.8265      3.3464     27.6017   1.2134878579e+02   6.8605658469e+01    0.1937415    0.1467694 -69.23  0.000885671    2.049    0.512
       520  -8.7168     91.6777     26.5438   8.7467386570e+01   5.7448211147e+01    0.2204254    0.1507206 -31.66 0.0006689691    1.554    0.357
       521  -7.6475    145.7012     26.3164   7.4712260398e+01   4.5698720972e+01    0.1341976     0.101085 -73.22  0.000422334    1.612    0.380
       522  -8.2840    184.2415     24.3853   6.7905861648e+01   3.6510755985e+01    0.1978545    0.1169788  80.15 0.0009458878    1.681    0.405
       523  -8.2604    104.4808     22.9866   8.2688460042e+01   5.5309670407e+01    0.1664699     0.103155 -51.87 0.0005232766    2.360    0.576
       524  -8.3157     34.2800     23.5260   1.0641555599e+02   6.6578443400e+01    0.1874329    0.1010883  33.51 0.0008169904    1.994    0.499
       525  -8.9175     63.5843     21.1634   9.4265156572e+01   6.2973676517e+01    0.2284943    0.1840797 -45.76 0.0008293611    1.732    0.423
       526  -8.8506     48.4301     21.7942   1.0006435636e+02   6.5086748088e+01    0.1841521    0.1705853 -16.98 0.0006056306    1.415    0.293
       527  -8.4690     19.5249     21.9294   1.1209375662e+02   6.8273777977e+01    0.1620877   0.08801433 -38.98  0.000629472    1.558    0.358
       528  -7.8114    120.6607     21.2906   7.8227333878e+01   5.2026624523e+01    0.1261086    0.1008308 -80.66 0.0003862167    1.645    0.392
       529  -8.8347     74.0465     19.5704   9.0132707268e+01   6.1450163011e+01    0.2124547    0.1570366 -37.46 0.0007052964    1.613    0.380
       530  -8.1641     87.8541     17.7897   8.5254529050e+01   5.9159163877e+01    0.1492079    0.1463524 -28.00  0.000422817    1.314    0.239
       531  -8.0847     38.5865     18.5320   1.0260883215e+02   6.6756181607e+01    0.1127477   0.08869942  -7.49 9.091206e-05    1.044    0.042
       532  -7.8661    191.3790    249.6995   1.1753640836e+02  -5.3882019932e+00    0.1240277   0.09083061  62.09 0.0007024661    1.766    0.434
       533  -8.3827     30.2064     16.2296   1.0513752549e+02   6.8014297958e+01    0.1354664    0.1191942 -13.22 0.0006697506    1.365    0.267
       534  -9.0689    155.7625    248.5348   1.2413738629e+02   8.5658485751e-01    0.3208399    0.2150731  38.91  0.001336725    1.297    0.229
       535  -8.3758      7.2523     15.4366   1.1512706107e+02   7.0206523982e+01    0.1250322   0.08976494  21.84 0.0009425665    1.633    0.388
       536  -9.0736    104.0711    247.2945   1.3379810475e+02   9.7494746618e+00    0.3770292    0.1975366 -84.57  0.001756931    2.772    0.639
       537  -7.9572     28.2533     10.6070   1.0356588874e+02   6.8944221261e+01   0.09453827   0.08010904 -37.43 0.0006956819    1.686    0.407
       538  -8.3816     93.7071    249.3442   1.3593158190e+02   1.1005552545e+01    0.2005755    0.1127781  67.56 0.0008542993    1.769    0.435
       539  -9.3354     21.7152    248.3781   1.4826626099e+02   2.0906823222e+01    0.1911906    0.1446347  76.05 0.0004850775    1.152    0.132
       540  -8.9751    243.1411    246.6863   1.0758075694e+02  -1.3116370449e+01    0.3434226    0.1763915 -27.76  0.001668413    2.055    0.513
       541  -8.3291    218.5262    248.0824   1.1223772349e+02  -9.5692040686e+00    0.1630901    0.1172767 -33.31 0.0006506082    1.561    0.359
       542  -9.1344    211.0000    246.5815   1.1338284793e+02  -8.1631354757e+00    0.2577201    0.1779604 -57.36  0.000966734    2.258    0.557
       543  -8.9371    175.5584    247.7526   1.2024234500e+02  -2.4191110981e+00    0.2858496    0.1902504  63.54  0.001207979    1.944    0.486
       544  -9.0298    132.1941    247.7314   1.2853663214e+02   5.0246927307e+00    0.2546568    0.1728021  76.12 0.0008623121    1.752    0.429
       545  -9.2168     34.9036    248.1651   1.4611025455e+02   1.9396572925e+01    0.1809172    0.1082299  69.39 0.0005325578    1.271    0.213
