#   1 NUMBER                 Running object number                                     
#   2 MAG_AUTO               Kron-like elliptical aperture magnitude                    [mag]
#   3 X_IMAGE                Object position along x                                    [pixel]
#   4 Y_IMAGE                Object position along y                                    [pixel]
#   5 X_WORLD                Barycenter position along world x axis                     [deg]
#   6 Y_WORLD                Barycenter position along world y axis                     [deg]
#   7 A_WORLD                Profile RMS along major axis (world units)                 [deg]
#   8 B_WORLD                Profile RMS along minor axis (world units)                 [deg]
#   9 THETA_WORLD            Position angle (CCW/world-x)                               [deg]
#  10 FWHM_WORLD             FWHM assuming a gaussian core                              [deg]
#  11 ELONGATION             A_IMAGE/B_IMAGE                                           
#  12 ELLIPTICITY            1 - B_IMAGE/A_IMAGE                                       
         1 -14.3982    154.8277     53.4674   8.5159330496e+01   3.9967377676e+01     1.354448     1.098078  31.26  0.001147957    1.336    0.251
         2 -14.6941    166.6100     37.8024   7.7769838825e+01   3.9186806960e+01     1.268479     1.038693  -2.25  0.004298989    1.424    0.298
         3 -13.8843    180.4942      8.6406   6.6513233018e+01   3.8900774552e+01    0.9225186    0.4733058  71.17  0.003899705    1.780    0.438
         4 -13.6104    180.9453      2.9286   6.4741237850e+01   3.9326070529e+01     1.118291    0.3848627  70.23    0.0039934    2.557    0.609
         5  -9.9589    227.9617    231.9554   1.1204810089e+02  -5.3975693782e+00    0.1372731    0.1117525   9.25 0.0005891129    1.135    0.119
         6 -19.8262     68.8482    169.0557   1.3454792492e+02   3.2395498191e+01     17.73792     6.274127 -68.27   0.07243606    2.820    0.645
         7 -11.2525    160.7650    194.5946   1.1845163099e+02   1.1671490452e+01    0.1984648     0.113321  51.28 0.0007931145    1.649    0.394
         8  -9.9933    153.4445    194.4529   1.1991378602e+02   1.3060629099e+01    0.1358045    0.1173231  52.89 5.358426e-05    1.048    0.046
         9 -11.6216     16.5985    217.5918   1.4895908361e+02   2.8678594857e+01    0.1890135    0.1348563  48.99  0.001451918    1.416    0.294
        10 -10.8800    139.8683    249.6649   1.2991465990e+02   6.4970179227e+00    0.2028005    0.1642496  57.95 0.0009843514    1.141    0.123
        11 -13.7569    175.2459    194.1079   1.1547253508e+02   9.0341491209e+00     0.587425    0.4125874 -55.86  0.003108257    1.772    0.436
        12 -10.5551    125.1688    249.6644   1.3248921109e+02   8.7937124748e+00    0.1589687    0.1229038 -47.69 0.0005867619    1.794    0.443
        13 -13.7402    206.3663    180.0261   1.0684162354e+02   5.3809387318e+00    0.8493168    0.4321508  34.24  0.003196448    1.977    0.494
        14 -13.2225    196.9570    173.0909   1.0728988333e+02   8.3379861821e+00    0.7959821    0.4344914 -50.39  0.002645756    2.311    0.567
        15 -12.3992     27.9395    183.9182   1.4476096245e+02   3.4114930967e+01     0.212091    0.1698214  52.94 0.0006847026    1.321    0.243
        16 -10.5769    108.6216    182.4291   1.2752195233e+02   2.3410233780e+01    0.2209921    0.1860976  84.90  0.001016823    1.136    0.120
        17 -10.9650    116.5236    180.0183   1.2543800658e+02   2.2544347799e+01    0.3867528    0.2161527  69.36  0.001546877    2.486    0.598
        18 -12.3309    177.9106    171.6575   1.1081953890e+02   1.2400268686e+01    0.4729786    0.2074806 -49.74   0.00184481    2.732    0.634
        19 -13.2156    137.8645    170.9590   1.1923793456e+02   2.0468795348e+01    0.6709813     0.529852  62.51   0.00364373    1.244    0.196
        20 -13.0922    145.1425    169.4634   1.1736620061e+02   1.9359332858e+01    0.7645177    0.4623445  83.24  0.002786065    3.452    0.710
        21 -11.6135    126.0859    172.3057   1.2208401255e+02   2.2407511198e+01    0.2652231    0.2039859 -72.21  0.001431635    1.405    0.288
        22 -12.2554    113.0613    169.5842   1.2456174624e+02   2.5322638191e+01    0.3426879    0.3055001  46.97  0.001056983    1.163    0.140
        23 -12.0243    110.7008    208.6652   1.3059188570e+02   1.7940489072e+01    0.2669104     0.248026  22.40 0.0007142186    1.421    0.296
        24 -11.2792    202.4689    166.3214   1.0485302079e+02   8.3653137667e+00    0.2915345    0.2281454 -79.39  0.001456458    1.984    0.496
        25 -10.8421    208.6750    228.3078   1.1481516015e+02  -1.8717210783e+00    0.1113908   0.08994976  59.95 0.0003100487    1.651    0.394
        26 -11.2002    223.9658    164.4142   1.0044050959e+02   4.4232545859e+00    0.2395824    0.1861675 -47.14 0.0006040173    1.525    0.344
        27 -13.0612    163.6719    204.0976   1.1940605730e+02   9.5174320449e+00     0.517481    0.2953877 -56.35  0.002466069    2.261    0.558
        28 -10.6395    130.5273    161.6782   1.1920826362e+02   2.3780079239e+01    0.2457552    0.1601437  63.48 0.0006448185    1.716    0.417
        29 -10.8566    237.5224    159.4863   9.7020272190e+01   2.5792803033e+00     0.134062    0.1210325   1.66 0.0001153018    1.042    0.041
        30 -11.9406    164.6417    157.3860   1.1075439051e+02   1.7787312680e+01    0.2761842    0.2519473  18.52 0.0007726383    1.167    0.143
        31 -10.8851     14.9583    157.0470   1.4538215353e+02   4.1054593874e+01    0.1707488    0.1351868  88.88  0.000466989    1.073    0.068
        32 -11.1003    159.0193    205.5210   1.2054410588e+02   1.0125387777e+01    0.2859941    0.1978586  47.10  0.001163004    1.240    0.193
        33 -13.8420    134.0584    145.7058   1.1526855078e+02   2.6476713058e+01     1.312416    0.3732814 -55.42  0.003547738    4.864    0.794
        34 -14.0178    136.0625    127.3407   1.1074832547e+02   3.0024827283e+01     1.750403    0.3372281 -49.57  0.004100678    5.817    0.828
        35 -11.8987    174.0518    149.2383   1.0700601784e+02   1.7364708653e+01    0.3443318     0.281639  39.12  0.001042386    1.181    0.153
        36 -11.3350    151.6388    150.1413   1.1212364171e+02   2.1944286029e+01    0.2458543    0.1943642  59.47 0.0005001703    1.277    0.217
        37 -13.9532    143.4952    143.2982   1.1254200412e+02   2.5059279382e+01    0.9891262    0.5183638 -61.62  0.003739943    2.554    0.609
        38 -12.7210     13.5514    143.7165   1.4457185626e+02   4.4091386154e+01    0.3341053    0.1749178 -89.24  0.001904397    1.635    0.388
        39 -13.5162      8.9445    139.0792   1.4524499494e+02   4.5476810032e+01    0.5611402    0.3062877 -65.02  0.002081268    1.571    0.363
        40 -13.5391      4.8248    133.6534   1.4575525559e+02   4.6975004106e+01     1.057801    0.2956873 -68.70  0.004867924    2.562    0.610
        41 -13.2849      2.4841    126.9691   1.4573840738e+02   4.8611324982e+01     1.019777    0.1855521 -71.38  0.003931103    3.571    0.720
        42 -10.6161    151.3066    135.2970   1.0895210134e+02   2.5076418514e+01    0.1490962     0.121659   6.24 0.0002175855    1.588    0.370
        43  -9.9067     30.8744    204.8574   1.4568309665e+02   2.9597332344e+01     0.138492    0.1174796  67.12 0.0006268013    1.277    0.217
        44 -12.2613    160.9061    127.7564   1.0498302434e+02   2.4509511542e+01    0.4542434    0.3195703 -59.00  0.002049206    1.624    0.384
        45 -12.8243     18.8775    128.3398   1.4174537718e+02   4.7100022535e+01    0.3198786    0.1760242 -58.29  0.001843691    1.654    0.396
        46 -10.8013    174.1527    140.3918   1.0501537614e+02   1.9047516090e+01    0.2170839    0.1393718  58.15 0.0008216531    1.708    0.415
        47 -12.0868    169.6954    115.4738   9.9970563745e+01   2.4952477474e+01     0.605944    0.3790226 -72.70  0.002177688    2.831    0.647
        48 -11.4725    169.1007    202.8270   1.1813704157e+02   8.7343087832e+00    0.1992773    0.1652789  59.94 0.0004826526    1.257    0.204
        49 -10.6412     25.7127    222.8028   1.4768701879e+02   2.6772087560e+01    0.1285908   0.08987053 -51.49 0.0008708035    2.344    0.573
        50 -12.3227      4.0973    112.4361   1.4390567673e+02   5.1740692469e+01    0.3414248    0.2471087  -5.59  0.002295558    2.038    0.509
        51 -10.8609    205.4867    110.1565   9.1358455518e+01   1.7497451795e+01    0.3308758    0.2157661  42.62 0.0009581035    1.591    0.371
        52 -10.9661    138.9790    198.9007   1.2355635602e+02   1.4899300285e+01    0.5570009    0.2344406  56.90  0.002100814    3.049    0.672
        53 -13.4748    167.1796    191.3190   1.1660571085e+02   1.1032618778e+01    0.4994456    0.3853539  61.42  0.002339043    1.388    0.280
        54 -12.7632    180.0511    192.3085   1.1421062475e+02   8.4253601160e+00    0.3637383    0.2962708 -66.94 0.0005642506    1.601    0.375
        55 -12.7748    176.5785    188.2793   1.1418745128e+02   9.7614755988e+00    0.3911549    0.2961759 -62.68  0.002074365    1.705    0.413
        56 -11.1914     20.6362    219.4335   1.4836806031e+02   2.7925548550e+01    0.1457997   0.09210839  53.94 0.0002608971    1.310    0.237
        57 -10.5081     98.7946     80.8300   1.0860947297e+02   4.7618648333e+01    0.2094415    0.1938951 -11.44 0.0004592894    1.132    0.117
        58  99.0000     13.8711    243.7061   1.5060780246e+02   2.4351036507e+01    0.4181948   0.07109802 -66.55  0.001788583    5.639    0.823
        59 -10.1942    125.2319    242.8736   1.3176809280e+02   9.8117056283e+00    0.1225569   0.09755629 -58.39 0.0002900251    1.599    0.375
        60 -12.7894    170.3807     30.6821   7.4840511176e+01   3.9116448122e+01    0.3944868    0.3505187   9.37 0.0009355688    1.273    0.215
        61 -10.3427     13.6409     59.9208   1.3261346413e+02   6.2748834870e+01    0.1679193    0.1182436 -60.72 0.0004315878    1.137    0.121
        62 -11.0478    139.5354     32.0954   8.1118552149e+01   4.6928343709e+01    0.4579163    0.2325123  76.20  0.001639734    2.937    0.660
        63  -9.7182      8.7392    194.4798   1.4912090729e+02   3.3850284110e+01    0.2789501     0.145489  79.87  0.001790882    1.515    0.340
