#   1 NUMBER                 Running object number                                     
#   2 MAG_AUTO               Kron-like elliptical aperture magnitude                    [mag]
#   3 X_IMAGE                Object position along x                                    [pixel]
#   4 Y_IMAGE                Object position along y                                    [pixel]
#   5 X_WORLD                Barycenter position along world x axis                     [deg]
#   6 Y_WORLD                Barycenter position along world y axis                     [deg]
#   7 A_WORLD                Profile RMS along major axis (world units)                 [deg]
#   8 B_WORLD                Profile RMS along minor axis (world units)                 [deg]
#   9 THETA_WORLD            Position angle (CCW/world-x)                               [deg]
#  10 FWHM_WORLD             FWHM assuming a gaussian core                              [deg]
#  11 ELONGATION             A_IMAGE/B_IMAGE                                           
#  12 ELLIPTICITY            1 - B_IMAGE/A_IMAGE                                       
         1 -13.1299    227.8227    193.4350   1.0048621160e+02  -2.7384347758e+00     4.564559    0.9386836 -36.14   0.01184206    6.149    0.837
         2 -15.2223    245.2466    103.2180   7.7984638436e+01   9.9248393476e+00     4.227291     2.601295 -26.93   0.01955055    1.907    0.476
         3 -13.9703    248.1910    123.3817   8.2020171600e+01   5.7671937709e+00     7.810783    0.3728793 -39.21   0.01156339   15.939    0.937
         4 -13.0649    248.3809     35.4256   6.2804258197e+01   1.9886803242e+01    0.9097418    0.6092183  12.48   0.00386209    4.093    0.756
         5 -11.8041    248.5637      2.9850   5.6269856957e+01   2.3843752234e+01    0.6626984     0.214815 -42.54  0.003114759    2.576    0.612
         6 -11.8861    243.9739      3.4924   5.6713798462e+01   2.4776228097e+01    0.4912443    0.3267962   0.17  0.002461055    3.476    0.712
         7 -10.8606    239.1828      1.8341   5.6754200123e+01   2.6002980093e+01    0.2269158    0.1399732  78.88  0.001218398    1.399    0.285
         8 -12.0795    224.7989    177.3204   9.7783110042e+01   6.1496760453e-01     1.916408    0.4365487 -35.94  0.004954047    5.622    0.822
         9  -8.9662    248.8529    250.6295   1.0709548528e+02  -1.4367974988e+01    0.1481045   0.09527537  38.99 0.0005750525    1.579    0.367
        10 -10.3341    224.5528    249.5839   1.1124472866e+02  -1.0666460639e+01    0.2237205    0.2056678 -39.87  0.001299394    1.474    0.322
        11 -10.6509    209.4531    249.1719   1.1394659606e+02  -8.2420786823e+00    0.3043177    0.2664233 -30.66  0.001665317    1.347    0.257
        12 -10.5266    191.5217    248.7336   1.1723016193e+02  -5.2467275852e+00    0.3638867    0.2785037  67.20  0.002151382    1.819    0.450
        13 -11.9971    247.2822    241.7439   1.0586764920e+02  -1.3035922100e+01    0.8050056    0.5227968 -61.69  0.003534863    4.679    0.786
        14 -11.4711    236.1773    229.2655   1.0567265627e+02  -9.6890599255e+00    0.4531688    0.3828805 -54.50  0.001894398    1.727    0.421
        15 -11.9595    227.9271    222.5264   1.0597832112e+02  -7.3895820920e+00    0.9226366    0.3831795 -46.07  0.003917949    3.040    0.671
        16 -10.9222    242.4035    247.7069   1.0773774327e+02  -1.3087516414e+01    0.2916965     0.206697 -29.72 0.0009956761    1.505    0.336
        17 -12.2181    216.9967    187.6714   1.0139171842e+02   2.4178328477e-01     1.621159    0.5854968 -34.98  0.005741692    3.115    0.679
        18 -11.3047    238.7398    166.1092   9.2879520464e+01  -1.3782729896e-02    0.8699192    0.3857186 -25.96  0.003073192    3.245    0.692
        19 -12.8056    236.2697    191.5770   9.8555501271e+01  -3.9193799375e+00     2.230906    0.3835545 -40.17  0.006091952    5.614    0.822
        20 -11.8848    238.4174    219.7354   1.0354805230e+02  -8.6713017100e+00    0.5101998    0.3761092 -41.36   0.00176616    1.560    0.359
        21 -11.4742    232.9726    212.3142   1.0316804671e+02  -6.6710072274e+00    0.4633901    0.3175142 -25.35  0.001550463    1.447    0.309
        22 -12.3578    235.9042    144.1280   8.8629116253e+01   4.4808098506e+00     1.436853     0.710912 -33.06   0.00595848    2.055    0.513
        23 -11.6135    240.3433    208.2158   1.0105036099e+02  -7.2556548373e+00    0.6597267    0.3089996 -46.23  0.002360389    2.600    0.615
        24 -12.2090    248.6490    180.5089   9.4119464047e+01  -4.2359760656e+00     1.246285    0.3174276 -42.65  0.004058263    3.947    0.747
        25 -12.8249    247.2813    159.4651   8.9988577272e+01  -4.2986953356e-01     2.020694    0.6106253 -33.28  0.006342842    3.885    0.743
        26 -12.7256    242.8792    136.3366   8.5729041863e+01   4.5081163677e+00     1.988958    0.4741091 -45.09  0.005740399    4.221    0.763
        27 -10.3177    239.8459    240.4494   1.0696258873e+02  -1.1775774810e+01    0.2711956    0.2252557 -54.13  0.001155637    1.874    0.466
        28 -10.0151    183.4415    239.8054   1.1738527776e+02  -2.5098414965e+00    0.3058453    0.2328318 -70.54  0.001713448    1.924    0.480
        29  -8.9082    134.6840    241.3483   1.2710536167e+02   5.7121410477e+00    0.1345219   0.08995395  70.32 0.0007047692    1.726    0.421
        30  -9.0459    117.6921    241.3613   1.3039858071e+02   8.5860556263e+00    0.1351764    0.0862848  71.30 0.0007040044    1.739    0.425
        31 -10.1318    159.3169    239.1680   1.2198552141e+02   1.8066314403e+00    0.3099943    0.2206235 -82.94  0.001646004    2.083    0.520
        32 -11.4233    230.6361    236.2944   1.0790947420e+02  -9.8077559754e+00    0.3952869    0.3500668  87.85  0.001706928    1.914    0.478
        33 -10.7914    190.9479    235.5040   1.1524648928e+02  -3.1269036761e+00    0.4722839    0.3291244 -67.78  0.002455071    2.336    0.572
        34 -10.3733    176.7590    235.7395   1.1804545784e+02  -6.8745179413e-01     0.366304    0.1845642 -45.82  0.001750211    2.295    0.564
        35 -10.8987    205.0743    235.3423   1.1251038490e+02  -5.5150643949e+00    0.3989634    0.3247087 -68.54  0.002299645    1.855    0.461
        36  -9.3407    139.0272    236.9781   1.2566293070e+02   5.7464126022e+00    0.2120209    0.1443639  70.17  0.001125683    1.709    0.415
        37  -9.4177    170.4840    235.0390   1.1916768746e+02   5.3673497570e-01    0.1806581    0.1323386 -47.66  0.001029939    1.584    0.369
        38  -9.4312    145.0090    232.9746   1.2391066532e+02   5.4210992928e+00    0.2142752    0.1492739  70.79  0.001129842    1.710    0.415
        39  -9.3433    122.4884    233.5069   1.2846378227e+02   9.2463992551e+00    0.1335647    0.1104282  61.35 0.0008102526    1.038    0.036
        40  -9.1380    133.2957    232.6528   1.2620105727e+02   7.5403083665e+00    0.1356239   0.09349348  72.67 0.0005334132    1.674    0.403
        41  -9.1554    158.0000    230.9367   1.2101276314e+02   3.4718660252e+00    0.1967895    0.0773988 -49.61 0.0007991643    2.920    0.658
        42 -10.4076    211.6600    227.3242   1.0988676964e+02  -5.4034009772e+00    0.2875563    0.2131024 -36.47  0.001013572    1.469    0.319
        43  -9.3588    173.7036    228.9840   1.1757244898e+02   9.9262892103e-01    0.1758389     0.171954  33.88 0.0007928424    1.120    0.107
        44 -10.2540    198.8060    226.9436   1.1229189630e+02  -3.1285717315e+00    0.2661848    0.2283792 -56.54  0.001071092    1.470    0.320
        45  -9.3987    184.5032    227.9801   1.1526778754e+02  -7.7090738190e-01    0.1857092    0.1328285 -44.12  0.001029336    1.584    0.369
        46  -9.5908    163.0879    227.6945   1.1948978751e+02   3.1321291051e+00    0.2189957    0.1885217 -79.08  0.001174886    1.389    0.280
        47 -10.3137    223.0845    226.5229   1.0759347709e+02  -7.1912602871e+00    0.2302114    0.1983448 -23.78 0.0009004079    1.226    0.185
        48 -10.5063    205.9324    225.1553   1.1060425112e+02  -4.0829848992e+00    0.3187466    0.1931025 -41.53  0.001274749    1.822    0.451
        49 -10.1214    190.4071    225.8614   1.1374871145e+02  -1.4699586823e+00    0.2863398    0.1907233 -44.39  0.001212983    1.694    0.410
        50  -8.9716    143.5183    227.5351   1.2341459969e+02   6.6880967162e+00    0.1359433    0.1166829  55.25 0.0003840665    1.032    0.031
        51  -9.2537    120.3199    226.6769   1.2798703978e+02   1.0934484994e+01    0.1395969   0.09210583  70.78 0.0007045149    1.674    0.402
        52 -10.7939    216.9069    223.1789   1.0815951533e+02  -5.6527371663e+00    0.3816316     0.265187 -53.38  0.001472594    1.956    0.489
        53  -9.0626    170.2338    224.9888   1.1761916853e+02   2.3155851985e+00    0.1624287    0.1147117 -47.20 0.0008717442    1.602    0.376
        54  -9.4378    128.6700    225.3169   1.2610653236e+02   9.7471040228e+00    0.1406708   0.09432711  70.18 0.0007046539    1.683    0.406
        55 -10.0049    180.2574    223.1046   1.1529598360e+02   8.2269362357e-01    0.2791507    0.1746301 -51.87  0.001019668    1.894    0.472
        56 -10.1845    148.0139    223.1978   1.2184550246e+02   6.6908256074e+00    0.2795725    0.2009429 -62.14  0.001487854    1.601    0.375
        57  -8.6851    135.3068    224.6826   1.2466379078e+02   8.6952611114e+00    0.1380284   0.09646266  71.42 0.0003380827    1.631    0.387
        58  -9.5880    174.5196    222.5058   1.1634737594e+02   1.9725991386e+00    0.2470894    0.1359535 -47.33 0.0009414731    2.049    0.512
        59  -9.0340    114.4655    223.4821   1.2874294432e+02   1.2570107119e+01    0.1344583    0.1147992  64.56 0.0001416756    1.005    0.005
        60 -10.0120    185.7850    221.2887   1.1388344291e+02   1.3233035574e-01    0.3033179    0.1898581 -50.01  0.001331431    1.866    0.464
        61  -9.3141    140.3866    222.1932   1.2325540917e+02   8.2632447615e+00    0.1794033    0.1280991 -71.14  0.000899672    1.659    0.397
        62 -10.7755    202.1892    218.5266   1.1015995141e+02  -2.3528346403e+00    0.4557022    0.2703962 -48.92    0.0022586    2.009    0.502
        63 -10.8559    193.3634    218.8031   1.1194529336e+02  -8.1604109751e-01    0.3840247    0.3155459 -61.12  0.001526461    1.545    0.353
        64  -9.5658    158.5680    219.6870   1.1912831828e+02   5.4160859597e+00    0.2367328    0.1340731 -44.86 0.0009957767    2.002    0.501
        65 -10.4985    210.6745    218.1698   1.0845022578e+02  -3.7906225463e+00     0.326755     0.238641 -40.88 0.0009972681    1.500    0.333
        66 -10.2022    209.7409    212.2629   1.0755249056e+02  -2.6600891034e+00    0.3037039    0.2398502 -37.17  0.001643983    1.346    0.257
        67  -9.4505    119.5021    218.9838   1.2709199444e+02   1.2607627560e+01    0.1957195    0.1316373 -62.64  0.001033788    1.595    0.373
        68 -10.2793    170.6550    216.5718   1.1613385982e+02   3.7513492721e+00    0.3549284    0.2132849 -48.57  0.001516219    1.857    0.461
        69  -9.9227    179.0500    216.8263   1.1446835555e+02   2.1477507613e+00    0.2249986    0.2057355 -41.83 0.0007950271    1.211    0.174
        70  -9.8243    165.1282    215.8918   1.1715328241e+02   4.9062666909e+00    0.2627222      0.18485 -53.63 0.0009724689    1.607    0.378
        71  -9.6143    185.5371    215.2169   1.1287695993e+02   1.2343705609e+00    0.2324656    0.1358144 -49.34 0.0008075786    1.960    0.490
        72 -10.0741    142.8462    215.9089   1.2177929401e+02   9.0365301773e+00    0.2065225    0.1906427  17.25  0.001075014    1.261    0.207
        73  -9.7126    131.5182    215.4708   1.2407915565e+02   1.1186054669e+01     0.138735        0.122  60.51 0.0004094069    1.004    0.004
        74  -9.7683    154.2975    214.0091   1.1908441259e+02   7.2848727344e+00    0.1904519    0.1803616 -75.20 0.0008996355    1.146    0.127
        75  -9.3333    204.2205    212.7802   1.0872382633e+02  -1.7577508387e+00    0.1821265    0.1465881   8.13  0.000451821    1.289    0.224
        76 -10.3198    176.6897    210.4718   1.1383850857e+02   3.7418429525e+00    0.3275002    0.2499886 -49.88  0.001150344    1.453    0.312
        77 -10.5336    160.9508    210.5262   1.1711121811e+02   6.7058134045e+00    0.3256898    0.2081836 -48.99  0.001366766    1.716    0.417
        78  -9.6544    200.1033    210.4081   1.0909958853e+02  -6.0646640390e-01    0.2487742    0.1966844 -46.30 0.0008027415    1.416    0.294
        79 -10.2874    192.8501    209.8134   1.1043658322e+02   8.3390356364e-01    0.3021989    0.2215228 -57.14 0.0009693194    1.693    0.409
        80  -9.7765    186.0476    210.6582   1.1196187059e+02   1.9506519646e+00    0.2359499    0.1889154  -1.70 0.0007299786    1.467    0.318
        81 -10.4686    205.8566    207.5820   1.0744090484e+02  -1.1717747992e+00    0.3399734    0.2370115 -31.25  0.001087144    1.512    0.338
        82  -9.5484    205.6609    202.7787   1.0657277638e+02  -3.0592992537e-01    0.2322467    0.1629342 -36.31 0.0007315567    1.476    0.323
        83 -10.0686    145.4945    208.9955   1.2011013402e+02   9.9169097020e+00    0.2026499    0.1397354 -52.22  0.001027268    1.577    0.366
        84 -10.5945    172.8102    203.2166   1.1334163035e+02   5.8457204469e+00    0.2590154      0.19727 -37.97 0.0009893904    1.438    0.304
        85  -9.5783    120.0000    207.9989   1.2538699619e+02   1.4787447413e+01    0.2151321   0.07818742 -56.29 0.0007985865    2.916    0.657
        86  -9.4823    182.8773    206.8768   1.1192350775e+02   3.2341233813e+00    0.2109707    0.1827398   8.70 0.0006838079    1.233    0.189
        87  -9.9267    156.1752    206.5910   1.1744162851e+02   8.3782884728e+00    0.2261676     0.168084 -44.65 0.0008723446    1.484    0.326
        88 -10.1815    149.5877    206.7714   1.1887026314e+02   9.5923870175e+00    0.1877521    0.1356036 -67.31 0.0008490292    1.619    0.382
        89  -8.7569    126.2984    207.3279   1.2393714968e+02   1.3798666147e+01    0.1310112    0.1126143  -7.74 0.0003800125    1.636    0.389
        90 -10.6628    139.4462    205.2961   1.2079179915e+02   1.1799773076e+01     0.257207      0.13571 -47.66  0.001128898    2.091    0.522
        91 -10.4570    197.6818    203.7414   1.0834150471e+02   1.0095181484e+00    0.3826627    0.2445886 -28.97  0.001316396    1.782    0.439
        92 -10.1020    186.7663    202.9662   1.1040712109e+02   3.2148104771e+00    0.3027883    0.2472047 -61.23  0.001154757    1.465    0.318
        93  -9.8921    178.8916    204.0040   1.1221987188e+02   4.5277126186e+00    0.2164038    0.2061004  29.59 0.0007892012    1.031    0.030
        94 -10.8783    210.2817    200.7385   1.0527467810e+02  -8.0329457863e-01    0.4185264    0.2881769 -54.54  0.001291256    1.829    0.453
        95  -9.6084    192.7379    202.2368   1.0905435088e+02   2.2122346914e+00     0.237551    0.1700551 -45.93 0.0008283929    1.510    0.338
        96 -10.7279    164.7539    202.0117   1.1481951290e+02   7.6346010095e+00    0.3370171     0.227582 -29.80  0.001596859    1.885    0.469
        97 -10.5801    131.1210    202.2686   1.2209359638e+02   1.3978769791e+01     0.242106    0.1978176 -45.89  0.001271241    1.392    0.281
        98 -10.3863    202.0303    196.9135   1.0616580090e+02   1.4136232354e+00    0.3192976    0.2761628 -33.11   0.00106572    1.189    0.159
        99  -9.4213    191.0377    197.5008   1.0850081667e+02   3.4077433044e+00    0.2145011    0.1898791 -32.90 0.0007963173    1.178    0.151
       100 -10.0432    176.0522    197.2910   1.1156763672e+02   6.3592295115e+00    0.3125123    0.2139403 -45.27  0.001034714    1.554    0.356
       101 -10.2692    170.0890    197.3680   1.1284064239e+02   7.5106725049e+00    0.2426843     0.200532 -30.82 0.0009156592    1.350    0.259
       102 -10.3685    184.1169    196.1056   1.0965912992e+02   5.0121094918e+00    0.3754258    0.2146395 -37.83  0.001402841    1.912    0.477
       103  -9.7051    185.1860    190.3035   1.0831418079e+02   5.9158526740e+00    0.2512714    0.1921699 -30.13 0.0007755051    1.426    0.299
       104 -10.1193    156.5815    197.2618   1.1571169155e+02   1.0171595423e+01    0.1959458    0.1378517 -37.77 0.0008931344    1.635    0.388
       105 -10.4058    140.4043    196.7893   1.1914859702e+02   1.3391653882e+01    0.1972777    0.1357958 -42.30 0.0009504241    1.662    0.398
       106 -10.3075    209.0984    194.1963   1.0423287691e+02   5.6602556014e-01     0.317088    0.2032147 -35.11 0.0008636591    1.599    0.375
       107 -10.0474    210.1911    188.5663   1.0289820053e+02   1.3691047134e+00    0.3070801    0.2030053 -39.02 0.0008479531    1.525    0.344
       108  -9.7586    194.1025    194.0300   1.0720460275e+02   3.4613874540e+00    0.2712168    0.2105419 -50.85  0.001065944    1.423    0.297
       109  -9.5643    112.6887    195.6664   1.2508098570e+02   1.8745019380e+01    0.1340882    0.1142401 -17.08 0.0007044044    1.678    0.404
       110 -10.4364    149.1313    198.2946   1.1750801076e+02   1.1403578260e+01    0.2461243    0.2011347 -40.47  0.001170124    1.374    0.272
       111 -10.5674    161.8546    191.8611   1.1357800392e+02   1.0238639136e+01    0.2905792    0.1954175 -44.01   0.00116362    1.591    0.371
       112 -10.2093    146.3826    192.7611   1.1712451158e+02   1.3091161085e+01     0.199362    0.1368807 -41.74 0.0007143631    1.639    0.390
       113  -9.7440    205.0664    190.6151   1.0432211821e+02   1.9768800776e+00    0.2653554    0.1977783 -30.43  0.000664088    1.383    0.277
       114 -10.0498    198.9390    190.5348   1.0553560868e+02   3.1737925650e+00    0.2807736    0.2128287 -37.03  0.001032811    1.353    0.261
       115  -9.9108    178.8686    189.5201   1.0948690787e+02   7.3238911893e+00    0.3192227    0.2077499 -41.14  0.001208172    1.621    0.383
       116  -9.9468    172.1971    190.4688   1.1108817510e+02   8.4649431704e+00    0.2717904    0.2065553 -44.77  0.001113136    1.385    0.278
       117  -9.8031    193.1037    187.6436   1.0614935002e+02   4.8607177590e+00    0.2704232    0.2088595 -29.50 0.0009026513    1.375    0.273
       118 -10.1921    156.6805    187.6321   1.1391068958e+02   1.2142783046e+01    0.2599472    0.1830185 -36.21 0.0009921766    1.639    0.390
       119 -10.5667    166.2134    185.7022   1.1145552947e+02   1.0632591385e+01     0.294559    0.2033642 -35.79 0.0009638162    1.634    0.388
       120  -9.5315    128.6620    186.6579   1.1999686869e+02   1.7816997598e+01    0.1449857    0.1184579  -8.75 0.0007049813    1.768    0.434
       121 -10.6145    203.3554    182.9758   1.0312403760e+02   3.7222057357e+00    0.3556381    0.2567125 -44.86  0.001024058    1.433    0.302
       122  -9.7770    173.3697    184.7879   1.0972952140e+02   9.3748081050e+00    0.2048621    0.1379551 -35.67  0.000738171    1.649    0.393
       123 -10.6140    210.9513    181.7836   1.0137095678e+02   2.4597786456e+00    0.4327768    0.2616262 -33.38  0.001364354    1.710    0.415
       124  -9.3287    189.5935    184.2676   1.0619693378e+02   6.2090543610e+00    0.1997301    0.1375328 -31.61 0.0008420452    1.591    0.372
       125  -9.4028    139.9994    184.4999   1.1704283586e+02   1.6111536801e+01    0.2285404    0.1406514  42.64  0.000687927    1.571    0.364
       126 -10.1244    183.6264    182.1974   1.0702753241e+02   7.8183407348e+00    0.3303639    0.2184508 -32.42  0.001280345    1.697    0.411
       127  -9.3969    197.3311    182.0611   1.0415615628e+02   5.0882941564e+00    0.2303045    0.1744971 -24.19 0.0008727779    1.449    0.310
       128 -10.2662    176.7381    180.4236   1.0813389713e+02   9.5768315767e+00    0.3052612    0.1988417 -35.47  0.001384762    1.696    0.410
       129 -10.3509    190.7127    178.5477   1.0479778977e+02   7.1022202612e+00    0.3260604    0.2744454 -49.01  0.001085141    1.244    0.196
       130  -9.3619    145.4104    179.7602   1.1492644748e+02   1.6079552043e+01    0.2058464    0.1411878 -40.61 0.0008739971    1.626    0.385
       131 -10.4229    169.2637    177.3814   1.0913637521e+02   1.1737353561e+01    0.2683678    0.1822449 -34.39 0.0007812188    1.667    0.400
       132 -10.1868    150.4289    177.2307   1.1329860317e+02   1.5623023077e+01    0.2870132    0.1439537 -44.72  0.001133183    2.115    0.527
       133 -10.8240    218.7735    167.3856   9.6831873233e+01   3.5918253322e+00    0.4843528    0.3216853 -23.85  0.001352302    1.689    0.408
       134 -10.1982    221.1384    161.0312   9.5013516629e+01   4.3058228488e+00    0.3386301    0.2274058 -31.11 0.0009026176    1.496    0.332
       135 -10.1481    205.0584    176.2331   1.0138943840e+02   4.6573427294e+00     0.345697    0.2114242 -36.54  0.001004964    1.659    0.397
       136  -9.9834    197.6423    176.0315   1.0284690060e+02   6.1879239573e+00    0.3062445    0.2178121 -32.42 0.0009546703    1.471    0.320
       137 -10.0469    210.4252    174.9028   1.0004565937e+02   3.8409890978e+00    0.3293024    0.2063608 -39.10 0.0009351289    1.579    0.367
       138  -9.7184    182.2463    175.4496   1.0593770265e+02   9.4557646455e+00    0.2816302    0.2075165 -42.33  0.001055302    1.388    0.280
       139  -9.9963    161.5122    174.9900   1.1036199072e+02   1.3840457688e+01    0.2311375     0.149125 -46.66  0.001033371    1.597    0.374
       140  -9.7472    192.7489    172.3837   1.0308823482e+02   7.9035507351e+00    0.3036946    0.1980481 -31.35  0.001255381    1.693    0.409
       141  -9.2608    187.4983    172.0087   1.0410604615e+02   9.0641707351e+00    0.2255936    0.1465426 -41.78 0.0008939475    1.563    0.360
       142  -9.2452    200.6434    171.1808   1.0121413292e+02   6.5200977319e+00    0.2097313    0.1338769 -30.78 0.0007456578    1.710    0.415
       143  -9.2654    139.6678    175.6802   1.1545260309e+02   1.8124602439e+01    0.1490122    0.1217613  -4.09 0.0007048849    1.695    0.410
       144  -9.7213    212.0732    168.6308   9.8393513803e+01   4.6938592307e+00    0.2811095    0.2038864 -30.97 0.0008715154    1.392    0.282
       145 -10.1074    205.3190    168.0930   9.9613635509e+01   6.1639547174e+00    0.3321715    0.2472303 -34.35  0.001563662    1.344    0.256
       146 -10.1695    178.7947    168.0814   1.0512826483e+02   1.1687807548e+01    0.3456373    0.1973376 -38.42  0.001262033    1.865    0.464
       147  -9.5633    170.0000    167.9283   1.0701521309e+02   1.3574101616e+01    0.2475164   0.08675218 -45.99 0.0007971614    2.906    0.656
       148 -10.1313    215.3551    174.6442   9.9028306989e+01   2.9184529070e+00    0.5918164    0.2009694 -36.32  0.001975325    3.214    0.689
       149 -10.1744    191.8728    164.4238   1.0156587763e+02   9.6789904051e+00    0.4227062    0.2161587 -35.59   0.00165408    2.146    0.534
       150  -9.7831    199.4913    163.9616   9.9896603374e+01   8.1740005682e+00    0.3220925    0.1434415 -36.84  0.001050386    2.398    0.583
       151  -9.5895    184.6853    164.6928   1.0313774012e+02   1.1142912550e+01    0.2779681    0.1819579 -32.89  0.001171663    1.686    0.407
       152 -10.7910    213.1383    162.1378   9.6785346574e+01   5.7122982704e+00    0.5007963    0.2887711 -33.30  0.002030622    1.798    0.444
       153 -10.1961    216.1267    155.5959   9.4775157859e+01   6.3492656694e+00    0.3531956    0.2053724 -33.06 0.0009932106    1.773    0.436
       154  -8.8821    172.3257    163.3085   1.0551447119e+02   1.4061736981e+01    0.1544164      0.12258   2.94 0.0005049004    1.654    0.395
       155 -10.3035    205.4973    160.6692   9.7967920122e+01   7.5696904285e+00    0.3815469    0.2654148 -25.70  0.001541107    1.609    0.379
       156  -8.9628    146.3375    162.3305   1.1121143207e+02   1.9761761852e+01     0.155774    0.1246795  -3.61 0.0005972048    1.736    0.424
       157  -9.7570    176.7210    158.6403   1.0353087166e+02   1.4108000578e+01    0.2939563    0.1855379 -34.48  0.001248544    1.757    0.431
       158  -9.5401    229.2776    147.3437   9.0509685121e+01   5.2189352955e+00    0.2454018    0.1294522 -30.55 0.0005929153    2.060    0.515
       159 -10.5864    226.5994    156.4878   9.3007471370e+01   4.0608207080e+00    0.4454896    0.2400772 -33.44  0.001107148    1.871    0.465
       160 -10.0657    228.4528    151.0556   9.1478253977e+01   4.6966486890e+00    0.3399271    0.1933617 -35.08 0.0009115717    1.705    0.414
       161 -10.0479    197.0835    156.1077   9.8658904309e+01   1.0248956703e+01    0.3579991    0.2094394 -31.43  0.001215838    1.934    0.483
       162  -9.2810    221.6790    155.8043   9.3770690283e+01   5.1764040319e+00    0.2624092    0.1938493 -43.34 0.0007419405    1.310    0.237
       163  -9.9009    221.3866    151.7476   9.2930216068e+01   6.0003781902e+00     0.328507    0.2563158 -21.50   0.00105992    1.362    0.266
       164  -9.1518    211.5238    154.9231   9.5513392342e+01   7.4319521710e+00    0.2251618    0.1416076 -39.33 0.0006905803    1.542    0.351
       165  -9.5275    211.6091    151.1861   9.4663420700e+01   8.1386887814e+00    0.2781852    0.1400398 -30.16  0.001040274    2.389    0.581
       166  -9.5005    187.5847    154.7710   1.0033565200e+02   1.2566080601e+01    0.2932589    0.1464849 -38.13  0.001117431    2.101    0.524
       167  -9.5317    205.9601    153.5299   9.6294763157e+01   8.8730347206e+00    0.2877803    0.2033048 -22.30 0.0009294351    1.659    0.397
       168  -9.3147    157.3218    152.3148   1.0648318543e+02   1.9673920872e+01    0.1563026    0.1261311  -0.49 0.0004651475    1.659    0.397
       169  -9.2667    202.3950    150.7018   9.6369469189e+01   1.0193229839e+01    0.2112212    0.1406789 -31.07 0.0006353993    1.606    0.377
       170  -9.5546    196.8321    149.2209   9.7159124672e+01   1.1692456810e+01    0.2888036    0.1970313 -15.90  0.001204113    2.046    0.511
       171 -10.1555    215.0878    148.0876   9.3299796341e+01   8.0065866793e+00      0.31078    0.2589298 -38.30  0.001103884    1.149    0.130
       172  -9.1077    181.6461    149.1855   1.0033767034e+02   1.5027292997e+01    0.2225104    0.1430257 -34.42 0.0009418367    1.685    0.406
       173 -10.6009    223.5278    145.6255   9.1170021037e+01   6.7161357504e+00     0.432069    0.3101787  -9.38  0.002004549    1.845    0.458
       174  -9.0974    191.4380    147.4748   9.7872410621e+01   1.3227237936e+01    0.1514609    0.1479199 -27.11 0.0001319914    1.025    0.025
       175 -10.0687    208.1536    143.9475   9.3695822989e+01   1.0291019340e+01    0.3590337    0.2452495 -25.05  0.001336469    1.691    0.409
       176  -9.2345    176.4672    145.0408   1.0050815089e+02   1.7050567386e+01    0.2219314    0.1379087 -20.53 0.0008094391    2.533    0.605
       177  -9.2396    218.5233    143.9254   9.1713309184e+01   8.0835903793e+00    0.2274822    0.1400762 -37.64  0.000782271    1.562    0.360
       178  -9.3073    200.5667    144.2079   9.5255549158e+01   1.1888289970e+01    0.2176739    0.1435435 -29.83 0.0009451238    1.674    0.403
       179  -9.1287    194.4060    142.7762   9.6174969015e+01   1.3533939175e+01    0.2162127    0.1446214 -31.10 0.0009390597    1.633    0.388
       180  -8.8984    171.6530    143.6629   1.0125081700e+02   1.8417373167e+01    0.1625337    0.1263443   2.69 0.0007047926    1.779    0.438
       181  -9.6970    214.0380    141.5016   9.2006048426e+01   9.5034329808e+00    0.2812492    0.2049751 -24.08 0.0008643013    1.530    0.346
       182  -9.3664    147.6818    142.6729   1.0655901370e+02   2.3911919323e+01    0.1579316    0.1272629  -4.01 0.0007046199    1.679    0.404
       183  -9.6244    138.6808    142.6599   1.0873351254e+02   2.5833602903e+01    0.1581721     0.126461  -7.91  0.000704966    1.713    0.416
       184  -9.4612    181.4982    140.9542   9.8461916668e+01   1.6790863291e+01    0.2449887    0.1522124 -42.86  0.001034122    1.594    0.373
       185 -10.0275    224.3040    139.3208   8.9609384773e+01   7.7452681971e+00    0.3363868    0.2173867 -25.77 0.0008564793    1.757    0.431
       186 -11.5737    248.5335    233.3428   1.0418667095e+02  -1.2121661154e+01    0.4735295    0.3898739  62.52  0.002969717    2.062    0.515
       187  -9.1533    166.4887    139.5072   1.0143482908e+02   2.0469307031e+01    0.1550118    0.1539813 -19.57 1.871629e-05    1.049    0.047
       188 -10.0172    218.7622    137.1087   9.0117656250e+01   9.3391282792e+00    0.3510602    0.2263831 -23.99  0.001150929    1.866    0.464
       189  -9.6954    208.6140    137.2863   9.2071905345e+01   1.1501891750e+01    0.3197794    0.1841483 -33.76  0.001176445    1.818    0.450
       190  -9.2433    172.5912    137.1829   9.9514842201e+01   1.9597418986e+01     0.229976    0.1491482 -33.47 0.0009568361    1.714    0.416
       191  -9.4949    198.9445    136.0205   9.3675584074e+01   1.3893626672e+01    0.2465535    0.1918337   0.09  0.001127872    1.722    0.419
       192  -9.0958    192.6420    136.1333   9.4980638794e+01   1.5284328336e+01     0.224414    0.1426102 -31.92 0.0009399875    1.731    0.422
       193  -9.4607    216.6770    133.5658   8.9687540383e+01   1.0468697067e+01     0.463085    0.2892316   7.11  0.001575077    3.646    0.726
       194  -9.3414    163.2494    134.7183   1.0103034794e+02   2.2238021500e+01    0.2501198    0.1292672 -33.86  0.000885077    2.370    0.578
       195  -9.0956    187.5415    134.5231   9.5655893005e+01   1.6767924536e+01    0.1536365    0.1507697 -40.61 0.0002432263    1.028    0.027
       196 -10.0301    225.8950    132.4217   8.7756711596e+01   8.7106276714e+00    0.2905318      0.20478 -29.01  0.001042693    1.478    0.323
       197  -9.6654    179.9285    131.0323   9.6432206293e+01   1.9230290631e+01    0.2515855    0.1992455   1.63  0.001134118    1.702    0.412
       198  -9.8208    205.9676    130.0238   9.0880875800e+01   1.3518642103e+01    0.2367172    0.1883915  -1.55 0.0008494941    1.634    0.388
       199  -9.6251    211.9241    128.0618   8.9287806934e+01   1.2575626075e+01    0.2807463    0.2051108 -34.38  0.001317026    1.368    0.269
       200  -9.4146    192.5211    128.0547   9.3074156903e+01   1.6958444418e+01    0.2423079    0.1504445 -40.09  0.001027735    1.588    0.370
       201  -8.9056    186.3164    128.3392   9.4423540740e+01   1.8323694431e+01    0.1590417    0.1258065   3.07 0.0007048406    1.704    0.413
       202 -11.9937    247.4658    226.1036   1.0308488384e+02  -1.0980474570e+01    0.4299962    0.4182779  17.74  0.001899286    1.422    0.297
       203  -9.2331    199.7076    125.6494   9.1056049780e+01   1.5800089179e+01    0.1549822    0.1230181  -0.36 0.0006248432    1.674    0.403
       204  -9.6497    179.8742    122.8778   9.4444729589e+01   2.0941600405e+01    0.2440078    0.2209988  -5.39 0.0008995919    1.265    0.209
       205  -9.4906    212.7186    121.6314   8.7621322291e+01   1.3641950161e+01    0.2802123     0.180589 -31.04 0.0009663606    1.666    0.400
       206 -12.9364    247.7281    216.0707   1.0120322313e+02  -9.6010300920e+00     1.089451    0.3605361 -38.87  0.004505531    3.018    0.669
       207 -12.6036    244.6362    147.6147   8.7899057575e+01   2.1480150586e+00     1.985004    0.9892951 -15.36  0.005025611    7.063    0.858
       208 -10.9237    233.0381    246.4981   1.0920399101e+02  -1.1549913801e+01    0.3294242    0.2566588 -22.63  0.001314321    1.336    0.252
       209 -11.5823    242.7611    200.3313   9.9101270439e+01  -6.4318008917e+00    0.5354154    0.3146933 -40.26  0.001894523    1.723    0.419
       210  -9.3612    186.3441    113.8025   9.0823627568e+01   2.1275097700e+01    0.2250778    0.1446141 -31.97 0.0007082915    1.716    0.417
       211 -12.9558    245.0092    191.2896   9.6924835525e+01  -5.3714920507e+00      1.35582    0.6841642 -54.21  0.005308858    3.462    0.711
       212 -12.0801    241.3612    179.2527   9.5146925537e+01  -2.7556786694e+00    0.7769789    0.3107556 -40.98  0.002953494    2.386    0.581
       213  -8.8407    201.2839    108.3791   8.6536221199e+01   1.8821481236e+01    0.1540975    0.1225784   0.57 0.0005790771    1.723    0.420
       214 -11.2784    222.6463    103.5875   8.1598025827e+01   1.4791186813e+01     0.344231    0.1976098 -30.41  0.001102199    1.954    0.488
       215  -9.2385    163.4107    247.1725   1.2235287973e+02  -2.3361614687e-01    0.1628591    0.1223547 -69.78 0.0009492372    1.771    0.435
       216  -9.2831    205.6137    104.2214   8.4709505130e+01   1.8597794767e+01    0.2135887    0.1430207 -29.40 0.0008474006    1.672    0.402
       217  -9.0864    221.2851     97.3226   8.0332778430e+01   1.6235624481e+01    0.1405969    0.1178927   4.78 0.0003991201    1.597    0.374
       218  -9.1056    209.3462     99.3124   8.2835761315e+01   1.8638959547e+01     0.150307    0.1202945  15.77 0.0007046422    1.712    0.416
       219  -9.1887    195.3549     96.2988   8.4619868256e+01   2.2522161760e+01    0.1538605    0.1215138  19.66 0.0007036154    1.700    0.412
       220  -9.1403    220.3028     93.3215   7.9536137993e+01   1.7177119895e+01    0.1415585    0.1180651   9.98 0.0004892829    1.632    0.387
       221 -11.0478    225.1428    242.4809   1.0996379162e+02  -9.8027146619e+00    0.4046127    0.2510847 -38.97  0.002349134    1.830    0.454
       222  -9.1565    210.3141     90.3074   8.0454884674e+01   2.0048150091e+01    0.1443426    0.1193872  16.29 0.0005321298    1.625    0.385
       223 -10.2282    226.0724     86.9613   7.7118003683e+01   1.6968010671e+01    0.2169623    0.1808084  12.34 0.0007704762    1.671    0.401
       224 -11.7890    230.6863     81.7860   7.5219863572e+01   1.6800620465e+01    0.3206632    0.2396321  -1.50  0.001516827    2.162    0.538
       225 -10.1286    201.8401    242.2326   1.1425676967e+02  -6.0043542741e+00    0.2630741    0.1769096 -52.46  0.001430954    2.001    0.500
       226  -9.3968    169.1352    242.6490   1.2058851996e+02  -4.8770292867e-01    0.2006798    0.1795646 -77.82 0.0009903944    1.372    0.271
       227 -10.0232    219.7466    239.8922   1.1052177965e+02  -8.5902085870e+00    0.2384517    0.1599524 -43.42 0.0009229857    1.801    0.445
       228 -10.2605    239.0731     75.7015   7.2656179763e+01   1.5927000729e+01    0.1899171    0.1721795 -89.41 0.0006102779    1.107    0.096
       229  -8.9510    223.3561     75.2953   7.4762932761e+01   1.9570822240e+01    0.1390605    0.1127644  26.82 0.0004449807    1.694    0.410
       230 -11.0646    216.1702    233.4779   1.1009930130e+02  -7.0846292265e+00     0.396385    0.3646452 -59.72   0.00183878    1.493    0.330
       231 -10.8561    239.2923     71.3120   7.1636851373e+01   1.6588730566e+01    0.2191522    0.2162276  54.19 0.0007084015    1.257    0.204
       232  -9.7486    243.9991     70.6352   7.0881080975e+01   1.5656459884e+01    0.2144283    0.1688073 -48.20 0.0005424534    1.164    0.141
       233 -10.6624    243.3293     66.0272   6.9944266579e+01   1.6531487446e+01    0.3410548    0.2400976 -12.49  0.001647242    2.298    0.565
       234 -11.3639    239.5181     65.6187   7.0329326465e+01   1.7441405789e+01    0.3481425    0.2338099  -1.11  0.001442453    3.277    0.695
       235  -9.9412    214.1167    240.7424   1.1170889700e+02  -7.8044789012e+00    0.1923534    0.1693453 -40.81 0.0009612321    1.412    0.292
       236 -11.8018    243.1624     51.8797   6.6858137741e+01   1.8716010249e+01    0.4702539    0.1586925  54.72  0.001809229    3.215    0.689
       237 -10.0738    176.0442    247.0061   1.1990818449e+02  -2.3722636260e+00    0.2670397      0.21438 -66.50   0.00164923    1.655    0.396
       238 -12.5662    245.7331     46.6946   6.5454802518e+01   1.8899714422e+01    0.6945748    0.2616889  54.06   0.00284101    3.019    0.669
       239 -10.0872    239.3111     33.3486   6.3269849084e+01   2.2171701061e+01    0.1194159    0.1006634  35.75 0.0007045504    1.714    0.417
       240  -8.9876    156.4153    248.1916   1.2383822627e+02   8.0137728962e-01    0.1589453    0.1219054 -72.99 0.0009448976    1.681    0.405
       241 -11.9059    217.3285    210.4666   1.0575775804e+02  -3.7060610975e+00     1.588071    0.4173769 -44.32  0.005193715    4.336    0.769
