#   1 NUMBER                 Running object number                                     
#   2 MAG_AUTO               Kron-like elliptical aperture magnitude                    [mag]
#   3 X_IMAGE                Object position along x                                    [pixel]
#   4 Y_IMAGE                Object position along y                                    [pixel]
#   5 X_WORLD                Barycenter position along world x axis                     [deg]
#   6 Y_WORLD                Barycenter position along world y axis                     [deg]
#   7 A_WORLD                Profile RMS along major axis (world units)                 [deg]
#   8 B_WORLD                Profile RMS along minor axis (world units)                 [deg]
#   9 THETA_WORLD            Position angle (CCW/world-x)                               [deg]
#  10 FWHM_WORLD             FWHM assuming a gaussian core                              [deg]
#  11 ELONGATION             A_IMAGE/B_IMAGE                                           
#  12 ELLIPTICITY            1 - B_IMAGE/A_IMAGE                                       
         1 -13.5659    219.7213      7.5682   3.6176443449e+01   2.9479741135e+01     1.362564     1.131213  45.52  0.005282423    1.474    0.322
         2 -14.3305    193.8526     38.4423   4.6986035268e+01   3.2107413178e+01     2.873744     1.748125  23.57   0.01196026    2.710    0.631
         3 -10.0388     80.7109     15.2272   6.2880959193e+01   6.1681477924e+01    0.2230256    0.1681947  53.31  0.001287528    1.476    0.322
         4 -10.1943     56.1746      9.6185   6.9064406223e+01   6.6750499250e+01    0.1830192   0.09718441  31.93 0.0007935648    1.736    0.424
         5 -19.5362     15.4621    144.6928   1.2039112174e+02   4.2707769124e+01      19.2139     4.558976 -76.08   0.06538759    3.956    0.747
         6 -11.7597    248.6260    242.8038   8.3897604849e+01  -1.0658728432e+01    0.3608353    0.2543827 -17.59  0.002512097    1.345    0.256
         7 -10.7071     54.7131    222.1704   1.1878827972e+02   2.1461147815e+01    0.2227309    0.1277631  50.25  0.000599209    1.469    0.319
         8  99.0000     56.7592    218.5624   1.1808259025e+02   2.1930322360e+01    0.4534793    0.1937635  60.84  0.002126754    2.463    0.594
         9  -8.5092     87.3481    221.2939   1.1219212938e+02   1.7304734412e+01    0.1133482   0.09844378  -4.32 0.0005507136    1.672    0.402
        10 -10.5218     72.0593    244.8501   1.1737952496e+02   1.4977244365e+01    0.2298632    0.1435708  69.10  0.001011195    1.499    0.333
        11  -8.9303     48.5934    217.5447   1.1960418419e+02   2.3123849716e+01    0.1860169    0.1118826  29.80 0.0006500333    1.971    0.493
        12 -11.2469     62.5059    250.4430   1.1954048407e+02   1.5209465694e+01    0.2169746    0.1182799  55.26 0.0004983671    1.462    0.316
        13  -9.2114     56.8100    209.1127   1.1722938264e+02   2.3860656547e+01    0.1974652     0.142895 -74.49 0.0006207916    1.341    0.254
        14 -13.1349     32.1568    206.4957   1.2198391131e+02   2.7240308623e+01    0.3188073    0.1680984  55.47  0.001136791    1.646    0.393
        15  -8.0358     70.1439    199.5894   1.1344896933e+02   2.4164440577e+01    0.2252265    0.1604718  15.17 0.0007065441    2.068    0.516
        16  -8.1588    224.2519    206.6661   8.1935608559e+01  -2.4560705504e+00    0.1095443    0.1032915 -48.72 0.0002626681    1.560    0.359
        17 -10.8002    192.8854    194.7538   8.5819842109e+01   4.7082407920e+00     1.163103    0.6168814 -62.99  0.003299579    6.804    0.853
        18 -10.5922    193.7795    205.3969   8.7610021557e+01   2.7682401040e+00    0.2852405    0.1702119  28.32  0.001138416    1.593    0.372
        19  -8.2476     93.6296    205.6731   1.0905997869e+02   1.9541172943e+01    0.2333275    0.1727529 -15.94   0.00112635    2.287    0.563
        20  -9.1479     96.4032    202.1883   1.0801044690e+02   1.9850599439e+01    0.2332586    0.1528844 -53.30 0.0009610981    1.673    0.402
        21 -12.4949     55.5010    197.5935   1.1640211998e+02   2.6474965670e+01    0.6058873    0.2623007 -52.83  0.002774174    2.692    0.629
        22 -10.8752    203.4768    199.1642   8.4524965148e+01   2.1279844611e+00    0.3444797    0.1713151  34.03  0.001574586    1.895    0.472
        23 -11.0553     65.7186    204.6215   1.1493417007e+02   2.3673291565e+01    0.3356171    0.1888082 -67.66  0.001462433    1.744    0.427
        24  -9.1374     81.8733    194.6686   1.1028146627e+02   2.3607800562e+01    0.2034696    0.1783648 -67.64  0.001266832    1.206    0.171
        25 -12.1306     49.1030    249.3866   1.2182281134e+02   1.7028710168e+01    0.1849761    0.1383829  80.60 0.0005312049    1.183    0.154
        26  -8.2179    195.7119    190.2840   8.4386214428e+01   4.9745816409e+00    0.1236272    0.1122078  74.48  0.000183103    1.529    0.346
        27  -8.6680     96.9806    190.5248   1.0630078621e+02   2.2260963359e+01    0.2011453    0.1256072  40.14  0.000696888    1.524    0.344
        28 -11.2847    149.2176    187.7843   9.3902009419e+01   1.3927101304e+01    0.3657128    0.3287686 -89.73  0.001225762    1.308    0.235
        29 -12.2640     66.4783    184.0674   1.1248026547e+02   2.8085754183e+01    0.6876131    0.6104934 -60.77  0.003023979    1.252    0.201
        30 -10.2507     61.2862    187.7042   1.1408580093e+02   2.7936464250e+01    0.2010271    0.1508981  68.04 0.0004688622    1.220    0.181
        31  -9.7033     94.2488    186.9946   1.0643082047e+02   2.3459857372e+01     0.218258     0.187569  50.09 0.0004960015    1.113    0.101
        32  -9.8997     58.7833    229.2896   1.1858942366e+02   1.9566172000e+01    0.1617984    0.1231918  75.53 0.0003275059    1.118    0.105
        33 -10.9888     98.8173    181.5124   1.0455073721e+02   2.3969843659e+01    0.4156874    0.3181498 -26.44  0.002088208    1.794    0.443
        34 -11.1948    144.0546    178.0488   9.3290167498e+01   1.6871889790e+01    0.4262379    0.2763445 -49.74  0.001398358    1.624    0.384
        35 -10.2397    189.1962    177.1694   8.3120465029e+01   8.5090639589e+00    0.4686559    0.3587174 -56.52  0.002391339    1.657    0.397
        36  -9.9306    149.6509    177.5463   9.1904814201e+01   1.5931738984e+01    0.2561143     0.243629  77.61  0.000848078    1.153    0.132
        37  -9.4763     37.6866    176.5180   1.1824986538e+02   3.3225511258e+01    0.3029051    0.1454075  48.27  0.001532843    2.000    0.500
        38  -9.6759     56.6552    175.2198   1.1371136803e+02   3.1364100936e+01    0.4367626     0.171958  49.46  0.001839453    2.585    0.613
        39  -9.7386     84.1540    173.4550   1.0686693573e+02   2.8058515709e+01    0.2227681    0.1740169 -56.93 0.0003141036    1.299    0.230
        40  -9.8041     46.0429    173.0147   1.1595552005e+02   3.3122817917e+01    0.3839225    0.2205089  26.89  0.001989629    2.110    0.526
        41  -8.7864     44.5739    230.4755   1.2134669115e+02   2.1048666235e+01    0.1180522   0.08452336  67.96 0.0002698345    1.102    0.092
        42  -8.5870    194.4745    172.4945   8.1053705985e+01   8.3698489660e+00    0.1446374    0.1321152   3.51 3.438205e-05    1.018    0.018
        43 -10.5602    138.9573    170.7865   9.3102485002e+01   1.9367012329e+01    0.3662759    0.2580695  35.83  0.001082196    1.398    0.285
        44 -10.1240    240.1635    169.1512   7.1591271305e+01   6.8662844890e-01    0.1739997    0.1558189 -36.77 0.0004507323    1.331    0.248
        45  -9.4218    230.0000    166.9744   7.2953317830e+01   2.7930591381e+00    0.2244851   0.07229905 -36.85 0.0007957687    2.896    0.655
        46  -9.2555    187.6376    162.8904   8.0440943973e+01   1.1492268138e+01    0.3325139    0.2221777 -58.33  0.001274286    2.019    0.505
        47 -11.5293     94.8402    151.3293   1.0047367592e+02   3.1644796711e+01    0.6770881    0.5678288 -29.49  0.003600036    1.395    0.283
        48 -10.8303    133.9045    145.5705   8.9121077183e+01   2.5943257140e+01     1.242937     0.333175 -54.73  0.002943471    5.641    0.823
        49  -9.5203    187.3184    151.9267   7.8074050866e+01   1.3677085916e+01    0.2191304     0.191584 -25.70  0.001153518    1.105    0.095
        50  -9.2790    112.9549    150.9605   9.5649166832e+01   2.8642313199e+01    0.2426334     0.182548  80.23 0.0008637223    1.683    0.406
        51  -9.5067    174.8607    149.3427   8.0203508196e+01   1.6756787785e+01    0.2628157    0.2110859 -52.07  0.000637547    1.355    0.262
        52  -9.4339    109.1583    147.4252   9.5928261132e+01   3.0151886908e+01    0.2614577    0.2098503 -67.76  0.000389421    1.286    0.222
        53  -9.7148     86.5314    143.1167   1.0116886496e+02   3.4946443775e+01    0.3503589    0.2117511  58.16 0.0009646809    2.005    0.501
        54 -10.6176    106.5997    137.7584   9.4590767443e+01   3.2906968905e+01    0.4989373    0.3298896 -29.02  0.001369846    1.967    0.492
        55 -11.5254     94.6602    137.5338   9.7827100648e+01   3.5005635054e+01    0.2893868    0.2635344 -41.34 0.0003559873    1.128    0.114
        56 -10.5367    105.9154    130.6940   9.3220014076e+01   3.4717371205e+01    0.3884479    0.3302951 -60.43  0.001154927    1.158    0.136
        57 -10.3740    135.8224    128.3486   8.4603095964e+01   2.9464089220e+01    0.7125916    0.1344088 -48.90  0.001570815    5.883    0.830
        58 -10.6083    114.7009    128.9168   9.0380594137e+01   3.3522118002e+01    0.4098688    0.3283452  17.80  0.000825473    1.456    0.313
        59  -9.2533    160.8371    128.0431   7.8324544293e+01   2.4189179508e+01    0.2503297    0.2203521 -68.95  0.001236331    1.302    0.232
        60 -10.4571    101.7550    124.8314   9.3049104976e+01   3.6859127094e+01    0.3036211    0.2576993 -24.82 0.0006787513    1.297    0.229
        61 -10.5968    120.1940    122.7233   8.7378114413e+01   3.3910446311e+01    0.5229865    0.3348051 -10.28  0.001869282    2.903    0.656
        62  -9.3525    109.7890    118.1323   8.9143555628e+01   3.6983018504e+01    0.2374519    0.2172361  38.11 0.0003447994    1.137    0.121
        63 -10.1050    231.3208    113.7221   6.0650402140e+01   1.1605618095e+01    0.2890555    0.2454653 -34.42 0.0007274832    1.060    0.057
        64  -9.1936    167.8573    112.5889   7.2695671752e+01   2.5837695644e+01    0.3226795    0.2055936 -57.24  0.001299367    1.927    0.481
        65  -9.9082    134.5979    105.5721   7.8963885004e+01   3.4782874665e+01    0.6270081    0.1505546 -43.72  0.001637543    4.070    0.754
        66 -11.4096    118.2682    110.3677   8.4736948201e+01   3.7130691392e+01    0.6141037    0.4718723  74.62  0.002279283    1.755    0.430
        67  -9.5687    205.4073    110.1574   6.4300332886e+01   1.7776890767e+01    0.3129189    0.2249853  44.34 0.0008872838    1.472    0.321
        68  -9.8515     65.2611    100.0789   9.8359778953e+01   4.8493554438e+01    0.3334689    0.2194811  23.74  0.001638376    1.761    0.432
        69  -9.8030     50.4125    224.6522   1.1981623933e+02   2.1491458502e+01    0.1834138    0.1071685  86.58  0.000604106    1.661    0.398
        70  -8.9806     66.9359     70.9505   8.9702139284e+01   5.4843560919e+01    0.1997887    0.1724933  75.33 0.0006724619    1.627    0.385
        71  -8.7179     84.0126    245.5470   1.1522559661e+02   1.3257287818e+01    0.1524056   0.07297159  57.66            0    1.997    0.499
        72 -12.6910    178.4286     52.3809   5.3374744692e+01   3.4023810931e+01    0.8207293    0.7396681   4.37 0.0007716293    1.247    0.198
        73  -9.5045    168.0333    232.3850   9.7227182666e+01   2.7036248646e+00    0.2101644    0.1857288  28.45 0.0007764637    1.075    0.069
        74 -10.1735    189.7518     15.0018   4.1073925509e+01   3.5874328992e+01    0.2380486    0.1811047  71.29 0.0007558052    1.208    0.173
        75 -10.0984     53.1950    229.9789   1.1970228008e+02   2.0120946572e+01    0.2879788     0.145992 -86.88  0.001578535    2.083    0.520
        76  -9.7072     72.0000    248.9671   1.1772434218e+02   1.4256237789e+01    0.1967089    0.1214921 -77.44  0.001257145    1.739    0.425
