#   1 NUMBER                 Running object number                                     
#   2 MAG_AUTO               Kron-like elliptical aperture magnitude                    [mag]
#   3 X_IMAGE                Object position along x                                    [pixel]
#   4 Y_IMAGE                Object position along y                                    [pixel]
#   5 X_WORLD                Barycenter position along world x axis                     [deg]
#   6 Y_WORLD                Barycenter position along world y axis                     [deg]
#   7 A_WORLD                Profile RMS along major axis (world units)                 [deg]
#   8 B_WORLD                Profile RMS along minor axis (world units)                 [deg]
#   9 THETA_WORLD            Position angle (CCW/world-x)                               [deg]
#  10 FWHM_WORLD             FWHM assuming a gaussian core                              [deg]
#  11 ELONGATION             A_IMAGE/B_IMAGE                                           
#  12 ELLIPTICITY            1 - B_IMAGE/A_IMAGE                                       
         1 -14.0572    174.6848     43.4491   6.7809541231e+01   3.5956527105e+01     1.364676     1.207446  18.59  0.000862407    1.211    0.175
         2 -14.0092    186.0913     33.3899   6.2810570746e+01   3.4325710576e+01     1.155991     1.016934 -45.55  0.003032142    1.144    0.126
         3 -15.2017    192.3887     24.0663   5.9086401349e+01   3.3812093640e+01     3.131453     1.996552  20.41  0.001297516    2.156    0.536
         4 -10.1072    162.0510     30.5294   6.5845524168e+01   4.0932322990e+01    0.2210798     0.143109  66.00  0.000590854    1.550    0.355
         5 -13.5129     66.0430    211.3108   1.2794614903e+02   2.4175293916e+01     3.269409    0.5545019  46.45   0.01242537    4.062    0.754
         6 -11.9178    107.1437    209.4249   1.2008310195e+02   1.8732143707e+01    0.4483682    0.3531108  85.26  0.003007762    1.289    0.224
         7 -19.3882     18.3334    133.5809   1.3063735833e+02   4.5230686461e+01     17.63155     1.607591 -72.81   0.03825476   11.167    0.910
         8 -12.1434    105.6490    201.5406   1.1944175204e+02   2.0366226741e+01    0.4532681    0.2491232  49.10  0.002287375    1.554    0.356
         9 -11.0240    105.2801    197.6671   1.1904166650e+02   2.1131168018e+01    0.2015467    0.1298227  59.38 0.0004843073    1.431    0.301
        10 -11.4518     85.5395    236.7928   1.2667461386e+02   1.7247702692e+01    0.2590632    0.1656399 -81.59 0.0005227679    1.698    0.411
        11 -12.3081    116.1463    211.6187   1.1863576976e+02   1.6962173431e+01    0.3428042    0.2398838  83.42  0.001357747    1.661    0.398
        12 -12.5739    194.0061    194.2193   1.0126383057e+02   6.4011666419e+00    0.9549768    0.6183311 -60.09  0.004773567    2.549    0.608
        13 -12.2616    121.1234    200.0662   1.1622671592e+02   1.8180877620e+01    0.4036381     0.284737 -32.76  0.002267106    2.133    0.531
        14 -13.4488    113.7167    197.4466   1.1734436731e+02   1.9845168004e+01    0.5951584    0.4489756  79.61  0.003673112    1.394    0.283
        15 -16.1844    116.4896    239.7579   1.2164642608e+02   1.2400524828e+01     6.311572     2.299942  37.22   0.02964154    2.711    0.631
        16  -9.6584     78.7863    232.1921   1.2744584252e+02   1.8899627005e+01    0.1252473    0.1119834  52.53 0.0009858345    1.356    0.263
        17 -10.0433    130.3019    205.3255   1.1513960677e+02   1.5763694670e+01    0.1151716   0.09596075   9.30 0.0002785799    1.639    0.390
        18 -10.5579     76.0970    183.1219   1.2320194420e+02   2.8215194699e+01    0.2662742    0.1827103  76.86 0.0004752816    1.395    0.283
        19 -13.3981     70.5889    193.7475   1.2544933765e+02   2.6870149726e+01    0.7038255    0.5854095  32.26  0.004840744    1.532    0.347
        20 -10.1924     81.6961    194.8686   1.2337966685e+02   2.5140285338e+01    0.2626902    0.2244445  52.37  0.001825912    1.206    0.171
        21  -9.2117     57.5262    196.0032   1.2819878623e+02   2.8104112784e+01    0.1645451   0.09821354 -82.59  0.001005478    1.580    0.367
        22  -9.5877    180.0374    192.9708   1.0367262228e+02   9.1088091547e+00    0.1996143    0.1558696  71.84  0.001126269    1.728    0.421
        23 -15.0074     53.1805    232.1288   1.3176444562e+02   2.2137069794e+01     1.140326    0.8434956 -87.52  0.008978193    1.312    0.238
        24  -9.5791     72.4935    203.0358   1.2599501591e+02   2.4854444217e+01    0.1567355    0.1040519 -73.05 0.0006711344    1.510    0.338
        25 -10.0803     59.0633    188.7093   1.2722572389e+02   2.9333610082e+01    0.2441444    0.1288089 -54.92   0.00134492    2.229    0.551
        26 -11.4341    207.6215    183.8013   9.6881336381e+01   5.4530291535e+00    0.3275251    0.2732792 -38.24 0.0008886032    1.392    0.282
        27 -11.3636    210.4894    181.5291   9.5932323963e+01   5.2574006143e+00    0.2740106    0.2475119 -38.46  0.001176096    1.333    0.250
        28 -10.4411    211.3212    178.6670   9.5236950615e+01   5.5193947591e+00    0.2515496    0.2226771 -74.17   0.00116105    1.649    0.394
        29 -11.3563     99.5542    180.3755   1.1797524726e+02   2.5324728480e+01       0.2746    0.2246377 -66.52  0.001459415    1.280    0.219
        30 -10.3026    145.0313    178.8060   1.0822169802e+02   1.7896214638e+01    0.2179556    0.1505602  20.05  0.001005366    1.955    0.488
        31 -10.2020    194.1772    166.1399   9.5999863866e+01   1.0705571377e+01    0.3588226    0.2471904 -51.30  0.001525415    1.794    0.443
        32 -10.8773    198.0236    176.7199   9.7329660797e+01   8.2935591766e+00    0.2991221    0.2445201  41.54 0.0009690851    1.163    0.140
        33 -11.4116    196.7887    172.0750   9.6669507596e+01   9.2521178109e+00    0.3796681    0.3630407 -21.25  0.001526686    1.170    0.145
        34  -9.1874    171.5787    177.2734   1.0256419118e+02   1.3220114043e+01    0.1386207    0.1013486  69.34 0.0004411891    1.806    0.446
        35  -9.2028     52.4769    174.9651   1.2721470340e+02   3.2903486912e+01    0.1713774   0.08375434  81.76 0.0008091853    2.468    0.595
        36 -11.6423     93.4514    237.2233   1.2536294536e+02   1.6094382193e+01    0.3205259    0.1775284  49.72  0.001404231    1.389    0.280
        37  -9.6382     38.7593    171.0424   1.2968595422e+02   3.5264317019e+01    0.1571739    0.1244499  83.77 0.0002346419    1.022    0.021
        38 -11.2804    145.6434    168.6145   1.0633085638e+02   1.9670549739e+01    0.3016737    0.2601485 -60.30  0.000939235    1.262    0.208
        39  -9.5731     66.0411    237.1118   1.2997580910e+02   1.9740597704e+01    0.1359044   0.08790399  63.63 0.0003481818    1.188    0.158
        40  -8.9080     67.2484    225.6841   1.2891163707e+02   2.1492893519e+01    0.1095233   0.06409419  69.45 0.0004042913    1.521    0.343
        41  -9.7692    224.6799    165.3463   9.0201392255e+01   4.9669284297e+00    0.1245181    0.1089109 -75.84 0.0007049301    1.731    0.422
        42 -12.7180     97.9025    156.3824   1.1480812665e+02   3.0513451448e+01    0.6414987    0.4561339 -32.43   0.00330795    2.028    0.507
        43 -10.6542    141.4361    158.1480   1.0531417450e+02   2.2473707812e+01    0.2421727     0.199387  63.53 0.0003662928    1.242    0.195
        44 -10.4931    177.4995    236.8648   1.1072936127e+02   3.3416466031e+00    0.2012863    0.1534842  55.68   0.00137266    1.404    0.288
        45 -10.8705    165.5081    154.0310   9.9326793461e+01   1.8526307346e+01    0.2814498    0.1943105  60.21  0.001033713    1.648    0.393
        46 -11.6187    133.8448    144.8032   1.0441314083e+02   2.6601040117e+01     1.010389    0.2650039 -53.47  0.002820203    4.874    0.795
        47 -10.7862    174.4810    148.7716   9.6352428332e+01   1.7657798311e+01     0.276881    0.2638432 -52.90 0.0009432981    1.144    0.126
        48  -8.9218    121.3154    149.6655   1.0824131608e+02   2.7935732899e+01    0.1450127    0.1056036  80.08  0.000704709    1.690    0.408
        49 -11.9022    144.8597    145.9601   1.0215269966e+02   2.4215902721e+01     0.451906    0.3228585 -83.79  0.002084791    2.023    0.506
        50 -12.1636    108.5613    140.9616   1.0960825183e+02   3.2046514172e+01    0.5445465    0.3357159 -35.00  0.002452949    2.212    0.548
        51 -12.4905     96.8705    141.4956   1.1253342485e+02   3.3892185318e+01    0.2556813     0.255326 -76.77 0.0004422246    1.175    0.149
        52  -9.7013    129.4727    140.4640   1.0454406175e+02   2.8335104672e+01    0.1405476    0.1366329  63.17 0.0008086617    1.037    0.036
        53 -12.1566    115.9298    130.8842   1.0580416686e+02   3.2908670665e+01    0.5897214    0.4440533  12.36  0.001952493    1.905    0.475
        54 -11.1542    120.3940    124.7820   1.0338374469e+02   3.3389072726e+01    0.2856376    0.2316614 -35.59 0.0009605935    1.351    0.260
        55 -11.9601    104.5030    128.9680   1.0825023206e+02   3.5365508595e+01    0.5901239    0.3862777 -88.12  0.001038681    2.207    0.547
        56 -11.8775    136.3994    124.9595   9.9530314577e+01   3.0198847815e+01    0.7582752    0.4001421 -44.57  0.002814224    1.919    0.479
        57 -10.6135    160.9099    128.4941   9.4723447123e+01   2.4340752452e+01    0.3769027    0.3171358 -78.31  0.001923395    1.439    0.305
        58 -10.1979    125.0837    127.0299   1.0272968972e+02   3.2009183597e+01    0.2377361    0.1780192  84.84  0.001129562    1.729    0.421
        59 -10.5725    110.9081    119.8179   1.0466625105e+02   3.6234233394e+01    0.2428408    0.2291702  27.93 0.0005112138    1.162    0.139
        60 -10.3479    167.8920    112.7894   8.9346146112e+01   2.5822373150e+01    0.3727852    0.2737757 -73.99  0.001387846    1.926    0.481
        61 -10.1662    205.6047    110.1368   8.1104696049e+01   1.7675156732e+01    0.2748897    0.2102744  40.57 0.0006296917    1.319    0.242
        62 -10.4199    134.5404    104.0896   9.4840457665e+01   3.4913729930e+01    0.4771979    0.1453585 -45.13  0.001471075    3.252    0.692
        63  -9.7102     36.9752    223.4851   1.3391141903e+02   2.5468790349e+01    0.1387122   0.08034891  49.78 0.0004529511    1.415    0.293
        64  -9.3108    152.9857     78.9994   8.3321925502e+01   3.5649688319e+01    0.1865688    0.1789804 -26.20 0.0004257781    1.031    0.030
        65 -12.4056    171.3468     70.6353   7.6852734655e+01   3.2630284418e+01     0.551129    0.3739912 -82.08  0.002192426    2.292    0.564
        66 -10.0213     96.0137     63.4553   9.3458916925e+01   5.0874075182e+01    0.2076554    0.1412762  42.71 0.0007061395    1.561    0.359
        67  -9.9681    106.5063     61.9673   8.9850638740e+01   4.9128140531e+01    0.2106481    0.1925698  34.45 0.0003093491    1.132    0.117
        68 -16.0318     73.3560    149.2113   1.1943194185e+02   3.5721262495e+01     5.203683     2.747998  82.63   0.01613436    2.974    0.664
        69 -10.4519    173.0070    245.7233   1.1263363541e+02   2.9343868560e+00    0.2620771    0.1507444 -47.97  0.001633408    2.335    0.572
        70 -10.0623     66.6123    233.1105   1.2958751488e+02   2.0325287238e+01    0.1575701    0.1140794  54.51 7.739961e-05    1.148    0.129
        71  -9.3503    114.1771     49.3839   8.3299999286e+01   4.9757102396e+01    0.1930978     0.140552  61.15 0.0005730996    1.610    0.379
