#   1 NUMBER                 Running object number                                     
#   2 MAG_AUTO               Kron-like elliptical aperture magnitude                    [mag]
#   3 X_IMAGE                Object position along x                                    [pixel]
#   4 Y_IMAGE                Object position along y                                    [pixel]
#   5 X_WORLD                Barycenter position along world x axis                     [deg]
#   6 Y_WORLD                Barycenter position along world y axis                     [deg]
#   7 A_WORLD                Profile RMS along major axis (world units)                 [deg]
#   8 B_WORLD                Profile RMS along minor axis (world units)                 [deg]
#   9 THETA_WORLD            Position angle (CCW/world-x)                               [deg]
#  10 FWHM_WORLD             FWHM assuming a gaussian core                              [deg]
#  11 ELONGATION             A_IMAGE/B_IMAGE                                           
#  12 ELLIPTICITY            1 - B_IMAGE/A_IMAGE                                       
         1  -9.2770     39.4055      7.2804   8.9646360270e+01   6.9534206945e+01    0.4122171    0.2678084  -2.30  0.002477709    1.538    0.350
         2 -10.3161     50.7438     36.5079   9.7763744641e+01   6.3360436398e+01    0.7849779    0.5365076 -66.45  0.004007202    2.396    0.583
         3 -10.6501     39.3445     29.7652   9.9943646591e+01   6.5950389123e+01    0.6422215    0.3186419 -50.17  0.002932978    1.993    0.498
         4  -9.1243     39.7049     15.0414   9.3345527982e+01   6.8354761114e+01       0.2313    0.1753624  -0.81  0.001116952    1.205    0.170
         5 -11.8255     45.0926     22.1755   9.4203420504e+01   6.6545290823e+01     1.043076    0.9253604 -76.73  0.006355979    1.859    0.462
         6 -11.8612     82.5734      7.3156   7.3002351514e+01   6.2351357366e+01     1.704713    0.9496454  11.65  0.007908732    2.243    0.554
         7 -11.3157    121.0001      3.8417   6.1706052065e+01   5.4195130702e+01     1.405277    0.8088186 -67.93  0.005723939    3.093    0.677
         8 -11.4379    131.6727      3.2263   5.9393608625e+01   5.1650963375e+01     1.542422    0.5122387  66.78  0.005533783    2.961    0.662
         9 -11.6283    155.7385     20.8057   6.1406997107e+01   4.3824862642e+01     1.200256    0.5014386  55.09    0.0041822    2.116    0.527
        10 -13.8821    168.4534     11.1012   5.6194721604e+01   4.1560563146e+01       4.1505     1.924838  62.71   0.01773892    1.915    0.478
        11 -10.5880    224.9874     28.5129   5.4198212820e+01   2.5308605023e+01    0.5590783    0.4517112 -27.45  0.002003545    1.274    0.215
        12  -9.9441    116.9978     17.1870   6.7940673033e+01   5.3802462153e+01    0.8503741    0.3035427 -34.01  0.003234792    2.804    0.643
        13  -9.4920    111.1188     16.1787   6.8961751585e+01   5.5272809272e+01    0.5165689     0.254605  39.55  0.002248997    2.000    0.500
        14 -10.6404    248.1331     15.4894   4.8800686896e+01   2.1408788230e+01    0.4773653    0.3363531 -40.66  0.002798803    1.275    0.216
        15 -10.9986    249.5045      6.4210   4.6594045935e+01   2.2073057108e+01     0.618791    0.5919845 -65.61  0.004302168    1.168    0.144
        16  -8.3777     19.7186     14.8867   1.0302908276e+02   7.0506405552e+01    0.4639899    0.2071913 -25.03   0.00223903    2.598    0.615
        17 -10.6712     71.4637      5.5139   7.5769315781e+01   6.4675555374e+01      0.61666    0.3726125  37.28  0.002853711    1.530    0.346
        18 -11.4665    109.4925      4.6035   6.4530206780e+01   5.6830034038e+01     1.665609    0.7173415  50.78  0.007325154    1.986    0.496
        19  -8.7916     60.7608      9.9155   8.1876041884e+01   6.6020808006e+01    0.1904175    0.1397491 -48.88  0.001084602    1.945    0.486
        20  -8.2510     55.8428      7.7642   8.2744995134e+01   6.7089568724e+01    0.3199086    0.2319697  28.88  0.001994589    1.321    0.243
        21  -9.9196     60.3769      2.3708   7.8188289142e+01   6.6990478079e+01    0.5307906    0.3111537  35.91  0.002985756    1.595    0.373
        22  -8.3031     49.6483      6.7089   8.4778061472e+01   6.8177845228e+01    0.2481282    0.1377956  -0.65   0.00106776    2.337    0.572
        23  -8.6217     52.0117      2.1374   8.1385131272e+01   6.8384662061e+01    0.2865839    0.1753689 -15.57  0.001587715    1.504    0.335
        24  -9.0695    229.9952      5.7232   4.7948751373e+01   2.6624538382e+01    0.1880992    0.1587186 -81.24  0.001164312    1.079    0.073
        25 -10.3564    214.7652      3.1901   4.8624865369e+01   3.0546363193e+01    0.5456462    0.2593745  45.97  0.002364989    2.550    0.608
        26  -8.7291     26.8691      3.3693   9.3754935171e+01   7.1606885968e+01    0.2929178    0.1668714 -26.89  0.001771824    1.468    0.319
        27  -9.4923    203.9917      3.6525   4.9763004488e+01   3.3173691084e+01    0.2585124    0.1629538 -55.15 0.0007610672    1.588    0.370
        28  -9.2008     93.7174     17.0320   7.4040001525e+01   5.8974227667e+01    0.3958617     0.293218  83.85   0.00199533    2.191    0.544
        29  -8.6107     40.1159      1.6290   8.6323324443e+01   7.0196942312e+01    0.2564725    0.1229922  32.46  0.001225328    2.101    0.524
        30  -8.7676     16.8746      1.8350   9.8302486452e+01   7.2857970510e+01    0.2056753    0.1483931  20.85  0.001048544    1.524    0.344
        31  -9.8700     74.2816     69.0134   1.0019926485e+02   5.3699078597e+01    0.3569645    0.3107169  84.56  0.002041036    1.480    0.324
        32 -10.0804     24.6510     65.5745   1.1710386894e+02   6.0121563596e+01    0.6354728    0.2587504 -58.46  0.002462751    1.898    0.473
        33  -8.2849     83.9938     69.5197   9.7132426177e+01   5.2039088674e+01    0.2082217    0.1400364  38.56 0.0008704604    1.595    0.373
        34  -8.3418     34.0000     68.9887   1.1446858194e+02   5.8591780118e+01    0.2139293   0.06061783 -59.93 0.0008012792    2.934    0.659
        35  -9.5247     48.4301     61.7115   1.0719690341e+02   5.8684262888e+01    0.4037437    0.3236803  12.88  0.002484608    1.412    0.292
        36  -9.2586    227.7795     78.8891   6.6914522850e+01   1.7752043703e+01    0.4330908    0.2867683  15.83  0.001904541    2.198    0.545
        37  -8.4260     69.2046     61.3734   9.9551169569e+01   5.6032962342e+01    0.1979304     0.159368 -35.63 0.0006799678    1.112    0.101
        38  -8.0422     76.9715     60.4837   9.6564417527e+01   5.5014046931e+01    0.2037873    0.1366141  37.43  0.001037387    1.608    0.378
        39  -8.6291     93.1775     56.9648   9.0004555483e+01   5.2874312344e+01    0.2525234    0.1922916  59.96  0.001283033    1.664    0.399
        40  -9.3126    199.0940     54.9972   6.4858420653e+01   2.8227822082e+01    0.3121816    0.2566591  22.26 0.0005751729    1.410    0.291
        41  -8.6253     66.5050     54.4669   9.8225598531e+01   5.7806812091e+01    0.2805516    0.1207358 -46.26  0.001033077    2.100    0.524
        42  -8.2323     23.1492     52.1872   1.1434994787e+02   6.3097239997e+01    0.1880374    0.1374353 -39.50 0.0009752475    1.172    0.147
        43 -10.2442     84.5497     47.8083   8.9525314173e+01   5.6118803051e+01    0.5462371     0.498254  88.75  0.002756266    1.469    0.319
        44  -9.2196     81.8095     39.2196   8.7162714327e+01   5.8087750231e+01    0.4924386      0.34321 -28.81  0.002625915    1.347    0.257
        45  -8.5109    111.6891     45.0409   8.0131413588e+01   5.1194594595e+01    0.4013699     0.178171 -26.11  0.001472968    2.655    0.623
        46 -10.2543      3.5189     40.3466   1.1951726460e+02   6.6780782782e+01    0.4376984    0.3671518  83.07  0.003202331    1.542    0.352
        47  -8.8438     92.4653     44.2063   8.5578078784e+01   5.5274751966e+01    0.2470556     0.191909 -83.52  0.001198891    2.156    0.536
        48 -10.5828    183.3176    246.4265   1.0892062097e+02   6.7653980252e-01    0.3540739    0.1364817  42.85  0.001781144    2.050    0.512
        49 -10.0616    162.5676    240.5737   1.1182475054e+02   4.6587451296e+00    0.2115365    0.1320245  44.84  0.001312993    1.295    0.228
        50 -10.5552    205.0587    225.8470   1.0215628361e+02  -1.6014302961e-01    0.3918168    0.2101127  14.10  0.001831806    2.794    0.642
        51 -10.1707    195.8083    225.1927   1.0370707660e+02   1.4093949261e+00    0.2480991    0.1724787  16.57  0.001522954    1.458    0.314
        52  -8.3859    108.5014     38.4883   7.8559486493e+01   5.2907324277e+01    0.1443579    0.1313962   9.20 9.615568e-05    1.025    0.024
        53  -9.1448     68.2282     36.5689   9.0950209330e+01   6.0829143902e+01    0.3550596    0.2935376 -76.22  0.001986218    1.936    0.483
        54  -9.8523    123.9970    205.9889   1.1464229617e+02   1.6300196945e+01    0.1782487    0.1512046  52.76            0    1.006    0.006
        55  -8.2435     97.5079     36.5167   8.1016766863e+01   5.5515466910e+01    0.1406513    0.1280184   2.09 0.0003636388    1.007    0.007
        56  -8.4971     27.4208     35.4014   1.0736598225e+02   6.6115840510e+01    0.2006414    0.1782486 -16.90  0.001038515    1.170    0.146
        57  -9.4408     11.6977     33.8738   1.1401280428e+02   6.7615272538e+01     0.421786    0.2593384 -43.17  0.001928445    1.249    0.199
        58  -9.0911    238.9966    203.0175   9.2423370088e+01  -2.7265194078e+00    0.1527659    0.1225268   7.60 0.0007246017    1.045    0.043
        59 -12.7478    240.8205    132.9936   7.7922658736e+01   6.6671110528e+00     1.553786     1.256278  38.48  0.005790359    1.286    0.222
        60 -11.4331     11.4428    140.9231   1.3191907212e+02   4.4149328854e+01    0.5696519    0.3711012  87.40  0.003718231    1.267    0.211
        61 -10.5159     11.6264    126.4312   1.3052670086e+02   4.7353420543e+01    0.4657681    0.1603753 -82.99  0.001978827    2.905    0.656
        62  -7.9185     22.5815    125.7727   1.2763899017e+02   4.6655223197e+01    0.1706386   0.09655097 -84.22 0.0009428822    1.578    0.366
        63  -8.7588    104.4946     26.4926   7.4940734488e+01   5.5483134301e+01     0.407603    0.2304154  59.51  0.001838374    2.018    0.504
        64  -8.9037     41.2850    142.2272   1.2484619774e+02   4.1168585655e+01     0.261292     0.177355 -23.71  0.001298766    2.461    0.594
        65  -8.2708     22.2892     23.6637   1.0539914728e+02   6.8748289085e+01    0.2393546    0.1312017 -48.82  0.001384569    1.557    0.358
        66  -8.5044     94.4994    121.4932   1.0741557270e+02   3.8824700064e+01    0.1417634    0.1327699 -77.47 0.0008106108    1.015    0.015
        67  -8.5588     74.0000    118.9883   1.1255545891e+02   4.2541259392e+01    0.2289863   0.07199169 -58.74 0.0007988371    2.918    0.657
        68  -7.9705     24.5086    116.9832   1.2605076018e+02   4.8500182933e+01    0.1784806   0.08775993  83.49 0.0008098301    2.541    0.606
        69  -8.2487      4.0086    117.4590   1.3160150387e+02   4.9872421300e+01    0.1459548    0.0828037 -31.89 0.0007410099    2.548    0.608
        70  -9.3154     14.8742    113.9072   1.2830975883e+02   4.9943984470e+01    0.1885573     0.131332 -58.97 0.0007576002    1.299    0.230
        71  -9.5799     64.4136     16.0109   8.3419767069e+01   6.4611235506e+01    0.2651169    0.1549346  36.21  0.001045123    1.693    0.409
        72  -9.4824     16.7041    104.5167   1.2661329238e+02   5.1947885264e+01    0.4987851    0.3069199  79.86  0.002875849    1.746    0.427
        73  -8.9108     69.6936    104.7218   1.1088212884e+02   4.6440070946e+01     0.306615   0.09400833 -50.91  0.001088993    2.869    0.651
        74  -8.9120     97.3146     28.6439   7.7897546805e+01   5.6711309313e+01    0.5048538    0.2436944 -15.83  0.001924883    2.875    0.652
        75  -9.3632     65.6033     29.6231   8.9069709979e+01   6.2393623503e+01    0.4393839    0.3297429  28.28  0.002592294    1.352    0.260
        76  -9.8183     46.8671    100.9476   1.1701512165e+02   5.0098222957e+01    0.4348788    0.1841207 -62.80  0.001940541    2.030    0.507
        77  -8.8078     29.3599    102.1810   1.2253779279e+02   5.1493345392e+01    0.2605251    0.1653492 -37.24  0.001465738    1.826    0.452
        78  -9.4308     58.3589     98.6185   1.1301439938e+02   4.9318232832e+01    0.4479096    0.1554991 -64.06  0.001611543    3.052    0.672
        79 -10.5990     46.5992     87.5769   1.1437997853e+02   5.3195027795e+01    0.7023467    0.3370997 -39.48  0.003152362    2.333    0.571
        80 -11.7855     42.9406     82.2006   1.1440861974e+02   5.4794291989e+01     1.103917    0.7524721 -20.52   0.00606368    1.861    0.463
        81  -9.0085      2.2883     88.6252   1.2882616597e+02   5.6422534036e+01    0.3488078    0.1843664 -84.93  0.001966784    1.749    0.428
        82  -8.4990    125.5339     28.8711   7.0461687501e+01   5.0377715468e+01    0.3155123    0.2458128 -10.63  0.001652987    1.342    0.255
        83  -9.1884      9.5190     80.5173   1.2533131136e+02   5.7833568846e+01    0.3389771    0.2402872  72.38  0.001950921    1.638    0.389
        84  -9.0845     86.3399     31.3232   8.2445938074e+01   5.8503098364e+01    0.2973583    0.2049416 -21.86  0.001340725    1.409    0.290
        85  -9.1920     76.4210     27.1826   8.4064631570e+01   6.0949465556e+01    0.4350725     0.282104  26.84  0.002283925    1.598    0.374
        86 -10.3988      3.4976     75.8973   1.2661667797e+02   5.9187627633e+01    0.4908774    0.3830811 -72.21    0.0022802    1.077    0.072
        87 -11.4351     13.9655     72.1963   1.2236398959e+02   5.9413194985e+01    0.8365931    0.6017628 -79.09  0.005417197    1.335    0.251
        88  -8.6868    139.1251     78.6737   8.4162479099e+01   3.9097380973e+01    0.2710418    0.2083056 -49.59 0.0009009846    1.364    0.267
        89  -9.4170     34.9276     79.1164   1.1645723978e+02   5.6261627971e+01    0.4045324    0.2085052 -62.80  0.002065612    1.652    0.395
