#   1 NUMBER                 Running object number                                     
#   2 MAG_AUTO               Kron-like elliptical aperture magnitude                    [mag]
#   3 X_IMAGE                Object position along x                                    [pixel]
#   4 Y_IMAGE                Object position along y                                    [pixel]
#   5 X_WORLD                Barycenter position along world x axis                     [deg]
#   6 Y_WORLD                Barycenter position along world y axis                     [deg]
#   7 A_WORLD                Profile RMS along major axis (world units)                 [deg]
#   8 B_WORLD                Profile RMS along minor axis (world units)                 [deg]
#   9 THETA_WORLD            Position angle (CCW/world-x)                               [deg]
#  10 FWHM_WORLD             FWHM assuming a gaussian core                              [deg]
#  11 ELONGATION             A_IMAGE/B_IMAGE                                           
#  12 ELLIPTICITY            1 - B_IMAGE/A_IMAGE                                       
         1 -15.1949    167.4549     60.0542   9.4660988300e+00   3.5549821401e+01      1.18513    0.9982813 -22.62   0.00387182    1.332    0.249
         2 -15.1820    183.5391     35.7316   4.8549374160e-01   3.5319870947e+01    0.9276199     0.807424 -71.13  0.003655582    1.065    0.061
         3 -12.8598    189.6499     15.2235   3.5435551510e+02   3.6361704236e+01    0.2345321    0.1995103 -78.66  0.000783573    1.118    0.105
         4 -12.3523    162.9939    197.4382   4.1503385648e+01   1.1012295938e+01    0.2941053    0.1842393 -40.91  0.000591072    1.618    0.382
         5 -14.3630    192.7274    195.2972   3.5389033357e+01   7.3237835895e+00     1.649454     0.701669 -54.56    0.0056197    5.695    0.824
         6 -16.3101    187.6702    241.3298   4.3249952296e+01   1.3154273306e+00     2.698125     2.121567 -14.97   0.02043187    1.208    0.172
         7 -11.1920    147.4781    204.0609   4.5781987612e+01   1.2010708598e+01    0.2210833     0.159023  11.78 0.0004334473    1.375    0.273
         8 -11.4793    154.5098    230.9222   4.8119305989e+01   6.6475335409e+00    0.2169302    0.1694219   0.68 0.0007094372    1.168    0.144
         9 -12.8525    181.7507    197.8944   3.7870245521e+01   8.3700881978e+00    0.3350701    0.1922024 -51.05  0.000890627    2.206    0.547
        10 -12.4214    180.8655    192.8195   3.7194957750e+01   9.3124971932e+00     0.242311    0.1683854 -25.73  0.001171988    1.360    0.265
        11 -11.8926    156.6028    198.7281   4.3031089575e+01   1.1681500725e+01    0.2028263    0.1619878 -52.58 0.0006396224    1.497    0.332
        12 -12.5277    151.6067    195.6204   4.3592182891e+01   1.2940812704e+01    0.2326597    0.1962129 -19.55 0.0007970197    1.158    0.137
        13 -11.9121    135.9912    228.1176   5.1536482971e+01   9.3959105090e+00    0.2242761    0.1564058 -36.88 0.0007242489    1.584    0.369
        14 -11.2660     17.9668    190.0158   7.6098883471e+01   3.1181943525e+01    0.1838292    0.1424953 -43.94  0.001090219    1.648    0.393
        15 -14.6698    172.2573    221.8093   4.3383980958e+01   5.8592611297e+00     1.429069    0.6918235  19.92   0.00725847    2.126    0.530
        16 -10.5077    205.4827    177.5244   3.0024143904e+01   8.3828891054e+00    0.1235987    0.1025109 -13.87 0.0001315956    1.019    0.019
        17 -11.6607    203.8082    170.8287   2.9089687489e+01   9.6715122006e+00    0.2825276    0.1545406 -38.28 0.0007215178    1.646    0.392
        18 -12.6372    155.2330    171.6210   3.8699568355e+01   1.6874797884e+01    0.2751853    0.2123612 -20.01  0.001102872    1.340    0.253
        19 -14.3056    229.7664    167.3234   2.4232368304e+01   6.6797684508e+00    0.5912671    0.3586144  14.93   0.00340845    1.976    0.494
        20 -14.0467    244.7648    160.5779   2.0824489642e+01   5.7260496033e+00    0.4988779     0.239151 -45.30  0.002623957    2.276    0.561
        21 -11.5632     34.6327    228.6908   7.4140035473e+01   2.1196855282e+01      0.27371    0.1135731  52.40  0.001360588    2.042    0.510
        22 -10.3640     11.2627    228.6387   7.9324901526e+01   2.3379244488e+01     0.126155   0.06187958  56.83 0.0006982135    1.635    0.388
        23 -10.7770    164.5494    155.6133   3.3633745826e+01   1.8431797266e+01    0.2413621    0.1273548 -54.56 0.0007989439    2.313    0.568
        24 -10.9388    194.4958    145.5775   2.5791228390e+01   1.5289397534e+01    0.2503036    0.1109147 -49.45  0.001020698    2.595    0.615
        25 -11.6207     27.6755    145.7917   7.0071039210e+01   4.1431718821e+01    0.3288527    0.2598167  52.72  0.001816247    1.193    0.162
        26 -11.4908     11.6403    143.8891   7.5097892409e+01   4.3284701881e+01    0.2380562    0.1489144 -31.80  0.001142554    2.104    0.525
        27 -10.6975    173.6654    135.3093   2.7504284370e+01   2.0719415959e+01     0.209109     0.161497 -71.50  0.001061247    1.774    0.436
        28 -10.9418    193.3181    132.0776   2.3147870933e+01   1.7835773460e+01    0.2534507      0.13844 -54.22  0.001111566    2.293    0.564
        29 -10.7332    186.5113    128.9637   2.3675038901e+01   1.9583745037e+01    0.2065346    0.1852525  33.48  0.001238792    1.229    0.186
        30 -12.0452    160.4944    128.5236   2.8676654018e+01   2.4473598491e+01    0.3353636    0.2635063 -43.93  0.001765914    1.202    0.168
        31 -15.8144     39.6858    155.6764   6.7285755258e+01   3.7610268990e+01     1.715551    0.8131288 -68.89  0.007382834    1.994    0.498
        32  -6.1144      1.0000    224.5222   8.1447274937e+01   2.5066805807e+01    0.2168102   0.05923923 -84.83 0.0009021515    3.676    0.728
        33 -12.4539    152.0066    120.5341   2.8644419502e+01   2.7734724886e+01      0.29961    0.2033041 -28.91  0.001380175    1.630    0.386
        34 -11.6250    167.2916    112.4477   2.3475800794e+01   2.6292292439e+01    0.2990666    0.2307394 -66.67 0.0008760609    1.529    0.346
        35 -12.2675     23.7030    105.9664   6.6803092316e+01   5.2649417341e+01    0.4011292    0.2465131 -46.31  0.001880332    1.677    0.404
        36 -20.0804     65.7099    168.0196   6.0993984736e+01   3.1340849107e+01     14.98091     6.732828 -68.38   0.06103452    2.302    0.566
        37 -12.0883     25.0823     98.4311   6.5074820185e+01   5.4595519928e+01    0.3335976    0.2912239 -89.80 0.0009280128    1.092    0.084
        38 -11.4921    131.0238     98.5074   2.7928119775e+01   3.6703898208e+01     0.289937    0.2349658 -81.23 0.0004123728    1.454    0.312
        39 -11.8239    126.3589     95.5530   2.8290344731e+01   3.8343441011e+01    0.4043424    0.2906044 -60.41  0.001434209    1.494    0.331
        40 -10.9949      2.9300     98.9788   7.4590729489e+01   5.5981603486e+01    0.2008329    0.1788764 -75.49 0.0003618283    1.043    0.042
        41 -11.1260    145.7681     97.8407   2.4258571844e+01   3.3650531128e+01     0.218419    0.1972134 -34.03 0.0004181265    1.114    0.102
        42 -12.9933    157.7371    218.9323   4.5830121432e+01   8.1324446552e+00    0.3273136    0.1847603 -42.28  0.001177746    1.883    0.469
        43 -12.9357    133.8158    200.5968   4.8249198727e+01   1.4552561499e+01    0.5905676    0.2709576 -56.24   0.00239352    2.617    0.618
        44 -11.8353    189.5688     94.4759   1.5084282835e+01   2.5077812034e+01    0.4709963    0.2417192 -64.16  0.001657995    3.663    0.727
        45 -10.7754    120.6860    218.2502   5.3585650154e+01   1.3073693763e+01    0.3376397    0.1241873  43.63  0.001374711    2.830    0.647
        46  -9.9172    141.3406    217.2622   4.8983728163e+01   1.0536589945e+01    0.1251461   0.08659932   0.61 0.0006303849    1.591    0.372
        47 -10.9328    152.5673    215.1169   4.6339069637e+01   9.4262953450e+00    0.2082133    0.1466825 -34.13  0.001259905    1.476    0.323
        48 -11.7082    162.6092     91.1462   1.8955738285e+01   3.1291180630e+01    0.2307398    0.1998475  84.57 0.0007028137    1.277    0.217
        49 -13.5935      7.4107     88.6412   7.1470918078e+01   5.8548199834e+01     0.891143    0.3997975 -11.46  0.003466868    3.139    0.681
        50 -13.5009     11.7038     83.2707   6.8707970544e+01   5.9739440299e+01    0.3950485    0.2885249 -16.93  0.001685128    1.568    0.362
        51 -11.5277    183.9750     84.0137   1.3349399304e+01   2.7991431021e+01    0.2209901    0.1975403 -42.93 0.0008511782    1.043    0.041
        52 -11.4432     94.5717     83.9135   3.4074878282e+01   4.7719555005e+01    0.2856308    0.2217697  54.40 0.0004564076    1.341    0.254
        53 -11.8830     77.7061     81.7313   3.9274010620e+01   5.1573752047e+01    0.3513568    0.2475312  55.42 0.0009646051    1.571    0.364
        54 -13.8187      6.5324     75.8635   7.0114834885e+01   6.2022885897e+01      0.52622    0.3042716  17.23  0.001678993    1.913    0.477
        55 -11.4817     36.7583    242.6941   7.4392646695e+01   1.8284994442e+01   0.09503553   0.08642262 -26.35 0.0006861471    1.494    0.330
        56 -13.8655    172.9721     52.5720   6.5113628326e+00   3.5417603780e+01     0.514011    0.4433777 -43.57 0.0008131301    1.107    0.097
        57 -13.0653    132.9111    212.8260   5.0187118734e+01   1.2431633551e+01    0.4176793    0.2134672 -40.12  0.001347523    2.198    0.545
        58 -14.0888    154.8572     72.6178   1.5278196749e+01   3.6373245076e+01     1.046232    0.5807621  48.22  0.004536624    1.983    0.496
        59 -12.6744    163.0806    210.9493   4.3588195583e+01   8.7337829849e+00    0.2770046    0.1777668 -42.17  0.000908795    1.646    0.393
        60 -11.0300    146.0869    209.4848   4.6880431910e+01   1.1247677525e+01    0.2649485    0.1613323 -48.15  0.001088724    1.809    0.447
        61 -12.2525     11.5343    206.5149   7.8459260957e+01   2.7995764693e+01    0.4602307    0.2422151  18.50  0.002410614    2.078    0.519
        62 -13.2024     13.4428     60.2204   6.3403725830e+01   6.5672329718e+01     0.260072    0.2381435 -62.02 0.0006666819    1.044    0.042
        63 -10.6116    126.3003    237.9900   5.4744239665e+01   8.9736956901e+00    0.1531187   0.09220307 -34.04 0.0008679215    1.996    0.499
        64 -14.5085    192.0877    221.1285   3.9590633414e+01   3.5698303541e+00    0.7698143    0.4953514 -21.62   0.00172684    1.453    0.312
        65 -13.1531    162.2702    202.0004   4.2377598876e+01   1.0332520047e+01    0.3634081    0.2479352 -50.00 0.0009884322    1.702    0.413
