#   1 NUMBER                 Running object number                                     
#   2 MAG_AUTO               Kron-like elliptical aperture magnitude                    [mag]
#   3 X_IMAGE                Object position along x                                    [pixel]
#   4 Y_IMAGE                Object position along y                                    [pixel]
#   5 X_WORLD                Barycenter position along world x axis                     [deg]
#   6 Y_WORLD                Barycenter position along world y axis                     [deg]
#   7 A_WORLD                Profile RMS along major axis (world units)                 [deg]
#   8 B_WORLD                Profile RMS along minor axis (world units)                 [deg]
#   9 THETA_WORLD            Position angle (CCW/world-x)                               [deg]
#  10 FWHM_WORLD             FWHM assuming a gaussian core                              [deg]
#  11 ELONGATION             A_IMAGE/B_IMAGE                                           
#  12 ELLIPTICITY            1 - B_IMAGE/A_IMAGE                                       
         1 -10.6656    155.3514     31.8449   5.0969761450e+01   4.2380585858e+01    0.9410754    0.5849072  36.42  0.001573639    1.819    0.450
         2 -10.2488    154.3643     43.2363   5.4798557163e+01   4.1149090599e+01    0.7652408    0.6231217  73.82  0.002404262    1.262    0.207
         3 -10.6848      4.5455     35.4661   1.0442594325e+02   6.8313065142e+01    0.9320379    0.2582279 -52.91  0.004287405    2.437    0.590
         4 -10.6335      8.5270     26.2661   9.9253135550e+01   6.9797483058e+01    0.3983769      0.28855 -43.16  0.001531592    1.190    0.160
         5 -11.4324    211.6574     33.6514   4.3315133151e+01   2.8059302028e+01    0.6266342    0.3845062 -48.76  0.001120928    1.547    0.353
         6  -9.7283    196.9451     18.3390   4.1052577628e+01   3.3449485751e+01    0.6254361    0.3000018 -43.72  0.002870085    2.021    0.505
         7  -9.2371    195.5138      5.7318   3.7914073907e+01   3.5102354988e+01    0.4325275    0.3135689  33.50  0.002189667    1.784    0.439
         8  -9.3104    202.6215      2.8109   3.6492346817e+01   3.3662705404e+01    0.5029249    0.2007575  70.49  0.001521679    2.192    0.544
         9 -10.5091    187.6465     21.0268   4.2883963976e+01   3.5458827730e+01     1.061914    0.4472895 -55.14  0.004030414    2.967    0.663
        10 -10.3279    183.1881      9.5944   4.0272018457e+01   3.7767638429e+01    0.4830884    0.3379862 -75.42  0.001246828    1.453    0.312
        11 -11.8677    185.8916      3.6146   3.8345736620e+01   3.7665330303e+01    0.4651759    0.2884846  73.86 0.0004825611    1.424    0.298
        12 -10.2910    224.3720     27.7720   4.0486141488e+01   2.5789758748e+01    0.5989584    0.4556188 -56.40  0.002780363    1.185    0.156
        13 -11.8156    219.0417     25.2512   4.0420812431e+01   2.7335843598e+01    0.3578211    0.3112462  84.40 0.0005425858    1.107    0.097
        14  -9.8411    250.2809      7.8001   3.3854074027e+01   2.2352580079e+01    0.2276919      0.14708 -42.54 0.0007325612    1.385    0.278
        15  -9.9307    231.6105     20.0928   3.8001752860e+01   2.5046840930e+01    0.4449649    0.2795944 -51.78  0.001392367    1.417    0.294
        16 -10.6259    237.0498     13.0283   3.5953058031e+01   2.4633390476e+01    0.6715468    0.5584005  -4.04  0.003908478    1.685    0.407
        17 -10.7337    243.7765      4.2058   3.3547645383e+01   2.4121977082e+01    0.4815346     0.235571 -56.80  0.002384624    1.804    0.446
        18  -9.1920    248.4475      1.9751   3.2770007422e+01   2.3361216222e+01    0.2058648    0.1494238  88.65 0.0001438144    1.252    0.201
        19  -9.4562    233.2165      5.9176   3.4678431559e+01   2.6252606750e+01    0.3201897    0.2297526  72.21  0.001418647    1.368    0.269
        20  -9.5991    234.7975      1.5675   3.3609420752e+01   2.6352382824e+01    0.2096122    0.1428333 -83.81  0.000699022    1.292    0.226
        21  -8.8611    130.0637      3.2538   4.5845677850e+01   5.1592588930e+01    0.4076704    0.1575628 -27.86  0.001283424    2.726    0.633
        22  -8.8593    128.5187      9.9129   4.8501983193e+01   5.1401899954e+01    0.2268754     0.204229 -43.88 0.0009284478    1.267    0.211
        23  -9.0772    126.9829     14.0039   5.0277411957e+01   5.1393769380e+01    0.5035829     0.334411 -64.20   0.00162564    2.086    0.521
        24  -8.6749    143.5565     22.4486   5.0038135353e+01   4.6439071035e+01    0.6339051    0.4098348 -73.96  0.002891127    2.146    0.534
        25 -10.0842    134.7804      9.9003   4.7343467648e+01   4.9869406116e+01    0.6172838    0.3398801 -32.28  0.002441762    1.971    0.493
        26 -10.9014    133.2652     19.5129   5.0994734712e+01   4.9305934555e+01    0.4776774    0.3027514  31.88 0.0002410375    1.717    0.417
        27 -10.2242    145.3050     13.2984   4.6676599410e+01   4.6938220001e+01    0.3519099    0.2505833 -85.68  0.001501417    1.622    0.384
        28 -10.9047    141.3624     13.0559   4.7266679530e+01   4.7945836415e+01    0.4715881    0.3622612  24.51 0.0006349581    1.431    0.301
        29  -9.7884    163.7598     11.8212   4.3385377857e+01   4.2432717242e+01    0.3598439    0.2581081  88.22  0.001928073    1.410    0.291
        30  -9.6595    157.2021     15.6410   4.5523773221e+01   4.3713712643e+01    0.5272021    0.4133447  66.09  0.002968068    1.145    0.127
        31  -9.9406    192.8091     13.3853   4.0206596707e+01   3.4998150545e+01    0.5322635    0.3576028  48.13  0.001716618    1.624    0.384
        32 -10.2690    211.3942     18.6410   3.9578988052e+01   2.9912052114e+01    0.5469882    0.3834928 -43.67  0.002652409    1.369    0.270
        33 -10.5859    209.5279     11.5465   3.8009617613e+01   3.1129802716e+01    0.3814778    0.2328978 -54.84 0.0006885624    1.563    0.360
        34  -9.4991     15.2314      3.5189   8.5286352863e+01   7.2926687927e+01    0.2192511    0.1693009   6.44 0.0009793637    1.249    0.199
        35  99.0000     48.3510      9.4455   7.1862302549e+01   6.7981057501e+01    0.4762746     0.384968 -17.41  0.003213001    1.252    0.201
        36 -10.7711     25.1358      9.2523   8.2861211365e+01   7.1090625288e+01    0.6278476    0.3591161 -44.63  0.001186615    2.107    0.525
        37 -10.3198     17.6580      8.5757   8.6545497149e+01   7.1968016969e+01    0.6985434    0.3456734   6.65   0.00367781    2.418    0.586
        38 -10.3474     32.2795      6.4386   7.7742627760e+01   7.0614372938e+01    0.3317434    0.2560307  25.01 0.0006085666    1.381    0.276
        39  -9.6947     34.2006      1.7947   7.4289372085e+01   7.0929976779e+01    0.2992203    0.1634776  38.00  0.000298868    1.889    0.471
        40  -9.7152     31.9548     16.2656   8.2869164095e+01   6.9301420065e+01    0.4139131      0.21128  33.03  0.002287858    2.064    0.515
        41  -9.2864     33.6066     12.5239   8.0220024960e+01   6.9635749779e+01    0.3377813    0.1759252  30.76    0.0017184    1.906    0.475
        42 -10.8761     40.1887     14.9391   7.8273958107e+01   6.8450401478e+01    0.6509118     0.340627 -33.95  0.001351962    1.772    0.436
        43  -9.9575     16.4255     18.6819   9.1988113572e+01   7.0509743276e+01    0.4266289    0.1578673 -45.19  0.001472133    2.260    0.558
        44 -10.9482     22.5141     17.1858   8.8099781168e+01   7.0186541604e+01    0.7732688    0.3357349  29.72  0.003715589    2.444    0.591
        45 -10.2781     51.2314     18.0591   7.4869265616e+01   6.6447142824e+01    0.3971145    0.2832181 -13.47  0.002172845    1.232    0.188
        46  -9.9955     46.2913     17.4100   7.6703985868e+01   6.7263587746e+01    0.3005698    0.2371348  17.83  0.001458612    1.189    0.159
        47 -10.3216     82.7826     10.0609   5.9617186405e+01   6.1726573230e+01     2.342033    0.4689117  40.08  0.006361058    5.916    0.831
        48 -11.7517     90.3428     14.1016   5.9157981962e+01   5.9751968461e+01     1.180888    0.5032407  30.42  0.001615226    2.913    0.657
        49 -10.6340    100.2952      9.7086   5.4612206770e+01   5.8024352307e+01    0.2216477    0.2020535  60.42 0.0002113604    1.217    0.178
        50 -11.0127     97.4671      7.9652   5.4603725122e+01   5.8809866092e+01    0.2878214    0.1874845 -31.73 0.0004046905    1.721    0.419
        51  -8.0449     73.3627     16.7746   6.5729583214e+01   6.2845519281e+01    0.2587495    0.1799578 -14.09  0.001278733    1.393    0.282
        52  -8.6912     66.9170     11.8083   6.5693804527e+01   6.4598418536e+01    0.2146702      0.15824  34.21 0.0005140874    1.224    0.183
        53  -9.7251     63.8301     17.4902   6.9524103302e+01   6.4476645552e+01    0.4468923    0.2911352   2.26  0.002462594    1.579    0.367
        54  -9.2410     60.6136     11.4582   6.7874241047e+01   6.5750137948e+01    0.3686178    0.3126765  87.78  0.001477741    2.222    0.550
        55 -11.8779     65.7560      5.6752   6.3144944939e+01   6.5455392811e+01    0.9606546    0.2871937  46.97  0.001884456    2.862    0.651
        56  -8.9612     77.8585      2.2706   5.7539396719e+01   6.3444594644e+01    0.2136702    0.1733952  18.90 0.0003599131    1.063    0.059
        57  -9.0257    246.9971     17.2997   3.6101580339e+01   2.1985667833e+01    0.3185696    0.2713545 -62.50  0.002159615    1.074    0.069
        58 -10.0346    113.3639      4.3020   4.9434124540e+01   5.5505213447e+01    0.3834098    0.2915602   3.39  0.001019638    1.422    0.297
        59 -10.4287    113.2291     13.3879   5.2985447722e+01   5.4727789979e+01    0.4929234    0.3037511 -26.86  0.002534083    1.749    0.428
        60 -10.6404    204.4045     12.5180   3.8754793408e+01   3.2257091283e+01    0.5279995    0.3077044 -42.57  0.000636634    1.650    0.394
        61 -11.6217    101.3104     13.8959   5.6078702325e+01   5.7395761544e+01    0.3179342    0.2403122  25.73 0.0003297492    1.240    0.194
        62  -9.0392    218.0859      3.1909   3.5247253861e+01   2.9973204779e+01    0.2284188    0.1693183 -58.86 0.0005122639    1.213    0.175
        63  -8.8495    227.3453      2.7722   3.4422392760e+01   2.7894888706e+01    0.2570291    0.2000093 -37.11  0.000906216    1.354    0.261
        64 -10.6966    226.0465      9.3244   3.6011579095e+01   2.7508483477e+01    0.5080247    0.2564828 -58.04  0.001432607    1.894    0.472
        65 -10.3445    223.2542      4.5761   3.5150245981e+01   2.8642145870e+01    0.3331029    0.2349377 -25.40  0.001518999    1.642    0.391
        66  -8.7023    171.6780     11.6960   4.2280257750e+01   4.0447380514e+01    0.3408781    0.2244233  83.54  0.000975701    1.490    0.329
        67 -10.4832      6.7274      7.5687   9.2288027503e+01   7.3069496893e+01    0.6320999    0.2257536 -42.98  0.003300992    2.214    0.548
        68 -10.2997      4.7133      3.0322   9.1239969279e+01   7.3913413016e+01    0.4388742    0.2480459  18.13  0.001916116    1.796    0.443
        69  -8.2011    122.4466     10.7796   5.0011520910e+01   5.2790941647e+01    0.5576262    0.1697218  39.82  0.001775694    4.006    0.750
        70  -8.3143    150.1849     10.7837   4.5065668772e+01   4.5952231200e+01    0.1917499    0.1662512  81.55 0.0004206644    1.120    0.107
        71  -8.7888    108.0854      6.1515   5.1308206510e+01   5.6576426605e+01       0.2216    0.1849143 -20.80 0.0006483922    1.328    0.247
        72  -9.0010    168.9032      5.1605   4.0726761198e+01   4.1757833212e+01    0.2111822    0.2007046 -11.52  0.000664473    1.228    0.185
        73 -10.1080    148.4954      3.3991   4.2941892842e+01   4.7025742860e+01    0.9604376    0.2705635  53.12  0.003556652    2.845    0.649
        74  -8.7481    121.9150      3.7181   4.7502650439e+01   5.3525787126e+01    0.3332332    0.1660847  45.99  0.001333711    1.761    0.432
        75  -8.0837    210.2463      2.7411   3.5798210936e+01   3.1852982579e+01    0.1580092    0.1405408  51.72 0.0005860508    1.330    0.248
        76  -8.1499     82.0599      2.3777   5.6345424823e+01   6.2581569171e+01    0.2100947    0.1499505   6.70 0.0005758706    1.368    0.269
        77  -8.4419    157.9965      1.4418   4.1009271782e+01   4.4812034667e+01     0.197029    0.1163443  71.80 0.0003438167    1.494    0.331
        78  -8.2480    159.5989     86.2500   6.6913343817e+01   3.2760352777e+01    0.2186403    0.1507411 -24.98 0.0005705423    1.618    0.382
        79  -8.0952    233.2164    250.4365   8.7469917747e+01  -9.7908620148e+00    0.1556587     0.092544  38.84 0.0009450088    1.697    0.411
        80  -8.4199    110.6131    249.7827   1.1036753130e+02   8.7546125708e+00    0.1960902    0.1490745 -85.72  0.001292507    1.550    0.355
        81  -8.4858    155.4680     83.1766   6.6951824923e+01   3.4338090876e+01    0.5115844    0.2181917  56.14  0.001485467    2.558    0.609
        82  -8.2453    102.9137     86.3209   8.2038212187e+01   4.5442745574e+01    0.2079823    0.1839158  29.26 0.0003899828    1.156    0.135
        83  -7.8740     97.4212     85.4399   8.3476766556e+01   4.6685026383e+01    0.1498387    0.1395434 -22.32  6.71881e-05    1.015    0.015
        84  -9.6120     87.3233     83.1355   8.6024256836e+01   4.9014156790e+01    0.4513081    0.2980448 -66.16  0.001493588    2.094    0.522
        85  -8.5092     81.0628     79.2554   8.6929512979e+01   5.0915373889e+01     0.341804    0.1797974  48.93  0.001193996    2.380    0.580
        86 -11.2360     65.0761     83.3669   9.3674709331e+01   5.2467277625e+01    0.4360407    0.4179923  -6.73            0    1.110    0.099
        87  -8.7014    230.8062     84.4317   5.3449232284e+01   1.6223566439e+01    0.3379605    0.1321441  54.53  0.001305811    2.714    0.632
        88  -8.6202     49.7174     84.0597   9.9333528921e+01   5.4267650537e+01    0.1977904    0.1494941 -48.65 0.0004432978    1.140    0.123
        89  -8.5029    146.0826     82.9273   6.9099038134e+01   3.6641726861e+01    0.2349533    0.2238929 -15.20 0.0004279484    1.053    0.050
        90  -8.4188    135.3009     82.2211   7.1592743198e+01   3.9312228480e+01     0.297161    0.2079831 -56.25  0.001116443    1.675    0.403
        91  -9.2528    125.3619     81.8901   7.4140330376e+01   4.1638223756e+01    0.3921414    0.2401702  30.26  0.001589787    1.955    0.489
        92  -8.1259     37.6343     82.0868   1.0323217614e+02   5.5994484891e+01    0.2089903    0.1537697 -72.45 0.0007361595    1.463    0.316
        93  -8.6194    216.4953     79.5971   5.4380414125e+01   2.0221170349e+01    0.4023207    0.1290323 -36.55  0.001365955    2.812    0.644
        94  -8.9792    169.8990     81.3014   6.3235288772e+01   3.1154372335e+01    0.3004766    0.1900355  50.36   0.00119314    1.579    0.367
        95  -9.0997     11.6863     82.6119   1.1277931164e+02   5.7878575486e+01    0.3630771    0.1679859 -42.33   0.00166221    1.950    0.487
        96  -8.6743     76.0436     78.2942   8.8353486272e+01   5.1938963495e+01    0.2725514    0.1841281 -25.15  0.001099939    1.628    0.386
        97  -9.2582    152.5047     78.0456   6.6098213300e+01   3.6005887880e+01    0.3102057    0.2293315  55.42 -0.0001156346    1.371    0.271
        98  -8.3221    156.7913     77.2637   6.4885760963e+01   3.5101371859e+01    0.4215018    0.3008456  -8.21   0.00181668    1.854    0.461
        99  -8.1786    117.6989     76.4626   7.4567694204e+01   4.4393138786e+01    0.2628452    0.1849757 -15.49 0.0007984105    1.739    0.425
       100  -9.2649    106.6388     75.4994   7.7506344081e+01   4.6920849936e+01    0.3873803    0.3032691 -58.51  0.001889274    1.506    0.336
       101  -9.5183     31.7781     77.0208   1.0418362649e+02   5.7682451566e+01    0.3855989    0.1956254  10.41  0.001515172    2.613    0.617
       102  -8.7166     10.0456     76.1235   1.1214708622e+02   5.9446403334e+01       0.2201    0.1434137 -59.76 0.0006123984    1.195    0.163
       103  -7.7615    240.5151     76.4562   5.0212728100e+01   1.5379921668e+01    0.1364753    0.1233542 -43.54 7.590634e-05    1.047    0.045
       104  -9.0329    232.3286     75.1384   5.0985524344e+01   1.7358847936e+01    0.3533154    0.2533279  -7.13  0.001726645    1.914    0.478
       105  -9.0809     72.6562     76.3236   8.8930517479e+01   5.2891806874e+01    0.2219238    0.1871913  59.46  0.001096369    1.514    0.339
       106  -8.7274     24.4323     75.7649   1.0666343751e+02   5.8570444036e+01    0.2562521    0.1377473  34.45 0.0006276877    2.231    0.552
       107  -8.9821     18.9853     74.8240   1.0851758861e+02   5.9179053721e+01    0.3009999    0.2039941 -28.77  0.001436368    1.493    0.330
       108  -8.0214     17.7146     71.6562   1.0829953203e+02   5.9973604553e+01    0.1986864    0.1457038 -45.98 0.0005534415    1.109    0.098
       109  -9.0386    249.2766     73.9989   4.8542741846e+01   1.3913245329e+01    0.3397593    0.2176688 -26.68  0.001737718    1.616    0.381
       110  -8.8584    219.1526     73.6792   5.2484140685e+01   2.0558042956e+01    0.4093256    0.2437767 -56.16  0.001831242    1.841    0.457
       111  -7.9130    169.5402     74.4737   6.1324590400e+01   3.2446965363e+01    0.1529318    0.1481514 -72.61 8.548747e-05    1.044    0.042
       112  -9.1977    148.0217     72.6765   6.5496759288e+01   3.8064784550e+01    0.3458686    0.3113814 -12.14  0.001009655    1.165    0.141
       113  -8.4473    153.5564     71.1756   6.3762665900e+01   3.6975465443e+01     0.489917    0.1598448  43.61  0.001299584    3.505    0.715
       114  -9.4807    243.0023     71.8939   4.8827023111e+01   1.5545055442e+01    0.3228287    0.2367573  33.16  0.001234633    1.818    0.450
       115  -8.3158    189.0949     73.3405   5.7262268800e+01   2.7798051006e+01    0.2090104    0.1863401  62.39 0.0004776129    1.135    0.119
       116  -8.6819     57.2645     66.5378   9.1501838574e+01   5.7165894181e+01      0.28394    0.2112439 -34.32  0.000935217    1.192    0.161
       117  -9.0693     59.4418     71.2781   9.2161397579e+01   5.5877790041e+01    0.4315925    0.2587249 -54.49  0.002067263    1.662    0.398
       118  -8.7097     55.9729     71.4806   9.3519060785e+01   5.6291152943e+01     0.272972    0.2253107  69.11 0.0008851408    1.723    0.420
       119  -8.7037    160.7321     71.0607   6.2153163145e+01   3.5222185203e+01    0.2802571    0.2144236 -59.99 0.0005914585    1.490    0.329
       120  -8.4567    123.9944     70.5271   7.0888941460e+01   4.4119271169e+01    0.2628652     0.211833  36.56  0.000621898    1.236    0.191
       121 -11.1216    128.7643     71.1074   6.9797686403e+01   4.2922146970e+01    0.3639583     0.276603  42.02 0.0002909569    1.302    0.232
       122  -9.5100    133.6766     69.0015   6.7839993201e+01   4.2157846763e+01    0.5917282    0.2315352  49.11  0.001597733    2.486    0.598
       123 -10.1531    113.6631     70.4873   7.3780580318e+01   4.6412257313e+01    0.4958511    0.4350346 -89.06  0.001665267    1.452    0.311
       124  -9.0057     67.5705     72.1970   8.9463163998e+01   5.4535575425e+01    0.2361728    0.1883678  26.12 0.0005133793    1.332    0.249
       125  -9.7024     29.0302     71.5252   1.0387719771e+02   5.9145656046e+01    0.2476687    0.1641425 -52.14 0.0003531795    1.231    0.188
       126  -9.2499    210.6892     69.6100   5.2704937111e+01   2.3177653504e+01    0.3855129    0.2558398  85.29  0.001761282    1.895    0.472
       127 -11.0384    100.9170     63.6638   7.5300731263e+01   5.0352434654e+01    0.7984079    0.6882187 -42.04  0.004312626    1.215    0.177
       128 -10.3145     94.2928     68.0771   7.8914992330e+01   5.0824128944e+01    0.7151847    0.4061239 -20.41  0.002790734    2.477    0.596
       129  -8.1035     80.3130     71.6240   8.4772979383e+01   5.2637336965e+01    0.1905425    0.1343458  24.76 0.0006960717    1.528    0.345
       130  -8.7450     38.3204     70.8159   1.0007917129e+02   5.8447870581e+01    0.3060132     0.174408   9.14  0.001503707    2.230    0.552
       131  -9.8771    192.8897     69.3143   5.5488695270e+01   2.7524587664e+01    0.4090932    0.2561738  43.23 0.0008567097    1.773    0.436
       132  -7.9796    141.2312     69.7781   6.6207864957e+01   4.0221508279e+01    0.2158941    0.1789254  16.27  0.001051723    1.348    0.258
       133 -10.2500    234.2080     64.3838   4.8151713321e+01   1.8578164219e+01    0.6257663    0.4060199 -45.31  0.001822935    1.381    0.276
       134  -8.6282    204.1160     68.7084   5.3484220782e+01   2.4889780016e+01    0.2267465    0.1888232 -52.98 0.0003064613    1.160    0.138
       135  -8.4442    107.4415     68.2829   7.4881506144e+01   4.8148755769e+01    0.2791544    0.1433832 -34.96  0.001117449    1.975    0.494
       136  -8.3044    222.1069     67.9767   5.0631063580e+01   2.0766631715e+01     0.231196    0.1953996  74.21 0.0004345853    1.236    0.191
       137  -9.1438    172.0068     67.1190   5.8673657300e+01   3.3073029609e+01    0.6304358    0.2805097  47.60  0.002333808    2.287    0.563
       138 -10.8827     48.5659     65.4801   9.4527983593e+01   5.8478609850e+01    0.4374234      0.29092  15.81   0.00234969    1.691    0.408
       139 -10.0711     40.2491     61.0495   9.6477561694e+01   6.0336148962e+01    0.4948679    0.3053727 -73.09   0.00229396    2.603    0.616
       140  -9.3505     34.7967     59.1558   9.8133358531e+01   6.1282449720e+01    0.3169942    0.2433362 -31.04  0.001223665    1.121    0.108
       141  -9.0028      2.6715     65.6391   1.1288443726e+02   6.2152303550e+01    0.4987792    0.2068011 -83.22  0.001894735    4.149    0.759
       142  -8.9558    134.7237     59.5659   6.4484490621e+01   4.3531646746e+01    0.5401143    0.3421039 -57.70  0.002250474    2.123    0.529
       143  -8.5083    139.1839     63.6053   6.4722327082e+01   4.1783597629e+01    0.3147408    0.1734784  40.50  0.001264936    1.909    0.476
       144  -9.6618    144.2427     64.2961   6.3741745232e+01   4.0439393520e+01    0.3550804    0.3151419 -67.90 0.0009065473    1.266    0.210
       145  -9.3030    148.9350     66.8652   6.3471129923e+01   3.8854994070e+01    0.4267683    0.2454351  49.82  0.001014082    1.691    0.409
       146  -8.5884    152.5344     64.5571   6.1938910273e+01   3.8356678228e+01    0.2716176      0.21796  41.12 0.0007726969    1.253    0.202
       147  -9.9795     16.2424     65.4924   1.0744979874e+02   6.1429169168e+01    0.6789967    0.2931561 -28.12  0.001424581    2.794    0.642
       148  -9.0010     28.5176     54.3260   9.9303024766e+01   6.2859763398e+01    0.3340319    0.1518439 -38.76  0.001071052    1.911    0.477
       149  -8.8023     27.8249     62.1299   1.0187206369e+02   6.1288113048e+01    0.2986406    0.2125703 -31.86  0.001807219    1.254    0.203
       150  -9.8139     25.0195     59.1125   1.0218999526e+02   6.2159168237e+01    0.3998172    0.2839968 -31.41  0.001984112    1.247    0.198
       151  -8.1503     89.6311     65.5001   7.9566140897e+01   5.2200671737e+01    0.2481082    0.1323947 -40.83 0.0009165273    1.804    0.446
       152  -8.3470     39.0957     66.4574   9.8551366458e+01   5.9313511170e+01    0.1744594    0.1271325  17.71 0.0005773489    1.529    0.346
       153  -9.5454    209.2553     64.2483   5.1525693872e+01   2.4351910177e+01    0.4265641    0.2885953  42.76  0.001950964    1.709    0.415
       154  -7.6378     67.0293     64.7095   8.7240290747e+01   5.6159726340e+01    0.1812972    0.1632791 -15.85 0.0003888097    1.039    0.038
       155  -8.2587    201.7065     64.2535   5.2676091573e+01   2.6170063603e+01     0.187989    0.1671897  23.75 0.0004406222    1.314    0.239
       156  -8.0875    126.9980     64.5039   6.8096144272e+01   4.4512894768e+01     0.222696    0.1483273  52.03   0.00040274    1.511    0.338
       157  -9.2324    121.7938     63.7891   6.9251695550e+01   4.5831793032e+01    0.3574306    0.2401794 -39.63 -0.000430966    1.510    0.338
       158  -8.0962    117.2793     61.9068   6.9859012568e+01   4.7177928295e+01    0.2938218    0.2271709 -78.57 0.0004708229    1.914    0.478
       159  -9.4200     79.9504     62.2171   8.1733327065e+01   5.4565879141e+01    0.9125972    0.3128591  31.76  0.002869905    4.020    0.751
       160  -9.2851      8.6120     62.6559   1.0986984724e+02   6.2503548545e+01       0.2378    0.1954057 -82.32 0.0007334686    1.408    0.290
       161  -8.1627    161.2596     62.5117   5.9444875800e+01   3.6518054865e+01    0.2264177    0.1862702 -21.00   0.00073208    1.308    0.235
       162 -10.2984    242.8660     59.9310   4.6060246949e+01   1.7338764798e+01    0.4219595    0.3299873 -17.27  0.002383991    1.520    0.342
       163  -8.9074    249.5355     58.1941   4.4914808541e+01   1.6169032204e+01    0.3021545    0.2462133  82.24  0.001839558    1.301    0.231
       164  -9.7561     62.0751     56.7309   8.6374260548e+01   5.8465234932e+01    0.8561785      0.43343 -34.43  0.003864606    1.922    0.480
       165  -8.1792     61.5633     49.3062   8.3875072472e+01   5.9933176825e+01    0.2314562    0.1609469 -46.42  0.000626893    1.505    0.335
       166  -8.9823    188.0039     60.0275   5.3736308182e+01   3.0197102065e+01    0.4663612    0.1993187  56.35  0.001779768    2.259    0.557
       167  -8.7729    181.8616     51.9021   5.2456550377e+01   3.2953352864e+01    0.3679152    0.2044031  42.80  0.001228878    2.047    0.511
       168 -10.1539    192.8094     56.9672   5.2098619933e+01   2.9465868326e+01    0.4467299    0.2765025 -62.68 0.0003380698    1.953    0.488
       169  -9.6955    188.1508     51.8302   5.1409753323e+01   3.1383916404e+01    0.5892821    0.3234232 -59.97  0.002204577    2.337    0.572
       170  -9.2968    197.5098     48.5209   4.9070144874e+01   2.9527741481e+01    0.2915298    0.2153257 -69.89 0.0005826443    1.452    0.311
       171  -9.3581    195.7668     53.0146   5.0552635987e+01   2.9316051805e+01    0.2548125    0.1810629 -54.16 0.0002534537    1.427    0.299
       172 -10.5578    192.8235     49.0454   4.9908710019e+01   3.0616168557e+01    0.4714805    0.3549601 -85.64  0.001015231    1.446    0.308
       173  -8.1261     54.3736     59.1331   9.0200855622e+01   5.9057372900e+01     0.291695   0.09847984 -41.47  0.001095869    2.692    0.629
       174  -8.2843    181.8257     47.1532   5.1096621800e+01   3.3641871054e+01    0.2417505    0.1647348  57.80 0.0005177903    1.417    0.294
       175  -8.9954    176.6242     49.8134   5.2736478817e+01   3.4578777061e+01    0.4772635    0.1774048 -43.44  0.001581995    2.772    0.639
       176 -10.4425    174.2430     45.1430   5.1766017969e+01   3.5842218809e+01    0.4232338    0.3693371 -72.15  0.001890452    1.180    0.153
       177  -9.1623    173.8128     53.5695   5.4335889114e+01   3.4740669009e+01    0.5064912    0.3082671 -84.21  0.001657118    2.548    0.607
       178  -8.6424    149.1235     59.0946   6.0968009351e+01   4.0095272081e+01    0.3875541    0.1813533  53.78 0.0008924878    2.048    0.512
       179  -9.8699    113.5343     54.9049   6.8474650275e+01   4.9203228854e+01    0.4886424    0.3810547  -6.05 0.0006003689    1.407    0.289
       180 -10.5093    119.9959     49.9889   6.4962066293e+01   4.8531449985e+01    0.5135352     0.307181 -34.90 0.0007238991    1.705    0.413
       181  -9.8149    234.9591     56.4992   4.6178685588e+01   1.9561565516e+01    0.4639579     0.253844 -66.43  0.001838716    2.315    0.568
       182 -10.0806    156.9785     56.9586   5.8612067666e+01   3.8473751665e+01    0.6235017    0.3465026  71.89  0.001793142    2.334    0.572
       183  -8.3170     89.6051     57.2474   7.6671763691e+01   5.3741137228e+01    0.2462533    0.1672518 -27.89 0.0007260687    1.459    0.315
       184  -8.3706      5.8246     58.1180   1.0997429049e+02   6.3626281179e+01    0.2025024    0.1007961 -38.07  0.001113486    1.726    0.421
       185  -8.6150    223.9796     57.0092   4.7655005954e+01   2.1973858943e+01    0.2314652    0.2000554  51.67 0.0008590212    1.294    0.227
       186  -9.1472    141.6694     55.2199   6.1394628646e+01   4.2548120076e+01      0.43469    0.3003797  22.90  0.001679385    1.800    0.444
       187  -8.3497    207.6017     55.5682   4.9497212251e+01   2.6050177151e+01    0.2529578    0.1898409  44.99  0.001080693    1.496    0.331
       188  -8.4693    182.9879     56.4716   5.3576941595e+01   3.1992907039e+01    0.3072316     0.165497  44.13  0.001255579    2.064    0.515
       189  -9.2429    124.8128     54.2534   6.5190662113e+01   4.6741002376e+01    0.4560296    0.3207597  32.22  0.001103644    1.494    0.331
       190  -9.2435    127.5156     50.5623   6.3222682035e+01   4.6686531735e+01    0.4668868    0.3133149  59.70  0.002175193    1.566    0.361
       191  -8.0991    165.2381     54.8080   5.6300176431e+01   3.6723534481e+01    0.2940036    0.1811789  79.60  0.001199681    2.132    0.531
       192  -8.8172     77.1484     54.8171   8.0084424268e+01   5.6433050320e+01    0.2082726    0.1819168 -11.65 0.0005112254    1.024    0.023
       193  -8.4765    220.3143     54.3763   4.7471477908e+01   2.3204294914e+01    0.1900802    0.1289107  80.98 0.0007088766    1.607    0.378
       194  -8.5157     41.6179     53.2338   9.3393606005e+01   6.1776031952e+01    0.4017852    0.1587107 -34.22   0.00111888    2.764    0.638
       195  -8.7823     42.9425     47.7915   9.0939191864e+01   6.2682217100e+01    0.3558447    0.2578193  60.99  0.001648482    2.528    0.604
       196  -8.3269     40.1021     43.8308   9.0721175680e+01   6.3753520916e+01    0.1984751     0.144937 -20.51 0.0004641337    1.215    0.177
       197 -10.3746      9.8818     52.8757   1.0695136344e+02   6.4513450949e+01    0.2999813    0.2314748 -42.70  0.001027672    1.023    0.022
       198  -9.5521      6.1629     50.8020   1.0803794375e+02   6.5149638849e+01    0.2136985     0.138825 -44.07 0.0002628119    1.174    0.148
       199  -8.8557     88.2258     46.7457   7.3224534643e+01   5.5808643404e+01    0.3485366    0.2231383  38.66  0.001523361    1.531    0.347
       200  -8.9014     94.6974     51.9280   7.3064739425e+01   5.3677580790e+01    0.4020577    0.2559368   0.31  0.001720092    2.232    0.552
       201  -8.3367     92.6057     47.8396   7.2206493362e+01   5.4772780711e+01    0.4509559    0.3165956 -61.64  0.002084839    2.234    0.552
       202  -8.5456    227.4713     51.3022   4.5822759039e+01   2.1987294448e+01    0.2914392    0.1952387   0.04  0.001319339    2.510    0.602
       203 -10.0168    213.3824     49.4143   4.7116670716e+01   2.5544915442e+01     0.416526    0.3396503 -59.64 0.0005513236    1.159    0.137
       204  -9.5844    205.6997     50.8750   4.8532566160e+01   2.7187820681e+01    0.4331491    0.3098366  21.37  0.002060903    2.029    0.507
       205  -8.3554    101.3817     52.0599   7.1021487563e+01   5.2291542069e+01    0.3312796    0.1590501  33.05  0.001260007    2.479    0.597
       206  -9.7790     71.9660     49.7467   8.0082761335e+01   5.8218517629e+01    0.6126449    0.3937309  26.09  0.002028487    1.622    0.383
       207  -9.0124     84.6691     51.2751   7.6140498126e+01   5.5719569830e+01    0.2252656    0.1957613 -41.32 0.0005844711    1.270    0.213
       208  -9.1979     80.3996     49.3236   7.6883635475e+01   5.6834813211e+01     0.439479    0.3079578  34.34   0.00163829    1.420    0.296
       209  -9.8773    244.3760     49.9473   4.3594844897e+01   1.8419724926e+01    0.4688057    0.2637264  48.80  0.001694665    2.190    0.543
       210  -8.2981    242.0331     40.5807   4.1699274477e+01   2.0188717178e+01    0.2052673    0.1558488 -68.81 0.0008023026    1.222    0.181
       211  -9.2932    237.1465     48.5420   4.4051285076e+01   2.0192738644e+01    0.3743011    0.2316028 -34.34  0.001641728    1.535    0.349
       212  -9.4417    246.8575     44.6204   4.2131216895e+01   1.8609883099e+01    0.2584508    0.2042211 -38.29 0.0003541217    1.217    0.178
       213 -10.2074    248.9553     39.2835   4.0735239308e+01   1.8867198440e+01    0.7040458    0.2518847 -47.17  0.002508655    2.423    0.587
       214  -9.4722    238.0161     42.9558   4.2656219694e+01   2.0756822034e+01    0.3024497     0.239788 -82.62 0.0007477629    1.226    0.184
       215  -9.7245    233.9373     44.8681   4.3540115893e+01   2.1408858392e+01    0.2855687     0.251411 -48.29 0.0009227453    1.098    0.090
       216  -9.5294    232.2216     41.3842   4.2903447711e+01   2.2261348545e+01    0.3721457    0.2331548  84.23  0.001457873    1.716    0.417
       217  -8.9697    226.0575     45.7820   4.4647783270e+01   2.3075718091e+01    0.3190787    0.1844235  47.13   0.00150769    2.086    0.521
       218  -9.8792    222.5481     49.8275   4.6059268753e+01   2.3328806482e+01      0.42691    0.2634862  67.12  0.001575225    1.655    0.396
       219  -8.9559    220.7588     46.3899   4.5426321606e+01   2.4222051692e+01     0.272014    0.2393845  73.26 0.0007874933    1.162    0.140
       220  -8.0602    134.5065     49.4534   6.1137467252e+01   4.5180849771e+01    0.1902195    0.1417146 -42.12 9.478856e-05    1.427    0.299
       221  -9.7261    137.4240     44.7759   5.8872067833e+01   4.5155736229e+01    0.5525599    0.3740257  37.80  0.001600293    1.513    0.339
       222  -9.1003    140.0405     40.5507   5.6860832221e+01   4.5100376186e+01    0.4755749    0.2205866  68.58  0.001597208    2.768    0.639
       223  -8.4577    143.3378     38.2792   5.5397791647e+01   4.4586220913e+01    0.2631866    0.2074994  56.62 0.0007336651    1.191    0.161
       224  -7.6145     14.4867     49.5170   1.0400292665e+02   6.4922797609e+01    0.1243225   0.09359784 -39.64 -2.92068e-05    1.032    0.031
       225  -9.2409    164.4353     46.3809   5.3872444254e+01   3.8159736968e+01    0.2722925    0.2314709 -70.38 0.0002549313    1.269    0.212
       226  -8.6757     72.8042    248.1674   1.1728440158e+02   1.4380535700e+01    0.2677538    0.1134368  48.18  0.001297691    1.840    0.456
       227  -9.4502    159.6792     22.4392   4.7262620577e+01   4.2372186515e+01     0.590642    0.2171626  58.10  0.002295255    2.308    0.567
       228  -9.2647    147.9128     41.3819   5.5485711533e+01   4.3026510809e+01    0.2769369    0.2413093  31.79 0.0003488579    1.173    0.148
       229  -9.4311    178.8285     23.6117   4.4769001893e+01   3.7385440507e+01    0.7429013     0.408179  14.88  0.002732916    3.710    0.730
       230  -7.8613     19.7318    248.0410   1.2655197077e+02   2.0725528705e+01    0.1280562   0.07443115 -89.22 0.0006544344    1.505    0.336
       231  -9.7878    169.3759     26.9283   4.7117166630e+01   3.9401884032e+01     0.925566    0.2975732  46.51  0.002934368    3.546    0.718
       232  -8.8774    168.6787     22.9897   4.6040856049e+01   4.0026599178e+01    0.3019213    0.1759907  63.65 0.0007575689    1.551    0.355
       233  -8.7019    111.4304     46.9199   6.6191269522e+01   5.0945510824e+01    0.4239477    0.1738659  50.78  0.001604524    2.367    0.578
       234  -8.5453    108.4053     43.4761   6.5770733447e+01   5.2136609534e+01    0.3306823    0.1761804  56.09 0.0009179213    2.029    0.507
       235  -8.9925     20.2217     46.9772   1.0066911425e+02   6.5028139860e+01    0.2296015    0.1926664  23.00 0.0009575467    1.451    0.311
       236  -9.3399     19.9958     40.3258   9.8598627516e+01   6.6349254411e+01    0.3990767    0.2642206 -43.38    0.0017414    1.212    0.175
       237  -8.9562     13.2171     36.7182   1.0060581969e+02   6.7540400063e+01    0.4275443    0.3027928 -75.48  0.002063971    2.118    0.528
       238  -8.9843    224.8827    247.1530   8.8428564790e+01  -8.2521391537e+00    0.1685984    0.1124023  10.16 0.0007661869    1.317    0.241
       239  -8.5904     18.0169     34.7651   9.7595061359e+01   6.7556402806e+01     0.176793    0.1504021   6.62 0.0004215038    1.321    0.243
       240 -10.0791     13.9426     30.0241   9.7876968159e+01   6.8738715103e+01    0.3751383    0.2152898  18.53  0.001875662    1.902    0.474
       241  -9.2806    214.8239    245.0581   8.9916758132e+01  -6.5522161924e+00    0.3008395    0.1460696  43.19  0.001560882    2.110    0.526
       242  -9.9903     24.9973     32.9112   9.3518861053e+01   6.7300920667e+01    0.4007944    0.2630835 -48.27  0.001961258    1.473    0.321
       243  -9.7530     21.2435     31.7608   9.4901026966e+01   6.7842075440e+01    0.3786423    0.1772989 -46.51 0.0008312995    1.767    0.434
       244  -9.4050    128.2547     42.0355   6.0060234145e+01   4.7766919664e+01    0.4557278    0.3528905 -74.99  0.002241224    1.745    0.427
       245  -9.4179     29.3913     44.7871   9.5815046138e+01   6.4679866365e+01    0.3541579     0.228408 -63.10  0.001477295    1.967    0.492
       246 -10.6767     34.2671     43.6651   9.3236389081e+01   6.4415510570e+01    0.4709558    0.3050846 -31.20  0.001040477    1.313    0.239
       247  -8.2117      8.9919     43.7804   1.0483009165e+02   6.6425821296e+01    0.3656977   0.08496012 -44.85  0.001509921    2.874    0.652
       248 -10.0360    186.0324     42.2123   4.9028035777e+01   3.3260843798e+01    0.5756966    0.3038345 -65.78  0.002182962    2.774    0.640
       249  -8.3899    102.9184     34.1162   6.3758208221e+01   5.4668229207e+01    0.2538202    0.1839353  31.15 0.0006728969    1.322    0.243
       250  -8.8797     95.5431     43.6445   6.9670442562e+01   5.4847261700e+01    0.3469488    0.2296637  20.36 0.0005493821    1.711    0.416
       251  -9.6746     99.4461     38.1177   6.6335126196e+01   5.4857633390e+01    0.4395619    0.3069023 -17.45   0.00165987    1.491    0.329
       252  -9.6204     67.9635     26.8731   7.2221571803e+01   6.2525726241e+01    0.4181895    0.2816594  -6.28 0.0009877379    1.520    0.342
       253  -8.5806     62.5567     26.5284   7.4143017727e+01   6.3486822689e+01    0.3526673    0.1893356  14.32  0.001537875    2.587    0.613
       254  -9.2691     66.8622     42.0061   7.8996429595e+01   6.0386992330e+01    0.8365494    0.2969001  46.51  0.003033434    3.630    0.725
       255 -10.5827     52.0103     37.6563   8.3199723425e+01   6.3351103714e+01     0.518294    0.4475071 -45.80 0.0009699028    1.437    0.304
       256  -8.7753     56.5005     36.5036   8.0863643426e+01   6.2900919720e+01    0.2369648    0.2018223 -34.52  0.001142759    1.287    0.223
       257  -9.5212     59.6437     33.5132   7.8335387708e+01   6.2906321565e+01    0.4117137     0.243006 -39.10  0.000584836    1.684    0.406
       258  -9.7614    223.7747     40.3725   4.3592764175e+01   2.4329471544e+01    0.4456215    0.2473952 -42.66  0.001665551    1.636    0.389
       259  -8.8713    225.4959     36.4254   4.2445537959e+01   2.4445991520e+01    0.2558772    0.2097493 -64.47 0.0006720822    1.097    0.088
       260  -8.0462     85.4562     42.4659   7.2489979685e+01   5.7027036086e+01     0.206612    0.1490923   7.62  0.000646785    1.502    0.334
       261  -7.9794     89.8007     40.6064   7.0319802614e+01   5.6469537460e+01    0.4167961    0.2403271  27.97   0.00188649    1.923    0.480
       262  -9.2460     91.6563     35.8142   6.7819015046e+01   5.6803786349e+01    0.3843068    0.2184511  44.58  0.001020086    1.677    0.404
       263  -9.1779     88.9878     33.0000   6.7529194317e+01   5.7738734716e+01    0.6310733    0.2061353  52.27  0.002189513    3.409    0.707
       264  -9.1083    175.3230     58.0944   5.5396611614e+01   3.3675206936e+01    0.3358664    0.2299878  39.32 0.0008291751    1.625    0.384
       265  -9.8298     68.6006     34.9951   7.5469424786e+01   6.1225444407e+01     1.073784    0.5446948  14.91  0.003732732    3.523    0.716
       266  -7.9548    106.5217     39.8908   6.4955548605e+01   5.3075717505e+01    0.1930572    0.1378027 -25.97 0.0003549102    1.427    0.299
       267  -9.3830    216.3541     38.9211   4.4091486799e+01   2.6261288885e+01    0.2501838    0.1998306  76.26  0.001427067    1.224    0.183
       268  -8.5019    235.0262    242.5266   8.5883421889e+01  -9.1139811144e+00    0.1827969   0.09427135  31.43 0.0009471671    1.622    0.383
       269  -9.7908    119.6870     38.7432   6.0992657933e+01   5.0251173931e+01     0.329317    0.2730069 -12.84 0.0004217981    1.252    0.201
       270 -10.7613    124.5436     35.8942   5.8760783022e+01   4.9489284707e+01    0.4481808    0.4038674 -16.16  0.001077453    1.154    0.133
       271 -10.1744    123.9322     26.5421   5.5502987341e+01   5.0795878221e+01    0.3570891    0.2376929 -24.97  0.001798896    1.602    0.376
       272  -9.3203    113.8779     35.7541   6.1384106280e+01   5.1999587936e+01    0.5228066    0.3190005  25.72  0.001618315    1.931    0.482
       273  -8.7478    109.6565     36.2904   6.2715325739e+01   5.2883639816e+01    0.2356208    0.1954763  37.90 0.0008393007    1.114    0.102
       274  -9.7937    234.9511     35.5607   4.1254836425e+01   2.2406506863e+01     0.456587    0.3108943  68.82  0.002563838    1.492    0.330
       275  -9.5106    192.4888     36.5538   4.6516698972e+01   3.2386802348e+01    0.3489704    0.2181157  51.37   0.00152705    1.642    0.391
       276  -8.0685    174.7170     36.4849   4.9128088952e+01   3.6876565572e+01     0.276011    0.2006577 -84.63  0.001366443    1.542    0.351
       277  -8.1402    241.2215     36.4145   4.0831679114e+01   2.0908085067e+01    0.1709794    0.1136873 -87.67 0.0003637696    1.557    0.358
       278  -7.7383     77.4972     36.5082   7.2843671204e+01   5.9432111236e+01    0.1395619    0.1170923   4.38 0.0008098758    1.061    0.058
       279  -8.0510    165.8161     35.1397   5.0179581768e+01   3.9311893622e+01    0.2116994    0.1837191 -79.64 0.0008446362    1.196    0.164
       280  -8.6633     33.7635     34.1069   8.9839066833e+01   6.6212557155e+01      0.30376    0.2403283  52.00  0.001848414    2.047    0.512
       281  -9.0645     39.5634     32.4326   8.6490581549e+01   6.5841987769e+01    0.2422446    0.1770023 -14.98 0.0005971716    1.187    0.158
       282  -9.0895    163.3307     42.0776   5.2747930686e+01   3.9035340711e+01    0.2899177    0.1966594  59.66 0.0003931819    1.391    0.281
       283  -8.5555    194.6649    242.6004   9.3280763371e+01  -3.2059138758e+00    0.2451759   0.09735801  34.03  0.001129541    2.143    0.533
       284  -9.0232    227.7588    240.1922   8.6795775645e+01  -7.8113173586e+00      0.23976    0.1231441 -12.02  0.001176478    2.576    0.612
       285  -9.8761    247.6471    239.6136   8.3203840247e+01  -1.0483739940e+01    0.3205692     0.182667 -19.39  0.001955746    1.679    0.404
       286  -9.6371    187.2569     28.8389   4.5097838763e+01   3.4654137877e+01    0.5634279     0.392646 -47.12  0.002944556    1.437    0.304
       287  -9.7545    192.8194     23.9185   4.3029535535e+01   3.3842531997e+01     0.413308    0.3934654 -46.24  0.002575219    1.145    0.127
       288  -7.7681     71.4769    239.5196   1.1680791050e+02   1.6116315822e+01     0.118719   0.09296471  61.53 0.0001849469    1.004    0.004
       289  -9.9838    171.8288    233.7090   9.6344548985e+01   1.7061266777e+00    0.4053368    0.3573527  54.62  0.002672651    1.330    0.248
       290  -8.2819    153.0975    233.5739   1.0004921792e+02   4.7833980276e+00    0.2015291    0.1699499  -3.10  0.001276685    1.384    0.277
       291  -9.7059    132.9480     30.7046   5.4998784986e+01   4.8116235366e+01    0.6812349     0.359326 -56.89  0.002149087    3.049    0.672
       292  -7.9656     63.9381     32.7578   7.6313857983e+01   6.2341548522e+01    0.1614773    0.1035087  33.18 0.0004479295    1.527    0.345
       293  -8.5204     97.2008     29.9495   6.3764723924e+01   5.6450108106e+01    0.2908762    0.1744038 -32.57  0.001359304    1.728    0.421
       294  -9.7733     84.3859     29.6507   6.7637896221e+01   5.9110569897e+01    0.3118566    0.2209499 -21.87 0.0005805835    1.389    0.280
       295  -9.0655     51.5166     28.5399   7.9550365155e+01   6.4893764128e+01     0.560797    0.2959422  47.09  0.002260793    2.620    0.618
       296  -9.3154     51.5296     24.9865   7.7960256009e+01   6.5426732463e+01    0.3857868    0.3351223  30.08  0.002540542    1.375    0.273
       297  -8.1313     47.2372     30.7524   8.2358178479e+01   6.5142709599e+01    0.1769661    0.1216135 -16.14 0.0005279302    1.328    0.247
       298  -7.6517     65.7217    234.6857   1.1748712929e+02   1.7778215195e+01   0.09815595   0.09238337 -36.55 0.0002438502    1.568    0.362
       299  -8.5061    220.2960    228.9948   8.6293287332e+01  -5.2760873439e+00    0.2214554    0.1156164  34.72  0.001178984    1.665    0.400
       300  -9.3634    105.1777     26.6963   6.0213204406e+01   5.5120719502e+01    0.4609531    0.2612643  -0.23  0.001327788    2.484    0.597
       301  -9.1041    103.7060     21.4546   5.8519716600e+01   5.6060698763e+01    0.2893831    0.2613571  -8.55  0.001321756    1.154    0.133
       302  -8.4879      1.8422     28.8297   1.0363085514e+02   6.9719873909e+01    0.1705277    0.1159992 -31.21 0.0004920599    1.153    0.133
       303  -7.7187     45.2925     25.7247   8.1010295344e+01   6.6194587257e+01    0.1758381    0.1409938  24.79 0.0002661932    1.326    0.246
       304  -8.0024     41.7061     25.3067   8.2438769180e+01   6.6732137335e+01    0.2025593    0.1569417  26.35 0.0005144211    1.385    0.278
       305  -8.4765     38.6818     24.6745   8.3548433326e+01   6.7212477528e+01    0.4441232    0.1598041 -34.75  0.001940274    2.559    0.609
       306  -8.3182    114.9742     27.0134   5.7803604964e+01   5.2853350432e+01    0.2145541    0.1820916  35.23 0.0005172809    1.069    0.064
       307  -8.6664     89.4293     25.7468   6.4387873385e+01   5.8608203621e+01     0.358545    0.2140595   6.99  0.001635052    2.166    0.538
       308  -7.9284     30.6880     27.2846   8.8482098019e+01   6.7710975469e+01     0.211452   0.09823554  35.02  0.000921275    2.486    0.598
       309  -7.7875     29.7169     24.9891   8.7966060366e+01   6.8194468553e+01    0.3705302    0.1789621   2.21  0.001575492    3.360    0.702
       310  -8.0006    207.9587    230.0000   8.8764510696e+01  -3.5233351342e+00    0.2058769   0.06111797  38.49 0.0007337133    2.918    0.657
       311  -8.6861    234.8512     26.1375   3.9092045960e+01   2.3602304150e+01    0.2545047    0.1975817 -52.70 0.0009377372    1.140    0.123
       312  -9.8086    238.3176     23.3540   3.8148986242e+01   2.3165135127e+01    0.5299479    0.2595373 -49.94  0.001596215    1.810    0.447
       313  -8.2240    138.9840    228.9861   1.0226196802e+02   7.8643977642e+00    0.2079211    0.1376015 -86.42  0.001018035    2.550    0.608
       314  -8.0675    102.4963    229.4667   1.0974419470e+02   1.3554789736e+01    0.1275477    0.1036949  56.33  9.11932e-05    1.036    0.035
       315  -8.1226    240.1869    215.6046   8.0340014095e+01  -6.4526657621e+00    0.1778373   0.09800582  24.78 0.0005325178    1.688    0.407
       316  -8.6007     28.2722    212.5177   1.2296766708e+02   2.6624444566e+01    0.3020967    0.1133969  69.05  0.001309862    3.114    0.679
       317  -7.8535    206.9975    204.4962   8.4485481455e+01   4.0941854197e-01    0.1797067      0.11282  57.62 0.0008106495    2.588    0.614
       318  -8.1088     65.1861    203.3996   1.1466288184e+02   2.4139738981e+01    0.1842544   0.09692523  49.19 0.0009430139    1.693    0.409
       319  -7.8776     18.5607    202.5096   1.2418392569e+02   2.9686619606e+01    0.1159402   0.08834795  79.08 7.529987e-05    1.014    0.013
       320  -8.4916     29.8102    199.2186   1.2169754441e+02   2.9244487374e+01    0.2131137     0.127949  88.20 0.0007920137    1.455    0.313
       321 -10.0881    136.7797     25.3790   5.2342745794e+01   4.7799795229e+01    0.3837558    0.2850117 -72.55 0.0006594218    1.718    0.418
       322  -7.8059    220.2743    193.3320   7.9813449225e+01  -8.5366606619e-02    0.1371614   0.09311906  -0.47 0.0004411326    1.596    0.373
       323  -7.9972    141.4716    189.5196   9.5611184207e+01   1.4881011879e+01    0.1421623    0.1315859  41.01 8.341468e-05    1.001    0.001
       324  -7.9508    138.0045    170.7851   9.2976186370e+01   1.9458726228e+01    0.2163375    0.1618979 -26.85  0.001031744    1.623    0.384
       325  -7.8965    171.5247    152.4980   8.1319797705e+01   1.6597531203e+01    0.1518656    0.1458361   6.30 0.0002584875    1.005    0.005
       326  -9.8258    128.4342     19.0000   5.1787473115e+01   5.0540645529e+01    0.3948694    0.1917427  60.89  0.001730123    1.875    0.467
       327  -7.8809     10.6842    140.6983   1.2096243226e+02   4.4263486682e+01    0.1210491   0.07788779 -50.59 0.0003290369    1.617    0.382
       328  -9.3669     39.6489    135.9942   1.1265447853e+02   4.2872919242e+01    0.2060703    0.1946307  39.63 0.0001928126    1.244    0.196
       329  -8.7482     13.5228    133.0275   1.1941713838e+02   4.5871626098e+01    0.1962008    0.1799482  57.76 0.0005285739    1.265    0.209
       330  -9.8604     65.8372    131.3120   1.0443669475e+02   4.0938383008e+01    0.5174527    0.3180763  25.34  0.001614966    1.948    0.487
       331  -8.1464    152.0228     15.2538   4.6214011663e+01   4.5059754364e+01    0.2129744    0.1681545  50.38 0.0006245642    1.186    0.157
       332  -8.9103    152.6088     22.7454   4.8528906764e+01   4.4129369983e+01    0.4314717    0.2354215 -43.16  0.001956281    2.001    0.500
       333  -8.3460    152.0039     18.7398   4.7339201650e+01   4.4710013544e+01     0.185463    0.1681545  60.31 0.0002075237    1.017    0.016
       334  -9.1677     78.6812     23.7111   6.7003543494e+01   6.0993366104e+01    0.4518545    0.3247775   2.47  0.002528065    1.387    0.279
       335  -8.4329     25.6564    128.3678   1.1551308312e+02   4.6032676202e+01      0.20074    0.1332203  73.22  0.001106178    1.638    0.389
       336  -8.9163    246.0017     23.3274   3.7486653375e+01   2.1492344158e+01    0.1987089    0.1637597 -44.26 0.0003051196    1.193    0.162
       337  -8.6215    206.4917     20.0653   4.0447584653e+01   3.0929096865e+01    0.2207529    0.1915348 -67.53 0.0007453061    1.061    0.058
       338  -8.3296     29.8243    124.1980   1.1373880267e+02   4.6681130636e+01    0.1855268    0.1306849 -51.52 0.0005668322    1.339    0.253
       339  -9.6760     69.2632    122.7579   1.0176637062e+02   4.2570519194e+01     0.246555      0.23006 -72.78 0.0002892258    1.041    0.039
       340  -8.7164    113.4389     22.4832   5.6449312732e+01   5.3732254640e+01    0.3782856    0.1886899  33.89  0.001232061    2.228    0.551
       341  -8.3024     95.7729     23.5420   6.1569035666e+01   5.7550731513e+01    0.1806563    0.1291052  64.70  0.000933004    1.696    0.410
       342  -8.0167     22.2583     22.9806   9.0820508935e+01   6.9274173120e+01    0.1624547    0.1231321 -21.93 0.0002384833    1.011    0.010
       343  -7.7014    236.4408    117.4059   6.0443447226e+01   9.5775785717e+00    0.1400225    0.1258604 -33.80 5.818297e-05    1.040    0.038
       344  -8.9121      6.5901    113.4146   1.1907670267e+02   5.0985101030e+01    0.2671204    0.2171692  50.95  0.001813807    1.432    0.302
       345  -8.9820     12.0901    114.8938   1.1764724809e+02   5.0288181371e+01    0.1984244    0.1815538 -78.08 0.0004575975    1.151    0.131
       346  -9.3654     15.6642    112.8418   1.1630799778e+02   5.0534369051e+01    0.2363646    0.1823332 -65.05 0.0006597195    1.060    0.056
       347  -8.4941     22.6407    113.7067   1.1432517752e+02   4.9813015012e+01    0.1323184   0.08136094 -41.51 0.0003029917    1.697    0.411
       348  -7.5491    101.5111    106.5192   8.8198453992e+01   4.1222030848e+01    0.1522468    0.1455731 -39.42 0.0008102787    1.002    0.002
       349  -8.1182     44.1951    105.1788   1.0604021791e+02   4.9908939118e+01    0.1782384    0.1479028  89.60 0.0003613181    1.315    0.239
       350  -8.2575    245.9856    104.2271   5.5937707289e+01   9.8476538977e+00    0.1662654    0.1168908  54.94   0.00036071    1.629    0.386
       351  -9.4135    119.5146    102.2422   8.1795610605e+01   3.8632488804e+01    0.4253354    0.3370906 -64.49  0.001020546    1.451    0.311
       352  -8.3271    217.2865    102.6114   6.0036269068e+01   1.6156329694e+01    0.1941222    0.1373946  41.81 0.0004318596    1.552    0.356
       353  -9.8249     10.3600    101.2255   1.1629004813e+02   5.3632507471e+01    0.3623074    0.1613389  31.48  0.001371121    2.609    0.617
       354  -9.8027    202.9899     98.0253   6.1373219417e+01   2.0200736211e+01    0.5287095    0.4137666  -5.93  0.002557301    1.550    0.355
       355  -8.0420     88.5410    100.0515   9.0453157249e+01   4.5025572843e+01     0.219244    0.1391927 -48.63 0.0003026286    1.476    0.322
       356  -8.1785     56.1878    100.1724   1.0101224830e+02   4.9744520332e+01    0.1882584    0.1601999  87.98 0.0004794326    1.356    0.263
       357  -8.1615    243.4977     99.4833   5.5198206802e+01   1.1114929645e+01     0.139464     0.123431 -34.27 0.0008103069    1.027    0.026
       358  -8.0207    130.7174     98.0054   7.7506058023e+01   3.7141109007e+01    0.2256081    0.1916427 -42.50 0.0004990257    1.164    0.141
       359  -7.8312    250.4571     97.4704   5.3760807000e+01   1.0042824712e+01    0.1377356    0.1183167 -41.00 0.0002092238    1.027    0.026
       360  -8.8949     71.0508     20.3280   6.8161958462e+01   6.2842973900e+01    0.2491689    0.1812144 -34.90  0.001015158    1.537    0.349
       361  -8.4415    230.9461     96.9468   5.6454979749e+01   1.4146566990e+01    0.2289204    0.1628553 -63.95 0.0008177647    1.679    0.405
       362  -8.3097     58.1477     21.2000   7.3479249532e+01   6.4943471135e+01    0.1902352     0.143477  -0.37 0.0006378482    1.166    0.143
       363  -8.5637      2.3911     20.0986   1.0019444476e+02   7.1278410809e+01    0.1964609    0.1463238   6.64  0.001419333    1.449    0.310
       364  -9.1773    169.3234     18.1964   4.4515114508e+01   4.0381906898e+01    0.2894698    0.1928512  56.48 0.0007318329    1.387    0.279
       365  -9.1670    173.1646     17.1504   4.3673706024e+01   3.9519972884e+01    0.2760612    0.1864617  69.16 0.0005222188    1.341    0.254
       366  -9.4400     71.9152     95.0253   9.4502635922e+01   4.8832099836e+01    0.3891148    0.3399397  52.42  0.001902697    1.314    0.239
       367  -9.2966    210.6627     91.3326   5.8312373778e+01   1.9601986380e+01    0.3425595    0.1642798  60.76 0.0008860554    2.401    0.584
       368  -7.5973    154.2410     94.9883   7.0682033493e+01   3.2354676511e+01    0.2012555    0.1325267 -39.31 0.0003159429    1.505    0.336
       369  -8.6088     39.0072     94.4491   1.0555229950e+02   5.2991316436e+01    0.3181448    0.1126488 -47.58  0.001269877    2.434    0.589
       370  -8.5129    165.2084     94.0985   6.7905704789e+01   2.9910990866e+01    0.2850339    0.2239097  50.20 0.0008743055    1.286    0.222
       371  -8.3652    174.6443     93.0742   6.5575199872e+01   2.7833713284e+01    0.2252421    0.1920307 -31.33 0.0006188436    1.172    0.147
       372  -8.9823    121.3408     17.3927   5.2700728195e+01   5.2415793319e+01    0.2487981     0.204236  66.02 0.0009039433    1.227    0.185
       373  -7.8503    145.7935     92.8390   7.2110780106e+01   3.4772084187e+01    0.2029514    0.1828127  81.35 0.0004853554    1.255    0.203
       374  -8.9525    249.2059     92.1845   5.2720845643e+01   1.1127047659e+01    0.2065891    0.1782252 -19.27 0.0007232747    1.208    0.172
       375  -8.9488    109.3724     15.5688   5.4742076268e+01   5.5405212307e+01     0.239923    0.2082541  33.32 0.0007621411    1.023    0.022
       376  -8.5172    237.2386     92.1746   5.4380774427e+01   1.3592583796e+01    0.1914367    0.1524465 -59.77 0.0005878262    1.307    0.235
       377  -8.6190     25.4712    103.0795   1.1173479500e+02   5.2136162365e+01    0.1783499    0.1684069 -51.86 0.0005939032    1.157    0.136
       378  -9.6974     19.5696     90.7011   1.1150288681e+02   5.5499520220e+01    0.3701959    0.2872528 -70.89  0.001902342    1.165    0.141
       379  -9.7039    242.1502     87.4155   5.2569756543e+01   1.3324197491e+01    0.4769292    0.2000484 -35.38 0.0008299475    2.113    0.527
       380 -10.1271    189.4156     88.2876   6.1306027323e+01   2.5145050720e+01    0.4860658     0.333613 -75.50 2.558705e-05    2.090    0.521
       381  -9.6791    199.8693     76.4031   5.6226514440e+01   2.4667240335e+01    0.4315242    0.3865223  33.32  0.001192062    1.234    0.190
       382  -8.1758      1.6807     13.9623   9.8119249461e+01   7.2379985397e+01    0.1628349    0.1117533 -35.61 0.0007116828    1.107    0.097
       383  -7.6188    176.9978     14.0000   4.2259519046e+01   3.8878321649e+01    0.3042253    0.1267907  69.21  0.001259579    2.169    0.539
       384  -8.1957    195.5570     77.5108   5.7264187278e+01   2.5524471692e+01    0.2238839    0.1746374 -68.65 0.0001234217    1.444    0.308
       385 -10.9716    188.7685     82.2192   5.9771041671e+01   2.6369150063e+01    0.3236938    0.2841946  46.54 0.0002928242    1.179    0.152
       386 -10.6475    195.7151     82.0301   5.8456569020e+01   2.4720599700e+01    0.3845343    0.3052886  65.89  0.001926391    1.331    0.249
       387  -8.6216     99.8911     90.9814   8.4359039253e+01   4.5020101028e+01    0.2315887    0.2111665 -30.63 0.0004907226    1.045    0.043
       388  -9.0483     55.7599     89.6304   9.8615444425e+01   5.2269084603e+01    0.3817734    0.2335953  58.79  0.001693502    2.521    0.603
       389  -8.1757    136.6792     89.9870   7.3583487775e+01   3.7457058507e+01    0.1963091    0.1438259 -38.60 0.0007626987    1.355    0.262
       390  -8.8590    212.8541     94.8006   5.8826061626e+01   1.8504099428e+01    0.3378884    0.2505317 -69.68  0.001052466    1.663    0.399
       391  -9.2584     27.8834     88.6583   1.0820600206e+02   5.5344741661e+01    0.3152396    0.2431087  79.57   0.00186047    1.600    0.375
       392  -9.3368      4.2971     88.2870   1.1632004339e+02   5.6981235537e+01    0.4071362    0.2888427 -14.36  0.002610173    1.712    0.416
       393  -8.1031      2.9252     82.5515   1.1587374838e+02   5.8361382034e+01    0.3185155    0.1090001 -44.89  0.001461707    2.474    0.596
       394  -8.5411     40.5779     87.1668   1.0337359806e+02   5.4537615764e+01    0.3386808   0.07464862 -51.94   0.00114413    3.231    0.691
