#   1 NUMBER                 Running object number                                     
#   2 MAG_AUTO               Kron-like elliptical aperture magnitude                    [mag]
#   3 X_IMAGE                Object position along x                                    [pixel]
#   4 Y_IMAGE                Object position along y                                    [pixel]
#   5 X_WORLD                Barycenter position along world x axis                     [deg]
#   6 Y_WORLD                Barycenter position along world y axis                     [deg]
#   7 A_WORLD                Profile RMS along major axis (world units)                 [deg]
#   8 B_WORLD                Profile RMS along minor axis (world units)                 [deg]
#   9 THETA_WORLD            Position angle (CCW/world-x)                               [deg]
#  10 FWHM_WORLD             FWHM assuming a gaussian core                              [deg]
#  11 ELONGATION             A_IMAGE/B_IMAGE                                           
#  12 ELLIPTICITY            1 - B_IMAGE/A_IMAGE                                       
         1 -15.5279     97.4714     69.5692   3.3037451410e+01   5.0530217592e+01     6.965445     3.939566  34.98   0.02560995    2.045    0.511
         2 -14.4508     66.7444     71.2033   4.5603723454e+01   5.6567477952e+01     4.555857     3.179665 -38.34   0.02082177    1.537    0.349
         3 -16.2866     64.1475    136.0188   6.1849344796e+01   4.0292472622e+01      11.6762     5.855947  27.26   0.04662585    2.025    0.506
         4 -14.4493    136.3731    128.0410   3.8143344217e+01   2.9085729687e+01     3.973013     2.611818 -78.65    0.0150544    2.753    0.637
         5 -14.6240     64.5300    106.6792   5.6173805024e+01   4.7961293706e+01     5.075723     2.708029  57.67   0.01874282    2.424    0.587
         6 -16.2925    120.4289    108.5669   3.7654820769e+01   3.6756673201e+01     7.901224     4.496369  36.92   0.03131364    1.835    0.455
         7 -14.6054     29.0748    118.9847   7.2163744254e+01   4.9003122701e+01      3.75182     2.907238 -49.05    0.0199411    1.369    0.270
         8 -15.4986    162.4978    144.7314   3.5623667517e+01   2.0510685687e+01     4.797753     3.239253  24.62   0.02301018    1.611    0.379
         9 -10.7790     84.2031     34.2372   2.3421008006e+01   6.0279779054e+01    0.8216294    0.3442811 -30.79  0.002963306    2.762    0.638
        10 -11.5101     10.8967     21.4997   6.0948422712e+01   7.5321056987e+01    0.4418494    0.4020634 -65.39  0.002064856    1.248    0.199
        11 -10.8278      3.5401     12.5140   6.4036251848e+01   7.7728354460e+01    0.5679775    0.2861569 -40.55  0.002950792    1.698    0.411
        12 -11.0173      3.7506     22.5577   6.7832312423e+01   7.5504327288e+01     0.396403    0.3595777 -81.76  0.002631185    1.269    0.212
        13 -12.1080     12.6668      9.2203   5.2753481535e+01   7.7713966442e+01    0.9690292    0.5494297 -26.42  0.005001169    1.814    0.449
        14 -11.5866      6.1544      4.3121   5.6662623455e+01   7.9242128185e+01    0.7255274    0.4553108   6.90  0.004183744    1.540    0.351
        15 -10.0494      7.9057      9.7127   5.7991440209e+01   7.8029432738e+01    0.2472821    0.2327241 -12.56 0.0004462564    1.176    0.149
        16 -10.3314     89.5063     23.2139   1.6427759514e+01   6.0555774727e+01     0.572077    0.3335803  18.85  0.002196186    2.790    0.642
        17  -9.6226     86.8658      9.0511   1.0105062670e+01   6.2884405126e+01    0.3431991     0.217519 -88.88  0.001194239    1.957    0.489
        18  -8.9185     45.4685      8.5317   2.6263897860e+01   7.2734771053e+01    0.1369322    0.1180876  23.38 -7.057177e-05    1.034    0.033
        19  -9.5341     42.6698      3.6997   2.4399238366e+01   7.3928191197e+01    0.2333395    0.2098428 -75.47 0.0001519311    1.525    0.344
        20 -10.0050     32.4013      4.1986   3.1567907387e+01   7.5817620300e+01    0.3099892     0.168219  48.10 0.0005967237    1.927    0.481
        21 -10.0916     27.2864      3.0440   3.4623040448e+01   7.6856409601e+01    0.2830306    0.1832676 -11.64 0.0008887346    1.778    0.437
        22 -10.3187     27.9674      8.9738   3.8600742274e+01   7.5816857899e+01    0.2171868    0.1693442  24.84 0.0003421885    1.183    0.155
        23  -9.3091     81.9217    245.9834   6.9273436585e+01   1.3911371762e+01    0.1774972    0.1380054  32.98 0.0004536187    1.072    0.067
        24  -8.7202    201.8401    250.1820   4.5555729893e+01  -1.3495829337e+00    0.1550577   0.09680662   3.14   0.00106491    1.344    0.256
        25  -9.4462    153.2191    250.4751   5.4717570099e+01   4.3380794813e+00    0.2219892   0.08919238  26.22  0.001108749    2.013    0.503
        26  -9.6806    141.3846    249.7831   5.7016088341e+01   5.9034579971e+00    0.2072057    0.1483306  19.30 0.0004032943    1.107    0.096
        27  -8.7686    132.8812    250.5394   5.8838716647e+01   6.8604670962e+00    0.1764291   0.08869237  29.58 0.0004993647    1.476    0.323
        28  -8.8515    128.7489    250.2516   5.9661375214e+01   7.4202856695e+00    0.1586006    0.1132186  11.57 0.0006060908    1.333    0.250
        29  -9.4003     89.1639    250.0251   6.8025259763e+01   1.2369372000e+01    0.1710491     0.134826  19.40 0.0004484302    1.251    0.200
        30  -8.9691     76.1425    250.2096   7.0843036695e+01   1.3894074548e+01    0.1704998    0.1278867  26.66 0.0003937721    1.190    0.160
        31 -10.2595     61.5161    247.7096   7.3837554116e+01   1.6004727782e+01    0.2475293    0.2040788  -8.90  0.001722291    1.662    0.398
        32  -8.9938     25.4491    250.0277   8.1631016590e+01   1.9394272719e+01    0.1394106    0.1007104  84.05 0.0005235051    1.523    0.344
        33  -8.2901     15.4346    250.4567   8.3711322034e+01   2.0263307917e+01    0.1129732   0.07804013  46.78 2.427843e-05    1.008    0.008
        34  -8.2294    206.2803    245.3042   4.4121075766e+01  -1.2885398941e+00    0.1098866   0.06426392   1.65 0.0003189226    1.552    0.356
        35  -9.4822     71.9392    242.5562   7.1209708946e+01   1.5689673864e+01     0.199774    0.1576096  27.73 0.0004095285    1.177    0.151
        36  -8.9503     75.5035    244.5077   7.0566965072e+01   1.4930315471e+01    0.2006716    0.1276966  45.24 0.0005808625    1.263    0.208
        37  -9.0889     78.8484    243.0878   6.9723334965e+01   1.4772794440e+01    0.2113957    0.1488842  13.84  0.000432673    1.546    0.353
        38 -10.0776     58.3671    243.4186   7.4260098714e+01   1.7107235397e+01    0.2314854    0.1982856   5.76  0.001433102    1.457    0.314
        39  -9.6674     57.1543    239.0368   7.4257663564e+01   1.8025611366e+01    0.2293143    0.1939588  -9.54  0.001408448    1.604    0.377
        40  -9.4612     50.5393    245.0121   7.6063856619e+01   1.7694165275e+01     0.195571    0.1369958  22.02 0.0004250535    1.419    0.295
        41  -9.4660     42.9099    244.6339   7.7699984247e+01   1.8579863737e+01    0.1867192    0.1412338  61.49 0.0003364408    1.240    0.194
        42  -8.2959    187.2985    244.3720   4.7405959510e+01   9.9716159901e-01    0.1181147   0.06929803  -0.06 0.0006074528    1.742    0.426
        43  -9.5554    113.7338    242.5798   6.2042560498e+01   1.0495084361e+01    0.1974314    0.1458644  18.27 0.0004925735    1.228    0.186
        44  -9.5400     50.5278    240.3835   7.5809536724e+01   1.8521074750e+01    0.4288062     0.242803 -19.96  0.001814468    4.582    0.782
        45  -8.4783     37.3462    243.3047   7.8841904155e+01   1.9397717988e+01     0.103602   0.08512646  -3.72 0.0005073416    1.693    0.409
        46  -9.2811     23.0766    241.8854   8.1855206924e+01   2.1073280066e+01    0.2362081    0.1333609  81.91  0.001467565    1.860    0.462
        47  -9.4218     17.5719    242.1378   8.3033902538e+01   2.1546667743e+01    0.2385106    0.1689184 -18.49  0.001404226    2.399    0.583
        48  -9.4498     11.0884    242.9791   8.4419607026e+01   2.1985218197e+01    0.1823019    0.1206608  38.82 0.0003334942    1.154    0.133
        49  -9.4364    226.8147    242.6394   4.0278252826e+01  -3.2077944806e+00    0.1460549   0.07834827  31.18 0.0009613619    1.780    0.438
        50  -8.4817    162.5267    242.4876   5.1900370683e+01   4.2594883163e+00    0.1523572     0.100293 -22.83  0.000511929    1.704    0.413
        51  -8.2650    164.2917    239.3205   5.1146721035e+01   4.4682094797e+00     0.118339   0.07568292   2.37 0.0002680001    1.606    0.378
        52  -8.7467    146.5235    242.1238   5.5078448909e+01   6.3408439400e+00    0.1428863    0.1162488 -32.79 0.0004291615    1.503    0.335
        53  -9.2712    141.7898    241.4925   5.5978871592e+01   7.0408855270e+00    0.1785918    0.1559025 -11.05 0.0003077728    1.302    0.232
        54  -9.2703    134.1336    242.1257   5.7648582851e+01   7.9353006691e+00    0.1868981    0.1400178  24.09  0.000424553    1.020    0.020
        55  -8.8258    131.0278    239.7560   5.8034558994e+01   8.6963806770e+00    0.1747382    0.1235738  27.13 0.0004463963    1.075    0.069
        56  -9.4415    126.9530    240.9580   5.9035361966e+01   9.0419763177e+00    0.2856357    0.1493545 -31.19  0.001444689    2.815    0.645
        57  -9.9993    130.7915    234.8011   5.7513958166e+01   9.4943369107e+00    0.3040344     0.193263  -8.85  0.001578822    2.151    0.535
        58  -9.4024    125.9252    234.0058   5.8473502693e+01   1.0266966263e+01    0.2283716    0.1650329   7.55 0.0004869903    1.434    0.303
        59  -9.4387    122.4194    240.7861   5.9985417052e+01   9.6567629641e+00    0.1945233    0.1440304   7.76 0.0004535799    1.387    0.279
        60  -9.2096    123.4513    237.4877   5.9402293324e+01   1.0040379073e+01      0.19719    0.1305063  23.53 9.380509e-05    1.239    0.193
        61  -9.7138     87.8791    241.3477   6.7586569293e+01   1.3966133278e+01    0.2735748    0.1685605 -77.35  0.001531858    2.258    0.557
        62  -9.5029     27.9220    241.3268   8.0795396800e+01   2.0704495438e+01     0.208482    0.1650832   8.26 0.0004109113    1.617    0.382
        63  -9.3259     31.2700    240.0373   8.0019705638e+01   2.0607381607e+01    0.2293946    0.1194118  55.73  0.001366315    1.567    0.362
        64  -8.4494      4.0433    242.4409   8.5870602254e+01   2.2699028764e+01    0.1559716   0.08490838  31.02 0.0003460326    1.485    0.326
        65  -9.7013     98.7504    241.4037   6.5193354091e+01   1.2595831458e+01    0.1685567   0.09582648  23.34 0.0004198182    1.554    0.357
        66  -9.3426     83.8450    240.8559   6.8439674679e+01   1.4547564722e+01    0.1772894    0.1398257  21.66 0.0004723523    1.231    0.188
        67  -8.6416    153.3391    240.2760   5.3463332361e+01   5.7306826927e+00    0.1208476   0.07627466   7.42 0.0002489923    1.614    0.380
        68  -8.8360     91.7681    240.4238   6.6645622231e+01   1.3638579535e+01     0.169572   0.09756863  22.11 0.0006650081    1.604    0.377
        69  -9.5672    118.2383    238.8521   6.0679426652e+01   1.0505554192e+01    0.2143646    0.1447439  21.33 0.0005354859    1.273    0.214
        70  -9.8023     67.9200    238.6936   7.1827423855e+01   1.6844014638e+01    0.2216699      0.16381  72.67 0.0009203213    1.506    0.336
        71  -8.7604     35.6790    239.0013   7.9012137781e+01   2.0350240634e+01    0.1593111    0.1223152  49.48 0.0004305714    1.068    0.064
        72 -10.7922     31.1837    233.7094   7.9773604955e+01   2.1790613138e+01    0.2881677    0.2004778  50.05  0.001388759    1.095    0.086
        73  -8.6835    112.1349    237.8329   6.1903227583e+01   1.1465031084e+01    0.1612768    0.1234167  12.83 0.0003259152    1.296    0.228
        74  -9.6536     77.8433    237.9449   6.9544877208e+01   1.5787797158e+01    0.2890599    0.1498969  23.26  0.001153663    1.798    0.444
        75  -8.0446     82.3101    235.3048   6.8322264800e+01   1.5704739964e+01    0.1148635    0.0885281   0.92 0.0002946201    1.611    0.379
        76  -8.4493    167.3373    237.2795   5.0278710711e+01   4.3611190361e+00    0.1208836   0.07472482   6.51 0.0002509215    1.617    0.382
        77  -9.3475    104.9388    237.0375   6.3408592230e+01   1.2530453357e+01    0.1851608      0.14406  27.54 0.0003431262    1.068    0.064
        78  -9.9593     42.0795    236.3550   7.7469404849e+01   2.0170149879e+01    0.2301983     0.197476 -66.30  0.001155173    1.521    0.343
        79  -9.0946     21.1998    235.8908   8.2056614849e+01   2.2356117601e+01    0.2574914    0.1313002  78.48  0.001368442    2.006    0.502
        80  -9.1490     17.6536    237.1037   8.2864538721e+01   2.2462971633e+01    0.1744847    0.1125289  49.39 0.0004204946    1.127    0.112
        81  -8.6585      1.9885    237.3029   8.6201415339e+01   2.3811538369e+01     0.154772    0.1056765  41.67 0.0002841791    1.117    0.105
        82  -9.2306    157.3218    236.2285   5.2144512093e+01   5.7919595512e+00    0.1981578    0.1246364  21.40 0.0003715694    1.270    0.213
        83  -9.4593    146.2969    235.6047   5.4329947953e+01   7.3216137248e+00    0.2088435    0.1604165  12.00 0.0005147356    1.145    0.127
        84  -9.0928    135.1511    236.2017   5.6746872574e+01   8.7000673290e+00    0.1849599    0.1344606  15.19 0.0005227381    1.224    0.183
        85  -9.6260     95.6149    235.4129   6.5331332400e+01   1.4006698123e+01    0.2119377    0.1715057  24.89 0.0003773285    1.134    0.119
        86  -9.4306     99.8208    232.8752   6.4140325784e+01   1.3901151112e+01    0.2290815    0.1742516  43.50 0.0006820178    1.172    0.147
        87  -9.6672    102.0202    228.1451   6.3163224549e+01   1.4436092920e+01    0.1864585     0.172116   8.50 0.0002780003    1.228    0.185
        88  -8.2631     72.6821    236.6784   7.0608566568e+01   1.6637087920e+01    0.1135529   0.08874661  -2.55 0.0007043026    1.666    0.400
        89  -8.3672    231.6772    235.6706   3.8492611989e+01  -2.9678983240e+00    0.1128567   0.06140169   0.06   0.00070494    1.696    0.410
        90  -9.7272     90.8769    233.7516   6.6245749002e+01   1.4900619186e+01     0.215939    0.1883038 -30.90  0.000595607    1.471    0.320
        91  -9.3959     57.8373    221.4487   7.2926527726e+01   2.1258532856e+01     0.460517    0.2648917 -26.95  0.002052946    3.503    0.715
        92  -9.6666     62.9386    220.9417   7.1672335342e+01   2.0753966690e+01    0.2221601    0.1492139  37.07 0.0004586266    1.167    0.143
        93  -9.3257     54.1187    231.1159   7.4446503450e+01   1.9828493614e+01    0.3715078    0.1819158  19.36  0.001416607    2.239    0.553
        94  -9.1161     57.5995    226.4308   7.3331571272e+01   2.0319807964e+01    0.2954187     0.188035 -13.47  0.001466454    2.821    0.646
        95  -8.5129     52.7034    235.2702   7.5025262746e+01   1.9213404681e+01    0.2046802     0.128563  37.16 0.0003586355    1.195    0.163
        96  -9.6412     49.5483    234.2658   7.5678339679e+01   1.9749713283e+01    0.2001676    0.1476341  20.42 0.0006380278    1.411    0.291
        97  -9.2365     36.9736    234.9957   7.8541282225e+01   2.0958507459e+01    0.1742093    0.1351609  41.98  0.001206408    1.076    0.071
        98  -8.5367    184.4600    234.5008   4.6595735649e+01   2.5852200802e+00    0.1186944   0.08702201  11.06 0.0001781116    1.040    0.039
        99  -9.4582    176.8051    233.9623   4.7984053390e+01   3.6117432052e+00    0.1579308    0.1410189  70.10  0.001087299    2.040    0.510
       100  -8.4662    170.5363    232.9009   4.9062626743e+01   4.5533937520e+00    0.1498147    0.1093981 -27.08  0.000606416    1.500    0.333
       101  -9.0756    153.1050    232.4363   5.2517127516e+01   6.8922657017e+00    0.1859508    0.1457781  -5.10 0.0004072433    1.286    0.222
       102  -9.0256    140.1744    233.0862   5.5304443071e+01   8.5118644826e+00    0.1766572    0.1354508  11.74 0.0002893102    1.183    0.155
       103 -10.4619    114.8600    231.9298   6.0672602405e+01   1.2079827065e+01    0.2742287     0.183881  22.75 0.0003683023    1.283    0.221
       104  -9.1769    107.6732    233.0511   6.2394550979e+01   1.2843266571e+01    0.1668393    0.1379635  27.86 0.0004791492    1.076    0.071
       105  -9.5179     77.4066    232.9270   6.9240177572e+01   1.6736514545e+01    0.2173999    0.1478208  27.46 0.0004323414    1.259    0.206
       106  -8.6285     69.4854    233.4901   7.1093518799e+01   1.7596656749e+01    0.1245997   0.09685753  37.52 0.0007540391    1.041    0.040
       107  -8.3477      5.0024    233.7909   8.5494448873e+01   2.4209765243e+01    0.1427273   0.07145182  30.27 0.0002182986    1.617    0.382
       108  -9.6587     84.8459    230.9951   6.7372092255e+01   1.6156255905e+01    0.3727898     0.209419  10.24   0.00177804    2.473    0.596
       109  -9.1313     72.8950    231.8294   7.0185472502e+01   1.7488533221e+01    0.1745895    0.1665494  19.60 0.0005139079    1.271    0.213
       110 -10.0575     71.6218    227.2173   7.0113668181e+01   1.8498703165e+01    0.2396738    0.2087334 -52.68 0.0005400422    1.475    0.322
       111  -8.1923    166.6660    231.7079   4.9668291305e+01   5.2190188083e+00    0.1231638   0.07720317   5.13 0.0004229889    1.636    0.389
       112  -9.4656    134.7616    231.5373   5.6271099885e+01   9.4766668648e+00    0.2286083    0.1002175  27.47  0.001093251    1.906    0.475
       113  -9.3941    122.0420    230.9599   5.8973936295e+01   1.1279358528e+01    0.1896046     0.147776  25.33 0.0003485761    1.040    0.038
       114  -8.8215    188.1526    230.1142   4.5283247931e+01   2.6981272495e+00    0.1878384    0.1233059   6.53  0.000835308    1.333    0.250
       115  -9.3051    146.6686    230.1291   5.3560556669e+01   8.0947954912e+00    0.2164094    0.1402233  23.64 0.0003545089    1.238    0.192
       116  -9.4991    126.8788    229.9518   5.7793160141e+01   1.0792321937e+01    0.1836285    0.1411988  13.21 0.0003383321    1.224    0.183
       117  -8.8297     66.9671    230.3041   7.1433165311e+01   1.8485118140e+01    0.1773298    0.1250914  33.60 0.0003989777    1.138    0.122
       118  -8.7583     80.1010    229.1087   6.8300376363e+01   1.7096611237e+01    0.1777472    0.1449147  22.03 0.0002893097    1.220    0.181
       119 -10.3127     36.0450    228.7532   7.8451285306e+01   2.2238664677e+01    0.3721089    0.1687383  28.71 0.0007099631    1.813    0.449
       120  -9.3684     29.3272    229.3214   8.0002431770e+01   2.2811507769e+01    0.1791838     0.138431  17.83 0.0005057487    1.460    0.315
       121  -8.0826      2.7260    229.2862   8.5890594878e+01   2.5255359199e+01    0.1195177   0.05667685  51.99 0.0001899608    1.508    0.337
       122  -8.6239    158.9534    228.4626   5.0789211789e+01   6.6999456576e+00    0.1775202   0.09706105  28.84 0.0002891059    1.457    0.314
       123  -9.4382    152.5383    227.1453   5.1939532816e+01   7.7568372470e+00    0.3142201    0.1662299  16.84  0.001342508    1.963    0.490
       124  -9.0083    134.1392    227.8568   5.5954307664e+01   1.0145415301e+01     0.169041    0.1245651  11.35 0.0003641188    1.294    0.227
       125  -9.9759     92.7491    227.4165   6.5220086310e+01   1.5785589400e+01    0.3490752    0.2145005  46.23  0.001403892    1.430    0.300
       126  -9.4295     92.0253    221.3431   6.4788395709e+01   1.6992565820e+01    0.1972715    0.1715783 -16.70 0.0004246976    1.419    0.295
       127  -9.4420    139.4222    227.1949   5.4728198658e+01   9.5306251963e+00     0.270266    0.1389406  33.66 0.0006350634    1.544    0.352
       128  -9.0318    143.7168    225.9753   5.3649728618e+01   9.1360937276e+00    0.2136454    0.1448786  10.51  0.000429888    1.452    0.311
       129 -10.2461    109.7800    225.9371   6.1156635132e+01   1.3783008416e+01    0.2750197    0.2085569 -29.10 0.0004600241    1.659    0.397
       130  -8.2767    113.6798    222.6948   5.9900236859e+01   1.3817344167e+01    0.1334448    0.1055119  31.21 0.0003076793    1.012    0.012
       131  -9.0625     75.8358    226.8096   6.9096291801e+01   1.8054828995e+01    0.1802499    0.1515421  24.21 0.0005189548    1.198    0.165
       132  -8.8320     19.9173    227.2497   8.2042455401e+01   2.4122389148e+01    0.1620367    0.1185237  42.46 0.0003501104    1.080    0.074
       133  -8.9666    176.9774    226.2768   4.6876792025e+01   4.6365706586e+00     0.168002    0.1202645  19.97 0.0002692705    1.097    0.089
       134  -8.8688     46.7155    225.3155   7.5802494901e+01   2.1764833082e+01    0.2020404    0.1521513 -19.28  0.001129183    1.989    0.497
       135  -8.8139      9.0421    225.4079   8.4416873421e+01   2.5465038706e+01    0.2333597    0.1172959 -62.18   0.00129343    2.573    0.611
       136  -8.2533    184.6917    225.6801   4.5301107503e+01   3.7231649971e+00    0.1222731   0.07561563   1.55 0.0003983797    1.640    0.390
       137  -8.9348    167.7752    224.7663   4.8487734831e+01   6.0621211606e+00     0.177109     0.131249  13.07 0.0004677072    1.103    0.094
       138  -8.8493    162.8129    225.1709   4.9549763327e+01   6.6670621424e+00    0.1715141    0.1394806  23.36 0.0003750904    1.140    0.123
       139  -9.8981    126.8975    224.4209   5.7123578271e+01   1.1700630792e+01    0.2066773    0.1882233   7.84  0.000505292    1.184    0.156
       140  -9.7406     66.1052    225.0309   7.1234775242e+01   1.9582831583e+01    0.2152396    0.1532868  26.84 0.0003648534    1.271    0.213
       141  -9.0711     42.2399    225.1869   7.6838030116e+01   2.2276565984e+01    0.1654567    0.1467664  35.97 0.0006872496    1.212    0.175
       142  -8.6578    190.7441    224.4432   4.3975677883e+01   3.1186299549e+00    0.1590343   0.09044781  19.19 0.0004547097    1.503    0.335
       143  -8.4588    180.5156    224.4344   4.5923771687e+01   4.4313340121e+00    0.1222533   0.09160144  11.70 0.0001158675    1.045    0.043
       144  -9.2810    120.0576    223.9072   5.8593765815e+01   1.2730159019e+01    0.1901341    0.1519375  23.15 0.0003615517    1.073    0.068
       145  -9.7846     99.6744    223.3094   6.3199497459e+01   1.5611406921e+01    0.2591708    0.1911058  18.59 0.0002746245    1.312    0.238
       146  -8.3301     95.7086    223.2706   6.4119643417e+01   1.6148150862e+01    0.1460563    0.1186899 -45.38 0.0001814102    1.539    0.350
       147 -10.2650     97.2748    217.9823   6.3197209290e+01   1.6914441588e+01    0.7815676    0.1052197  34.05  0.002312663    4.453    0.775
       148  -9.7972     88.1384    219.8695   6.5561848065e+01   1.7782460596e+01    0.2826323     0.187654 -47.88  0.001288987    1.897    0.473
       149  -9.7236     28.5177    222.7875   7.9904428173e+01   2.4167302785e+01    0.2998154    0.2643787  29.95  0.001409405    1.272    0.214
       150  -8.6834    156.7378    223.0126   5.0502952143e+01   7.8121335445e+00    0.1632602    0.1363302   6.56 0.0003105469    1.115    0.103
       151  -9.1928    130.1179    219.2507   5.5756546009e+01   1.2120852433e+01    0.1915068    0.1594991   1.85 0.0004726252    1.235    0.190
       152  -8.8290    137.0561    222.6592   5.4660009880e+01   1.0584191728e+01     0.193295    0.1457264   7.07 0.0007121713    1.313    0.239
       153  -8.8104    133.5231    221.0060   5.5224048587e+01   1.1348621571e+01    0.1967874    0.1482651  37.43 0.0003692616    1.209    0.173
       154  -9.5065    104.8689    222.6013   6.1917874368e+01   1.5037937362e+01    0.2132161    0.1602636  30.29 0.0007491214    1.072    0.067
       155  -9.0193     79.0477    222.9998   6.8011799126e+01   1.8367165971e+01    0.1877344    0.1515359  32.47  0.000307333    1.087    0.080
       156  -8.7880     14.8577    222.8480   8.3037651713e+01   2.5451214828e+01    0.1561386    0.1398642  49.02 0.0004044932    1.230    0.187
       157  -9.4151     73.3300    221.9329   6.9274989711e+01   1.9290369006e+01    0.2235137    0.1571229  25.46 0.0003754255    1.301    0.232
       158 -10.1748     44.5641    218.9502   7.5928506320e+01   2.3258517259e+01      0.24625    0.1501954  31.25 0.0004499286    1.372    0.271
       159  -9.6665     37.5838    221.3108   7.7716958307e+01   2.3535173728e+01    0.2046421    0.1628914  47.92  0.000527284    1.044    0.042
       160  -8.4535    207.1625    221.6110   4.0556617860e+01   1.4469902684e+00    0.1604871   0.08595356  19.01  0.000574703    1.644    0.392
       161  -8.3244    201.2848    221.3497   4.1571176053e+01   2.2020246209e+00    0.1205349   0.07271308  -1.85 0.0004033741    1.655    0.396
       162  -8.1193    185.4546    221.5018   4.4543329523e+01   4.1927128297e+00    0.1219507   0.09215368   9.38 0.0001300145    1.041    0.039
       163  -9.4947    147.7358    220.1312   5.2009526994e+01   9.5029431789e+00    0.3084237    0.1967335  -1.23  0.001340007    1.920    0.479
       164  -9.3515      2.1045    221.4608   8.5867327430e+01   2.6826811181e+01    0.1617052    0.1160573  42.96  0.000739941    1.110    0.099
       165  -9.4061    238.0333    220.0124   3.5138828214e+01  -1.9190840090e+00    0.1345534   0.09537052   1.63 0.0007056613    1.025    0.024
       166  -8.1816    179.6613    220.6745   4.5540895652e+01   5.0666150721e+00    0.1276291   0.07854376   2.06 0.0007051424    1.726    0.421
       167  -9.0023    123.9263    219.8887   5.7231486598e+01   1.2881796298e+01    0.1880345    0.1476638  11.46 0.0002913376    1.245    0.197
       168  -9.6528    115.9691    218.9588   5.8935168696e+01   1.4157677684e+01    0.3113433    0.2801386 -62.83 0.0008287897    1.412    0.292
       169  -8.8695     68.1816    219.8285   7.0329376518e+01   2.0335399678e+01    0.1604297    0.1346959  17.06 0.0002602781    1.297    0.229
       170  -9.1676      6.7402    219.9120   8.4792148108e+01   2.6746452176e+01    0.2347376    0.1242905  47.35 0.0009414683    1.367    0.268
       171  -8.9585      5.1632    215.8229   8.5049611879e+01   2.7700550890e+01    0.2315226   0.08677975  82.87  0.001111177    2.660    0.624
       172  -9.2234    140.9506    219.0315   5.3329921496e+01   1.0631342775e+01    0.1903169    0.1528825  14.60 0.0003738589    1.101    0.091
       173  -8.5509    109.1812    218.9034   6.0500707233e+01   1.5111740988e+01    0.1655969    0.1346245   9.04 0.0003585558    1.288    0.223
       174  -9.4486     82.0500    218.3407   6.6868547430e+01   1.8870517235e+01     0.181712    0.1651598  22.35 0.0003597111    1.191    0.161
       175  -9.6189     51.9226    212.0932   7.3692735422e+01   2.3826505081e+01    0.2208944    0.1781536  20.76 0.0004252551    1.318    0.241
       176  -9.1649     53.4831    219.4643   7.3827691928e+01   2.2155220436e+01    0.3392022     0.106075  48.69  0.001394649    2.679    0.627
       177  -9.6624     54.2125    215.8357   7.3398318596e+01   2.2798553177e+01    0.2817678    0.1972991  21.03 0.0008583079    1.454    0.312
       178  -8.2538     16.3822    219.2544   8.2571099548e+01   2.6028460287e+01    0.1048955   0.08803262  -7.87 0.0006963635    1.664    0.399
       179  -9.0519     12.1250    219.2118   8.3547883474e+01   2.6419501828e+01    0.1588942    0.1352098  44.38 0.0003075335    1.179    0.152
       180  -8.7072    195.2098    217.9689   4.2172886338e+01   3.4120337992e+00    0.1593476     0.122404   3.48            0    1.048    0.046
       181  -8.2128    184.2908    218.2726   4.4285444713e+01   4.7913651418e+00    0.1196224   0.07704336   3.69 0.0002611418    1.514    0.339
       182  -8.2332    152.6674    218.2630   5.0698120286e+01   9.1088946546e+00    0.1202816   0.08649214  45.55  0.000256105    1.576    0.366
       183  -9.6275    102.9822    214.0784   6.1406470077e+01   1.6860328143e+01    0.2104797    0.1895476  74.63 0.0003741703    1.314    0.239
       184 -10.2637     85.1562    223.4331   6.6610235929e+01   1.7502811237e+01    0.2427364    0.2062757  -1.58 0.0004529879    1.414    0.293
       185  -9.2471    106.8071    215.3704   6.0648006694e+01   1.6086597238e+01    0.2611571    0.1341981  29.13 0.0005913469    1.635    0.388
       186  -9.6145     75.8524    217.8221   6.8312048910e+01   1.9767790916e+01     0.273781    0.1528815  26.74  0.001095014    1.583    0.368
       187  -8.9819     71.7163    216.4272   6.9189663479e+01   2.0564396660e+01    0.1836747    0.1352915  31.24 0.0003855245    1.165    0.142
       188  -8.3688    169.7332    217.0415   4.6979797759e+01   6.9285096270e+00    0.1671654    0.1352831   4.14 0.0003680224    1.094    0.086
       189  -8.5773    157.0999    217.4510   4.9646520222e+01   8.6159626334e+00    0.1825259     0.102662  28.47 0.0003864282    1.464    0.317
       190  -8.8153    135.0978    216.4800   5.4280905345e+01   1.1883794698e+01    0.1925953    0.1606703 -12.03  0.000457786    1.303    0.233
       191  -8.6945    137.9816    213.2596   5.3201359534e+01   1.2015040418e+01    0.1808308    0.1389684  23.94 0.0002450258    1.067    0.063
       192  -9.0585    141.4801    211.0338   5.2112013623e+01   1.1885326352e+01    0.2414038    0.1547773  17.00 0.0004078719    1.517    0.341
       193  -9.6936    146.5302    207.5051   5.0485373700e+01   1.1742709495e+01    0.3634463    0.2800449  83.68  0.001971831    2.331    0.571
       194  -9.1487    150.2898    210.3293   5.0074762816e+01   1.0723500277e+01    0.2263277    0.1657567  -6.88 0.0006542198    1.479    0.324
       195  -9.3872    143.7393    214.3407   5.2077159113e+01   1.1006401522e+01    0.1934828    0.1698501   7.11 0.0004102845    1.127    0.113
       196 -10.0643    146.4303    211.6991   5.1114344918e+01   1.1056271535e+01    0.2532538     0.214681   5.15 0.0005860648    1.127    0.113
       197  -9.1931     36.9577    217.0455   7.7637222814e+01   2.4458151192e+01    0.1831354    0.1432333  44.20 0.0002967917    1.045    0.043
       198  -8.1793    165.2532    216.3854   4.7797474372e+01   7.6444795218e+00    0.1254872    0.0830541  -5.82 0.0005824478    1.669    0.401
       199  -8.9963    127.0138    215.9840   5.6036244431e+01   1.3120430722e+01    0.1967502    0.1397073   1.76 0.0005034896    1.622    0.383
       200  -9.1347     65.9523    215.7285   7.0532315599e+01   2.1418930230e+01    0.1805827    0.1485219  26.79 0.0005216586    1.194    0.163
       201  -8.3723    211.0137    215.2495   3.8898760870e+01   1.7804423127e+00    0.1372727   0.08150945  25.26  0.000262868    1.446    0.309
       202  -8.6129    179.9858    215.2914   4.4673523251e+01   5.7882295993e+00    0.1735453    0.1241337  18.34 0.0002938634    1.132    0.116
       203  -8.1091    161.2990    215.3052   4.8458019093e+01   8.3607092669e+00    0.1264617   0.08463623   1.85 0.0003126192    1.590    0.371
       204  -8.3414    151.4593    215.4314   5.0556406093e+01   9.7283805033e+00    0.1290499    0.1022994  18.57 6.748103e-05    1.028    0.027
       205  -9.6131    120.2608    214.9550   5.7452872174e+01   1.4263255044e+01    0.2287073    0.1596542  23.80 0.0003599083    1.245    0.197
       206  -8.2803     41.2999    210.2805   7.6192425138e+01   2.5388660053e+01    0.1809504    0.1137387  51.29 0.0002485284    1.299    0.230
       207 -10.2374     42.8911    213.8457   7.6021230472e+01   2.4477503872e+01    0.3520583     0.207343 -41.43  0.001730636    2.596    0.615
       208  -9.3379     46.8512    212.6156   7.4975417948e+01   2.4293816835e+01    0.2088417    0.1536103  64.91 0.0003864582    1.271    0.213
       209  -9.0623     13.1740    215.1688   8.3179975751e+01   2.7144132766e+01    0.1596422    0.1431669  42.57 0.0005638603    1.235    0.190
       210  -8.4693    200.6195    214.1081   4.0581486636e+01   3.2340395097e+00    0.1578836   0.09313084 -19.92 0.0006077337    1.685    0.407
       211  -8.9027    187.0739    213.7031   4.3055011371e+01   5.0618705989e+00    0.1741012    0.1223465  17.32 0.0004839909    1.161    0.139
       212 -10.0177     84.8281    213.9531   6.5769798272e+01   1.9356539861e+01    0.2238207    0.1734854  27.43 0.0002877898    1.162    0.140
       213  -8.4933     80.0224    214.4633   6.6989850102e+01   1.9888493584e+01    0.1904146    0.1090676  29.55 0.0003271729    1.471    0.320
       214  -9.2617     61.3164    213.9174   7.1519576621e+01   2.2347002349e+01    0.2156477    0.1589889  28.80 0.0004777647    1.232    0.188
       215  -9.1987     63.8269    210.7235   7.0640815760e+01   2.2692170804e+01    0.4231736    0.1215617  39.80 0.0009566626    2.480    0.597
       216  -9.1885     29.0908    213.9181   7.9362611802e+01   2.5901996399e+01    0.1821814    0.1443338  47.79 0.0003950311    1.039    0.038
       217  -8.7556    131.1128    213.5063   5.4779957245e+01   1.2962889229e+01    0.1946004    0.1083203  29.98 0.0004607287    1.483    0.326
       218  -9.4877    120.9885    202.5770   5.5654843113e+01   1.6421080354e+01    0.2460292    0.1847958 -14.00 0.0003938932    1.625    0.384
       219  -8.8113    116.9414    201.2801   5.6449812708e+01   1.7271228072e+01    0.1963264    0.1473614  29.45 0.0004008115    1.127    0.113
       220  -9.8688    111.7242    212.6057   5.9156365095e+01   1.5904027380e+01    0.2283909    0.1904448  27.65 0.0002803659    1.043    0.041
       221  -8.6044    119.2660    206.3374   5.6571896548e+01   1.5974236023e+01    0.2126939    0.1173021  28.37  0.000320663    1.572    0.364
       222  -9.5257    115.3604    208.7956   5.7818745102e+01   1.6087588369e+01    0.2393683    0.1904486  14.10  0.000466821    1.242    0.195
       223  -9.6871    114.8525    205.1753   5.7471818037e+01   1.6840116769e+01    0.2571916    0.1913985 -40.96  0.000546544    1.590    0.371
       224 -10.0949     98.7935    211.3994   6.2106653401e+01   1.7951603385e+01    0.2347126    0.2176796   5.42 0.0005664106    1.210    0.174
       225  -9.9856     93.0501    211.6801   6.3531349914e+01   1.8690539625e+01    0.2432157     0.209393 -27.00 0.0005347767    1.433    0.302
       226  -8.8940     93.7842    207.6025   6.2900215970e+01   1.9387522411e+01    0.3104431    0.1713515  45.09  0.001206779    1.599    0.374
       227  -8.9460     74.6736    212.8924   6.8151148368e+01   2.0891400688e+01    0.2108563    0.1503111  26.03 0.0003855211    1.288    0.224
       228  -9.3314    155.0430    211.9373   4.9285756156e+01   9.7773277863e+00    0.1953331    0.1541562  14.17 0.0003856728    1.079    0.074
       229  -9.0537     69.4065    212.2361   6.9389034050e+01   2.1691612914e+01    0.2028465    0.1516468  24.32 0.0006827366    1.286    0.222
       230  -9.7888     57.2803    211.0656   7.2292546016e+01   2.3412090036e+01    0.2277979    0.1915271  48.77 0.0005724811    1.059    0.056
       231  -9.0890     55.2672    207.8272   7.2545865551e+01   2.4322622128e+01    0.4033774    0.1468803  24.16  0.001602179    2.749    0.636
       232  -8.1400    209.3366    211.2784   3.8569687617e+01   2.4995176133e+00    0.1208588   0.07309377   3.36 0.0003432924    1.614    0.380
       233  -8.4827    180.9525    210.9517   4.3818989653e+01   6.2844765972e+00    0.1893014      0.12345   1.45 0.0004937067    1.564    0.361
       234  -9.3427    124.9812    210.4590   5.5779307576e+01   1.4387121305e+01    0.2026848    0.1686582  -7.43 0.0003746903    1.321    0.243
       235  -9.1089    119.8402    210.8432   5.7026367902e+01   1.5063081178e+01    0.1922935    0.1565208  12.32 0.0003518944    1.210    0.173
       236  -8.0811     15.2752    211.2601   8.2554186779e+01   2.7760799774e+01    0.0980639   0.09172054 -18.84 0.0002144738    1.467    0.318
       237  -8.7974    212.8399    209.8884   3.7733068095e+01   2.2402007803e+00    0.1764549    0.1213134   0.22 0.0002806811    1.226    0.185
       238  -8.3871    184.8802    210.3888   4.2964246886e+01   5.8289713934e+00    0.1681968   0.09602383  20.52 0.0004018515    1.584    0.369
       239  -9.4636    170.9297    210.0407   4.5685088508e+01   7.8141844192e+00    0.1869142    0.1480598  10.06            0    1.052    0.050
       240  -9.0824    135.0807    210.2204   5.3433699789e+01   1.2957099062e+01    0.1969377     0.149597  14.69 0.0004758131    1.227    0.185
       241  -9.2619    106.0460    209.9858   6.0192137300e+01   1.7201156461e+01      0.19763    0.1655821  25.00 0.0003474539    1.088    0.081
       242  -9.1629     89.0947    210.0206   6.4319662823e+01   1.9555313421e+01    0.1966521     0.166611  36.39 0.0003839531    1.041    0.040
       243  -8.8203     36.8977    209.6470   7.7239960694e+01   2.5990674358e+01    0.1775553    0.1275378  41.11 0.0003816983    1.116    0.104
       244  -9.3452      1.9242    209.6716   8.5653457761e+01   2.9224551665e+01    0.1906146    0.1530646  81.69 0.0003745435    1.268    0.211
       245  -9.2178      5.0104    206.5006   8.4849463482e+01   2.9635839619e+01    0.2744745    0.1429764  17.56   0.00147094    2.092    0.522
       246  -8.0940    199.2475    209.3246   4.0080016082e+01   4.0560999357e+00     0.118835   0.07602917  -4.05 0.0001933787    1.536    0.349
       247  -9.1318    194.1298    208.9999   4.0979851565e+01   4.7781117283e+00    0.1842405    0.1404315   7.81 0.0004336374    1.046    0.044
       248  -8.4972    130.7478    208.9864   5.4250943563e+01   1.3807318151e+01    0.2055467    0.1452089   4.90 0.0002486189    1.586    0.370
       249  -8.4387    133.4342    206.4790   5.3285807875e+01   1.3855508633e+01    0.1876506    0.1121691  22.18  0.000127646    1.580    0.367
       250  -9.8067     77.9144    208.9648   6.6977225171e+01   2.1261149822e+01    0.2282899    0.1698143  34.25 0.0003361009    1.120    0.107
       251  -8.9773     79.5690    205.2700   6.6193821263e+01   2.1795345653e+01    0.1983121    0.1639377 -50.46 0.0005480356    1.472    0.321
       252  -8.5550     75.4120    205.4294   6.7258305284e+01   2.2311861979e+01    0.1860198    0.1643894  67.77 0.0001493668    1.186    0.157
       253  -8.2703     77.4617    202.5432   6.6449330902e+01   2.2639951924e+01    0.1719515    0.1237881 -52.32 0.0001268028    1.672    0.402
       254  -8.6629     72.9458    208.7241   6.8192834077e+01   2.1955317582e+01    0.1846632    0.1405341  36.17 0.0003567964    1.088    0.081
       255 -10.1066     24.0524    203.3971   8.0097729030e+01   2.8609241441e+01    0.2948732     0.197752 -48.37 0.0005745883    2.020    0.505
       256  -8.8731     28.0060    209.0106   7.9389202728e+01   2.7030950414e+01    0.1862909    0.1486444  48.66 0.0003318255    1.036    0.035
       257  -9.6413     24.2612    208.7676   8.0291849938e+01   2.7446870750e+01     0.208013    0.1851937  34.25 0.0006784144    1.233    0.189
       258  -8.7380     31.3153    208.3259   7.8542609999e+01   2.6844362259e+01     0.177248     0.164566  62.26 0.0004890843    1.208    0.172
       259  -9.4462     33.0206    205.4599   7.7965971508e+01   2.7278984408e+01    0.2919933    0.1875942  10.81  0.001297288    1.916    0.478
       260  -9.7798    160.9005    208.0548   4.7462889073e+01   9.5551736737e+00    0.2169471    0.1702189  20.43 0.0003345535    1.046    0.044
       261  -8.4845    164.2854    205.7158   4.6392271056e+01   9.4371629938e+00    0.1780451    0.1286405   5.50 0.0002711261    1.339    0.253
       262  -8.7674    110.0896    208.2672   5.9010178538e+01   1.6948073853e+01    0.1893049    0.1417576  32.49 0.0004910007    1.097    0.089
       263  -8.3693     68.2860    208.2972   6.9319281873e+01   2.2636010826e+01    0.1185402    0.0987321  -9.72 0.0002165754    1.549    0.354
       264 -10.6055     12.0326    206.6157   8.3171688904e+01   2.9019464412e+01     0.419884    0.3278423  30.42  0.002810472    1.271    0.213
       265  -8.9958     16.3218    198.9485   8.1837482259e+01   3.0287345881e+01    0.3061862    0.1334778 -69.48  0.001494427    2.468    0.595
       266 -10.3330      7.5128    201.7913   8.4115295326e+01   3.0429375162e+01    0.6064681    0.1890479  17.09  0.002314598    3.941    0.746
       267  -8.4183    176.8121    207.3573   4.4080556646e+01   7.3917444915e+00    0.1735352    0.0980567  22.09 0.0002741076    1.612    0.380
       268  -8.4771    167.5705    207.5652   4.5994087810e+01   8.6724133248e+00     0.128075    0.1024673  12.80 0.0001283474    1.031    0.030
       269  -9.0935    126.7618    205.9798   5.4759966576e+01   1.4933820757e+01    0.2545537    0.1592609  33.92 0.0003066051    1.326    0.246
       270  -9.4255    123.5234    206.4651   5.5584351516e+01   1.5323915792e+01    0.2477093    0.1770653  14.67  0.000633856    1.406    0.289
       271  -8.8458     44.0421    206.9313   7.5297560082e+01   2.5793131925e+01    0.1691008     0.147009 -14.35 0.0003271759    1.529    0.346
       272  -8.4012    241.8199    206.4026   3.2404944571e+01  -7.7854003156e-01    0.1478522   0.08207223  15.76 0.0004822389    1.667    0.400
       273  -8.8765     88.5752    196.4292   6.2926681002e+01   2.2392432245e+01    0.4970973     0.217099  17.48   0.00157464    3.597    0.722
       274  -9.6374     84.6700    206.0482   6.4993997816e+01   2.0950688188e+01    0.2309813    0.1680713  26.22 0.0004063214    1.256    0.204
       275  -9.9856     88.5329    203.2101   6.3715313369e+01   2.0997457605e+01    0.2493429    0.2019658  24.89 0.0003402207    1.170    0.145
       276  -9.0881     88.4866    199.5385   6.3310961272e+01   2.1757449432e+01    0.2163558    0.1886956 -42.93 0.0005160984    1.378    0.274
       277  -8.9230     64.7750    206.0596   7.0005233020e+01   2.3539907964e+01    0.1943644    0.1613042  40.24 0.0003065693    1.048    0.046
       278  -8.9136     59.6972    204.2857   7.1142159141e+01   2.4537753803e+01     0.193837    0.1422019  31.80 0.0002622833    1.204    0.169
       279  -9.1775     62.5460    202.5246   7.0263539663e+01   2.4561934277e+01    0.2193627    0.1822356  21.00 0.0005603633    1.267    0.211
       280  -8.4759    183.9909    205.0589   4.2294893292e+01   6.7274942629e+00    0.1501988    0.1175438  13.80 0.0003332829    1.042    0.040
       281  -9.4955    139.3903    204.5948   5.1657439258e+01   1.3301375268e+01    0.2343287    0.1878148  10.93 0.0004223477    1.177    0.150
       282  -8.9886    104.9786    205.0812   5.9852732228e+01   1.8295418876e+01    0.1966795    0.1665805  27.42 0.0003542574    1.066    0.062
       283  -9.2969     71.0475    204.3086   6.8255755006e+01   2.3111494657e+01     0.184921    0.1796798  -3.89 0.0003971431    1.250    0.200
       284 -13.9402     54.9464    189.0821   7.1078791983e+01   2.8445702115e+01     3.476882     2.583251  21.21   0.01948453    1.396    0.284
       285 -13.3640     92.5783     93.4677   4.2334001724e+01   4.6208483873e+01     3.295909      1.28312  35.20   0.01035047    2.897    0.655
       286 -14.0991    104.2772    154.6714   5.2512152481e+01   2.9217651904e+01     3.811022     1.818143  24.69   0.01369902    2.585    0.613
       287 -13.9475     95.7757    141.4471   5.2571443774e+01   3.3843274885e+01     3.386289      1.36276  29.76   0.01122197    2.735    0.634
       288 -12.1914     87.6013    105.3681   4.7297261668e+01   4.4291506924e+01    0.8599651    0.5913296  75.77  0.002337709    2.033    0.508
       289  -9.2883    124.8155    248.8759   6.0335978611e+01   8.1177613071e+00    0.1803904     0.131088  12.61 0.0007270617    1.304    0.233
       290  -9.3427    109.7093    195.7758   5.7477784311e+01   1.9431715499e+01    0.2474225    0.1814072  38.92 0.0002168797    1.176    0.149
       291  -9.9464    105.9676    198.1404   5.8725940620e+01   1.9518440627e+01    0.2272659    0.2080895 -30.47 0.0003191373    1.271    0.213
       292  -9.0614    102.2432    196.7473   5.9478992677e+01   2.0349421532e+01    0.2461339    0.1610411  33.04  0.000390827    1.291    0.225
       293  -8.3844     79.2921    199.2842   6.5640043576e+01   2.3077316008e+01    0.1823903    0.1688445  73.72 0.0002346711    1.179    0.152
       294  -9.6819     80.3978    195.8836   6.4984408694e+01   2.3647741638e+01    0.2440712    0.1750979  25.48  0.000374609    1.317    0.241
       295  -9.5654     74.0336    198.5542   6.6923147891e+01   2.3935903927e+01     0.212272    0.1924305  74.83 0.0003697104    1.183    0.155
       296  -8.9450    210.4697    197.9762   3.6200711276e+01   4.1217799122e+00    0.1723421    0.1303548  12.16 0.0003171202    1.109    0.099
       297  -8.1374    149.3041    198.2769   4.8474288531e+01   1.2905392810e+01    0.1317525   0.09307749   3.55 0.0002472675    1.546    0.353
       298  -8.8114    119.9063    198.3015   5.5321494947e+01   1.7395143497e+01    0.1924012    0.1504734  26.14 0.0004273952    1.113    0.102
       299  -9.4199    114.3972    197.3087   5.6526976918e+01   1.8421484033e+01    0.2427526     0.189827   2.70 0.0007767883    1.443    0.307
       300  -8.4507     97.9497    197.6888   6.0683609380e+01   2.0786540728e+01    0.1909888    0.1479684  35.26 0.0004210831    1.085    0.078
       301  -8.9377     93.1584    198.0952   6.1950452711e+01   2.1394030546e+01    0.1897289    0.1672999  18.21 0.0003140389    1.170    0.145
       302  -9.7473    232.0282    196.5719   3.2333535666e+01   1.5589855710e+00     0.293732     0.159029   2.23  0.001604267    2.139    0.532
       303  -8.7744    180.9936    197.2375   4.1612621775e+01   8.3318747304e+00    0.1738953    0.1386474  12.32 0.0002982656    1.039    0.038
       304  -8.5211    153.1501    196.9133   4.7406914516e+01   1.2553045331e+01    0.1765035    0.1362998   5.51 -0.0006383859    1.266    0.210
       305  -8.2292    130.6940    197.7355   5.2662019688e+01   1.5855422981e+01    0.1320394    0.0965602   4.57 0.0001878642    1.528    0.346
       306  -9.6562    124.0348    196.9924   5.4139205204e+01   1.7016011263e+01    0.2031156    0.1714428  29.03 0.0003402448    1.009    0.009
       307  -8.3286      6.4894    197.5122   8.4239396946e+01   3.1437605802e+01    0.1234434   0.09746076  55.06  0.000124645    1.023    0.022
       308  -9.0286    167.9442    195.5198   4.3997199863e+01   1.0537474958e+01    0.1834208    0.1552224   4.20 0.0003771596    1.060    0.057
       309  -9.5712    139.3912    195.5042   5.0294287002e+01   1.4923481445e+01    0.2311857    0.1989741   3.48  0.001402477    1.143    0.125
       310  -8.6565     12.6573    195.8444   8.2640539934e+01   3.1288112236e+01    0.1652585    0.1282191  64.69 0.0006083472    1.097    0.088
       311  -9.6165    224.7781    195.2153   3.3287911271e+01   2.6339834364e+00    0.2856324    0.1556358 -15.21  0.001600194    1.866    0.464
       312  -8.7143    201.6939    195.0090   3.7278957429e+01   5.7216367837e+00    0.1661693    0.1326705  -5.53 0.0004800201    1.071    0.066
       313  -9.0531    162.4960    192.4808   4.4651895848e+01   1.1871601074e+01    0.2476449    0.1793968   8.66 0.0006008401    1.366    0.268
       314  -9.0279    157.2820    195.2917   4.6240883603e+01   1.2197367019e+01    0.2152423    0.1438005  15.13 0.0002055672    1.487    0.328
       315  -9.3009    158.4800    192.0017   4.5442217287e+01   1.2574397471e+01    0.2762407    0.2405788  11.82 0.0007009675    1.043    0.041
       316  -9.6254    145.2060    194.3714   4.8784076192e+01   1.4224408993e+01    0.2343453    0.1975524  11.92 0.0004096812    1.085    0.078
       317  -9.2348    145.0015    189.2387   4.8007936469e+01   1.5183283929e+01     0.198729    0.1765637  30.18 0.0005587143    1.115    0.103
       318  -9.5723    138.7381    189.0842   4.9437622433e+01   1.6208856958e+01    0.2501923    0.1914005  17.09 0.0005082289    1.240    0.193
       319  -8.8798    134.4373    195.0009   5.1371303647e+01   1.5784791062e+01     0.181549    0.1630593   7.05 0.0003967527    1.106    0.096
       320  -8.6508    134.5792    191.5095   5.0800520912e+01   1.6413817504e+01     0.206645     0.185191  15.01 0.0004911717    1.066    0.062
       321  -8.7760    138.4861    185.4546   4.8909353589e+01   1.6931738941e+01    0.2201362    0.1404434 -51.09 3.920525e-05    1.818    0.450
       322 -10.4377    142.4421    183.0086   4.7571905589e+01   1.6750257092e+01    0.3616064    0.2255573  40.53  0.001804505    1.494    0.330
       323  -9.5971      3.3468    194.9167   8.4946244073e+01   3.2254660883e+01    0.2918862    0.1282911  62.82  0.001480988    1.893    0.472
       324  -8.8031      6.6699    194.0195   8.4088482270e+01   3.2188221249e+01    0.1831976    0.1371263  39.71  0.000435769    1.173    0.147
       325  -8.3840      5.6281    190.7508   8.4251919926e+01   3.2996004799e+01    0.1730247    0.1126375 -86.67 0.0004292807    1.518    0.341
       326  -8.6763    195.9282    193.9877   3.8175414416e+01   6.6751443435e+00    0.1939529    0.1257959  -2.14 0.0005092168    1.601    0.375
       327  -9.1054    176.5335    194.4574   4.2047092737e+01   9.4213652391e+00    0.2005007    0.1218707 -38.38 0.0001378184    1.749    0.428
       328  -9.3700    129.6904    193.9539   5.2336402010e+01   1.6719098188e+01    0.2132176    0.1659779  16.69  0.000373263    1.225    0.184
       329  -9.1247    119.8508    194.0453   5.4728625153e+01   1.8226988251e+01    0.2045174    0.1758748  20.90 0.0004604282    1.079    0.073
       330  -8.3244     98.3659    194.2436   6.0141930093e+01   2.1433814869e+01     0.135488    0.1005388   5.57 0.0004100523    1.610    0.379
       331  -9.4997     94.8437    193.3563   6.0934559402e+01   2.2134966273e+01     0.203756    0.1953704 -41.28 0.0003469343    1.222    0.182
       332  -9.1895     74.1789    193.7611   6.6386075335e+01   2.4948518145e+01    0.1995557    0.1559226  44.95 0.0004053072    1.086    0.079
       333  -9.3743     70.0693    248.7476   7.2052462989e+01   1.4848036924e+01    0.3537735    0.1655201  16.09  0.001483579    2.831    0.647
       334  -8.7446     86.9026    192.6733   6.2915627888e+01   2.3424400166e+01    0.1929593    0.1693396  20.57 0.0003286141    1.171    0.146
       335  -8.9999     90.6629    191.0040   6.1727006684e+01   2.3240698905e+01     0.205766    0.1605956  34.44 0.0003851993    1.104    0.094
       336 -10.3411     66.3602    192.7839   6.8359763440e+01   2.6190856209e+01    0.2357633    0.1966623  36.50 0.0003016768    1.085    0.078
       337  -8.5588    210.4773    192.0010   3.5185904452e+01   4.9408842147e+00    0.1663778    0.1045956 -27.65  0.000357252    1.479    0.324
       338  -8.4848    152.7263    192.6954   4.6823534491e+01   1.3349548961e+01    0.1318595   0.09487902  -1.60 0.0002849206    1.541    0.351
       339  -9.2478    130.9327    188.7565   5.1240758021e+01   1.7514286670e+01    0.2052401    0.1793418  -7.59 0.0003892298    1.208    0.172
       340  -9.6862    125.0674    191.9470   5.3147612711e+01   1.7824582415e+01    0.2323497    0.1891146   5.79 0.0003266106    1.287    0.223
       341  -9.0665    126.4641    187.5026   5.2129258177e+01   1.8469565109e+01    0.2469685    0.1759742 -61.56 0.0006683792    1.755    0.430
       342  -9.7399    129.5179    184.1486   5.0853495729e+01   1.8636472634e+01    0.3835667    0.2328327 -36.36  0.001832353    1.941    0.485
       343  -9.5951    115.4431    191.5504   5.5457229141e+01   1.9400388142e+01    0.2357586    0.2007921  14.61  0.001372227    1.164    0.141
       344 -10.0844     81.0748    191.0465   6.4259952191e+01   2.4595865689e+01    0.2478243    0.2031395  12.25 0.0004894451    1.347    0.258
       345  -8.8782     77.8881    188.3613   6.4801524256e+01   2.5626980291e+01    0.2013462    0.1744398  14.11  0.000284282    1.260    0.206
       346  -8.3188    219.9646    191.7540   3.3504757135e+01   3.7091061532e+00    0.1405853   0.08795289  26.79 0.0003229494    1.492    0.330
       347  -8.8806    199.5013    190.9301   3.6985458861e+01   6.6154886264e+00    0.1694555     0.111471 -31.15 0.0004199263    1.487    0.327
       348  -9.1311    185.9356    190.9652   3.9577380485e+01   8.5727284475e+00    0.1901246    0.1530091   5.32            0    1.051    0.049
       349  -8.0821    168.2741    191.3305   4.3230767214e+01   1.1174999856e+01    0.1325027    0.0915231  -3.26 0.0002152438    1.592    0.372
       350  -8.6892    114.1005    186.8234   5.5104548851e+01   2.0564504278e+01    0.2088816    0.1701332  12.56 0.0002893741    1.267    0.211
       351  -9.1278    110.7858    190.7558   5.6511881571e+01   2.0278825216e+01     0.204836    0.1838025 -16.21 0.0005224402    1.257    0.205
       352  -9.3004    108.4113    186.0638   5.6446129654e+01   2.1611165248e+01    0.6987302    0.2110063  45.27  0.002245569    3.499    0.714
       353  -8.3236    246.3186    190.3255   2.9065606386e+01   6.1285277181e-01    0.1171734   0.06848413  -3.05 0.0007045645    1.676    0.403
       354 -10.1519    223.3473    189.5555   3.2559417866e+01   3.5594140239e+00    0.1919805   0.09592823 -32.17 0.0009134277    1.835    0.455
       355  -8.5949    226.2954    187.3348   3.1688425142e+01   3.4692023376e+00    0.1816332   0.09572836  24.24 0.0004708779    1.884    0.469
       356  -9.8779    216.5428    185.4745   3.2997145160e+01   5.0188331925e+00    0.2552551    0.1638905  19.77 0.0006764743    1.457    0.314
       357 -10.5264    219.1460    182.7617   3.2075405182e+01   5.0378356387e+00    0.2540825    0.2436907 -72.75  0.001747045    1.770    0.435
       358  -9.1272    215.7915    189.9760   3.3910780624e+01   4.5024023845e+00    0.1804295    0.1280968  -3.75 0.0004043627    1.229    0.186
       359  -9.1778    181.1123    188.2808   4.0071037082e+01   9.7124557036e+00    0.3549354    0.2119013 -58.35  0.001609157    3.099    0.677
       360  -8.8776    148.8410    190.1644   4.7283127423e+01   1.4407308771e+01    0.1906942    0.1625384  28.91 0.0003359154    1.093    0.085
       361  -9.9461    103.3598    188.6136   5.8108634920e+01   2.1857082320e+01    0.2819986    0.2350609  -9.99  0.001086581    1.420    0.296
       362  -8.0278    232.7167    189.6940   3.1058094264e+01   2.3433784855e+00    0.1170892   0.07219938  -3.35 0.0002188213    1.561    0.359
       363  -9.4011    189.7104    188.4549   3.8408800959e+01   8.4008305801e+00    0.3737878    0.2310645  53.75  0.001805601    2.715    0.632
       364  -8.8893    206.5346    184.9294   3.4655296951e+01   6.4876631790e+00    0.2250184     0.103018 -27.66  0.001032475    2.265    0.559
       365  -8.6986    205.5759    188.4905   3.5452733656e+01   6.1114597986e+00    0.1899296    0.1375679  14.41 7.102445e-05    1.214    0.177
       366  -8.9374    202.5030    187.4312   3.5825360764e+01   6.6983270439e+00    0.1971266    0.1103342  36.13 0.0007085166    1.754    0.430
       367  -8.9316    155.3837    188.0118   4.5459617296e+01   1.3753580296e+01    0.2322796    0.1762326   0.73 0.0004888646    1.369    0.269
       368  -9.1094    157.6567    184.2090   4.4309588679e+01   1.4061463417e+01    0.2321819    0.1666611  29.23   0.00052347    1.236    0.191
       369  -9.1536    159.0879    180.6415   4.3372212507e+01   1.4462321332e+01    0.3803394    0.2098979  13.07  0.001562058    2.622    0.619
       370  -9.4902    163.9128    175.6780   4.1425588844e+01   1.4550691554e+01     0.255987    0.1828845 -12.60 0.0003420655    1.561    0.360
       371 -10.0084    164.7184    171.0749   4.0402129549e+01   1.5235398656e+01     0.238239    0.1888394  15.86 0.0002991354    1.185    0.156
       372  -9.3631    155.8434    178.8621   4.3780502400e+01   1.5313889099e+01    0.3917911    0.2454201 -12.65  0.001790395    2.203    0.546
       373  -8.8618    152.6753    177.0480   4.4174773940e+01   1.6171140426e+01    0.2038951    0.1752081  39.97 0.0004943219    1.209    0.173
       374  -8.4341    210.8260    187.0797   3.4271256164e+01   5.5803133052e+00    0.1632228    0.1159321   1.29  0.000250656    1.270    0.212
       375  -8.3776    174.5187    187.1116   4.1208921935e+01   1.0907834650e+01    0.1707568     0.123327 -32.84 0.0003139772    1.428    0.300
       376  -8.9803     91.1633    187.1214   6.1103050751e+01   2.4001943329e+01    0.2019008     0.176014  10.93 0.0004757249    1.244    0.196
       377  -9.9945     72.7855    186.6296   6.5985227180e+01   2.6710957883e+01    0.2326284    0.2119062  56.54 0.0002243506    1.083    0.077
       378  -8.4957     24.1479    187.6270   7.9286107282e+01   3.2098857584e+01    0.1602723    0.1160782  15.11 0.0003253015    1.562    0.360
       379  -8.5734    147.3629    185.8627   4.6909141103e+01   1.5421958379e+01    0.1729247    0.1223964 -30.13 0.0003223195    1.554    0.357
       380  -9.9389    120.4168    185.8696   5.3371943867e+01   1.9757971547e+01    0.3325096     0.173953  34.23 0.0004333205    1.655    0.396
       381  -8.1444    243.9859    185.0028   2.8506901661e+01   1.5426108623e+00    0.1355164    0.1006171 -10.30 0.0003442589    1.028    0.027
       382  -8.8792    166.9765    185.0419   4.2430389420e+01   1.2430761219e+01    0.1974434    0.1625525   6.66 0.0003001548    1.097    0.088
       383  -9.2240    151.3965    185.1127   4.5864389561e+01   1.4908151769e+01    0.2155961    0.1633293  19.54 0.0003305161    1.210    0.174
       384  -9.7971     86.0112    184.9995   6.2210111701e+01   2.5218147431e+01    0.2056312    0.1810324  38.52            0    1.033    0.032
       385  -9.7183     69.0177    181.9720   6.6503057345e+01   2.8274689141e+01    0.3203262    0.2194428   6.55  0.001555899    1.889    0.471
       386  -9.5545     81.5116    175.9490   6.2284179603e+01   2.7910952656e+01    0.3182273    0.1987308  25.00  0.001106043    1.590    0.371
       387  -9.0120     72.8176    174.3887   6.4545993373e+01   2.9513917764e+01    0.2039295    0.1906666   0.41 0.0002595932    1.234    0.190
       388  -9.7518     90.9315    172.0218   5.9102422559e+01   2.7397770618e+01    0.2438056    0.2130266  12.35  0.001346726    1.236    0.191
       389  -8.7391     75.0338    177.0135   6.4240194634e+01   2.8592350421e+01    0.3063044    0.2245084 -26.87  0.001051976    1.846    0.458
       390  -9.3048     80.9252    184.3280   6.3503727799e+01   2.6096975491e+01    0.2083856    0.1967847  85.18 0.0004133464    1.162    0.139
       391  -8.9580     82.9873    181.0439   6.2531804495e+01   2.6537613815e+01    0.1932823      0.17046  34.63 0.0003549735    1.068    0.063
       392  -8.9637     85.2758    178.3342   6.1550094200e+01   2.6814942355e+01    0.2459253    0.2015253 -24.90 0.0003684024    1.518    0.341
       393  -9.3421     88.0862    175.6441   6.0407972291e+01   2.7006127002e+01    0.2746715    0.2050914   7.05 0.0006352091    1.626    0.385
       394  -9.1315     78.9846    179.9816   6.3502580781e+01   2.7352517701e+01    0.2171026    0.2022078 -84.73  0.001291377    1.180    0.152
       395  -9.7299     75.1947    182.0484   6.4801007554e+01   2.7414916289e+01    0.3337299    0.2109809  48.09  0.001547913    1.426    0.299
       396  -9.0524     70.5101    177.4513   6.5568949941e+01   2.9117156094e+01    0.2923766    0.1877012  56.42 0.0008633058    1.536    0.349
       397  -8.4119    183.4926    184.4599   3.8927336447e+01   9.9572376868e+00    0.1314314    0.1089809   6.26 0.0001120611    1.022    0.021
       398  -9.0923    172.9134    183.0506   4.0831188393e+01   1.1828899049e+01    0.2560296    0.1839077   1.42   0.00141372    1.452    0.311
       399  -8.0617    192.6560    183.7182   3.7009779700e+01   8.6887397762e+00    0.1322009   0.08661814   3.71 0.0004434069    1.636    0.389
       400  -8.8161    162.8555    182.8630   4.2936827476e+01   1.3461836302e+01    0.1962302    0.1596446   4.82 0.0003409557    1.156    0.135
       401 -10.0092    210.5422    180.5795   3.3168452038e+01   6.5439283721e+00    0.3456402    0.1981277 -40.30 0.0007738553    1.854    0.461
       402  -9.6703    179.1394    181.2101   3.9223840948e+01   1.1154553519e+01     0.495734    0.2592234  10.35  0.001836691    3.269    0.694
       403  -8.4063    147.7174    182.3011   4.6226097458e+01   1.6019562944e+01    0.1959094    0.1171019  26.71 0.0002483576    1.585    0.369
       404  -8.6324    150.5900    180.5547   4.5266465970e+01   1.5870411910e+01    0.2117976    0.1228951  32.48 0.0001148445    1.553    0.356
       405  -9.5303    134.8403    181.1886   4.9076811306e+01   1.8345856825e+01    0.2140089    0.1875775  -4.08 0.0003583399    1.177    0.150
       406  -8.8180    224.2718    180.9943   3.0906764427e+01   4.5846484146e+00    0.1657665    0.1256605 -12.06 0.0003139009    1.082    0.076
       407  -8.1298    166.6559    181.2301   4.1830245262e+01   1.3133652167e+01    0.1253162   0.09858051  50.13 0.0004082735    1.548    0.354
       408 -10.3604     89.8061    180.6332   6.0614309709e+01   2.5626732534e+01    0.2429364    0.2233569  13.02 0.0003556199    1.173    0.147
       409  -8.5583    199.0795    180.2893   3.5186126827e+01   8.2536694486e+00       0.1685    0.1391712   7.94 0.0002993777    1.050    0.048
       410  -9.4038    120.7961    179.7118   5.2312086116e+01   2.0947752659e+01    0.3017893    0.1924172  22.15 0.0009888182    1.613    0.380
       411  -8.7512    235.8027    179.2735   2.8757003707e+01   3.2934959638e+00    0.1595013    0.1076793  -4.26 0.0003773522    1.326    0.246
       412  -8.3531    204.5036    179.4344   3.4038386229e+01   7.5820315349e+00    0.1253544    0.1037731   0.45 0.0001406994    1.020    0.020
       413  -9.4261    145.8486    178.0006   4.5917070614e+01   1.7132227099e+01    0.2055967    0.1823974  13.45  0.000362807    1.036    0.034
       414  -9.7155    147.7187    173.5204   4.4686442700e+01   1.7666601160e+01    0.3659141    0.2756935 -37.76   0.00197536    1.417    0.294
       415  -8.0579    231.4463    177.4740   2.9120259329e+01   4.0991879917e+00    0.1189339   0.09273317  -7.79 0.0001337316    1.004    0.004
       416  -8.4489    226.5338    177.4886   2.9910487951e+01   4.7546024986e+00    0.1222163   0.09372777  -5.57 7.670408e-05    1.061    0.057
       417  -8.2132    195.2311    177.3494   3.5372106197e+01   9.2809690282e+00    0.1282048   0.08602769  -9.05 0.0003929123    1.559    0.359
       418  -8.6051     49.4700    249.4958   7.6533650712e+01   1.7027740234e+01    0.1171805   0.08684272  40.23 1.747847e-05    1.043    0.041
       419 -12.3374     46.4503    115.7827   6.4976360583e+01   4.8023164534e+01    0.9324393    0.5621912 -56.73  0.001432537    1.632    0.387
       420  -8.5839    110.0401    177.0030   5.4662783947e+01   2.3266088381e+01    0.1886107    0.1597545   4.84  0.001026777    1.291    0.225
       421  -9.1636    113.2525    174.1323   5.3362641812e+01   2.3356199067e+01    0.2263173    0.1813111  23.50 0.0004417335    1.198    0.166
       422  -9.2495    102.9968    176.8009   5.6503119412e+01   2.4438670575e+01    0.2445999    0.1807335  33.54 0.0009534945    1.200    0.167
       423  -8.5080     94.5712    176.5015   5.8741124102e+01   2.5824115472e+01    0.1983322     0.131927  21.66 0.0001701403    1.565    0.361
       424  -9.2815     98.7254    174.9184   5.7375941385e+01   2.5529005772e+01    0.2392463    0.1837702  34.70 0.0003674488    1.156    0.135
       425  -8.8851    205.6901    175.7233   3.3148515208e+01   7.9572982750e+00    0.1558626    0.1359357   7.37 0.0001958407    1.138    0.121
       426  -9.4653    202.7198    173.1582   3.3211647094e+01   8.7861286482e+00    0.2818613    0.2187962  23.71  0.001758999    1.222    0.182
       427  -9.7861    189.9207    175.5932   3.6064664181e+01   1.0374324431e+01    0.2355064    0.1806034 -37.96   0.00101965    1.406    0.289
       428  -8.7839    134.9619    176.0561   4.8178900633e+01   1.9333337042e+01    0.2055927    0.1575637  -0.76            0    1.496    0.331
       429  -9.4485    124.4905    174.4736   5.0515162640e+01   2.1413937489e+01    0.2513255    0.2064809  28.43 0.0006083705    1.097    0.089
       430  -9.2877    117.9253    175.0717   5.2296498975e+01   2.2384556990e+01    0.2094487    0.1848574  26.10 0.0002811313    1.045    0.043
       431  -8.9740    224.6439    172.7445   2.9357910541e+01   5.6633205305e+00    0.2770187    0.1259254 -23.28  0.001305436    2.372    0.578
       432  -8.9438    196.0206    173.6395   3.4539625541e+01   9.7353219863e+00    0.1777709    0.1429776  17.71 0.0004054063    1.134    0.118
       433  -9.2808    159.2846    173.9180   4.2122867059e+01   1.5637692636e+01    0.2175752     0.178726  21.91 0.0004670017    1.093    0.085
       434  -8.7365    130.0952    177.1655   4.9563668272e+01   1.9927800946e+01    0.2067107    0.1710175   8.51 0.0003062013    1.243    0.195
       435  -9.1270     56.8624    173.8069   6.9069347964e+01   3.1766416278e+01    0.1903698    0.1808284  18.90 0.0003590786    1.193    0.162
       436  -8.0500    248.6819    173.7383   2.5845458686e+01   2.3692045311e+00    0.1124967   0.07115683  -0.59 0.0002781211    1.546    0.353
       437  -9.5418    153.0379    172.9276   4.3350497206e+01   1.6874667692e+01    0.2071297    0.1802611  10.66  0.000305547    1.060    0.056
       438  -9.6436    129.7641    172.6081   4.8867625095e+01   2.0905318387e+01    0.2273128     0.202916   7.47 0.0003053437    1.120    0.107
       439  -9.0285      2.3097    172.9934   8.4578748466e+01   3.7316914837e+01    0.1704735    0.1579541 -87.51 0.0004253786    1.228    0.186
       440  -9.1692      1.2898    169.7154   8.4758167266e+01   3.8163312406e+01    0.2872137     0.104774  88.23   0.00122123    2.588    0.614
       441  -9.1133    233.6575    171.9483   2.7777415940e+01   4.5407357398e+00    0.1647073      0.12185 -17.41 0.0003346919    1.105    0.095
       442 -10.0954    107.1728    171.5052   5.4559141972e+01   2.4925426046e+01    0.2469605    0.2330153   8.75 0.0004086013    1.118    0.105
       443  -9.5220    192.9240    170.3435   3.4508839254e+01   1.0737375193e+01    0.1929041    0.1644555 -24.59 0.0002435381    1.182    0.154
       444 -10.4921    118.9648    168.7213   5.0962064403e+01   2.3556937037e+01    0.3356263    0.2648804 -71.02  0.001151623    1.556    0.357
       445  -9.9361    112.3432    169.0164   5.2764556773e+01   2.4612872328e+01    0.4233752    0.2564411 -60.12  0.001410184    1.921    0.480
       446  -9.1615    115.5060    165.5345   5.1327293422e+01   2.4836187550e+01     0.267454    0.2196336  13.70 0.0005004148    1.286    0.222
       447  -9.7770     95.8818    170.2714   5.7460940094e+01   2.7022566914e+01    0.2303543    0.2074561 -45.64  0.000349908    1.248    0.199
       448  -9.8147    142.8208    169.3610   4.5090170141e+01   1.9310681272e+01    0.3075107    0.2300408  42.28 0.0004705983    1.301    0.231
       449  -8.6495    138.1272    169.7950   4.6303354557e+01   2.0037526887e+01    0.2025414    0.1686831  24.73 0.0003501285    1.098    0.089
       450  -9.0345    133.9583    170.2702   4.7412857124e+01   2.0661833322e+01    0.1968038    0.1670823  23.15  0.000251317    1.085    0.078
       451  -9.0868    124.9600    169.9910   4.9629089183e+01   2.2264922548e+01     0.222141    0.2052006 -41.39 0.0003375907    1.193    0.161
       452  -9.0468    124.1699    166.1332   4.9154094014e+01   2.3212324604e+01    0.2241484    0.1924341 -29.61 0.0002818024    1.274    0.215
       453 -10.2129    101.5230    169.0563   5.5709592436e+01   2.6391957791e+01    0.2564437    0.2067634  26.41 0.0003577474    1.190    0.160
       454  -9.9846    229.3632    166.0263   2.7361733355e+01   5.9326298957e+00    0.4766966    0.2033111 -30.69  0.001649914    2.109    0.526
       455  -9.0838      4.8854    168.8227   8.3721381403e+01   3.8121483325e+01    0.1714067    0.1603545  67.68 0.0002740282    1.167    0.143
       456  -8.9839    186.7116    166.9856   3.5072484816e+01   1.2279094863e+01    0.1798688    0.1532584 -15.49 0.0002406396    1.096    0.087
       457  -9.2540    148.0063    166.6373   4.3354698786e+01   1.8938091757e+01    0.2135108    0.1834438  -6.19 0.0004406979    1.185    0.156
       458  -8.4022    244.6712    166.7314   2.5170439908e+01   3.7712544451e+00    0.1157648   0.07428326  -0.14 0.0002069992    1.579    0.367
       459 -10.2531    200.1335    163.9639   3.1943523777e+01   1.0602781025e+01    0.4506451    0.2409178 -21.10  0.002099785    2.185    0.542
       460  -9.6321    106.9660    165.9727   5.3712710602e+01   2.6185900041e+01    0.2175546    0.1973354  29.14 0.0003268226    1.049    0.047
       461  -9.9149     29.5836    166.0311   7.6400151815e+01   3.6709769634e+01    0.3709866    0.1786758  23.94  0.001221775    2.035    0.508
       462  -9.1616    239.4706    165.4712   2.5707513538e+01   4.6229863074e+00    0.1181461     0.092991 -12.25 3.148628e-05    1.017    0.016
       463 -10.0442    111.4480    162.0022   5.1808360376e+01   2.6312143416e+01    0.2775656    0.2012363  31.20 0.0004984253    1.287    0.223
       464  -8.7511    234.2833    161.5613   2.5765161009e+01   5.8574724283e+00    0.1485436     0.102209  18.46 0.0004572643    1.470    0.320
       465  -9.0238    113.8963    248.3162   6.2580365360e+01   9.5784662281e+00    0.1746612    0.1154675  27.49 0.0004904522    1.153    0.133
       466  -9.7093    133.2530    161.0575   4.5900260934e+01   2.2674494487e+01    0.2593963    0.1985738  25.93 0.0005595433    1.257    0.204
       467  -9.0270    135.0580    166.3443   4.6431199271e+01   2.1267264404e+01    0.2021553    0.1627044  31.61 0.0003529231    1.130    0.115
       468  -8.0001    246.6866    156.6637   2.3029347388e+01   4.8159606676e+00      0.12119     0.075961  -4.50 0.0005388337    1.690    0.408
       469  -8.7973    227.6871    155.0207   2.5539924057e+01   7.7128756251e+00    0.1697548    0.1306969 -19.98 0.0002511645    1.088    0.081
       470  -8.8622    217.7855    154.3660   2.7001071607e+01   9.3008746625e+00    0.2090113    0.1625863  58.16  0.001201168    1.902    0.474
       471  -9.7008     38.1791    151.3522   7.2483582485e+01   3.9530869827e+01    0.2302403     0.198745 -48.57 0.0005257706    1.330    0.248
       472 -10.2074    230.2555    141.0940   2.2411464073e+01   9.3122826952e+00    0.3160262    0.2400136 -62.99  0.001839321    2.084    0.520
       473 -11.8103    230.7197    147.9926   2.3706975784e+01   8.2592232685e+00     0.608882    0.3313907  34.11  0.003313792    2.014    0.503
       474 -11.0283    227.4751    145.0430   2.3618780690e+01   9.1720476808e+00    0.3152553    0.2597809 -21.02  0.001924072    1.054    0.051
       475  -9.3786     99.6015    247.5278   6.5565028228e+01   1.1490986323e+01    0.2353005    0.1069039 -53.59  0.001250037    2.822    0.646
       476 -10.4839    248.0297    142.6857   2.0199693350e+01   6.4784052689e+00    0.2458174    0.1669838 -26.94 0.0006389704    1.186    0.157
       477 -10.2396    239.8118    143.3000   2.1456567463e+01   7.5714030204e+00    0.2285349    0.1478791  54.36  0.001325047    2.225    0.551
       478  -9.6609    218.6922    141.9734   2.4375993546e+01   1.1005822033e+01    0.2210683    0.1623794   6.22 0.0004427593    1.458    0.314
       479  -9.4466    215.1172    140.5139   2.4654387197e+01   1.1809608932e+01     0.175679    0.1237815  37.68 0.0005723127    1.521    0.343
       480  -9.3874    204.7415    138.9880   2.6077712636e+01   1.3799114873e+01    0.3430103     0.176395  31.74  0.001560624    2.285    0.562
       481  -9.6365    239.4935    135.4556   1.9956072503e+01   8.7016714466e+00    0.1215082   0.09923444 -21.50 8.067309e-05    1.023    0.023
       482  -9.1627    206.3147    134.4445   2.4845830490e+01   1.4250073597e+01    0.2262909    0.1251045  39.82 0.0005405205    1.931    0.482
       483  -8.8755      2.8627    134.1990   8.2903692980e+01   4.6890945390e+01    0.1970513    0.1544836  61.52 0.0003805106    1.133    0.118
       484  -9.2547    213.0365    132.1816   2.3251415113e+01   1.3440949924e+01    0.2003715    0.1581376  -4.69 0.0004752954    1.281    0.219
       485  -9.7386    222.0986    129.5202   2.1269978207e+01   1.2312791218e+01    0.1721742    0.1255563  42.74 0.0006252298    1.544    0.352
       486  -9.0670     21.8595    247.9076   8.2309602569e+01   2.0110846919e+01    0.1534572     0.129045  32.65 0.0005351642    1.285    0.222
       487 -11.3442    194.3704    118.9493   2.3483768851e+01   1.8986294530e+01    0.4061895    0.2744051 -59.40  0.001961138    1.952    0.488
       488  -8.7924    162.6616    197.1267   4.5377046796e+01   1.1070682189e+01    0.2065969    0.1525369 -22.51 0.0004308056    1.417    0.295
       489  -8.6592    145.3510    200.9499   4.9770022544e+01   1.3041747711e+01    0.1777837    0.1515935   9.96 0.0004888906    1.085    0.078
       490 -13.6437    133.8680    146.1095   4.2779730665e+01   2.5711402269e+01     2.231507     1.296157 -60.47  0.009166326    2.235    0.553
       491  -9.8097    196.1770    110.8678   2.1296835762e+01   1.9979497941e+01     0.186106    0.1564915   2.60 0.0003877603    1.308    0.236
       492  -9.1659     39.3046    205.2175   7.6377177217e+01   2.6672568111e+01    0.1920185    0.1528875  27.57 0.0004473672    1.255    0.203
       493 -11.5471    191.1985    104.5913   2.0654146594e+01   2.2030689099e+01    0.5774672    0.2852015  31.16   0.00209097    3.386    0.705
       494  -8.7166    250.4862    105.5568   1.2507290609e+01   1.1090985367e+01     0.119945    0.0962785 -30.97 0.0001135478    1.012    0.012
       495  -8.1765      1.6994    248.2692   8.6453242230e+01   2.1859924172e+01    0.1157205   0.05057356  49.31 0.0001509025    1.526    0.345
       496  -8.3348    207.2600    204.3144   3.7818970727e+01   3.6864815840e+00    0.1190492   0.07544897  -3.18 0.0002037922    1.536    0.349
       497 -11.4549    184.7492     92.4284   1.8745982703e+01   2.5440628430e+01    0.3286901    0.2571836  11.21  0.001670828    1.645    0.392
       498 -11.9215    188.6981     92.4160   1.8073313865e+01   2.4585593210e+01    0.3334683    0.3196221  -9.57   0.00132409    1.094    0.086
       499  -8.7746    189.7534    203.1962   4.0878500299e+01   6.1982976529e+00    0.1689229    0.1180822  -2.84  0.000412232    1.355    0.262
       500  -8.1679    171.3024    203.2572   4.4550891603e+01   8.8065641872e+00    0.1260051   0.08498906   5.53 0.0002120461    1.510    0.338
       501 -10.8298    242.5025     92.4931   1.0687193438e+01   1.4161012590e+01    0.2268209    0.1456001 -55.23   0.00129564    1.716    0.417
       502  -8.1062    167.6494    203.7286   4.5379943384e+01   9.2630347537e+00    0.1319644   0.08632237   5.88  0.000404759    1.629    0.386
       503  -9.3134    149.2889    202.6316   4.9148225933e+01   1.2159250747e+01    0.2190599    0.1766425   1.04 0.0004389377    1.217    0.178
       504 -10.1632    109.9558    202.6680   5.8330977829e+01   1.8039197271e+01    0.2840315    0.2013896  38.95 0.0004215985    1.202    0.168
       505 -10.6920     97.5309    202.1668   6.1337516197e+01   1.9940822876e+01    0.2595708    0.1939531  28.75 0.0003095546    1.170    0.145
       506  -8.7627     10.5769     83.2849   7.5755780972e+01   5.9987227012e+01    0.1818182     0.115885 -64.82 0.0003399902    1.400    0.286
       507  -8.2394     20.2793    203.3059   8.1030967137e+01   2.8984068844e+01    0.1071085   0.09369999 -37.99 0.0002379868    1.553    0.356
       508  -8.5478      6.6542     81.9234   7.7506117953e+01   6.0540393146e+01    0.1819791    0.1556174 -76.10 0.0003633886    1.054    0.052
       509  -9.6701     52.4022     81.1833   5.5106394129e+01   5.6435397276e+01    0.2451759    0.2251586  47.36 0.0004253287    1.107    0.097
       510 -10.1158     48.9614     80.7585   5.6592169041e+01   5.7030383236e+01    0.2677752    0.2324119  22.44 0.0003296025    1.187    0.157
       511  -8.6236    181.8726    201.8383   4.2192604751e+01   7.5057284401e+00    0.1918394    0.1402809   0.98 0.0005367162    1.267    0.211
       512  -9.8797    184.5394     77.4911   1.4898134857e+01   2.7937153134e+01    0.2173513    0.1225388 -43.83 3.311925e-05    1.658    0.397
       513 -10.9973    249.2704     77.8696   6.8657498131e+00   1.4947671795e+01    0.2986042    0.1494364 -30.96  0.001593764    1.676    0.403
       514  -9.9296      2.9162     66.0947   7.7574981797e+01   6.4843200678e+01    0.1934142    0.1811214 -68.12 0.0004240168    1.051    0.048
       515  -9.0419      7.6232     65.5925   7.4871029189e+01   6.4790699477e+01    0.3521195    0.1580103  -4.72  0.001467373    2.664    0.625
       516  -9.9649      8.9607     77.9961   7.5888951237e+01   6.1474248942e+01    0.3077843    0.2483638  89.72  0.001504664    1.193    0.162
       517  -8.6914     19.5192     71.9981   6.9431689127e+01   6.2424629871e+01    0.1872148    0.1705397 -70.42 -5.62889e-05    1.045    0.043
       518  -9.2606     15.1156     71.8776   7.1769283729e+01   6.2750931215e+01    0.3981832    0.3436149 -34.64  0.001599123    1.162    0.139
       519  -8.9641      6.7452     69.5812   7.5932387936e+01   6.3789538252e+01    0.1770516    0.1657921  10.38 0.0003303709    1.174    0.148
       520  -9.2748     11.0265     73.9897   7.4273709976e+01   6.2428467244e+01     0.219272    0.1927171   1.55  0.000682905    1.237    0.192
       521  -9.2452     11.1505     70.6612   7.3705095367e+01   6.3297058411e+01    0.3020954    0.1764945 -19.89  0.001179941    1.944    0.486
       522  -9.1446     18.5097     76.4887   7.0774351321e+01   6.1311932578e+01    0.2228331    0.1982929 -14.04 0.0005416724    1.195    0.163
       523  -8.2794     22.4066     75.4290   6.8562566352e+01   6.1304279276e+01    0.1937515    0.1237244  32.40 0.0005125655    1.621    0.383
       524 -10.6601    191.2354     76.0467   1.3481612841e+01   2.6655732969e+01    0.2526354    0.1913344  29.45  0.001297956    1.686    0.407
       525 -12.3042    168.5516     71.5531   1.5961420587e+01   3.2652888698e+01    0.5621092    0.3971235 -22.54  0.002663422    1.631    0.387
       526 -10.4930    239.8973     72.7614   6.6953006369e+00   1.7265039489e+01    0.2546836    0.1199969 -50.67 0.0008895155    2.090    0.522
       527  -9.4618     43.4456     70.5526   5.6495027686e+01   6.0378689162e+01    0.2785863      0.22384  52.15 0.0009269149    1.355    0.262
       528  -9.6808     36.9154     68.8028   5.9393802697e+01   6.1626047055e+01    0.4525542     0.262377  89.56   0.00177923    2.611    0.617
       529  -8.7975     39.0821     74.1120   5.9676103768e+01   6.0011272467e+01    0.2043366    0.1835172 -29.16    0.0011194    1.131    0.115
       530  -8.9432     19.6521     58.9464   6.6579120230e+01   6.5788571121e+01    0.1933912    0.1784312  -0.58 0.0002891885    1.126    0.112
       531  -9.5254     22.8762     61.6801   6.5338405525e+01   6.4838094056e+01    0.4085285     0.212527  11.20  0.001558073    2.144    0.534
       532  -9.5468     20.0228     66.7717   6.8114071275e+01   6.3751864749e+01     0.369869      0.18144  28.91  0.001161481    2.068    0.516
       533 -10.2787     24.6906     64.4197   6.4960452118e+01   6.3983861664e+01    0.4680321    0.3981638  18.46  0.002661667    1.231    0.188
       534  -9.8739      3.5787     73.4576   7.8101990633e+01   6.2899199282e+01    0.2261557    0.2010113 -51.12 0.0001864846    1.089    0.082
       535  -8.9226     39.7997     65.1444   5.6822206075e+01   6.2203115681e+01    0.2052187    0.1917017 -82.99  0.000402402    1.140    0.123
       536  -8.9935     15.9550     65.1276   7.0072612123e+01   6.4459775701e+01    0.1919662    0.1740619  61.16 0.0003496949    1.195    0.163
       537  -8.9172     10.4764     67.5158   7.3576570139e+01   6.4154390157e+01    0.2866036    0.2248648  28.32   0.00162626    1.378    0.274
       538  -9.5055     33.1838     57.0304   5.8043055740e+01   6.4998114688e+01    0.2903324    0.2003806  14.98 0.0007967421    1.534    0.348
       539  -8.8246     30.9843     61.9375   6.0751435980e+01   6.4015844645e+01    0.2086122    0.1792123 -23.55 0.0004604992    1.172    0.147
       540  -8.6169     28.6732     59.2633   6.1331393983e+01   6.4921819591e+01    0.1881086    0.1325219   4.85 0.0003020622    1.552    0.356
       541 -10.3733      5.7536     60.8371   7.5215932668e+01   6.6098002863e+01    0.6274002    0.2918452  16.48   0.00284919    2.282    0.562
       542  -9.4992     36.5584     60.5395   5.7203845683e+01   6.3742655329e+01    0.2651328     0.219472 -35.80 0.0007072531    1.185    0.156
       543 -10.0043    160.0228     59.7541   1.4017875612e+01   3.6662472609e+01    0.2062291    0.1849719  74.95 0.0003045557    1.096    0.087
       544  -9.0841    194.1073    247.4938   4.6577076076e+01  -1.6916879630e-01    0.1659139   0.08370266  25.92  0.000585607    1.530    0.346
       545  -8.2984     11.5421     58.4599   7.1349927009e+01   6.6436956167e+01    0.1360028    0.1204202 -51.26 6.442425e-05    1.024    0.024
       546  -8.7871     15.4994     57.0268   6.8644607898e+01   6.6566690212e+01    0.1895579     0.172062  -9.97  0.001142285    1.134    0.118
       547  -9.1825     39.7630     56.0835   5.3959149198e+01   6.4427260980e+01    0.2620345    0.1999781  12.64 0.0004855182    1.384    0.277
       548  -8.8777    176.0043    202.3080   4.3441607396e+01   8.2744833525e+00    0.1761354    0.1342718  18.62 0.0002372265    1.094    0.086
       549  -9.6260     63.3967     54.2717   4.0967815978e+01   6.1037719335e+01    0.2638544    0.2390135  41.45   0.00141475    1.098    0.089
       550  -8.5854     59.0051     52.5522   4.2397873058e+01   6.2224000213e+01    0.2796681    0.1386983  41.31 0.0007558916    1.984    0.496
       551  -9.2813     22.1692     53.0274   6.3508204928e+01   6.7073042683e+01    0.4235297    0.2998777 -69.93  0.002223817    1.422    0.297
       552  -9.0881    141.1877    200.1664   5.0592741573e+01   1.3810814555e+01    0.2250402    0.1577026  22.71 0.0004535465    1.266    0.210
       553  -8.8623     44.9706     53.7866   5.0230513245e+01   6.4248499109e+01    0.1947543    0.1770827  14.84 0.0003090297    1.089    0.082
       554  -9.7476      9.7040     54.2297   7.1642160060e+01   6.7607971384e+01    0.4075229    0.1767932  20.19  0.001782251    2.374    0.579
       555  -8.8684      4.7928     54.1543   7.4711603764e+01   6.7840879753e+01    0.2114424    0.1544263 -45.75 0.0003831949    1.239    0.193
       556  -8.8966      1.7809     51.6409   7.6203669565e+01   6.8576095079e+01      0.20857    0.1442748  58.45 0.0003121339    1.661    0.398
       557  -9.3309     34.4290     52.0295   5.5672017610e+01   6.6064802785e+01    0.3517793    0.1991827  43.68  0.001567714    1.986    0.497
       558 -10.1345     10.9140     49.3152   6.9804094551e+01   6.8778388948e+01    0.4292576    0.2844331  38.98  0.002105247    1.688    0.408
       559  -8.3054      5.5078     50.5199   7.3603255111e+01   6.8730001241e+01    0.1339635     0.115596 -50.59 4.998887e-05    1.029    0.028
       560 -10.2852    194.9272    199.5110   3.9290870358e+01   6.0138880738e+00    0.4571706    0.2433662  36.81  0.002469756    1.820    0.450
       561  -8.1984     40.3783     50.0000   5.1423424365e+01   6.5777459681e+01    0.3139194   0.08012033  29.98 0.0009358032    3.943    0.746
       562  -9.2164    129.2084    201.1545   5.3509010916e+01   1.5449834233e+01    0.1929913    0.1588284  10.59 0.0003759834    1.187    0.157
       563 -12.4604     99.3471    129.3910   4.9017616252e+01   3.6133810198e+01     1.671056    0.5621958  36.71  0.005276658    2.840    0.648
       564  -9.4294     82.9065    201.0751   6.4906032765e+01   2.2211123026e+01    0.1970166    0.1685992  34.36 0.0002927966    1.066    0.062
       565  -9.1419     24.2714     45.7006   5.9913124496e+01   6.8667262963e+01    0.2369189    0.1950552  61.80  0.001007278    1.475    0.322
       566  -9.9140     21.9476     40.9805   5.9872039822e+01   7.0000929317e+01    0.4376463    0.2556315 -31.63   0.00132739    1.777    0.437
       567  -9.6514     26.7575     41.1975   5.6648239113e+01   6.9474511516e+01    0.2392027    0.2186118 -49.71 0.0005109368    1.110    0.099
       568 -10.8911    145.8703     43.5256   1.1403205675e+01   4.2780715739e+01     0.261981    0.2131423 -38.38 0.0005079321    1.262    0.208
       569 -10.3275      8.3424     43.7691   7.0250690634e+01   7.0281320593e+01    0.4663115    0.1758555 -28.82  0.001613188    3.042    0.671
       570  -9.7945     12.1289     39.7353   6.6475116065e+01   7.1050863485e+01    0.2324388     0.173845 -80.24  0.001298885    1.461    0.316
       571  -9.1254    101.0283     28.7964   1.5680774978e+01   5.6817027486e+01     0.289649    0.2015246  75.54 0.0009938831    1.515    0.340
       572 -10.0999     96.4619     28.4198   1.6793551572e+01   5.8060068480e+01    0.4643404    0.2665545  39.90  0.001959106    1.897    0.473
       573  -8.2084     87.5028     36.5573   2.3326553768e+01   5.9103277117e+01    0.2896658    0.1962077  19.20   0.00109354    2.048    0.512
       574  -9.5451     93.1793     39.0341   2.2520408970e+01   5.7298345350e+01    0.5102556    0.3585369 -77.77  0.002208222    2.027    0.507
       575  -8.9161    197.0228    244.0696   4.5592972947e+01  -9.8917822854e-02    0.2139211    0.1153534  -6.48  0.001231857    2.105    0.525
       576  -9.1108     81.1238     33.8597   2.4365053475e+01   6.1082019557e+01    0.2426338    0.1878185  33.74 0.0007329292    1.324    0.245
       577  -9.4894     97.9844     37.9991   2.0560380414e+01   5.6251427456e+01    0.3283615    0.2514358  33.81 0.0006697205    1.421    0.296
       578 -10.1026     95.5608     34.5444   1.9799070732e+01   5.7402426097e+01    0.4652821    0.2827676  62.45  0.001803627    1.615    0.381
       579 -10.5115      5.8780     38.8681   7.0834915188e+01   7.1587745435e+01    0.5595355    0.2685657  77.40  0.002216554    3.311    0.698
       580  -8.6755      1.5353     36.9761   7.3642041388e+01   7.2204453244e+01    0.2157244    0.1479394 -38.98 0.0004017341    1.298    0.229
       581 -10.2979     67.8438    200.5741   6.8723096240e+01   2.4310613912e+01    0.2462406    0.2129607  22.98 0.0005347453    1.209    0.173
       582 -10.5968     31.4696     38.6980   5.2480926377e+01   6.9501724946e+01    0.3006453    0.2259884  35.11 0.0002716673    1.390    0.280
       583  -9.0853     39.9086     38.8291   4.7103240410e+01   6.8332031563e+01    0.2842749    0.1942582   8.44  0.001100496    1.701    0.412
       584  -8.6307     36.2233     38.3330   4.9208619760e+01   6.8963324178e+01    0.2122268    0.1832446  -9.92 0.0005481196    1.124    0.110
       585  -8.9539     52.8730     37.9087   3.9143688394e+01   6.6380724161e+01    0.2158065     0.180422   6.51 0.0004339005    1.250    0.200
       586  -8.2108     45.3528     38.2167   4.3534199333e+01   6.7616321714e+01     0.140282      0.10378   5.30 0.0005398862    1.548    0.354
       587  -9.0198    161.0467    200.9688   4.6335387479e+01   1.0679898823e+01    0.1936134    0.1584601   9.92            0    1.067    0.063
       588  -8.4375     66.3013     34.2919   3.0683275464e+01   6.4381982429e+01    0.1469339    0.1111058  13.73 0.0003096826    1.568    0.362
       589  -9.0936     73.7710     36.9813   2.8736143990e+01   6.2268921971e+01    0.2474412    0.2213508 -36.59 0.0004966964    1.183    0.155
       590 -10.2913     70.5979     33.4049   2.8346996331e+01   6.3593362801e+01    0.5071111    0.3954364   3.14  0.001914025    1.546    0.353
       591  -9.6816     42.9779    201.0370   7.5172861804e+01   2.7173943755e+01    0.1944872    0.1696886  70.37  0.000305625    1.151    0.131
       592  -9.0822     56.9803     34.3101   3.5210860430e+01   6.6293307812e+01    0.3628228    0.2106688  15.93  0.001354759    2.910    0.656
       593  -7.9111     58.6961     30.2782   3.2273219805e+01   6.6675366288e+01    0.2322279    0.1173146 -48.54 0.0002286051    2.347    0.574
       594  -9.5102     20.8675     35.0049   5.8431618067e+01   7.1481816068e+01    0.2411578    0.1750183  13.06  0.001328002    1.389    0.280
       595  -9.4642    125.0715     34.4855   1.2247575673e+01   4.9619026244e+01     0.226595    0.1381723  61.63 0.0009344917    1.510    0.338
       596  -8.5948     46.6207     32.8251   4.0166050539e+01   6.8484350348e+01    0.1823955    0.1339167 -55.21 0.0004128034    1.586    0.369
       597 -11.0665      8.2800     32.6928   6.7289491086e+01   7.2944003120e+01    0.3600404       0.2926 -17.09  0.001634777    1.177    0.151
       598 -10.2699      2.5398     28.6372   7.0780310999e+01   7.4153727404e+01    0.4577022    0.2477854 -87.45  0.001620064    2.247    0.555
       599  -9.2228    109.0841    247.1958   6.3497425983e+01   1.0357890148e+01    0.1736644    0.1323299  18.15 0.0003040308    1.215    0.177
       600 -10.4399     93.9887    246.9909   6.6730742674e+01   1.2272459504e+01    0.4062102    0.2103133  11.73  0.001901864    2.758    0.637
       601  -9.9252     92.3121    244.3386   6.6867292345e+01   1.2915311039e+01    0.3641725    0.2115539 -17.78  0.001691745    3.500    0.714
       602  -9.8374      5.8912     18.1263   6.4144409770e+01   7.6383423584e+01    0.2156739    0.1674007 -51.55  0.000349706    1.186    0.157
       603 -10.3268     33.4696    246.0868   7.9793887052e+01   1.9296144067e+01    0.2280311    0.1939793  14.75 0.0005261565    1.445    0.308
       604  -9.0016    156.6060    245.8400   5.3490657797e+01   4.5451562588e+00    0.2074991    0.1229424  20.44 0.0005361101    1.357    0.263
       605 -13.8258     16.9797    107.2236   7.5641486952e+01   5.3158993094e+01     2.803422     1.976837 -86.68   0.01468517    1.328    0.247
       606  -7.9724    206.6559    200.7258   3.7337271054e+01   4.2525189416e+00    0.1241166   0.07690799   3.77 0.0003717763    1.621    0.383
       607  -8.5875     63.2457     30.8025   3.0335981295e+01   6.5637697289e+01    0.2315666    0.1758654  -4.01 0.0006487377    1.588    0.370
       608 -10.1195     76.7718     28.9897   2.3644941677e+01   6.2882837481e+01    0.4056086    0.2893378  87.49  0.001650489    2.051    0.512
       609  -9.7713     67.5301     27.8655   2.6863488333e+01   6.5187872976e+01    0.4377559    0.1922398  48.85 0.0008575692    2.106    0.525
       610  -9.6565     71.4460     26.4698   2.4475476126e+01   6.4515032163e+01    0.4533638    0.2918029  20.26  0.001973087    2.095    0.523
       611  -9.2252    150.1145     34.4715   7.6683905637e+00   4.2901755033e+01    0.2274081    0.1366403  68.45  0.001001169    1.574    0.364
       612  -8.0782     91.2907     29.2814   1.8743395157e+01   5.9266249118e+01    0.1489217    0.1092883  30.51 0.0001759038    1.529    0.346
       613  -8.9236     48.4416     28.8906   3.7053923931e+01   6.8904561408e+01    0.2203797    0.1854388  44.15 0.0003361633    1.234    0.190
       614  -9.3353    191.5175    196.5416   3.9442483568e+01   6.9246432621e+00    0.2348705    0.1675578  -1.43 0.0007418439    1.312    0.238
       615  -9.3876    169.9468    199.5603   4.4238378203e+01   9.5877535079e+00    0.2076672    0.1364703  15.67 0.0007512151    1.445    0.308
       616  -9.4640    150.1039    245.2214   5.4720161396e+01   5.4468939048e+00    0.2075359    0.1395551  -5.35  0.001265464    1.660    0.398
       617  -8.1817     38.3545     26.7089   4.2106369351e+01   7.1030236519e+01    0.1328246    0.1090686  65.36 0.0007028369    1.681    0.405
       618  -8.1172    153.4853    200.4807   4.7893841336e+01   1.1893967763e+01    0.1337943    0.1101116  16.09 0.0002897943    1.033    0.032
       619  -9.6233    103.8858     24.6526   1.3110476007e+01   5.6609843903e+01    0.4443113    0.2638218 -73.06  0.001748862    2.477    0.596
       620  -9.0365    136.1669    245.9914   5.7661177689e+01   7.1041488811e+00    0.1810934    0.1300672   9.59 0.0007033425    1.328    0.247
       621 -10.6681     29.9441     24.2071   4.6629964605e+01   7.2754273150e+01    0.5624938    0.2525252  22.59  0.001472028    2.567    0.610
       622  -9.1500    114.4490     24.4583   1.0559891740e+01   5.3798692413e+01    0.1497475    0.1348142  60.79 0.0005826222    1.066    0.062
       623  -8.0984     44.5089     24.4313   3.6922910200e+01   7.0418011488e+01    0.1393922    0.1249358  11.42 0.0001311493    1.021    0.020
       624 -10.2063     97.3674     23.3076   1.4209509782e+01   5.8504215664e+01    0.3030385    0.2001972  76.13  0.001099274    1.613    0.380
       625  -9.5227    134.0547    199.9594   5.2203011896e+01   1.4933247043e+01    0.1995145    0.1683879  25.52 0.0003552636    1.014    0.014
       626 -10.0171    112.3787     19.9048   9.1047084017e+00   5.4903202187e+01    0.2591444     0.191457  85.42  0.001281788    1.362    0.266
       627  -9.3023     43.0357     20.0256   3.5243814730e+01   7.1447594875e+01    0.2178489    0.1562009   3.26 0.0006979951    1.638    0.389
       628  -9.5586     18.5318     20.0420   5.3514452662e+01   7.4961689221e+01    0.3524242    0.1259588  40.59  0.001307816    3.580    0.721
       629 -10.2194     63.9821     18.6559   2.3373516680e+01   6.7366827557e+01    0.3200952    0.2169948  30.32 0.0007773879    1.553    0.356
       630  -8.7647    186.6715    198.7431   4.0743894089e+01   7.2865275815e+00     0.182477     0.130824 -10.77 0.0004936569    1.339    0.253
       631  -9.2368     82.4769     25.4788   1.9816869525e+01   6.2017559193e+01    0.1481353    0.1352535  46.91 0.0001908195    1.014    0.013
       632  -9.4877     31.0078     15.2539   4.0516232185e+01   7.4278911105e+01    0.2461906    0.2001706  66.69  0.001269017    1.858    0.462
       633  -9.1957     23.9997     15.2914   4.6126417807e+01   7.5263951777e+01    0.1798009     0.154069   2.72 0.0004730345    1.051    0.049
       634  -9.2565     43.8156     11.6633   2.9394849042e+01   7.2622923971e+01    0.3405887    0.1216669  55.05  0.001084005    4.198    0.762
       635  -9.1374    131.1540    246.5907   5.8768878631e+01   7.6537164984e+00    0.1890134   0.09220808  29.65   0.00055947    1.542    0.351
       636  -8.6763    128.5478    244.4581   5.9082061682e+01   8.3040100001e+00    0.1739268   0.09233765  22.97 0.0001062427    1.607    0.378
       637  -9.6787    119.3572    246.1184   6.1200572516e+01   9.2252743394e+00    0.1999491    0.1301169  22.56 0.0003795461    1.270    0.213
       638 -10.0793    104.6943    245.3428   6.4265505510e+01   1.1203965053e+01    0.2185833    0.1657966  17.79 0.0002520216    1.245    0.197
       639  -9.4808    102.4248    241.8390   6.4428261483e+01   1.2058519787e+01    0.1444122    0.1251723 -60.32  0.000563264    1.520    0.342
