#   1 NUMBER                 Running object number                                     
#   2 MAG_AUTO               Kron-like elliptical aperture magnitude                    [mag]
#   3 X_IMAGE                Object position along x                                    [pixel]
#   4 Y_IMAGE                Object position along y                                    [pixel]
#   5 X_WORLD                Barycenter position along world x axis                     [deg]
#   6 Y_WORLD                Barycenter position along world y axis                     [deg]
#   7 A_WORLD                Profile RMS along major axis (world units)                 [deg]
#   8 B_WORLD                Profile RMS along minor axis (world units)                 [deg]
#   9 THETA_WORLD            Position angle (CCW/world-x)                               [deg]
#  10 FWHM_WORLD             FWHM assuming a gaussian core                              [deg]
#  11 ELONGATION             A_IMAGE/B_IMAGE                                           
#  12 ELLIPTICITY            1 - B_IMAGE/A_IMAGE                                       
         1 -15.1002    244.7603     69.9418   5.8610261032e+01   1.4739943068e+01     4.834105     1.205798 -25.69   0.01373459    4.596    0.782
         2 -13.4743     75.7050     55.3635   9.1170854907e+01   5.6238053908e+01     1.297818    0.8383719 -71.71   0.00569435    2.528    0.604
         3 -13.4288     75.3428     36.1776   8.4150215885e+01   5.9904372437e+01     0.962473    0.8091832  85.65  0.005388836    1.745    0.427
         4 -14.1152     46.1945     26.9438   9.1839842787e+01   6.5969528249e+01     1.304335      1.11195 -44.24  0.008252892    1.214    0.176
         5 -13.3910     77.9004      5.1281   6.8981808108e+01   6.3977312492e+01       1.7488     1.098632 -69.73  0.006798926    4.213    0.763
         6 -12.5282     81.9074     23.5641   7.6461626842e+01   6.0748011507e+01    0.7966856    0.6407798 -83.99  0.004248176    1.972    0.493
         7 -14.4134     66.6279     11.0948   7.5980875523e+01   6.5348391595e+01     1.258866     1.153826  -9.46  0.007688107    1.144    0.126
         8 -11.5033    164.2226     13.7707   5.3320909882e+01   4.2182529844e+01    0.3212513    0.2524895 -64.30  0.001327497    1.387    0.279
         9 -12.5903    183.6737      3.5565   4.7394985645e+01   3.7984736301e+01    0.5908281    0.4135551 -54.38   0.00299459    1.475    0.322
        10 -12.7097    105.3168      9.3875   6.3123018520e+01   5.7592362939e+01    0.6586258    0.3395931  31.12  0.002785734    2.235    0.553
        11 -12.2572    133.5156    146.5346   9.8150632207e+01   2.6441183333e+01    0.3822337    0.2792653 -52.40  0.002009656    1.453    0.312
        12 -14.1225    238.1813    240.3937   9.4161703200e+01  -5.1182237117e+00     1.508959    0.8604868   3.53  0.009597962    2.001    0.500
        13 -14.2679    248.4013    200.2594   8.6223942157e+01  -2.6738146860e+00     2.975295    0.4686521 -29.41  0.008624014    8.074    0.876
        14 -15.5893     50.4592     84.6370   1.0792973764e+02   5.3406540709e+01     8.436529      4.78286  73.53   0.03590955    3.029    0.670
        15 -13.7837    107.4408    183.4279   1.0977446810e+02   2.3846983070e+01     2.056672     0.731934  51.67  0.008306502    2.817    0.645
        16 -13.4120     37.2915    128.9330   1.1901491921e+02   4.4736740445e+01     3.430814     2.949807  68.03   0.02386814    1.153    0.132
        17 -14.4865     40.3024    103.5439   1.1464646726e+02   5.0187786110e+01     3.614421     1.108485  45.16   0.01420872    3.611    0.723
        18 -14.8386     61.2341    161.4689   1.1706460102e+02   3.4909081304e+01     6.423991    0.4289161  40.22   0.01901145    6.001    0.833
        19  99.0000     22.2436    204.3432   1.2830999733e+02   3.0907567027e+01     1.815125    0.3194069  51.85  0.007914487    3.720    0.731
        20 -13.0003     49.5775    193.7405   1.2254326170e+02   2.9903338549e+01     1.879197    0.4234678  44.37  0.008226379    3.149    0.682
        21  99.0000     43.5395    178.7113   1.2253796455e+02   3.3506103039e+01     3.264467      1.25245  31.15   0.01548932    3.124    0.680
        22 -13.0962     22.4457    244.5888   1.3011228890e+02   2.4156627955e+01    0.6531176    0.4859203  66.55  0.005197959    1.174    0.148
        23 -12.9552      6.9110    241.9258   1.3237415100e+02   2.6091654811e+01     1.285284    0.5108657 -79.33  0.008821647    2.380    0.580
        24 -14.7548     79.2545    244.7167   1.2104507446e+02   1.7566239938e+01     2.836616    0.7584292  37.22   0.01225513    3.777    0.735
        25 -14.4082     87.3116    230.2943   1.1856465367e+02   1.8715842439e+01     2.639388    0.5195283  39.38  0.009970767    4.268    0.766
        26 -10.3936     35.0058    250.3575   1.2843107471e+02   2.1958911021e+01    0.2113172   0.08697545  44.81  0.001415027    1.762    0.432
        27 -13.0125     74.7031    133.9518   1.1012414773e+02   3.9054565849e+01     1.176799    0.6935257  45.82  0.005066065    1.670    0.401
        28 -11.5467     94.3586    136.5947   1.0562522511e+02   3.5479694175e+01    0.6207474    0.4036683 -82.15  0.003041969    1.838    0.456
        29 -12.7476     99.4831    123.7572   1.0191142263e+02   3.7431621103e+01     1.035264    0.4583353 -43.14  0.004003525    2.734    0.634
        30 -11.0152      2.5893    124.1328   1.2732988013e+02   4.8710237040e+01    0.3158278    0.2340841  65.04  0.001576086    1.263    0.208
        31 -11.2600     71.3412    143.3238   1.1237996752e+02   3.7459724129e+01    0.6211675    0.4019514  75.41   0.00332289    1.670    0.401
        32  99.0000     10.4269    217.5286   1.3094317730e+02   2.9738667906e+01    0.3100365    0.2100602  26.37  0.002321709    2.168    0.539
        33 -11.9257    120.5120    108.6598   9.3112909910e+01   3.6802665740e+01    0.3740517    0.2479287 -38.03  0.001730357    1.648    0.393
        34 -12.5021    114.4252    115.0309   9.6179002640e+01   3.6628477306e+01    0.4495767     0.268817 -52.60  0.002050218    1.673    0.402
        35 -10.5105      8.2053    128.2666   1.2627325816e+02   4.7418832554e+01    0.2833669    0.1726544  57.59  0.001200313    1.559    0.358
        36  -9.5034      1.3729    214.5410   1.3232155204e+02   3.1075410342e+01    0.1443403   0.07152545  89.68 0.0008149316    1.657    0.397
        37 -10.3176     10.3063    207.2504   1.3053606477e+02   3.1535989567e+01    0.2141791    0.1154552  54.23  0.001331548    1.396    0.284
        38 -14.0036     68.1354     33.7701   8.5806201306e+01   6.1541624289e+01     1.045671    0.6297792  24.44  0.005099988    2.024    0.506
        39 -10.3846      2.9471    206.8357   1.3177558308e+02   3.2274807332e+01    0.2594714    0.1313532  59.13  0.001857722    1.427    0.299
        40 -11.6845     32.4881     34.8289   1.0099308933e+02   6.6046307426e+01    0.6138575    0.2760659 -48.83  0.003086665    1.793    0.442
        41 -11.1104    126.8061     34.1400   6.8036370549e+01   4.9342124618e+01     0.474172    0.2608885 -44.89  0.001981786    2.013    0.503
        42 -12.7517    188.2156     29.4583   5.4933317725e+01   3.3999445542e+01    0.6803427    0.4198912 -88.23  0.002907763    2.011    0.503
        43 -13.2772     39.6770    206.2515   1.2528641775e+02   2.8728627446e+01     2.138087    0.8250458  79.61   0.01016866    3.238    0.691
        44  99.0000     32.4668    226.4171   1.2769294845e+02   2.6024637439e+01     2.143832     0.870707  52.66   0.01359105    1.761    0.432
        45 -13.3691     72.3488    216.6047   1.2010187690e+02   2.2958055438e+01      3.39877     0.552413  41.97     0.013101    3.989    0.749
        46 -10.9147      4.3310    165.6641   1.2963888410e+02   3.9902976069e+01    0.3790982    0.1474913  56.83  0.002143482    2.155    0.536
        47 -13.6734     93.8920    191.5419   1.1354257763e+02   2.4420745934e+01     1.935922     1.550192 -86.57   0.01301329    1.258    0.205
