#   1 NUMBER                 Running object number                                     
#   2 MAG_AUTO               Kron-like elliptical aperture magnitude                    [mag]
#   3 X_IMAGE                Object position along x                                    [pixel]
#   4 Y_IMAGE                Object position along y                                    [pixel]
#   5 X_WORLD                Barycenter position along world x axis                     [deg]
#   6 Y_WORLD                Barycenter position along world y axis                     [deg]
#   7 A_WORLD                Profile RMS along major axis (world units)                 [deg]
#   8 B_WORLD                Profile RMS along minor axis (world units)                 [deg]
#   9 THETA_WORLD            Position angle (CCW/world-x)                               [deg]
#  10 FWHM_WORLD             FWHM assuming a gaussian core                              [deg]
#  11 ELONGATION             A_IMAGE/B_IMAGE                                           
#  12 ELLIPTICITY            1 - B_IMAGE/A_IMAGE                                       
         1 -14.4682    196.6657     15.8490   6.6874878778e+01   3.3575925278e+01      3.01736      1.69972  24.07   0.01005708    2.188    0.543
         2 -13.7205    201.8814      8.8814   6.4001845356e+01   3.2860376279e+01     1.604927    0.7800835  45.95  0.001598707    2.100    0.524
         3 -10.2165     32.5961      2.7743   1.0505963748e+02   7.1280588614e+01    0.1767181   0.09856042 -46.47 0.0009617159    1.705    0.414
         4 -10.7184    163.0981    249.2677   1.2436647729e+02   8.1015816829e+00    0.2008614    0.1078254  49.91  0.001374662    1.566    0.362
         5 -11.6278    141.2592    250.0197   1.2778317009e+02   1.1011053696e+01    0.4236981    0.1097119  40.99  0.002070183    2.853    0.649
         6 -11.7988    124.9753    243.9317   1.2974909254e+02   1.3905876755e+01    0.2770148    0.1827579  80.17  0.002028955    2.044    0.511
         7 -11.4140    107.4954    248.5361   1.3281928189e+02   1.5607463781e+01    0.2571854    0.1422395  50.72  0.001091544    1.310    0.237
         8 -11.9897     98.0086    249.4872   1.3432846029e+02   1.6670697218e+01    0.3821134    0.1973579  47.42  0.002138666    1.364    0.267
         9 -11.0740    101.4992    246.5074   1.3358089872e+02   1.6614158366e+01    0.2197331    0.1388462  80.26  0.001101776    1.869    0.465
        10 -12.8425     79.9016    247.4683   1.3691801791e+02   1.9098555735e+01    0.6402701    0.2225704  44.98  0.004031232    1.988    0.497
        11 -12.0232     81.9549    242.8352   1.3630839948e+02   1.9468431923e+01    0.4357503    0.1959908  67.27  0.002678396    2.573    0.611
        12 -11.5852     65.7797    250.0405   1.3916365350e+02   2.0365666857e+01    0.3682196    0.1221046  39.94  0.002031624    2.388    0.581
        13 -12.4328     41.5858    206.7094   1.4049620491e+02   2.9300734657e+01    0.7955923    0.3090745 -73.69  0.001960267    2.533    0.605
        14 -15.0377      4.1929     16.2763   1.2592849510e+02   7.1098342927e+01     21.47507     1.300983 -63.07   0.03543064   19.348    0.948
        15 -14.9147     32.3170    245.8015   1.4380477385e+02   2.4413459358e+01     7.521224     1.726135  32.97   0.02349739   11.910    0.916
        16 -11.6923     35.0405    230.2934   1.4274723898e+02   2.6340827361e+01    0.2535522    0.1534403  66.77 0.0007788694    1.213    0.176
        17 -11.0907     37.3782    226.2746   1.4220305318e+02   2.6700456250e+01    0.1991378    0.1299603  77.94 0.0009039621    1.267    0.211
        18 -10.0170    229.6893    229.9749   1.1180672584e+02   4.2061526108e-01    0.1434812    0.1097619  19.44 0.0005688508    1.131    0.116
        19 -11.0307    173.8332    221.5065   1.1950682475e+02   9.6052095343e+00     0.265923    0.1524372  56.32   0.00158844    2.029    0.507
        20 -11.1146    139.2202    245.4980   1.2767731786e+02   1.1803154655e+01    0.1517347    0.1427177  83.87  0.001403683    1.381    0.276
        21  -9.1853    152.6837    212.9969   1.2199415052e+02   1.3863470925e+01    0.1429178    0.1216487  43.20 0.0003445973    1.090    0.082
        22 -15.7829      7.9456    240.5656   1.4706384974e+02   2.7378945200e+01     6.673648    0.8215026 -72.36   0.03204951    6.331    0.842
        23 -10.8724    120.1272    238.7272   1.3005217750e+02   1.5195164132e+01    0.1568181    0.1229489  76.10 0.0005400663    1.400    0.286
        24 -15.3063     56.3975    217.4639   1.3870280005e+02   2.6033163564e+01     4.202008    0.8946717  43.93   0.01898938    3.049    0.672
        25 -11.8818     32.6744    204.1402   1.4183793321e+02   3.0609886821e+01    0.4655101    0.1547426 -74.48  0.002713632    2.855    0.650
        26 -10.6589    193.1767    195.2875   1.1257289958e+02   9.6453563991e+00    0.6136083    0.3330731 -61.12  0.002154568    7.135    0.860
        27 -11.7044     71.5799    195.8976   1.3452702609e+02   2.7725965026e+01    0.2988001    0.2229778 -55.04  0.001637784    1.743    0.426
        28  -9.7653     66.2016    195.9189   1.3549407082e+02   2.8363588302e+01    0.2097162    0.1070929  54.71 0.0007181478    1.617    0.382
        29 -11.7980     76.2673    188.7527   1.3303893560e+02   2.8353673367e+01     0.233924    0.2091452 -56.65 0.0006012997    1.479    0.324
        30  -9.5198    120.1158    188.3746   1.2478752153e+02   2.2374211984e+01    0.2568519    0.1517105  26.90  0.001112484    2.239    0.553
        31  -9.2079    126.0947    186.3473   1.2340683388e+02   2.1789179021e+01    0.2933191   0.09849203  37.04  0.001212206    3.074    0.675
        32  -9.1257     93.2349    178.7990   1.2878807407e+02   2.7849371972e+01    0.1927257   0.09672927  67.12 0.0007577644    2.658    0.624
        33 -11.2110     84.6378    176.5861   1.3022131606e+02   2.9397873749e+01    0.2025848    0.1785326  76.21 0.0003653567    1.099    0.090
        34 -13.2555     72.4735    174.0431   1.3234403223e+02   3.1414057085e+01     0.384739    0.2465079 -44.13  0.001951727    2.291    0.563
        35 -10.9787    119.1834    174.8447   1.2320984965e+02   2.4739936839e+01    0.3787157    0.1527147  39.53  0.001771484    2.288    0.563
        36 -12.3915     50.1988    129.9419   1.3227162140e+02   4.2680491250e+01    0.4579917     0.255055  53.62  0.001779499    1.788    0.441
        37 -13.5365     67.2370    144.2125   1.3010256614e+02   3.7775240393e+01     1.433306    0.6897876  80.99  0.005953957    3.550    0.718
        38  -9.6571    105.0121    147.0167   1.2209134324e+02   3.1964898136e+01     0.234873    0.1586129 -31.86  0.001230419    2.183    0.542
        39 -12.0983     91.5063    150.6331   1.2558826484e+02   3.3275885332e+01    0.2319854    0.2236171  21.91 0.0005317528    1.287    0.223
        40 -12.3340     46.0597    148.4178   1.3523504045e+02   3.9342791593e+01    0.4529671    0.2393364 -74.48  0.002693928    1.699    0.412
        41  -9.9742    134.2941    147.6816   1.1586408262e+02   2.7001180409e+01    0.4445839    0.1189603 -52.22  0.001445387    4.575    0.781
        42  -8.7541    192.1893    144.3666   1.0356175757e+02   1.6655502767e+01     0.176675    0.1199326  51.61  0.000285262    1.537    0.350
        43 -14.1051     11.2526    207.0968   1.4545531615e+02   3.2103656236e+01    0.9397651    0.6795261  49.14  0.003491081    1.352    0.260
        44 -10.0952    112.3631    136.5755   1.1870397681e+02   3.2812850655e+01    0.2794202    0.2310731   0.45  0.001150953    1.659    0.397
        45 -10.2202    102.5576    151.2062   1.2326901733e+02   3.1540350297e+01     0.282482    0.2440263 -32.14 0.0009593077    1.479    0.324
        46 -12.9633     57.1801    129.3109   1.3052609774e+02   4.2036607003e+01     1.472585    0.5063626 -78.72   0.00468644    5.473    0.817
        47 -10.7558    100.1274    133.7790   1.2102818331e+02   3.5318602282e+01    0.2532129    0.2165666 -27.44 0.0006390407    1.480    0.324
        48  -9.3490    108.9083    123.6838   1.1711450986e+02   3.5941521804e+01    0.1777959     0.156939  53.85 0.0003907434    1.115    0.103
        49 -10.5872     19.0159    124.4867   1.3909069594e+02   4.6733094727e+01    0.1457823    0.1035103  39.43 0.0004714504    1.578    0.366
        50 -11.1233    168.2769    113.4634   1.0136625599e+02   2.6465285689e+01    0.3649309     0.312892 -80.15  0.001003431    1.526    0.345
        51 -12.6058     91.0869    167.7670   1.2791956859e+02   3.0113421118e+01     1.273601    0.4601752  50.86  0.002559714    2.716    0.632
        52 -11.8738    247.9904    247.6253   1.1152002064e+02  -3.5068306116e+00    0.4022278    0.2237104  32.11  0.003000534    1.219    0.180
        53 -10.6546    226.8818    249.3025   1.1478774111e+02  -7.8368095967e-01    0.1620308     0.102496  43.20  0.001216749    1.462    0.316
        54 -13.1177     47.9186    229.7402   1.4075386937e+02   2.5109618737e+01    0.3832453    0.2564755  56.61 0.0007824488    1.087    0.080
