#   1 NUMBER                 Running object number                                     
#   2 MAG_AUTO               Kron-like elliptical aperture magnitude                    [mag]
#   3 X_IMAGE                Object position along x                                    [pixel]
#   4 Y_IMAGE                Object position along y                                    [pixel]
#   5 X_WORLD                Barycenter position along world x axis                     [deg]
#   6 Y_WORLD                Barycenter position along world y axis                     [deg]
#   7 A_WORLD                Profile RMS along major axis (world units)                 [deg]
#   8 B_WORLD                Profile RMS along minor axis (world units)                 [deg]
#   9 THETA_WORLD            Position angle (CCW/world-x)                               [deg]
#  10 FWHM_WORLD             FWHM assuming a gaussian core                              [deg]
#  11 ELONGATION             A_IMAGE/B_IMAGE                                           
#  12 ELLIPTICITY            1 - B_IMAGE/A_IMAGE                                       
         1 -14.4310    215.0717     26.2863   1.6131619539e+01   2.7878211824e+01    0.8900096    0.7751156 -42.71  0.004233292    1.135    0.119
         2 -11.6587     71.4532      7.3173   3.3153276485e+01   6.5877756213e+01    0.2428138    0.1148737  57.81  0.001084995    2.019    0.505
         3 -11.9412     37.8048      2.3913   4.4284197060e+01   7.3097822628e+01    0.1819495    0.1019093  34.55 0.0009584781    1.721    0.419
         4 -12.5260     93.8464    243.4608   8.4758668743e+01   1.3408512646e+01    0.3227198    0.2334831  19.73  0.002086553    1.630    0.386
         5 -15.9083     70.5425    159.0174   8.0747309404e+01   3.3776509391e+01      5.77139     1.605659  42.31   0.01993987    3.121    0.680
         6 -16.5061    118.1056    234.0908   7.8989522557e+01   1.1580712940e+01     5.330112     4.135265 -87.78   0.03517829    1.687    0.407
         7  -9.8559    170.5153    208.5209   6.5058519938e+01   7.7518533444e+00    0.1263041    0.1066099  23.34 0.0001700443    1.010    0.009
         8 -10.0182    197.2734    207.6843   5.9857035597e+01   3.7786243006e+00    0.1036906   0.09684532  61.02 0.0002634781    1.562    0.360
         9 -10.7215    210.8770    198.7622   5.5926153527e+01   2.9903946930e+00    0.1826809    0.1387191   9.30 0.0005014599    1.157    0.135
        10 -11.0983    193.6766    195.9972   5.8565171850e+01   6.0178426294e+00    0.1809411    0.1019776 -59.93 0.0007045751    4.256    0.765
        11 -11.2667     69.0696    193.6346   8.5305725976e+01   2.6170411659e+01    0.3704193    0.1824528 -84.52  0.001651285    2.596    0.615
        12 -11.2370     56.3621    193.1959   8.8256551912e+01   2.7927836265e+01    0.1827726    0.1608268  37.00 0.0005623545    1.262    0.207
        13 -10.1589     71.2946    186.9272   8.4050816722e+01   2.7308913806e+01    0.1647532    0.1455788  72.74 0.0002431906    1.069    0.065
        14 -12.8894     59.0255    181.0240   8.6414820769e+01   3.0261339310e+01    0.6283035    0.3691972  12.55  0.002799745    2.832    0.647
        15 -11.4721     50.0728    185.2077   8.9022227103e+01   3.0454806278e+01     0.295837    0.1605823  45.36  0.001542648    1.575    0.365
        16 -12.5087     51.3133    180.6812   8.8290291829e+01   3.1314703993e+01    0.4025164    0.2249479 -85.75  0.001402483    1.856    0.461
        17 -16.9173     69.4711    140.9354   7.8312761372e+01   3.8309550620e+01     6.099827     2.563827  53.48   0.02217299    2.841    0.648
        18 -10.2276     78.3720    183.8584   8.1972517839e+01   2.6976990385e+01     0.163192    0.1588897   3.47 0.0003698348    1.275    0.215
        19 -13.0509     71.3388    181.0176   8.3362998810e+01   2.8602287631e+01     0.563057    0.3178863  53.62  0.001583882    1.652    0.395
        20 -12.8103    145.7278    178.4169   6.5265020545e+01   1.7062184288e+01    0.2921254     0.223425 -69.33 0.0008325768    1.689    0.408
        21 -10.7985     37.4200    176.1433   9.1334201030e+01   3.3975414339e+01    0.2090741    0.1600245  42.46 0.0008983957    1.264    0.209
        22 -11.0118     46.6754    173.5817   8.8763054460e+01   3.3496554356e+01    0.2545499     0.176827 -50.74  0.001406868    1.745    0.427
        23 -12.2957    179.4528    169.1498   5.6423496028e+01   1.2719369262e+01    0.5342182    0.4106741 -55.24  0.002928164    1.609    0.379
        24 -10.8425     70.0143    236.0034   8.8891304785e+01   1.7793093336e+01    0.1383855    0.1287945 -30.67 0.0004549342    1.535    0.348
        25 -10.3155     53.7348    171.3826   8.6727168784e+01   3.3138089847e+01    0.1428244   0.08590303  69.14 0.0006898948    1.688    0.408
        26 -10.8202    191.3759    232.0108   6.4653774120e+01   1.3583084930e+00    0.1499311    0.1254518  -1.85  0.000384779    1.178    0.151
        27  -9.9476    191.5035    225.4270   6.3669396852e+01   2.1993242187e+00    0.1180118   0.09396778  20.08 0.0001244825    1.034    0.033
        28 -12.3392    173.6141    177.6612   5.9207409151e+01   1.2286645901e+01    0.5389183    0.3465056 -45.69  0.002795423    1.711    0.415
        29 -12.9236     59.9391    229.3005   9.0435786369e+01   2.0265262395e+01    0.2715464    0.2255415 -51.64  0.001455889    1.646    0.392
        30 -11.0076     44.9863    156.0699   8.7375145591e+01   3.7836665227e+01    0.4526466    0.2801175  74.51  0.001680435    1.635    0.388
        31 -11.2805     53.1310    157.3436   8.5281886217e+01   3.6533517809e+01    0.3058313    0.1715578 -64.81  0.001205007    1.722    0.419
        32 -10.5406    167.2136    156.2039   5.6366956818e+01   1.7303347876e+01    0.2086453    0.1840318  -0.22 0.0005222418    1.163    0.140
        33 -13.4962    112.6272    151.1898   6.8220542335e+01   2.8698935100e+01     0.524239    0.3842984  71.51  0.002088262    1.627    0.385
        34 -12.7908    108.8559    145.3121   6.8076564062e+01   3.0718706972e+01    0.3579663     0.319524 -65.05 0.0006810949    1.143    0.125
        35 -13.3378    134.0000    148.0001   6.2222322103e+01   2.5371103870e+01    0.6365082    0.2790043 -51.72  0.002412112    2.442    0.591
        36 -13.9052    134.0420    143.6721   6.1308710865e+01   2.6285723283e+01    0.9029093    0.5901247 -82.89  0.003555997    2.670    0.625
        37 -10.1293    177.2711    230.3470   6.6994601329e+01   3.5655015476e+00    0.1169866   0.07990568   3.32 0.0006994806    1.621    0.383
        38 -13.6082     90.2276    151.1353   7.4161749457e+01   3.2603891145e+01     0.622398    0.4357382  68.18  0.002312485    1.591    0.371
        39 -13.7765     96.4967    143.9576   7.1157973949e+01   3.3235018678e+01    0.7370961    0.5206879 -31.65  0.002810651    1.884    0.469
        40 -11.9996    148.5941    145.7378   5.8290779835e+01   2.2973539302e+01    0.3213776    0.2587153 -73.27 0.0008623442    1.534    0.348
        41 -12.3833    106.2141    138.6581   6.7459490179e+01   3.2737783463e+01    0.3986763    0.2588184  75.03  0.001393974    2.224    0.550
        42 -13.5242    106.2915    131.6198   6.5965645729e+01   3.4363302100e+01    0.6543211    0.4718722 -64.48  0.001908099    1.465    0.317
        43 -11.4859    143.9175    137.9980   5.7697150096e+01   2.5506840731e+01    0.2252247    0.2208317 -83.71 0.0006453185    1.054    0.051
        44 -12.1117    116.5715    137.2161   6.4380668687e+01   3.1117315850e+01     0.351243    0.2268759  50.11 0.0003950465    1.551    0.355
        45 -12.6026     96.2209    131.3261   6.8742946449e+01   3.6282966929e+01    0.2851763    0.2688341 -44.53 0.0005146092    1.147    0.128
        46 -13.9784    134.4161    128.3351   5.7804199296e+01   2.9511708735e+01    0.9430161    0.5352942 -62.27  0.003653421    2.329    0.571
        47 -10.3608     84.4546    127.2478   7.1354949956e+01   3.9316218320e+01    0.1975927     0.140326 -75.92 0.0009219754    1.526    0.345
        48 -12.4517    115.0560    125.7639   6.2253131973e+01   3.4023496654e+01    0.3316281    0.2697983  22.78 0.0008905766    1.426    0.299
        49 -11.4718    102.4800    120.8198   6.4637015776e+01   3.7622525238e+01    0.2704301    0.2381871  15.81 0.0006498334    1.324    0.245
        50 -11.9539     76.8230    121.0325   7.2420119559e+01   4.2106767537e+01     0.241192    0.1959474  76.73  0.001235749    1.297    0.229
        51 -18.5634     17.5828     84.5190   8.6663660329e+01   5.8504173275e+01     14.80318    0.8909281 -70.42   0.02353053   15.670    0.936
        52 -12.8072     33.3034    118.7789   8.6209107352e+01   4.8431663561e+01     0.388443    0.2814595 -45.91  0.001332088    1.513    0.339
        53 -10.8416    110.0779    115.7579   6.1258221928e+01   3.7317658365e+01    0.2100778    0.1965902  49.39  0.000351732    1.073    0.068
        54 -10.8889     65.2389    114.9669   7.4898065427e+01   4.5414965831e+01    0.2914876     0.201715  77.64 0.0009472565    1.730    0.422
        55 -12.2873     59.7859    112.3831   7.6193926438e+01   4.6852411201e+01    0.2925074    0.2569216 -30.61 0.0009556305    1.318    0.241
        56 -12.3314     61.1291    108.8702   7.5018362849e+01   4.7546370870e+01    0.3572358     0.246877  51.47  0.001115859    1.521    0.342
        57 -12.9444    116.9598    109.0112   5.7626386919e+01   3.7440333829e+01    0.4265077    0.3238197  37.99  0.002016711    1.374    0.272
        58 -12.6758    119.5004    104.4839   5.5728857533e+01   3.7908807564e+01    0.3236733    0.2697022 -72.64  0.001581132    1.318    0.241
        59 -11.8085     37.0917    107.1648   8.3096807924e+01   5.0994388231e+01    0.2094228    0.1774179 -42.43 0.0006222983    1.284    0.221
        60 -13.1819     88.2303    219.7965   8.3679914173e+01   1.8309225501e+01    0.4466123    0.3315097  42.16  0.001444258    1.125    0.111
        61 -11.1433     81.7998    104.8018   6.7164346098e+01   4.5260285480e+01    0.2047914    0.1701356  76.19            0    1.316    0.240
        62 -12.0606     70.3784    103.1354   7.0577650096e+01   4.7576907007e+01    0.3524818    0.2732412  46.42 0.0003938922    1.328    0.247
        63  -9.9503      4.3653    104.2351   9.4369378485e+01   5.4447506097e+01    0.1226075   0.08493364 -42.43 0.0006173957    1.595    0.373
        64 -12.8895    112.7366    100.0239   5.6405866700e+01   4.0347353759e+01    0.4804621    0.3467924  78.51  0.001788756    1.871    0.466
        65 -11.5932     53.0489     96.7852   7.5260068604e+01   5.1701406253e+01    0.3144658     0.181792  46.63  0.001422842    1.867    0.464
        66 -12.0809     66.6990    101.4621   7.1451074834e+01   4.8567451805e+01    0.5813336    0.2314308 -59.41  0.002072335    2.423    0.587
        67 -11.8078    130.7268     92.3108   4.9337433710e+01   3.8012789209e+01    0.4729194    0.3081531  85.57   0.00174671    2.650    0.623
        68 -10.4570    152.2710     90.9865   4.3815918989e+01   3.3224703304e+01    0.1955871    0.1333893 -40.52 0.0003619815    1.441    0.306
        69 -10.2876    115.7045     90.3109   5.2790201351e+01   4.1832034286e+01    0.1568638    0.1230105 -85.32 0.0002698058    1.594    0.373
        70 -11.2122     93.1049     85.3833   5.8154458361e+01   4.7698794893e+01    0.2988603    0.1820258  56.62  0.001237699    1.914    0.477
        71 -11.1101    190.9080    215.0557   6.2199872013e+01   3.6935046886e+00    0.2106314    0.1548885 -31.36 0.0007854184    1.477    0.323
        72 -10.7966     61.0097     86.5247   6.9775994661e+01   5.3097743458e+01    0.2060093    0.1437681  36.36 0.0005079349    1.515    0.340
        73 -12.3679     76.2711     80.8164   6.2521195452e+01   5.1932841166e+01    0.4136705    0.2492735  53.82  0.001771691    1.946    0.486
        74 -10.9181    111.9458     73.3189   4.8554656786e+01   4.6216071503e+01    0.3918258    0.1801396  43.06  0.000981151    2.296    0.565
        75 -12.7867     55.3191    237.4867   9.1934911143e+01   1.9342227899e+01    0.4685602    0.2452452 -58.59  0.002738536    2.420    0.587
        76 -13.3901    173.5637     65.8259   3.2322537440e+01   3.2477400210e+01    0.4443658    0.3834496 -49.16 0.0007663342    1.104    0.094
        77 -14.3023    189.9841     52.8448   2.6065071151e+01   3.0407527359e+01     1.126248     0.910957  28.66  0.003827866    1.557    0.358
        78 -12.7875    195.8789     46.8266   2.3615225849e+01   2.9818683291e+01    0.4335372    0.3175935  43.93  0.001156091    1.623    0.384
        79 -10.7992     72.0057    229.0515   8.7932657936e+01   1.8785567960e+01    0.1321956   0.09717506 -80.30 0.0004327748    1.519    0.342
        80 -10.3735     69.5434     50.5690   5.4549989477e+01   5.9647643789e+01    0.1404943    0.1346518 -15.04 6.687616e-05    1.010    0.010
        81 -11.1233     91.2952     48.8305   4.6005278802e+01   5.5527531171e+01    0.4174483    0.2415949  69.76  0.001574912    2.767    0.639
        82 -10.0940     62.6691     47.3307   5.6044983187e+01   6.1528043461e+01    0.1388806    0.1136154 -89.26 0.0007051908    1.719    0.418
        83 -11.1968     36.8891     46.1630   6.7540182374e+01   6.5668683624e+01    0.1852587     0.179245 -77.49  0.000361737    1.201    0.167
        84 -12.7526     53.2483    231.3213   9.1941010997e+01   2.0706021124e+01    0.5080321    0.1753959 -66.62  0.002474605    3.135    0.681
        85 -11.7614     61.5274    241.8958   9.1004815731e+01   1.7816153652e+01    0.1761665    0.1021374 -64.50  0.001096225    2.075    0.518
        86 -13.2479    248.9700    234.5840   5.5449511060e+01  -6.2736668721e+00    0.4779435    0.1421741 -32.47   0.00239842    3.310    0.698
        87 -11.3386     60.8678     21.3231   4.4677912408e+01   6.6329215871e+01    0.2019195    0.1684108  61.17 0.0008505309    1.433    0.302
        88  99.0000     44.0518    211.7770   9.2532593663e+01   2.5551382149e+01      3.50912     2.038808  60.63   0.02069693    1.461    0.315
