#   1 NUMBER                 Running object number                                     
#   2 MAG_AUTO               Kron-like elliptical aperture magnitude                    [mag]
#   3 X_IMAGE                Object position along x                                    [pixel]
#   4 Y_IMAGE                Object position along y                                    [pixel]
#   5 X_WORLD                Barycenter position along world x axis                     [deg]
#   6 Y_WORLD                Barycenter position along world y axis                     [deg]
#   7 A_WORLD                Profile RMS along major axis (world units)                 [deg]
#   8 B_WORLD                Profile RMS along minor axis (world units)                 [deg]
#   9 THETA_WORLD            Position angle (CCW/world-x)                               [deg]
#  10 FWHM_WORLD             FWHM assuming a gaussian core                              [deg]
#  11 ELONGATION             A_IMAGE/B_IMAGE                                           
#  12 ELLIPTICITY            1 - B_IMAGE/A_IMAGE                                       
         1 -14.6691      3.0437     82.3356   1.2765081836e+02   5.6995589033e+01     4.943274    0.3728687 -74.11   0.01134952   10.765    0.907
         2 -13.4650      5.8853    117.5265   1.3025375886e+02   4.9440032781e+01    0.9185282     0.488064  79.86  0.004608433    1.655    0.396
         3 -13.4320    202.2766     29.4124   6.0296375196e+01   3.0681554491e+01     1.338513     1.249493   2.19  0.005525382    1.076    0.071
         4 -13.5802    219.8648     11.2832   5.2693601788e+01   2.8013571477e+01      1.03032    0.8813999  32.93  0.002505147    1.242    0.195
         5 -14.8316      4.9179    142.9817   1.3224443492e+02   4.4420035175e+01     2.933701     0.778391 -84.92   0.01293286    3.599    0.722
         6 -11.6616    139.3609    248.7469   1.1694067647e+02   1.1114108189e+01    0.2368372     0.187923 -42.90  0.001988744    1.857    0.461
         7 -13.1449    221.0046    249.3327   1.0466236359e+02  -7.5047041464e-01      1.11353    0.1569718  44.28  0.003980069    5.174    0.807
         8 -13.0244    238.1561    246.4133   1.0178601699e+02  -2.9524171496e+00    0.4412955    0.3419387   9.93  0.003761404    1.292    0.226
         9 -11.5543    125.4953    249.5390   1.1912865238e+02   1.2945326209e+01    0.2821779   0.09381441  42.03  0.001549675    2.261    0.558
        10 -14.8087     13.0153    240.8245   1.3523959893e+02   2.7207560103e+01     2.267138     1.084926  55.90   0.01872384    1.369    0.269
        11 -13.0047      9.5421    207.1150   1.3454786116e+02   3.2621167068e+01    0.6116619    0.3501541  40.13  0.002903284    1.757    0.431
        12 -14.7364     28.5535    225.2289   1.3237898326e+02   2.8006008703e+01    0.7490067    0.6874129  76.53    0.0073469    1.587    0.370
        13 -12.8759     40.9323    212.0584   1.2977587815e+02   2.8779968298e+01    0.5713093    0.3459485  73.47   0.00280952    1.303    0.233
        14 -11.7181    184.1948    239.1599   1.0899965917e+02   5.6219088537e+00    0.3261822    0.1272139  50.59  0.001718655    2.371    0.578
        15 -11.5681    150.2442    247.5029   1.1515299381e+02   9.7111391711e+00    0.2311237    0.1626144  72.65  0.001735558    1.788    0.441
        16 -11.8752    186.2762    249.5182   1.0986685442e+02   4.2680644984e+00    0.3458556    0.1053594  43.58  0.001800217    2.306    0.566
        17 -12.4925    172.0182    248.8577   1.1195827592e+02   6.4139165045e+00    0.4014885    0.2103068  42.68  0.002741676    1.345    0.257
        18 -11.6822    111.3758    231.5931   1.1978288790e+02   1.7186531406e+01    0.2850907   0.09029004  48.05  0.001485756    2.330    0.571
        19 -11.1826     58.1414    213.4186   1.2704872625e+02   2.6660722605e+01     0.314158    0.1537057  79.96  0.001974804    2.159    0.537
        20  -8.7910    152.4221    213.1479   1.1104907946e+02   1.3605729689e+01    0.1253208    0.1042059 -88.22 0.0003994265    1.521    0.343
        21 -11.9069     53.7574    196.8857   1.2664718687e+02   2.9858503110e+01    0.2081488    0.1723082  81.03 0.0004982324    1.203    0.168
        22 -11.3575      2.7311    189.6824   1.3495750330e+02   3.6082930897e+01     0.275105    0.1525916  63.55  0.001275805    1.307    0.235
        23 -11.9636      5.7132    185.1390   1.3426786195e+02   3.6612449109e+01    0.5229463    0.1616995  63.88  0.002681696    2.756    0.637
        24 -12.0814     60.8692    188.4594   1.2473128517e+02   3.0473843951e+01     0.210181    0.1696697  76.66 0.0004063809    1.100    0.091
        25 -11.7394     25.8678    184.2719   1.3072780644e+02   3.4958935210e+01    0.4035114    0.1359229  66.97  0.002006641    3.149    0.682
        26 -12.7283     57.6805    174.8601   1.2416824723e+02   3.3272446072e+01    0.2302754    0.2066228  76.09 0.0006467309    1.252    0.201
        27 -12.1239     59.6489    171.6701   1.2349881499e+02   3.3626051196e+01    0.2048832    0.1790704 -82.75 0.0006106682    1.269    0.212
        28 -10.8001     72.3788    175.6763   1.2141173480e+02   3.1325580922e+01    0.1991556    0.1588267  70.23 0.0003713306    1.004    0.004
        29 -11.9431    249.6593    248.1712   1.0036458596e+02  -4.6858568944e+00    0.3492684    0.2096587 -14.25  0.002661168    1.926    0.481
        30 -11.9098     80.0140    167.3071   1.1901569554e+02   3.1860904901e+01    0.3935181    0.3749187 -47.48  0.002955497    1.444    0.307
        31 -10.4721     94.0155    151.6617   1.1412465285e+02   3.2847553938e+01    0.2526143    0.2175215  69.29  0.000727189    1.024    0.023
        32 -12.1408     82.4092    150.2969   1.1643675040e+02   3.4777299457e+01    0.2447111    0.2045016 -65.09  0.001083504    1.271    0.213
        33  -9.3371     97.6290    147.2004   1.1269629804e+02   3.3167851159e+01    0.1627885    0.1448641 -80.67 0.0005728675    1.116    0.104
        34 -11.9089     67.8426    142.8253   1.1866224120e+02   3.8193477705e+01    0.4946928    0.3179407  78.48  0.001887315    1.598    0.374
        35 -10.8287     64.6827    141.6731   1.1922163562e+02   3.8821160621e+01    0.2642727    0.1774041 -53.96 0.0008482786    1.650    0.394
        36  -9.7806    107.1872    136.8812   1.0892724682e+02   3.3679135345e+01    0.3613994    0.2456288 -13.29  0.001335316    3.317    0.699
        37 -10.5876     94.0167    133.9134   1.1143263944e+02   3.6349848060e+01    0.1950539    0.1689697 -74.17 0.0003390533    1.116    0.104
        38  -9.9664     70.8323    125.2691   1.1553562244e+02   4.1413622686e+01    0.3103823    0.1632495  61.24  0.001519412    2.226    0.551
        39  -8.9449    105.0866    123.3505   1.0698365160e+02   3.6729244027e+01    0.1712313    0.1499868  59.29  0.000329175    1.105    0.095
        40  -8.9825     71.1828    116.8404   1.1411744515e+02   4.3142637156e+01    0.1512441    0.1396644 -51.41 0.0003315057    1.254    0.203
        41  -9.1802     62.7964    110.5898   1.1522470865e+02   4.5545278697e+01    0.1612478    0.1062938  53.96 0.0004062057    1.576    0.365
        42 -10.5898     89.4447    167.1751   1.1710088100e+02   3.0585479078e+01     0.406034    0.1952836  64.99  0.001491992    2.625    0.619
        43  -9.8799     51.9902    102.9824   1.1683108076e+02   4.8451358798e+01    0.1856067    0.1544426 -88.13 0.0004762068    1.083    0.076
        44  -9.8195    159.8453     77.8075   8.2960366650e+01   3.4455435589e+01    0.2069262    0.1818758 -72.76 0.0005119972    1.327    0.246
        45 -13.0213     99.9895    247.6971   1.2285762601e+02   1.6572974882e+01    0.6436124    0.2150798  46.57  0.003777729    2.069    0.517
        46 -11.7113     82.1616    248.7771   1.2560899271e+02   1.8671938869e+01     0.281101    0.1365905  38.83  0.001906167    1.935    0.483
        47 -11.4765     63.0644    246.1006   1.2827616475e+02   2.1291300391e+01    0.2345986    0.1322367  66.80 0.0008941519    1.410    0.291
