#   1 NUMBER                 Running object number                                     
#   2 MAG_AUTO               Kron-like elliptical aperture magnitude                    [mag]
#   3 X_IMAGE                Object position along x                                    [pixel]
#   4 Y_IMAGE                Object position along y                                    [pixel]
#   5 X_WORLD                Barycenter position along world x axis                     [deg]
#   6 Y_WORLD                Barycenter position along world y axis                     [deg]
#   7 A_WORLD                Profile RMS along major axis (world units)                 [deg]
#   8 B_WORLD                Profile RMS along minor axis (world units)                 [deg]
#   9 THETA_WORLD            Position angle (CCW/world-x)                               [deg]
#  10 FWHM_WORLD             FWHM assuming a gaussian core                              [deg]
#  11 ELONGATION             A_IMAGE/B_IMAGE                                           
#  12 ELLIPTICITY            1 - B_IMAGE/A_IMAGE                                       
         1 -15.0749    185.5423    146.5819   8.8124584873e+01   1.6242966317e+01     2.587584     1.935224 -26.15   0.01380244    1.444    0.308
         2 -13.5882      2.3665     66.2199   1.2172972014e+02   6.1293735320e+01     3.591824    0.2284436 -71.77  0.007124943   13.206    0.924
         3 -12.4961    199.8635     28.9309   5.4132173981e+01   3.1077435089e+01     0.675497    0.4362777 -40.14  0.003199116    1.513    0.339
         4 -11.9162    149.2858     31.2214   6.3115287688e+01   4.4116461695e+01    0.4221329    0.2982605  43.20  0.002010835    1.401    0.286
         5 -12.7910    215.1571     13.7219   4.7923183342e+01   2.8810681433e+01    0.7047676    0.5220475  49.64  0.003745029    1.431    0.301
         6 -12.3954    212.9937      8.9873   4.6802286597e+01   2.9841103222e+01    0.4944959    0.3397421  59.48  0.002224215    1.450    0.310
         7 -13.5857     33.4654    103.3914   1.1741793487e+02   5.0738087003e+01     1.226548     1.039213  12.96  0.008303959    1.544    0.352
         8 -12.1247    208.0575     19.8143   5.0432175724e+01   2.9984040558e+01    0.4136362    0.3115965  20.90  0.001051293    1.602    0.376
         9 -10.6248      1.9645    212.9608   1.3274290836e+02   3.1404275429e+01    0.1765111    0.1006126  77.46 0.0008424137    1.296    0.229
        10 -14.8745    243.7851    232.6625   9.3161245334e+01  -4.7507116459e+00     2.295511      1.03212 -23.33   0.01349868    2.556    0.609
        11 -11.8502    149.5437    247.8077   1.1043244928e+02   7.6683791129e+00    0.5125433    0.2546163  47.85  0.002096554    1.553    0.356
        12 -11.5317    142.7251    244.0719   1.1117559000e+02   9.1475273643e+00    0.4457116    0.3629324  -3.39  0.003196366    1.827    0.453
        13 -12.9374    150.7753    240.3691   1.0942159411e+02   8.4186010542e+00     1.332185    0.6671861  58.49  0.007173221    2.443    0.591
        14 -13.1416    131.5026    246.5280   1.1329801471e+02   1.0472459428e+01    0.5734898    0.4642847  52.65  0.003257332    1.119    0.106
        15 -13.3326    121.2452    246.9368   1.1504110098e+02   1.1889707026e+01     0.715501    0.4705302  40.13  0.003650666    1.280    0.219
        16 -11.6934    115.5485    237.3372   1.1510496102e+02   1.4033457573e+01    0.4806793    0.3605565  27.64  0.003341952    1.625    0.385
        17  99.0000     69.0779    247.1729   1.2358876962e+02   1.8788601525e+01    0.9006428    0.3923526  48.13  0.005849945    1.620    0.383
        18 -11.9786    104.7302    238.3167   1.1703554015e+02   1.5421410596e+01    0.7012583    0.4071313  48.28  0.004738465    1.278    0.217
        19 -12.8907     96.0436    247.9257   1.1927830736e+02   1.5228405601e+01    0.5964589    0.3427392  57.74   0.00295351    1.392    0.282
        20 -12.2831     87.5222    250.1011   1.2082514566e+02   1.6041036684e+01    0.6287915    0.1021101  41.78  0.002543103    4.059    0.754
        21  99.0000     19.8053    210.7996   1.2968135084e+02   3.0126774187e+01     1.489093    0.7131687  63.21    0.0100622    1.593    0.372
        22 -14.1570     40.5038    222.7661   1.2680440262e+02   2.5948957465e+01     1.884395     0.836432  73.80   0.01130566    2.192    0.544
        23 -15.2548     39.0593    244.2742   1.2816352079e+02   2.2689863391e+01     1.527628    0.4413871  55.23  0.008577296    2.488    0.598
        24 -16.2670     16.6177    244.2327   1.3158555325e+02   2.5007534796e+01     1.867349    0.5168295  50.43   0.01153315    2.208    0.547
        25 -10.7422     62.9837    194.3496   1.2072753424e+02   2.8298479483e+01    0.5302854    0.3885405 -80.56  0.003349069    1.338    0.252
        26 -10.2728     61.7776    188.8777   1.2047871439e+02   2.9469482998e+01    0.2211876    0.1806587  86.06 0.0009787024    1.143    0.125
        27 -13.0655     53.5312    201.7219   1.2311783541e+02   2.8103726303e+01     1.161541    0.4629792 -71.95  0.006350843    2.505    0.601
        28 -11.1132     47.9992    192.5251   1.2346110323e+02   3.0432566938e+01    0.5032262    0.2126292 -60.92  0.002755315    2.561    0.610
        29 -10.8133    184.7716    197.7837   9.7688099272e+01   8.5883720886e+00    0.2620416    0.2237866  -1.43   0.00153291    1.281    0.220
        30 -13.0780    204.3772    186.2682   9.2216205907e+01   6.7135130593e+00     1.835585    0.9331368  15.14  0.006758627    4.128    0.758
        31 -11.5454    166.3544    244.0942   1.0723145490e+02   5.6083515009e+00    0.4132946    0.1945154  27.24  0.002053871    2.838    0.648
        32 -14.2261    201.2014    163.1521   8.8501492979e+01   1.0554375927e+01     1.778901     1.209256 -18.41  0.009472056    1.669    0.401
        33  -9.4455     19.3122    191.5689   1.2878380746e+02   3.3614971732e+01    0.3044841    0.1608818  38.57  0.001706865    1.853    0.460
        34  99.0000     27.4048    193.6828   1.2741502433e+02   3.2433002718e+01      0.57362    0.2669487  89.31  0.003450071    1.975    0.494
        35 -10.8030     30.2431    187.2692   1.2648041616e+02   3.3342526196e+01    0.5595621    0.2491936  79.44  0.003026481    2.233    0.552
        36 -13.4984     98.9892    217.5576   1.1612521369e+02   1.9416633008e+01     1.466869     1.011998 -39.33   0.00922766    2.375    0.579
        37 -12.0604    178.8428    183.7326   9.6479620638e+01   1.1664864500e+01    0.5760191    0.4848164  43.79   0.00365249    1.106    0.096
        38  99.0000     50.6927    180.5067   1.2195282213e+02   3.2408784597e+01    0.4376726    0.3241877 -41.21   0.00282812    2.122    0.529
        39 -13.4507    100.9957    174.0837   1.1076006428e+02   2.6818170537e+01     1.565203    0.9041575  48.61  0.007016185    1.529    0.346
        40 -11.7610     64.1965    181.3737   1.1929130013e+02   3.0598529938e+01    0.8658039    0.4642797  49.16  0.005050166    1.599    0.374
        41 -14.0752     71.7838    167.2218   1.1618644590e+02   3.2410628512e+01     1.300491    0.8333592  85.90  0.004732995    1.605    0.377
        42  99.0000     13.0172    179.2508   1.2928503998e+02   3.6511038874e+01    0.8924607    0.7354467 -85.65  0.006398891    1.289    0.224
        43 -11.3118     19.4496    170.4951   1.2749813485e+02   3.7631651548e+01    0.7487619    0.2851219  70.33  0.003681551    2.755    0.637
        44 -12.9517     26.8991    155.1584   1.2481165381e+02   4.0039586261e+01     1.247494     0.915645 -23.64  0.007883727    2.433    0.589
        45 -14.9745     13.5977    141.4395   1.2668970094e+02   4.4080728485e+01     1.869492     1.274153  85.24   0.01082213    1.163    0.140
        46 -12.8163     29.6967    140.2362   1.2284064164e+02   4.2924739025e+01    0.6711923    0.3615797  80.90   0.00309509    1.824    0.452
        47 -13.5497     38.9878    135.9199   1.2015204955e+02   4.2941317745e+01    0.9863679    0.7159153  55.95  0.004844274    1.330    0.248
        48 -11.6994    148.1504    185.1400   1.0266389817e+02   1.6942624538e+01    0.3790416    0.2940548   9.91  0.002196833    1.709    0.415
        49 -11.0862    141.8249    186.2108   1.0408186286e+02   1.7866137442e+01    0.4806801     0.179025  49.30   0.00198686    2.522    0.603
        50 -11.1997    164.2883    181.6984   9.8937479042e+01   1.4620822934e+01    0.4450507    0.3403609  22.56  0.002607249    1.406    0.289
        51 -12.6139    148.8870    167.6705   9.9657601232e+01   1.9799853603e+01    0.8489166    0.6123726  21.56  0.004503353    1.700    0.412
        52 -13.4098    144.5347    161.9089   9.9559541582e+01   2.1639503228e+01     1.515951    0.9328843 -26.23  0.006856632    2.553    0.608
        53 -10.4767     28.3638    166.5158   1.2539423745e+02   3.7579057693e+01    0.2444352    0.1822685  68.42  0.001329129    1.099    0.090
        54 -11.3383     54.5595    161.3505   1.1930874645e+02   3.5793011920e+01    0.6351367    0.5695804 -34.76  0.003944072    1.597    0.374
        55 -11.2444    103.6930    161.9604   1.0845738625e+02   2.8764290033e+01    0.4960738    0.3502756  53.23  0.002837544    1.290    0.225
        56 -10.5478     87.0406    161.5123   1.1210289085e+02   3.1423978401e+01    0.2147066    0.1699886 -52.26 0.0005621747    1.463    0.317
        57 -13.1841    197.4767    177.7314   9.1943247653e+01   9.1378887935e+00     1.101864     0.653825   8.34  0.004922467    2.707    0.631
        58 -12.8394     76.3332    124.4132   1.0900115803e+02   4.0919478828e+01     1.409815    0.7174164 -41.01  0.006034035    2.714    0.631
        59 -13.5806     85.6345    135.3048   1.0848514525e+02   3.7156854390e+01       1.3091     1.161093  16.14     0.007358    1.441    0.306
        60 -14.3493    134.6951    143.4904   9.8288137398e+01   2.6979793799e+01     1.906137     1.279516 -50.88  0.009666846    1.580    0.367
        61 -11.5408     89.7748    144.3342   1.0894733131e+02   3.4587153721e+01    0.3187705    0.2443434 -83.70 0.0004433329    1.308    0.235
        62 -14.1533    164.1673    126.0846   8.8012237704e+01   2.4310971726e+01     1.382687     1.060234 -45.34  0.006812735    1.374    0.272
        63 -10.1063     98.9576    129.4458   1.0411103937e+02   3.6310180419e+01    0.2409492    0.1864936 -39.92  0.001306733    1.502    0.334
        64 -12.3410     74.3920    150.8615   1.1354472056e+02   3.5441948487e+01    0.7822238    0.4240595 -57.38  0.003513683    1.853    0.460
        65 -11.3924     86.2859    116.9502   1.0498339880e+02   4.1090914527e+01    0.5190887    0.3390507 -80.26  0.002528045    1.828    0.453
        66 -13.3795     59.4947    103.0752   1.0978214482e+02   4.7983257577e+01     1.298524    0.8943963 -88.38   0.00704648    1.603    0.376
        67 -10.2365    173.5670    237.8312   1.0527831460e+02   5.2563466961e+00    0.3424782    0.1186393  51.16  0.001461372    3.323    0.699
        68 -12.5528     68.4570    143.2879   1.1391364210e+02   3.7863355888e+01    0.9504818    0.4911639  57.42   0.00465752    2.053    0.513
        69 -12.7584    192.3002     34.1612   5.6768147784e+01   3.2423259871e+01     0.575957    0.3942923  30.60  0.001915225    1.724    0.420
        70 -11.2911    151.7740    225.1428   1.0747826480e+02   1.0280430573e+01    0.4868531     0.379936  49.78  0.002320849    1.107    0.097
        71 -12.4373    159.9517    209.1141   1.0392092965e+02   1.1210899790e+01    0.9294611    0.4998253 -51.16  0.005107146    2.385    0.581
        72 -15.0460    129.9585    216.1805   1.1032644947e+02   1.5003835788e+01     2.793283     1.590404  37.50   0.01633989    1.576    0.366
        73 -11.6852     92.4831    205.3235   1.1611807012e+02   2.2385020952e+01     1.306705    0.9831831  50.11   0.00905522    1.137    0.120
        74 -10.0658    165.4091    225.2530   1.0509666660e+02   8.1055914490e+00    0.6555837    0.4399627  19.25  0.004044074    1.815    0.449
