#   1 NUMBER                 Running object number                                     
#   2 MAG_AUTO               Kron-like elliptical aperture magnitude                    [mag]
#   3 X_IMAGE                Object position along x                                    [pixel]
#   4 Y_IMAGE                Object position along y                                    [pixel]
#   5 X_WORLD                Barycenter position along world x axis                     [deg]
#   6 Y_WORLD                Barycenter position along world y axis                     [deg]
#   7 A_WORLD                Profile RMS along major axis (world units)                 [deg]
#   8 B_WORLD                Profile RMS along minor axis (world units)                 [deg]
#   9 THETA_WORLD            Position angle (CCW/world-x)                               [deg]
#  10 FWHM_WORLD             FWHM assuming a gaussian core                              [deg]
#  11 ELONGATION             A_IMAGE/B_IMAGE                                           
#  12 ELLIPTICITY            1 - B_IMAGE/A_IMAGE                                       
         1 -10.7395     88.8062     38.1895   9.0118830411e+01   5.6109187678e+01     1.088957    0.3948213  33.76  0.003850325    3.640    0.725
         2 -10.4099     74.5897     55.4699   1.0065532445e+02   5.5970403556e+01     1.426179    0.6130913 -25.55  0.005161453    3.587    0.721
         3 -10.3437     10.0945     18.9110   1.1276350345e+02   6.9253786834e+01     1.212631    0.4535653 -16.88  0.003933372    7.155    0.860
         4 -10.7892     19.7032      6.8939   1.0333628630e+02   6.9988121789e+01    0.8877133    0.7322222  58.30  0.005935066    2.980    0.664
         5 -11.2109     23.8511     32.2522   1.1165844905e+02   6.6089057432e+01     1.655842    0.5427307 -31.84  0.007015175    3.347    0.701
         6  -9.5199      2.3026     14.4784   1.1471391409e+02   7.0461501350e+01    0.3599609    0.1750858 -53.71  0.001910082    2.806    0.644
         7 -10.3986      5.3712      4.5669   1.0912588414e+02   7.1574886278e+01    0.4435617    0.3106037   1.64  0.001493999    1.202    0.168
         8 -10.0960      7.2553     28.3934   1.1752116925e+02   6.8027717655e+01    0.2815735    0.2660554  70.13  0.001076613    1.851    0.460
         9 -10.3685     69.5499     40.4280   9.7109717116e+01   5.9116438629e+01     1.468303     0.403963 -34.36  0.005277071    3.827    0.739
        10  -8.9325     64.2088      9.0554   8.6737293514e+01   6.3794228546e+01    0.2022529    0.1969758  56.09  0.001177753    1.531    0.347
        11  -9.7364     63.0403     21.2310   9.2063553260e+01   6.2670701620e+01    0.4277208    0.2604462 -46.66  0.001421663    2.474    0.596
        12 -10.1891     64.5377     13.3755   8.8395495793e+01   6.3303502441e+01    0.3490191    0.3246882  23.64 0.0004367905    1.342    0.255
        13 -10.1586     46.2531     29.8012   1.0161369058e+02   6.3974419035e+01    0.4238388    0.2478103 -45.91 0.0009680034    2.138    0.532
        14  -9.3736     47.3808     19.0534   9.6905240792e+01   6.5232757566e+01    0.4689797    0.2282432  -9.79  0.002145445    3.039    0.671
        15 -10.0213     52.1314     13.5355   9.2827764561e+01   6.5205327697e+01     0.628324    0.3165143  20.77  0.003303914    2.178    0.541
        16  -9.4528    102.8340     22.3143   8.0568640836e+01   5.5279136466e+01    0.4633877    0.2928779 -29.51  0.001724034    1.728    0.421
        17  -9.5551    119.1039     20.5620   7.6104898551e+01   5.2002559288e+01    0.4814168    0.2468015 -15.50  0.001334439    2.514    0.602
        18  -8.9655    112.2224     15.7116   7.6022786891e+01   5.3980964494e+01    0.3952456    0.2437497 -57.61  0.001549325    2.575    0.612
        19  -8.7129     71.9902      8.3124   8.3949899078e+01   6.2545213087e+01    0.1859619    0.1309558  19.12 0.0006522995    1.253    0.202
        20  -9.9811     73.5497     17.5967   8.7145930484e+01   6.1340672751e+01    0.8449898    0.2503771 -27.34  0.003210013    3.659    0.727
        21  -9.1819     78.4001      3.7346   8.0228653407e+01   6.1804256263e+01    0.4448906     0.229355  -6.26  0.002011882    2.335    0.572
        22  -8.8551     95.7032     16.6331   8.0383230408e+01   5.7308667098e+01    0.2763323    0.1689255 -28.52   0.00102197    1.790    0.441
        23  -8.2938     96.5287     12.4851   7.8663593780e+01   5.7545266183e+01     0.253384    0.1511539  27.77  0.001378877    1.694    0.410
        24  -8.8407    125.1138     13.2054   7.2445691002e+01   5.1393157935e+01    0.2116215    0.1842815 -37.03  0.000473894    1.340    0.254
        25  -8.6162    104.0829     15.2955   7.7789723450e+01   5.5737462810e+01     0.376443    0.1705805  23.69  0.001430601    3.706    0.730
        26 -10.6945     37.4545     10.1178   9.7071331345e+01   6.7589028324e+01    0.7001899    0.2731431 -39.64   0.00211829    3.052    0.672
        27  -7.8312     80.5287     12.5265   8.3047708883e+01   6.0615313852e+01    0.2253839    0.1335101 -37.87  0.001258699    2.077    0.519
        28 -10.3943    248.8261     10.0084   5.6006174619e+01   2.3241011499e+01    0.4934187    0.3066573 -47.82  0.003071368    1.481    0.325
        29  -8.9274    133.9244     12.1956   7.0435688853e+01   4.9494006688e+01    0.4272305    0.1716699 -53.35  0.001414863    5.203    0.808
        30  -8.6809    133.5067      4.4923   6.8149222608e+01   5.0267372459e+01    0.1273255    0.1053394  56.06 0.0008105419    1.018    0.018
        31  -9.0980    114.0741     10.1020   7.3717725247e+01   5.4103177519e+01    0.2977134    0.1594597  38.61 0.0002999309    1.766    0.434
        32  -8.9039    101.8428      8.5907   7.5958797902e+01   5.6817376182e+01     0.229239    0.1777181 -16.21 0.0009999431    1.429    0.300
        33  -8.9345    126.9785      9.0289   7.0750575497e+01   5.1354306581e+01    0.2052118    0.1234199  38.36 0.0004587377    1.632    0.387
        34  -8.5821     68.0160      9.2643   8.5583682955e+01   6.3138255132e+01    0.1612205    0.1281952  25.13 0.0004033457    1.055    0.052
        35  -7.1801    173.6964      8.7106   6.3279936977e+01   4.0480897535e+01    0.1263074   0.08627962  46.09  0.000365443    1.568    0.362
        36  -9.2927     96.3773      5.0431   7.5996169381e+01   5.8232149236e+01    0.3822194     0.292459 -29.83  0.001666411    1.539    0.350
        37  -9.0224    115.2449      4.2127   7.1502127684e+01   5.4350181922e+01    0.2283175    0.1994024 -89.14 0.0006696941    1.364    0.267
        38  -7.6982    110.2971      7.6653   7.3711215372e+01   5.5125787227e+01    0.1303478    0.1061177  41.81 0.0003024338    1.039    0.037
        39  -8.3947    111.0062      4.5033   7.2481463598e+01   5.5238404332e+01    0.2318061    0.1448389  25.95 0.0007872342    1.713    0.416
        40  -7.4069     84.3008      7.3257   7.9974866313e+01   6.0395630518e+01    0.1269738   0.07572894  25.34  0.000505603    1.636    0.389
        41  -9.2575     88.6517      3.4908   7.7357096534e+01   5.9887978715e+01    0.4300889    0.2857748  38.04  0.001896989    1.240    0.194
        42  -8.3531    120.9715      5.8425   7.0892231088e+01   5.2964318248e+01     0.215539    0.1019592  43.67 0.0004468687    1.893    0.472
        43  -8.4087    125.7136      4.9353   6.9692999245e+01   5.1987173174e+01    0.2326366    0.1410516  42.67    0.0011502    1.500    0.334
        44  -9.6529     63.7407      2.9648   8.4361644129e+01   6.4438128258e+01    0.3025117    0.2325427 -47.56  0.001697738    2.057    0.514
        45  -8.5541    104.4876      2.2575   7.3119906684e+01   5.6793568998e+01    0.2640198    0.1482982  42.24 0.0009141678    1.505    0.336
        46  -9.5676     85.0370     12.9541   8.1917656686e+01   5.9736069762e+01    0.3522102    0.2557127 -56.51   0.00154892    2.241    0.554
        47  -7.8332    136.2216      1.4000   6.6752833339e+01   4.9901469178e+01    0.1732572    0.1060086  75.82 0.0004231707    1.608    0.378
        48 -10.3276    140.8275    117.3417   9.9663156607e+01   3.0927491529e+01    0.9118475    0.4428188 -44.77  0.001580581    2.043    0.511
        49 -10.1625     91.8988    113.3248   1.1193558926e+02   4.1519698372e+01    0.6015483    0.4150091 -75.26  0.001742838    1.924    0.480
        50  -7.5427      1.2159    115.6983   1.3902899366e+02   5.1097770351e+01    0.1926049   0.05572863 -60.10 0.0008621932    2.307    0.566
        51  -8.3627    152.9537    115.2741   9.6168161551e+01   2.8658255821e+01     0.220005     0.214783  61.84 0.0007167917    1.030    0.029
        52 -10.1953     78.0200    112.9948   1.1593587419e+02   4.3838078733e+01    0.5158343    0.3231294 -75.28  0.001710059    2.241    0.554
        53  -7.6849    167.3296    114.1487   9.2559009723e+01   2.5583872432e+01    0.2307296     0.138906 -52.13 0.0004520365    1.740    0.425
        54 -10.4973     62.7655     95.6568   1.1640879325e+02   4.9899127403e+01    0.8229591    0.5052614 -87.71  0.001507569    3.877    0.742
        55  -8.8233     63.9116     86.4958   1.1364778487e+02   5.1698253678e+01    0.6502557    0.3265648 -35.88  0.002874248    2.088    0.521
        56  -9.6486     64.2519    102.6365   1.1765745998e+02   4.8161032667e+01    0.5882669    0.3562247 -63.04  0.002818257    1.749    0.428
        57 -10.1279     65.4099    110.9787   1.1925311810e+02   4.6114862141e+01    0.6179647    0.4556951  74.90  0.003137716    1.860    0.462
        58  -9.6176     58.9653    109.7484   1.2093547302e+02   4.7240189316e+01    0.2984703    0.2174927 -80.55 0.0008666646    1.664    0.399
        59  -9.4679     14.3299    111.5299   1.3470103976e+02   5.1188205614e+01    0.3626663    0.2121985  83.17  0.001501907    2.299    0.565
        60  -8.2198    158.6573    112.0680   9.4000831998e+01   2.8029688743e+01    0.2489455    0.1885055 -61.20 0.0004184141    1.440    0.306
        61  -8.2751     35.6995    111.3193   1.2833042310e+02   4.9460946322e+01    0.1250519   0.09430198  81.49 0.0003712215    1.622    0.383
        62  -8.1335    149.7758    110.0011   9.5562532798e+01   3.0502998074e+01    0.2087338    0.1283901 -43.85 0.0003839584    1.620    0.383
        63 -10.6908     20.7789    101.2771   1.3099846213e+02   5.3008912223e+01    0.9693397     0.504234  83.98  0.003377974    4.250    0.765
        64 -10.5839     25.8080     78.4284   1.2453176166e+02   5.7512771554e+01    0.7297265    0.5073929  81.00  0.001972132    2.450    0.592
        65 -10.3425     34.5071     90.7348   1.2443353046e+02   5.4156831673e+01     0.521436    0.2528312 -71.63  0.001779498    2.874    0.652
        66 -10.9994     44.7929    102.5326   1.2373677944e+02   5.0531147416e+01    0.7855545     0.467949  79.53  0.002895206    3.554    0.719
        67  -9.7206     39.9319    106.7942   1.2614891737e+02   5.0075761944e+01    0.3291135    0.1702295 -68.52 0.0009484281    2.007    0.502
        68  -8.1993     78.0157    105.4085   1.1409959995e+02   4.5562131781e+01    0.3513371    0.2110463  -9.64  0.001303249    3.304    0.697
        69  -8.5416    166.0161    104.4008   9.0339767383e+01   2.7891093153e+01    0.3202459    0.2275228 -67.00 0.0008542356    1.709    0.415
        70  -9.6601    149.4812    103.4718   9.3906913587e+01   3.1932341386e+01    0.4369814    0.3059243 -58.68  0.001223404    1.595    0.373
        71  -8.8689     93.0704    103.3955   1.0907114667e+02   4.3545178014e+01    0.6017443    0.3431854  17.26  0.002258948    2.942    0.660
        72 -10.2780     20.2621     85.4215   1.2800700385e+02   5.6486959169e+01    0.8772335    0.1549734 -54.83  0.003223554    3.382    0.704
        73  -8.3760     14.1378    105.1001   1.3370208705e+02   5.2642716633e+01    0.1915821     0.130259 -44.98 0.0005206048    1.319    0.242
        74  -9.1949      6.3768    103.7462   1.3580010763e+02   5.3446899102e+01    0.3475913    0.2040309  70.24  0.001528391    2.479    0.597
        75  -7.7150    195.6559    104.1503   8.4180817277e+01   2.0945770154e+01    0.2084537    0.1407298 -32.06 0.0002951743    1.619    0.382
        76  -8.1927     73.5950    102.4022   1.1470272006e+02   4.6897702000e+01    0.2700899    0.1299711 -56.75 0.0006820589    2.088    0.521
        77  -8.5128    158.8999    101.2815   9.1119516395e+01   3.0192113278e+01     0.259923    0.2055228 -58.44 0.0005310308    1.331    0.249
        78  -9.4751     81.3646     99.9876   1.1170065903e+02   4.6241328985e+01    0.4101008    0.2555229 -63.78 0.0008871223    1.922    0.480
        79 -10.5093    139.5035    102.8603   9.6187869953e+01   3.4320775510e+01    0.7971421    0.4236842 -41.42  0.001801581    1.898    0.473
        80  -9.3518     94.2059     97.1778   1.0707507978e+02   4.4694602602e+01    0.3234259    0.2395148 -60.52 0.0006768997    1.497    0.332
        81  -8.8566     95.6937     91.1197   1.0495468833e+02   4.5703515516e+01    0.4923286    0.3007297  -9.26  0.001817968    3.134    0.681
        82  -8.6846    239.4129     96.8154   7.5150025068e+01   1.2472930690e+01    0.1962891    0.1277514 -30.97 0.0004180087    1.688    0.408
        83  -9.2047    150.4986     96.4847   9.1781427202e+01   3.3112876518e+01    0.2630996    0.2084789  40.43  0.001221852    1.304    0.233
        84 -10.2349    150.1930     88.2433   8.9588206215e+01   3.4791178298e+01    0.6683018    0.3712049 -39.37  0.002445326    1.840    0.457
        85 -10.1247    149.8943     80.2897   8.7429740092e+01   3.6343365056e+01    0.5989588    0.3203999 -42.60  0.001822111    1.904    0.475
        86  -8.7313    164.2626     94.5131   8.8115524353e+01   3.0262711164e+01    0.2736243     0.208182 -45.75  0.000556886    1.316    0.240
        87 -10.3028     36.8475     81.0822   1.2135320584e+02   5.5975279858e+01    0.7857931    0.3747679 -17.22  0.002953327    4.119    0.757
        88  -9.4821    138.9091     92.7715   9.3568811971e+01   3.6505661250e+01     0.445251    0.3215978 -79.38 0.0008603761    1.988    0.497
        89  -9.6909    140.4768     83.1472   9.0466061329e+01   3.8004177294e+01    0.4929527    0.3048507 -50.24  0.001403306    1.749    0.428
        90  -9.1975    139.7998     75.7754   8.8504294211e+01   3.9506315070e+01      0.58717    0.3845342 -73.08  0.001732602    2.481    0.597
        91  -7.8388     83.1642     93.3226   1.0937304431e+02   4.7388983083e+01    0.2730195    0.1309938  28.43 0.0009931281    2.594    0.614
        92 -10.2270      4.3646     89.8137   1.3407803342e+02   5.6587473402e+01    0.5419909    0.2959487 -83.88  0.001893933    2.309    0.567
        93  -9.5569      5.2530     79.1328   1.3177233104e+02   5.8780659879e+01    0.5395746    0.2282336 -32.91  0.002711958    2.490    0.598
        94  -9.5454    157.6637     90.7319   8.8561268297e+01   3.2557287828e+01    0.4170207    0.2376906 -35.80  0.001710703    1.868    0.465
        95  -9.6064    109.8365     90.3815   1.0062943180e+02   4.3177643075e+01    0.5242442    0.2942897  36.62  0.002229229    1.895    0.472
        96 -10.6924     48.2587     83.0350   1.1795038240e+02   5.4368997253e+01     1.136172    0.4086908 -48.60  0.003415738    2.313    0.568
        97  -9.4509     87.8846     56.4386   9.6693532512e+01   5.3555067448e+01     0.750194    0.3494307 -24.31  0.002547967    3.043    0.671
        98 -10.1895     84.9705     48.1537   9.4795591901e+01   5.5378108094e+01    0.3677024    0.3400445 -75.28 0.0009388425    1.496    0.331
        99 -10.7551    200.8933    247.2223   1.1279092021e+02  -7.0617953605e+00    0.4580747    0.2767214  30.45  0.002527679    1.470    0.320
       100 -10.6065     54.9290     70.9705   1.1231109891e+02   5.5991833360e+01    0.5332831     0.372112  55.10   0.00118916    2.155    0.536
       101  -9.6871     54.7571     63.2455   1.1003831291e+02   5.7468346882e+01    0.5249169    0.2999709  25.54  0.002749364    1.877    0.467
       102  -7.5652    105.5073    249.4852   1.3175930393e+02   8.4540915490e+00    0.1276419    0.1039337  59.79  7.80216e-05    1.009    0.009
       103 -10.3421     62.7573     60.8757   1.0647139892e+02   5.6822500408e+01    0.8645161    0.2525882  34.98  0.003185107    3.619    0.724
       104  -8.1134    174.5657     88.8215   8.4422965023e+01   2.8876101073e+01    0.2182319    0.1386325 -52.25 0.0007141644    1.652    0.395
       105 -10.0921     85.2133     86.5305   1.0684560713e+02   4.8465296321e+01    0.4315549    0.3344921 -82.77 0.0009571118    1.914    0.478
       106  -9.5687     87.7680     78.6500   1.0375151404e+02   4.9601130365e+01    0.6576316    0.3702856  19.42  0.002338449    2.615    0.618
       107  -8.7654    163.6821     86.3378   8.6040238706e+01   3.1953352023e+01    0.3974331    0.1908138 -29.54  0.001192695    2.736    0.635
       108  -9.5689    156.6987     69.2477   8.2802529587e+01   3.6654938471e+01    0.4235073    0.2390829 -37.32   0.00157136    1.845    0.458
       109  -9.0668    157.7437     83.5618   8.6576380527e+01   3.3885547294e+01    0.3102738    0.2644458 -36.40  0.001423564    1.220    0.181
       110  -9.6649    157.2001     76.5218   8.4739263858e+01   3.5283807138e+01     0.675384    0.2430058 -45.18  0.002107978    2.949    0.661
       111  -9.0593    126.5797     83.6077   9.4105588827e+01   4.1024285700e+01    0.5715997    0.3361046  19.58   0.00202789    3.098    0.677
       112 -10.3230    103.8689     82.6612   1.0010137635e+02   4.5879320002e+01    0.5094261     0.302451 -53.25 0.0008883557    1.925    0.480
       113  -9.6964    104.9467     71.8274   9.6515477233e+01   4.7703834737e+01    0.8821983    0.4518743 -28.60  0.003051995    2.379    0.580
       114  -9.7604    109.7635     63.9037   9.2670859134e+01   4.8118930244e+01     0.589864     0.280901 -44.57   0.00244105    2.272    0.560
       115  -9.0954    110.6105     58.2140   9.0622810054e+01   4.8877993042e+01    0.4084338    0.2923165  16.54  0.001301491    1.654    0.395
       116  -8.2031    170.4900     83.9962   8.3975013476e+01   3.0746828601e+01    0.2276208     0.147906 -42.32 0.0005503707    1.549    0.355
       117  -8.9311    180.2606     81.7143   8.1423639103e+01   2.8794311977e+01    0.2527669    0.2448291  47.03 0.0002574305    1.119    0.106
       118  -8.8087    118.9182     80.5842   9.5258450757e+01   4.3238586180e+01    0.2779694    0.2100392 -52.55 0.0007617886    1.444    0.307
       119  -9.2114     74.0091     79.8813   1.0849185242e+02   5.1592761841e+01    0.5913758    0.2518791 -48.21  0.002386337    2.243    0.554
       120 -10.0232     81.4761     72.3225   1.0381873322e+02   5.1869267665e+01    0.4123745    0.3862266 -36.19  0.001083532    1.143    0.125
       121  -9.4197     83.7972     64.4629   1.0060696222e+02   5.2908340060e+01    0.5375893    0.3306424   2.88  0.002318277    2.545    0.607
       122  -8.4671     68.8400     79.4242   1.1005209271e+02   5.2451029085e+01    0.2747245    0.1390961 -39.81  0.001246708    1.858    0.462
       123  -9.1778    166.2387     78.6357   8.3404194233e+01   3.2736560399e+01    0.2729995    0.2052114 -42.73 0.0005902015    1.353    0.261
       124  -8.3485    184.3285     78.0698   7.9703565894e+01   2.8449869131e+01    0.2453056     0.198956  46.27 0.0006001903    1.308    0.235
       125  -8.4665     59.1908     78.0519   1.1288690965e+02   5.4053083064e+01    0.2064749    0.1553661 -77.52  0.001084663    1.992    0.498
       126  -9.3558    137.8145     65.3215   8.5897096817e+01   4.1758103337e+01    0.5936294    0.3736166 -20.35  0.001674128    2.049    0.512
       127  -9.6476    127.3798     75.1993   9.1423103403e+01   4.2407418903e+01    0.4239908    0.2863185 -58.66 0.0008378139    1.856    0.461
       128  -8.7467    129.3092     68.7083   8.8986028592e+01   4.3118410035e+01     0.459816    0.2485318  31.90  0.001797153    2.419    0.587
       129  -8.8209    130.6003     64.7737   8.7473638542e+01   4.3490755384e+01    0.4106075    0.2499143 -46.70  0.001388315    1.801    0.445
       130  -8.3507    119.9129     75.8918   9.3591665657e+01   4.3898623255e+01    0.2272159    0.1937711  11.49 0.0006377021    1.275    0.216
       131 -10.3849    236.1883     71.6896   7.0042330605e+01   1.7403907410e+01    0.3917874     0.294298 -81.89 0.0004165679    1.333    0.250
       132 -10.0694    240.3143     67.4490   6.8588258793e+01   1.7179847352e+01    0.2846549    0.2753245  32.85  0.001423645    1.365    0.268
       133  -9.9729    162.7022     71.9518   8.2299591395e+01   3.4752161154e+01    0.5693522    0.2493527 -36.97  0.001672818    2.379    0.580
       134  -9.2242    115.2433     72.4013   9.3799236923e+01   4.5512719354e+01    0.5486173    0.3045098 -31.36  0.001935564    1.982    0.495
       135 -10.7513     16.1305     67.2799   1.2528951691e+02   6.0493325418e+01     1.388365    0.4268703 -54.57  0.004246278    2.438    0.590
       136 -10.1683     36.6153    249.6360   1.4434370563e+02   1.8221079689e+01    0.4338848   0.08093262  39.22  0.001654825    4.442    0.775
       137  -9.8164     27.3367    249.1961   1.4587968013e+02   1.9415114865e+01    0.2409716    0.1123991  52.67  0.001431125    1.714    0.417
       138  -9.1401    170.4870    248.0443   1.1883335917e+02  -2.1544528064e+00      0.17712    0.1294122 -46.17  0.001040411    1.613    0.380
       139 -10.9141     21.9237     53.7298   1.1944448676e+02   6.2628074063e+01    0.7194012    0.4373671 -77.08  0.002668275    3.817    0.738
       140  -8.8211    174.9770    248.0000   1.1794526131e+02  -2.9041358825e+00     0.220819   0.06328382  40.43 0.0007268642    2.964    0.663
       141 -10.6081     40.1531    246.7461   1.4352672262e+02   1.8343484437e+01    0.4306301    0.0795195  45.64  0.001724584    3.630    0.724
       142 -10.3305     11.9217     45.7033   1.2107446281e+02   6.4814067077e+01    0.8332086    0.3501052   5.15  0.003811002    3.258    0.693
       143 -10.1328      4.8963     41.9535   1.2286733995e+02   6.5923291684e+01    0.4889723    0.2744123 -54.71  0.001889798    1.640    0.390
       144  -9.9298      6.8080     32.6720   1.1916125266e+02   6.7370553737e+01    0.3225443    0.2012936  -7.47 0.0008196147    1.530    0.346
       145  -9.8458     29.6547    242.3100   1.4502444229e+02   2.0481932702e+01    0.2536148    0.1427452 -58.26  0.001510936    2.207    0.547
       146  -8.9787    169.5412     71.5285   8.0798856547e+01   3.3166143543e+01    0.2403828    0.1918119 -53.39  0.000775006    1.287    0.223
       147  -8.5141    147.1777     63.9834   8.3358847407e+01   3.9791524907e+01    0.3261702    0.2133927  -2.72  0.001115355    2.555    0.609
       148  -9.8931     94.7806     68.3519   9.8433929088e+01   5.0267048215e+01     0.431922    0.2583281 -48.96 0.0008525271    1.862    0.463
       149  -9.0979     97.3054     58.3137   9.4450141089e+01   5.1507762276e+01    0.7430094    0.5246474 -27.36  0.003934808    1.441    0.306
       150 -10.5460     32.9964     63.8464   1.1814514719e+02   5.9773182742e+01     1.014542    0.4263242 -24.34  0.003781584    4.118    0.757
       151  -7.8817     23.2017     69.1667   1.2317984636e+02   5.9592146217e+01    0.1482395    0.1292038 -63.12 0.0003510264    1.315    0.240
       152  -9.3186    146.9126     69.1515   8.4921108158e+01   3.8999100267e+01     0.357278     0.255152 -61.18  0.000883958    1.685    0.407
       153  -9.1178    121.0277     65.8831   9.0247054970e+01   4.5416593683e+01    0.3397425    0.2575315 -51.86 0.0006374026    1.495    0.331
       154  -8.5337    122.0119     61.4867   8.8627703660e+01   4.5930382435e+01    0.3578506    0.2179235  24.77  0.001520458    2.213    0.548
       155  -9.1088    157.2649     63.4127   8.1031689745e+01   3.7476145621e+01    0.2789319     0.233604 -68.87 0.0007669614    1.305    0.234
       156  -8.4178    245.3999     61.2105   6.6640097365e+01   1.7053597095e+01    0.1880109    0.1047429 -50.78 0.0005568973    1.585    0.369
       157  -8.1060    164.4336     60.6813   7.8821216712e+01   3.6174624780e+01    0.1882579    0.1452633 -23.41 0.0009447336    1.515    0.340
       158  -8.8639    237.1943     60.6029   6.7488534242e+01   1.8928665380e+01    0.1875125    0.1162692  54.96 0.0009520661    1.782    0.439
       159  -8.3943    152.7649     60.5734   8.1161221639e+01   3.9007235350e+01    0.2046397    0.1360175  69.39 0.0005925668    1.642    0.391
       160  -9.3991    144.7652     37.3733   7.5993169731e+01   4.4208846379e+01    0.7097946     0.334316 -57.65  0.002479794    3.882    0.742
       161  -9.0401    149.5606     48.0135   7.8174528307e+01   4.1646163994e+01    0.4967314     0.180381 -33.23  0.001752878    2.968    0.663
       162  -9.4067    153.2729     41.3506   7.5498563558e+01   4.1669106650e+01    0.3020469    0.2766495 -61.83  0.000854617    1.167    0.143
       163  -8.4280    146.4805     58.9508   8.2038529848e+01   4.0755706222e+01    0.2677874    0.2188957 -71.04 0.0006443604    1.423    0.297
       164  -8.7116    147.5301     53.9828   8.0351030910e+01   4.1263671693e+01    0.4454422    0.2262892 -26.07  0.001814448    2.446    0.591
       165  -9.0835    130.2746     56.4854   8.5015602584e+01   4.4887325529e+01    0.5687245    0.3286507 -18.20   0.00154138    2.393    0.582
       166  -9.0782    138.7861     56.1949   8.2933764636e+01   4.2982747432e+01    0.4643185    0.1915495 -40.16  0.001638017    2.534    0.605
       167  -8.2663    122.3300     41.2578   8.2122727843e+01   4.8847518156e+01    0.5072936    0.2428763  25.71   0.00165567    4.259    0.765
       168  -9.5204    118.2543     55.0787   8.7579807680e+01   4.7756285757e+01      0.48172    0.2963397 -37.00  0.001376823    1.699    0.411
       169  -9.1205    121.1584     46.9955   8.4255474656e+01   4.8318143837e+01    0.4243383    0.2366829 -36.61 0.0004480009    1.901    0.474
       170  -7.9448    157.2948     56.2969   7.9002615917e+01   3.8579019863e+01    0.1423659    0.1093506  27.50  0.000257049    1.565    0.361
       171  -8.8076    152.6222     54.4291   7.9416443043e+01   3.9983162807e+01    0.3564841    0.1968477 -48.66  0.001547056    2.046    0.511
       172  -8.9386     53.2251     38.8364   1.0235288308e+02   6.1748443830e+01    0.3906357    0.2142313 -34.76  0.001862764    1.689    0.408
       173  -8.6720     49.5576     36.4254   1.0284493387e+02   6.2593998987e+01    0.4225479    0.2975943  44.30  0.002380553    1.862    0.463
       174  -9.9724     49.9702     54.5215   1.0899194837e+02   5.9627178362e+01    0.3572317    0.3067215 -72.51  0.001596319    1.772    0.436
       175 -10.1746     54.9605     44.0963   1.0360252029e+02   6.0707028692e+01     1.602975    0.7002779  15.35  0.005065521    5.799    0.828
       176  -9.2804     44.0102     54.0185   1.1104430563e+02   6.0423049691e+01    0.3663123    0.1774824 -36.23 0.0007989281    1.852    0.460
       177 -10.2153     37.7946     41.9901   1.0940768748e+02   6.3143186345e+01    0.5016735    0.3182777 -60.27  0.002663083    2.637    0.621
       178 -10.5776     35.8680     37.9840   1.0876222487e+02   6.3990668336e+01    0.6438531     0.332319  -9.97 0.0004115813    2.741    0.635
       179  -8.2389    168.3437     55.6610   7.6688077268e+01   3.5993744583e+01    0.1536171    0.1071782 -75.41 -9.005917e-05    1.775    0.437
       180  -9.3249    162.5260     54.0167   7.7330851634e+01   3.7655208505e+01    0.2917427     0.204478 -42.13  0.001308178    1.496    0.331
       181  -9.3589    164.0000     50.0165   7.5934139773e+01   3.7881660238e+01    0.2668215    0.1828325 -34.56  0.001333246    1.577    0.366
       182  -9.2767    105.3987     51.8408   8.9988171046e+01   5.0935391139e+01    0.5540871    0.2683656 -32.23  0.001712666    2.182    0.542
       183  -9.5022    173.1863     51.7261   7.4739320681e+01   3.5394883721e+01    0.3060635    0.2367862 -76.88  0.001216261    1.410    0.291
       184  -8.6188    142.1376     49.0626   8.0043290608e+01   4.3253180217e+01    0.2947078    0.2083685 -48.42  0.000624944    1.575    0.365
       185  -8.9520    157.2963     48.8610   7.6881666298e+01   3.9670465536e+01    0.2416645    0.1741473 -42.58 0.0009882128    1.473    0.321
       186  -9.6531    130.4856     46.1336   8.1749162129e+01   4.6356866368e+01     0.731542    0.3172202 -21.68   0.00150582    3.510    0.715
       187  -8.9268    111.7769     46.9366   8.6636390097e+01   5.0341633988e+01    0.2690763    0.2441681 -39.73 0.0005665732    1.228    0.185
       188  -8.8600    113.5218     41.9768   8.4543980761e+01   5.0662020758e+01    0.4955097    0.2592213  -4.29  0.001681461    4.310    0.768
       189  -7.3518    209.9724     44.7578   6.7360706272e+01   2.7498876279e+01       0.1728    0.1059097  67.73 0.0004729783    1.527    0.345
       190 -10.5859    186.4302    245.1139   1.1525792655e+02  -4.3649816334e+00    0.4740335    0.2165623  26.90  0.001952535    2.763    0.638
       191 -10.1694     76.1312     31.9987   9.1821272698e+01   5.9189057809e+01    0.4844072    0.4029511 -86.32 0.0009099892    2.166    0.538
       192 -10.0667     79.5521     23.9818   8.7728036667e+01   5.9573168556e+01    0.7240415    0.2543838  34.81  0.002359483    3.235    0.691
       193  -9.0925     84.7017     21.9841   8.5422666569e+01   5.8862069027e+01    0.2569111     0.212019  27.70 0.0008258395    1.040    0.039
       194  -8.1225    191.0343     41.9280   6.9306105889e+01   3.2425661778e+01    0.2049406    0.1580656  37.31 0.0004907745    1.613    0.380
       195  -9.1768    110.2486     33.4227   8.2515439363e+01   5.2458722443e+01    0.3722351    0.2377178 -34.49  0.001202439    1.704    0.413
       196  -9.1982    104.9090     41.2318   8.6568495674e+01   5.2557949391e+01    0.3481648    0.2070081 -46.21  0.000970517    2.069    0.517
       197  -8.4536    106.0128     36.4937   8.4658678502e+01   5.2956448341e+01    0.2863647    0.1860125  29.64  0.001068667    1.579    0.366
       198  -8.8752    139.2224     39.8996   7.7892621302e+01   4.5184673130e+01    0.3634746    0.2135258 -37.36  0.001757968    1.838    0.456
       199  -7.3559    160.2624     39.6738   7.3719524720e+01   4.0206574948e+01    0.1370984    0.1016479 -70.19  0.000372697    1.563    0.360
       200  -8.1335    218.9278     37.7687   6.4639248390e+01   2.6368257678e+01    0.1922178    0.1654213  65.70  0.000664834    1.255    0.203
       201  -8.8522    132.9521     36.0163   7.8034547954e+01   4.7129517764e+01    0.2579237    0.1921441 -36.34  0.000524213    1.473    0.321
       202 -10.5172    134.0693     30.8155   7.6176757225e+01   4.7503506234e+01    0.3156834    0.2461784  14.21  0.001776382    1.498    0.332
       203  -8.6585    118.8441     34.6654   8.0812568202e+01   5.0459461477e+01    0.2866072    0.1748082 -31.68 0.0008412667    1.774    0.436
       204  -7.8784    100.3223     36.6857   8.6265568374e+01   5.4086724163e+01    0.1232188    0.1057374 -80.77 0.0007040694    1.659    0.397
       205  -8.4772    153.2681     34.9695   7.3653917661e+01   4.2488645486e+01    0.1856677    0.1760962  67.75 0.0008376092    1.059    0.056
       206  -9.5523     60.1919     33.6775   9.7889738348e+01   6.1508461384e+01    0.4012682    0.2269337 -39.02  0.001553771    1.850    0.459
       207 -10.0862     13.2341    246.9650   1.4806515852e+02   2.1426953551e+01    0.1670052    0.1404981  45.35  0.001304045    1.602    0.376
       208  -8.8704     63.5609     26.4918   9.3948219912e+01   6.1948046698e+01    0.3953632    0.1893477  40.58  0.001924139    1.989    0.497
       209 -11.9539    249.1533    235.1220   1.0177394165e+02  -1.2682191495e+01    0.2342642    0.2001434  -2.34 0.0002478423    1.133    0.118
       210  -9.5669    188.0994    233.7234   1.1309115172e+02  -2.8067117992e+00    0.2663814    0.1938974 -62.75  0.001441866    1.940    0.484
       211  -9.1430    101.1600     32.3125   8.4514322286e+01   5.4470277527e+01    0.3042047    0.1871012 -41.39 0.0008657767    1.906    0.475
       212  -8.8651     15.5127    234.3773   1.4692163516e+02   2.3645611940e+01      0.19453    0.1565311 -83.77 0.0001712397    1.313    0.238
       213  -8.5718     42.1508     27.8845   1.0248099316e+02   6.4757876330e+01    0.1841854    0.1273555  -0.99 -0.0006383859    1.313    0.238
       214  -9.2088     54.5108    230.0262   1.3953752890e+02   1.9857418985e+01    0.1793762    0.1062408 -74.73  0.001027509    1.576    0.365
       215  -9.7430     49.0334    223.8297   1.4001746323e+02   2.1872228313e+01    0.1976481    0.1572078  64.84  0.001316285    1.130    0.115
       216  -7.4938    148.3094     29.2966   7.2918374484e+01   4.4352312582e+01     0.137324    0.0945408  35.82 0.0002991817    1.593    0.372
       217  -7.7700    173.4521     27.0113   6.8078529891e+01   3.8579833716e+01    0.1839841    0.1312458 -36.77 0.0008069357    1.542    0.352
       218  -8.3006    110.1235     26.2180   8.0097523877e+01   5.3331515456e+01    0.2318881    0.1756728 -30.42  0.001363616    1.459    0.314
       219  -8.9687     91.3429     26.3272   8.5103867092e+01   5.7116682293e+01    0.2772802    0.2044369 -46.78 0.0008542656    1.776    0.437
       220  -8.8187     91.9511     21.2408   8.3076349674e+01   5.7567610493e+01    0.3766335    0.1619437  34.35  0.001202114    2.490    0.598
       221  -8.1723    144.1288     25.8384   7.2672790575e+01   4.5733238434e+01    0.1967801    0.1703859 -87.72 0.0005370774    1.241    0.194
       222  -8.4149    128.4196     25.2235   7.5603585094e+01   4.9428433001e+01    0.3453254    0.2009745 -14.41  0.001392999    2.196    0.545
       223 -10.0851    162.1416    213.6898   1.1505531642e+02   5.4578820549e+00    0.2280627    0.2225541  83.69 0.0003830392    1.106    0.096
       224  -7.5437    155.0000     24.9815   7.0480434731e+01   4.3252419091e+01    0.2048925   0.07766193 -28.63 0.0008118601    3.008    0.668
       225  -9.5886    229.1070     22.7855   6.0282857516e+01   2.5984817234e+01    0.3056197     0.197841 -40.85  0.001095966    1.584    0.369
       226  -8.9210     10.0637    207.4295   1.4606683699e+02   2.9785922409e+01    0.3170538    0.1982801  16.63  0.001833163    2.842    0.648
       227  -8.4441    111.5290     20.6867   7.7874478262e+01   5.3630167230e+01    0.3349972    0.1800645 -16.74  0.001638195    2.252    0.556
       228  -7.8857     21.8039    203.7938   1.4354635270e+02   2.9387325516e+01    0.1814432    0.1075466 -42.66 0.0009449746    2.786    0.641
       229  -9.7078    192.0965    194.7268   1.0524255247e+02   3.4567811606e+00     1.016857    0.4827702 -62.64  0.002774215    5.991    0.833
       230  -7.8690    163.5104    198.9757   1.1214675295e+02   8.1278361516e+00    0.2015966    0.1448071 -49.50 0.0003549765    1.480    0.324
       231  -8.3525    175.9408    151.0686   9.9521067980e+01   1.5739515322e+01    0.2215874    0.2167263  -8.01 0.0002930554    1.055    0.053
       232  -8.9536     40.9666     20.6208   1.0006428168e+02   6.5875480968e+01    0.2067332    0.1427377 -20.58 0.0003193367    1.261    0.207
       233  -8.5625    201.8753     17.2059   6.1927543637e+01   3.2906696418e+01    0.2057887    0.1596682  27.31 0.0003689012    1.895    0.472
       234  -8.8502    132.6348     17.4724   7.2312438363e+01   4.9280965403e+01    0.2065923    0.1458502 -53.53 0.0007647761    1.748    0.428
       235  -8.7010    133.5460    146.2922   1.0845428362e+02   2.5888193063e+01    0.5746483    0.1538543 -54.29  0.001431222    4.747    0.789
       236  -8.0166    233.3232    147.3173   8.7280174272e+01   4.4829123268e+00     0.143838    0.1098342  -2.09 0.0007043523    1.668    0.400
       237  -8.0623    189.0797     15.6335   6.3063411633e+01   3.6107827938e+01    0.1882527    0.1427986  78.20 0.0005738077    1.122    0.109
       238 -10.3177    222.2731    145.4710   8.8861209403e+01   7.0324097603e+00     0.258589    0.2505472 -59.62 0.0003041129    1.079    0.073
       239  -9.4802     66.6643    144.1112   1.2560206236e+02   3.8069881772e+01    0.4794861    0.2833346  57.57  0.002197598    2.040    0.510
       240  -9.2527    135.1061    131.9364   1.0472960308e+02   2.8886024780e+01    0.4943315    0.4399395 -36.48  0.002451352    1.169    0.144
       241  -8.4669    112.1716    133.8468   1.1116282842e+02   3.3064241410e+01    0.3126566    0.2239294  80.15  0.001354125    1.915    0.478
       242  -8.3430    151.7995     30.2195   7.2548352739e+01   4.3414468952e+01     0.187473    0.1460202  36.97 0.0004308468    1.366    0.268
       243  -7.3960     87.0219    134.0000   1.1805489195e+02   3.7472188654e+01    0.2326862   0.08458036  36.77 0.0008034687    2.950    0.661
       244  -7.4674    141.5768     12.5066   6.9161155341e+01   4.7701296060e+01    0.1279832    0.1112338  63.68 0.0001055904    1.031    0.030
       245  -9.7426     98.7231    128.8882   1.1368737118e+02   3.6709480587e+01    0.6366709    0.3871356  73.86  0.002324251    3.001    0.667
       246 -10.4123     70.2551    126.4379   1.2118762235e+02   4.1826681183e+01    0.6068668    0.5828398 -21.72  0.001933038    1.145    0.127
       247  -9.5398    240.7845    127.1489   8.1621456291e+01   6.7418524624e+00    0.2860141    0.2196323  47.99 0.0002346633    1.452    0.311
       248  -8.3975    226.9118    127.1593   8.3940459084e+01   9.5706251189e+00    0.2931277    0.1764895 -53.66   0.00130464    1.733    0.423
       249  -7.4701    169.4476    128.4686   9.5653025663e+01   2.2063939919e+01    0.1562427    0.1524768 -68.98 0.0001287926    1.004    0.004
       250 -10.0930     58.3922    124.7985   1.2426443541e+02   4.3801114186e+01    0.6338475    0.3741688  83.07   0.00238374    2.979    0.664
       251  -9.9977    117.0015    125.4308   1.0788359854e+02   3.4094297171e+01    0.5944726    0.4059729 -83.70  0.001933023    2.220    0.550
       252 -10.0304    108.7170    114.7103   1.0749520532e+02   3.8158421339e+01    0.6649276    0.4396713 -87.78  0.001614319    2.713    0.631
       253 -11.3675    120.9167    110.4116   1.0304237815e+02   3.6697624343e+01     1.541947    0.6441801 -45.40  0.004979608    2.349    0.574
       254 -10.6765    123.1597     91.5698   9.7297521437e+01   4.0200684109e+01    0.7969735     0.656602  59.31  0.001187161    1.308    0.235
       255  -9.6551    109.4613    105.5954   1.0492533581e+02   4.0042681498e+01     0.551827    0.4464096  64.48  0.002757298    1.438    0.305
       256 -10.3281    108.6775     99.6904   1.0355708559e+02   4.1469214406e+01    0.9589571    0.5477373  67.08  0.003286843    3.445    0.710
       257 -10.3946    127.7265    102.6083   9.9145678844e+01   3.6951821482e+01    0.8541167    0.5462266 -40.50  0.002973589    1.575    0.365
       258  -9.4357     27.3087    122.8804   1.3281074359e+02   4.7560953588e+01    0.5002431    0.2686652  74.04  0.002168537    3.071    0.674
       259 -10.8642    133.5342    109.6898   9.9527247916e+01   3.4187871837e+01     0.913115    0.4198495 -46.97  0.003148646    2.170    0.539
       260  -9.7590    135.0724    122.1599   1.0233931509e+02   3.1109829072e+01    0.4535808    0.2952212 -49.46   0.00139045    1.524    0.344
       261 -10.2524    130.3771    118.8381   1.0271079537e+02   3.2854285951e+01    0.5682948    0.3914091  75.76  0.001109337    2.117    0.528
       262  -9.2630     41.3105    121.9932   1.2866215780e+02   4.6426549139e+01     0.437559    0.2136932 -74.88  0.001763204    2.403    0.584
